['COUNTER', 'AF3', 'F7', 'F3', 'FC5', 'T7', 'P7', 'O1', 'O2', 'P8', 'T8', 'FC6', 'F4', 'F8', 'AF4', 'GYROX', 'GYROY', 'TIMESTAMP', 'FUNC_ID', 'FUNC_VALUE', 'MARKER', 'SYNC_SIGNAL']
39.0 , 4129.74358974 , 4124.1025641 , 4127.69230769 , 4131.28205128 , 4128.20512821 , 4118.97435897 , 4114.87179487 , 4181.53846154 , 4131.28205128 , 4137.94871795 , 4186.15384615 , 4904.61538462 , 4134.87179487 , 4137.94871795 , 2037.0 , 2026.0 , 284.905 , 0.0 , 0.0 , 0.0 , 0.0 , 

40.0 , 4133.33333333 , 4125.64102564 , 4129.74358974 , 4128.20512821 , 4132.30769231 , 4121.53846154 , 4120.0 , 4189.74358974 , 4132.82051282 , 4134.35897436 , 4190.76923077 , 4906.15384615 , 4138.46153846 , 4138.97435897 , 2038.0 , 2028.0 , 284.916 , 0.0 , 0.0 , 0.0 , 0.0 , 

41.0 , 4132.30769231 , 4125.12820513 , 4135.38461538 , 4123.58974359 , 4130.25641026 , 4122.56410256 , 4123.58974359 , 4188.71794872 , 4134.35897436 , 4137.43589744 , 4188.71794872 , 4914.87179487 , 4132.30769231 , 4141.02564103 , 2037.0 , 2030.0 , 284.92 , 0.0 , 0.0 , 0.0 , 0.0 , 

42.0 , 4130.76923077 , 4127.69230769 , 4133.84615385 , 4129.74358974 , 4129.23076923 , 4123.58974359 , 4125.64102564 , 4191.28205128 , 4136.41025641 , 4140.51282051 , 4186.66666667 , 4911.28205128 , 4126.66666667 , 4137.94871795 , 2038.0 , 2032.0 , 284.928 , 0.0 , 0.0 , 0.0 , 0.0 , 

43.0 , 4128.71794872 , 4126.15384615 , 4136.41025641 , 4129.74358974 , 4131.28205128 , 4125.64102564 , 4124.1025641 , 4196.41025641 , 4142.05128205 , 4136.41025641 , 4187.17948718 , 4908.71794872 , 4125.64102564 , 4134.35897436 , 2038.0 , 2033.0 , 284.936 , 0.0 , 0.0 , 0.0 , 0.0 , 

44.0 , 4133.33333333 , 4129.23076923 , 4140.0 , 4126.66666667 , 4134.87179487 , 4130.76923077 , 4123.07692308 , 4195.38461538 , 4138.46153846 , 4138.46153846 , 4187.17948718 , 4912.30769231 , 4125.64102564 , 4139.48717949 , 2037.0 , 2035.0 , 284.948 , 0.0 , 0.0 , 0.0 , 0.0 , 

45.0 , 4132.82051282 , 4130.76923077 , 4131.79487179 , 4129.74358974 , 4133.33333333 , 4131.28205128 , 4125.64102564 , 4201.53846154 , 4143.58974359 , 4142.05128205 , 4189.23076923 , 4908.71794872 , 4131.79487179 , 4142.05128205 , 2038.0 , 2037.0 , 284.951 , 0.0 , 0.0 , 0.0 , 0.0 , 

46.0 , 4133.84615385 , 4128.71794872 , 4131.79487179 , 4127.69230769 , 4131.79487179 , 4126.15384615 , 4126.66666667 , 4189.74358974 , 4135.38461538 , 4140.0 , 4188.71794872 , 4909.23076923 , 4127.69230769 , 4141.53846154 , 2038.0 , 2038.0 , 284.961 , 0.0 , 0.0 , 0.0 , 0.0 , 

47.0 , 4131.28205128 , 4132.82051282 , 4129.23076923 , 4134.35897436 , 4130.25641026 , 4131.28205128 , 4133.84615385 , 4192.82051282 , 4141.53846154 , 4142.05128205 , 4192.82051282 , 4911.28205128 , 4140.0 , 4139.48717949 , 2039.0 , 2038.0 , 284.967 , 0.0 , 0.0 , 0.0 , 0.0 , 

48.0 , 4136.41025641 , 4128.20512821 , 4134.87179487 , 4127.17948718 , 4131.28205128 , 4128.20512821 , 4124.61538462 , 4175.8974359 , 4127.17948718 , 4141.53846154 , 4188.71794872 , 4914.35897436 , 4129.74358974 , 4142.05128205 , 2038.0 , 2037.0 , 284.979 , 0.0 , 0.0 , 0.0 , 0.0 , 

49.0 , 4132.30769231 , 4131.28205128 , 4129.23076923 , 4129.74358974 , 4131.79487179 , 4135.8974359 , 4133.33333333 , 4182.56410256 , 4132.82051282 , 4139.48717949 , 4189.23076923 , 4910.25641026 , 4135.38461538 , 4136.41025641 , 2036.0 , 2036.0 , 284.982 , 0.0 , 0.0 , 0.0 , 0.0 , 

50.0 , 4132.30769231 , 4127.17948718 , 4136.41025641 , 4124.1025641 , 4131.28205128 , 4131.28205128 , 4120.51282051 , 4171.28205128 , 4123.07692308 , 4135.8974359 , 4181.53846154 , 4915.38461538 , 4127.17948718 , 4135.8974359 , 2038.0 , 2035.0 , 284.992 , 0.0 , 0.0 , 0.0 , 0.0 , 

51.0 , 4130.25641026 , 4131.79487179 , 4130.25641026 , 4133.84615385 , 4129.23076923 , 4131.28205128 , 4122.05128205 , 4189.74358974 , 4136.41025641 , 4138.97435897 , 4189.74358974 , 4907.17948718 , 4140.0 , 4135.8974359 , 2039.0 , 2032.0 , 284.999 , 0.0 , 0.0 , 0.0 , 0.0 , 

52.0 , 4131.79487179 , 4121.53846154 , 4132.82051282 , 4125.12820513 , 4128.20512821 , 4120.0 , 4115.8974359 , 4181.02564103 , 4128.71794872 , 4135.8974359 , 4188.71794872 , 4908.71794872 , 4129.74358974 , 4138.97435897 , 2038.0 , 2032.0 , 285.012 , 0.0 , 0.0 , 0.0 , 0.0 , 

53.0 , 4126.66666667 , 4126.66666667 , 4125.64102564 , 4132.82051282 , 4127.17948718 , 4129.23076923 , 4132.30769231 , 4195.8974359 , 4140.51282051 , 4137.94871795 , 4189.74358974 , 4909.74358974 , 4141.53846154 , 4136.41025641 , 2038.0 , 2033.0 , 285.015 , 0.0 , 0.0 , 0.0 , 0.0 , 

54.0 , 4128.20512821 , 4123.58974359 , 4132.30769231 , 4128.20512821 , 4126.15384615 , 4125.64102564 , 4118.97435897 , 4188.20512821 , 4136.92307692 , 4137.43589744 , 4186.15384615 , 4911.28205128 , 4131.28205128 , 4136.41025641 , 2041.0 , 2033.0 , 285.024 , 0.0 , 0.0 , 0.0 , 0.0 , 

55.0 , 4130.25641026 , 4128.71794872 , 4128.20512821 , 4135.38461538 , 4128.20512821 , 4130.25641026 , 4123.07692308 , 4199.48717949 , 4149.74358974 , 4140.0 , 4196.41025641 , 4903.07692308 , 4140.0 , 4135.8974359 , 2042.0 , 2033.0 , 285.031 , 0.0 , 0.0 , 0.0 , 0.0 , 

56.0 , 4129.23076923 , 4124.61538462 , 4132.82051282 , 4129.23076923 , 4130.76923077 , 4128.20512821 , 4120.51282051 , 4188.20512821 , 4142.56410256 , 4136.92307692 , 4189.23076923 , 4911.79487179 , 4131.28205128 , 4138.46153846 , 2041.0 , 2034.0 , 285.043 , 0.0 , 0.0 , 0.0 , 0.0 , 

57.0 , 4127.69230769 , 4135.38461538 , 4130.25641026 , 4132.82051282 , 4130.76923077 , 4133.84615385 , 4130.25641026 , 4195.38461538 , 4141.53846154 , 4139.48717949 , 4188.20512821 , 4909.23076923 , 4129.74358974 , 4137.94871795 , 2041.0 , 2033.0 , 285.045 , 0.0 , 0.0 , 0.0 , 0.0 , 

58.0 , 4129.74358974 , 4129.23076923 , 4136.41025641 , 4123.07692308 , 4128.71794872 , 4130.25641026 , 4123.07692308 , 4188.20512821 , 4131.28205128 , 4141.02564103 , 4189.23076923 , 4907.69230769 , 4124.61538462 , 4138.46153846 , 2042.0 , 2036.0 , 285.055 , 0.0 , 0.0 , 0.0 , 0.0 , 

59.0 , 4134.87179487 , 4128.71794872 , 4134.87179487 , 4125.12820513 , 4133.84615385 , 4131.79487179 , 4127.17948718 , 4181.53846154 , 4130.25641026 , 4140.51282051 , 4190.76923077 , 4908.71794872 , 4135.38461538 , 4137.43589744 , 2042.0 , 2038.0 , 285.063 , 0.0 , 0.0 , 0.0 , 0.0 , 

60.0 , 4133.33333333 , 4130.25641026 , 4133.33333333 , 4131.28205128 , 4134.87179487 , 4125.12820513 , 4123.07692308 , 4176.41025641 , 4129.74358974 , 4135.38461538 , 4184.61538462 , 4915.8974359 , 4135.8974359 , 4138.46153846 , 2041.0 , 2038.0 , 285.075 , 0.0 , 0.0 , 0.0 , 0.0 , 

61.0 , 4133.33333333 , 4132.30769231 , 4129.23076923 , 4134.87179487 , 4131.79487179 , 4125.12820513 , 4122.56410256 , 4178.46153846 , 4125.64102564 , 4133.84615385 , 4187.17948718 , 4912.82051282 , 4128.71794872 , 4138.97435897 , 2042.0 , 2037.0 , 285.077 , 0.0 , 0.0 , 0.0 , 0.0 , 

62.0 , 4130.76923077 , 4126.15384615 , 4128.71794872 , 4131.79487179 , 4129.74358974 , 4130.25641026 , 4123.58974359 , 4178.46153846 , 4131.28205128 , 4137.43589744 , 4194.35897436 , 4909.23076923 , 4135.38461538 , 4138.46153846 , 2042.0 , 2037.0 , 285.088 , 0.0 , 0.0 , 0.0 , 0.0 , 

63.0 , 4134.35897436 , 4129.23076923 , 4131.28205128 , 4130.76923077 , 4133.33333333 , 4129.23076923 , 4123.07692308 , 4171.28205128 , 4128.20512821 , 4140.51282051 , 4192.30769231 , 4911.79487179 , 4140.0 , 4139.48717949 , 2041.0 , 2037.0 , 285.094 , 0.0 , 0.0 , 0.0 , 0.0 , 

64.0 , 4129.23076923 , 4135.8974359 , 4126.15384615 , 4134.87179487 , 4131.28205128 , 4128.71794872 , 4124.1025641 , 4182.56410256 , 4136.92307692 , 4141.53846154 , 4189.23076923 , 4909.23076923 , 4143.58974359 , 4140.51282051 , 2041.0 , 2039.0 , 285.107 , 0.0 , 0.0 , 0.0 , 0.0 , 

65.0 , 4129.23076923 , 4131.79487179 , 4132.30769231 , 4132.30769231 , 4129.23076923 , 4125.64102564 , 4117.94871795 , 4178.97435897 , 4133.84615385 , 4138.97435897 , 4186.15384615 , 4909.23076923 , 4132.30769231 , 4142.05128205 , 2044.0 , 2038.0 , 285.109 , 0.0 , 0.0 , 0.0 , 0.0 , 

66.0 , 4127.69230769 , 4132.30769231 , 4131.79487179 , 4140.0 , 4128.71794872 , 4130.76923077 , 4123.58974359 , 4197.43589744 , 4144.1025641 , 4140.0 , 4190.76923077 , 4907.69230769 , 4142.05128205 , 4137.94871795 , 2043.0 , 2037.0 , 285.12 , 0.0 , 0.0 , 0.0 , 0.0 , 

67.0 , 4130.25641026 , 4126.15384615 , 4134.87179487 , 4130.25641026 , 4128.71794872 , 4124.61538462 , 4117.43589744 , 4190.76923077 , 4133.84615385 , 4138.46153846 , 4185.64102564 , 4910.25641026 , 4129.23076923 , 4138.97435897 , 2042.0 , 2037.0 , 285.126 , 0.0 , 0.0 , 0.0 , 0.0 , 

68.0 , 4128.71794872 , 4129.74358974 , 4130.25641026 , 4125.64102564 , 4128.71794872 , 4128.71794872 , 4127.69230769 , 4201.53846154 , 4144.1025641 , 4139.48717949 , 4188.20512821 , 4907.17948718 , 4131.79487179 , 4138.46153846 , 2043.0 , 2036.0 , 285.137 , 0.0 , 0.0 , 0.0 , 0.0 , 

69.0 , 4133.33333333 , 4125.64102564 , 4138.97435897 , 4116.92307692 , 4130.25641026 , 4121.53846154 , 4117.94871795 , 4189.74358974 , 4133.84615385 , 4136.41025641 , 4185.12820513 , 4913.33333333 , 4122.05128205 , 4142.05128205 , 2043.0 , 2036.0 , 285.14 , 0.0 , 0.0 , 0.0 , 0.0 , 

70.0 , 4128.20512821 , 4132.82051282 , 4130.76923077 , 4130.76923077 , 4131.79487179 , 4128.20512821 , 4127.69230769 , 4203.07692308 , 4145.64102564 , 4139.48717949 , 4192.30769231 , 4909.23076923 , 4132.82051282 , 4138.97435897 , 2045.0 , 2034.0 , 285.15 , 0.0 , 0.0 , 0.0 , 0.0 , 

71.0 , 4130.25641026 , 4127.69230769 , 4134.87179487 , 4124.1025641 , 4132.30769231 , 4125.12820513 , 4123.07692308 , 4184.61538462 , 4135.8974359 , 4136.41025641 , 4186.66666667 , 4912.30769231 , 4120.51282051 , 4142.05128205 , 2045.0 , 2035.0 , 285.157 , 0.0 , 0.0 , 0.0 , 0.0 , 

72.0 , 4134.35897436 , 4137.43589744 , 4132.30769231 , 4133.33333333 , 4132.82051282 , 4133.33333333 , 4133.84615385 , 4192.82051282 , 4141.53846154 , 4139.48717949 , 4189.23076923 , 4908.71794872 , 4131.28205128 , 4142.05128205 , 2046.0 , 2036.0 , 285.171 , 0.0 , 0.0 , 0.0 , 0.0 , 

73.0 , 4136.92307692 , 4131.79487179 , 4136.92307692 , 4130.25641026 , 4131.79487179 , 4129.23076923 , 4124.1025641 , 4181.02564103 , 4129.23076923 , 4141.02564103 , 4182.56410256 , 4912.82051282 , 4124.61538462 , 4140.51282051 , 2045.0 , 2036.0 , 285.174 , 0.0 , 0.0 , 0.0 , 0.0 , 

74.0 , 4133.33333333 , 4134.35897436 , 4128.20512821 , 4134.87179487 , 4131.79487179 , 4134.87179487 , 4132.82051282 , 4184.61538462 , 4134.35897436 , 4141.53846154 , 4186.66666667 , 4908.20512821 , 4136.41025641 , 4137.94871795 , 2044.0 , 2037.0 , 285.183 , 0.0 , 0.0 , 0.0 , 0.0 , 

75.0 , 4132.82051282 , 4133.33333333 , 4131.28205128 , 4129.74358974 , 4130.76923077 , 4131.28205128 , 4124.61538462 , 4170.76923077 , 4129.74358974 , 4138.97435897 , 4186.66666667 , 4912.82051282 , 4136.41025641 , 4138.46153846 , 2046.0 , 2037.0 , 285.189 , 0.0 , 0.0 , 0.0 , 0.0 , 

76.0 , 4134.87179487 , 4142.56410256 , 4130.76923077 , 4136.92307692 , 4131.79487179 , 4134.35897436 , 4126.15384615 , 4177.43589744 , 4133.84615385 , 4140.51282051 , 4190.25641026 , 4910.25641026 , 4140.0 , 4137.43589744 , 2045.0 , 2036.0 , 285.201 , 0.0 , 0.0 , 0.0 , 0.0 , 

77.0 , 4134.35897436 , 4133.84615385 , 4135.8974359 , 4130.25641026 , 4130.25641026 , 4125.64102564 , 4118.46153846 , 4177.43589744 , 4124.61538462 , 4135.38461538 , 4183.58974359 , 4911.79487179 , 4131.79487179 , 4138.97435897 , 2046.0 , 2036.0 , 285.204 , 0.0 , 0.0 , 0.0 , 0.0 , 

78.0 , 4131.79487179 , 4129.23076923 , 4130.76923077 , 4129.74358974 , 4130.25641026 , 4124.61538462 , 4120.0 , 4182.56410256 , 4126.15384615 , 4136.41025641 , 4184.1025641 , 4909.74358974 , 4135.8974359 , 4140.0 , 2047.0 , 2035.0 , 285.213 , 0.0 , 0.0 , 0.0 , 0.0 , 

79.0 , 4126.15384615 , 4123.07692308 , 4128.71794872 , 4129.74358974 , 4129.74358974 , 4120.51282051 , 4115.38461538 , 4185.64102564 , 4140.0 , 4142.05128205 , 4188.71794872 , 4910.25641026 , 4137.43589744 , 4139.48717949 , 2045.0 , 2033.0 , 285.22 , 0.0 , 0.0 , 0.0 , 0.0 , 

80.0 , 4129.74358974 , 4125.12820513 , 4131.28205128 , 4131.28205128 , 4130.76923077 , 4118.97435897 , 4117.43589744 , 4189.23076923 , 4138.97435897 , 4140.0 , 4190.76923077 , 4910.25641026 , 4132.30769231 , 4141.53846154 , 2046.0 , 2033.0 , 285.231 , 0.0 , 0.0 , 0.0 , 0.0 , 

81.0 , 4129.74358974 , 4126.66666667 , 4130.76923077 , 4132.82051282 , 4128.71794872 , 4124.61538462 , 4125.64102564 , 4197.43589744 , 4140.0 , 4136.41025641 , 4190.76923077 , 4907.69230769 , 4135.38461538 , 4141.02564103 , 2045.0 , 2033.0 , 285.234 , 0.0 , 0.0 , 0.0 , 0.0 , 

82.0 , 4131.79487179 , 4125.12820513 , 4134.35897436 , 4129.74358974 , 4129.74358974 , 4125.64102564 , 4124.61538462 , 4188.20512821 , 4139.48717949 , 4141.53846154 , 4191.28205128 , 4906.15384615 , 4130.25641026 , 4139.48717949 , 2046.0 , 2032.0 , 285.244 , 0.0 , 0.0 , 0.0 , 0.0 , 

83.0 , 4128.20512821 , 4127.17948718 , 4131.79487179 , 4132.30769231 , 4131.28205128 , 4128.71794872 , 4129.74358974 , 4193.84615385 , 4148.20512821 , 4145.64102564 , 4192.82051282 , 4906.66666667 , 4135.8974359 , 4136.92307692 , 2044.0 , 2030.0 , 285.251 , 0.0 , 0.0 , 0.0 , 0.0 , 

84.0 , 4131.79487179 , 4126.15384615 , 4136.41025641 , 4127.69230769 , 4131.79487179 , 4128.71794872 , 4129.74358974 , 4187.69230769 , 4132.82051282 , 4139.48717949 , 4187.17948718 , 4910.25641026 , 4125.64102564 , 4137.43589744 , 2044.0 , 2031.0 , 285.263 , 0.0 , 0.0 , 0.0 , 0.0 , 

85.0 , 4133.84615385 , 4132.82051282 , 4130.76923077 , 4134.87179487 , 4128.71794872 , 4135.38461538 , 4135.38461538 , 4197.94871795 , 4142.56410256 , 4140.51282051 , 4189.23076923 , 4907.17948718 , 4130.76923077 , 4137.94871795 , 2044.0 , 2031.0 , 285.266 , 0.0 , 0.0 , 0.0 , 0.0 , 

86.0 , 4138.97435897 , 4129.23076923 , 4137.43589744 , 4129.23076923 , 4129.74358974 , 4128.71794872 , 4123.07692308 , 4177.43589744 , 4132.30769231 , 4140.0 , 4182.56410256 , 4912.82051282 , 4118.97435897 , 4143.58974359 , 2045.0 , 2033.0 , 285.275 , 0.0 , 0.0 , 0.0 , 0.0 , 

87.0 , 4132.82051282 , 4130.76923077 , 4129.74358974 , 4136.92307692 , 4132.82051282 , 4132.82051282 , 4132.82051282 , 4182.05128205 , 4135.38461538 , 4139.48717949 , 4185.64102564 , 4911.28205128 , 4134.35897436 , 4138.46153846 , 2044.0 , 2034.0 , 285.282 , 0.0 , 0.0 , 0.0 , 0.0 , 

88.0 , 4132.30769231 , 4124.61538462 , 4132.30769231 , 4130.76923077 , 4131.28205128 , 4123.58974359 , 4121.53846154 , 4171.28205128 , 4121.02564103 , 4135.38461538 , 4182.56410256 , 4913.84615385 , 4127.69230769 , 4138.46153846 , 2043.0 , 2034.0 , 285.294 , 0.0 , 0.0 , 0.0 , 0.0 , 

89.0 , 4131.28205128 , 4133.33333333 , 4127.17948718 , 4138.46153846 , 4129.74358974 , 4128.20512821 , 4124.61538462 , 4185.64102564 , 4131.79487179 , 4137.43589744 , 4189.23076923 , 4907.17948718 , 4136.41025641 , 4141.53846154 , 2043.0 , 2032.0 , 285.297 , 0.0 , 0.0 , 0.0 , 0.0 , 

90.0 , 4134.87179487 , 4127.69230769 , 4132.30769231 , 4129.23076923 , 4128.71794872 , 4124.61538462 , 4114.87179487 , 4170.76923077 , 4120.51282051 , 4134.87179487 , 4186.66666667 , 4913.84615385 , 4129.74358974 , 4144.1025641 , 2043.0 , 2032.0 , 285.307 , 0.0 , 0.0 , 0.0 , 0.0 , 

91.0 , 4132.82051282 , 4134.35897436 , 4123.07692308 , 4138.46153846 , 4129.23076923 , 4130.25641026 , 4126.15384615 , 4183.58974359 , 4131.28205128 , 4137.94871795 , 4193.33333333 , 4909.74358974 , 4144.1025641 , 4138.46153846 , 2043.0 , 2031.0 , 285.314 , 0.0 , 0.0 , 0.0 , 0.0 , 

92.0 , 4131.79487179 , 4129.23076923 , 4128.20512821 , 4135.8974359 , 4130.25641026 , 4122.56410256 , 4117.43589744 , 4180.51282051 , 4132.30769231 , 4137.94871795 , 4190.25641026 , 4908.20512821 , 4132.82051282 , 4138.97435897 , 2043.0 , 2032.0 , 285.327 , 0.0 , 0.0 , 0.0 , 0.0 , 

93.0 , 4130.76923077 , 4129.74358974 , 4126.66666667 , 4136.92307692 , 4132.82051282 , 4128.71794872 , 4125.64102564 , 4194.87179487 , 4142.56410256 , 4140.51282051 , 4193.33333333 , 4904.61538462 , 4136.92307692 , 4136.92307692 , 2042.0 , 2031.0 , 285.329 , 0.0 , 0.0 , 0.0 , 0.0 , 

94.0 , 4130.76923077 , 4122.56410256 , 4132.30769231 , 4125.12820513 , 4129.74358974 , 4124.1025641 , 4119.48717949 , 4189.74358974 , 4137.94871795 , 4140.0 , 4187.69230769 , 4910.76923077 , 4130.76923077 , 4138.97435897 , 2042.0 , 2032.0 , 285.339 , 0.0 , 0.0 , 0.0 , 0.0 , 

95.0 , 4133.33333333 , 4130.76923077 , 4131.79487179 , 4129.74358974 , 4130.25641026 , 4126.66666667 , 4126.15384615 , 4192.30769231 , 4140.0 , 4140.51282051 , 4190.25641026 , 4908.71794872 , 4128.20512821 , 4141.02564103 , 2041.0 , 2032.0 , 285.345 , 0.0 , 0.0 , 0.0 , 0.0 , 

96.0 , 4131.28205128 , 4125.12820513 , 4136.92307692 , 4125.64102564 , 4130.76923077 , 4126.15384615 , 4122.05128205 , 4191.28205128 , 4138.97435897 , 4136.92307692 , 4190.25641026 , 4910.76923077 , 4121.53846154 , 4140.51282051 , 2040.0 , 2032.0 , 285.357 , 0.0 , 0.0 , 0.0 , 0.0 , 

97.0 , 4130.25641026 , 4126.66666667 , 4136.41025641 , 4125.64102564 , 4131.28205128 , 4129.23076923 , 4124.1025641 , 4193.33333333 , 4139.48717949 , 4137.43589744 , 4189.23076923 , 4911.28205128 , 4124.1025641 , 4139.48717949 , 2040.0 , 2030.0 , 285.36 , 0.0 , 0.0 , 0.0 , 0.0 , 

98.0 , 4131.79487179 , 4131.28205128 , 4134.87179487 , 4127.69230769 , 4131.79487179 , 4132.30769231 , 4126.15384615 , 4187.69230769 , 4137.94871795 , 4139.48717949 , 4186.66666667 , 4912.30769231 , 4126.15384615 , 4141.02564103 , 2040.0 , 2030.0 , 285.37 , 0.0 , 0.0 , 0.0 , 0.0 , 

99.0 , 4136.41025641 , 4131.28205128 , 4135.38461538 , 4128.71794872 , 4135.38461538 , 4132.30769231 , 4129.74358974 , 4177.43589744 , 4130.25641026 , 4140.51282051 , 4187.17948718 , 4913.33333333 , 4126.15384615 , 4140.51282051 , 2040.0 , 2031.0 , 285.383 , 0.0 , 0.0 , 0.0 , 0.0 , 

100.0 , 4130.25641026 , 4128.20512821 , 4131.28205128 , 4134.35897436 , 4131.28205128 , 4130.25641026 , 4133.33333333 , 4184.1025641 , 4140.0 , 4141.53846154 , 4187.69230769 , 4911.79487179 , 4135.38461538 , 4137.43589744 , 2042.0 , 2033.0 , 285.391 , 0.0 , 0.0 , 0.0 , 0.0 , 

101.0 , 4131.79487179 , 4133.84615385 , 4133.84615385 , 4136.41025641 , 4129.74358974 , 4129.23076923 , 4126.66666667 , 4177.43589744 , 4136.41025641 , 4138.97435897 , 4184.61538462 , 4911.28205128 , 4130.76923077 , 4139.48717949 , 2042.0 , 2033.0 , 285.395 , 0.0 , 0.0 , 0.0 , 0.0 , 

102.0 , 4132.82051282 , 4137.94871795 , 4130.76923077 , 4136.41025641 , 4132.30769231 , 4137.43589744 , 4132.82051282 , 4181.53846154 , 4136.92307692 , 4138.46153846 , 4190.25641026 , 4908.71794872 , 4138.97435897 , 4137.43589744 , 2042.0 , 2033.0 , 285.405 , 0.0 , 0.0 , 0.0 , 0.0 , 

103.0 , 4136.41025641 , 4126.15384615 , 4132.82051282 , 4125.64102564 , 4131.79487179 , 4131.79487179 , 4127.69230769 , 4174.35897436 , 4123.58974359 , 4140.0 , 4187.69230769 , 4913.33333333 , 4128.71794872 , 4138.46153846 , 2042.0 , 2035.0 , 285.409 , 0.0 , 0.0 , 0.0 , 0.0 , 

104.0 , 4130.25641026 , 4130.25641026 , 4126.15384615 , 4135.38461538 , 4127.69230769 , 4131.28205128 , 4126.15384615 , 4191.79487179 , 4138.97435897 , 4140.0 , 4189.23076923 , 4909.74358974 , 4135.8974359 , 4137.43589744 , 2044.0 , 2034.0 , 285.422 , 0.0 , 0.0 , 0.0 , 0.0 , 

105.0 , 4129.74358974 , 4130.25641026 , 4133.84615385 , 4128.71794872 , 4128.71794872 , 4123.58974359 , 4109.74358974 , 4180.0 , 4130.25641026 , 4134.87179487 , 4185.64102564 , 4910.76923077 , 4128.20512821 , 4138.97435897 , 2044.0 , 2032.0 , 285.424 , 0.0 , 0.0 , 0.0 , 0.0 , 

106.0 , 4126.66666667 , 4128.71794872 , 4130.76923077 , 4129.23076923 , 4130.76923077 , 4128.71794872 , 4122.05128205 , 4197.94871795 , 4142.56410256 , 4138.46153846 , 4191.28205128 , 4906.66666667 , 4141.02564103 , 4137.43589744 , 2045.0 , 2031.0 , 285.434 , 0.0 , 0.0 , 0.0 , 0.0 , 

107.0 , 4130.76923077 , 4117.94871795 , 4137.94871795 , 4119.48717949 , 4129.74358974 , 4122.05128205 , 4118.97435897 , 4190.25641026 , 4138.46153846 , 4139.48717949 , 4188.20512821 , 4912.30769231 , 4125.64102564 , 4139.48717949 , 2044.0 , 2030.0 , 285.441 , 0.0 , 0.0 , 0.0 , 0.0 , 

108.0 , 4130.76923077 , 4128.71794872 , 4133.33333333 , 4129.74358974 , 4129.23076923 , 4130.76923077 , 4128.71794872 , 4197.94871795 , 4148.20512821 , 4140.51282051 , 4193.33333333 , 4909.74358974 , 4129.74358974 , 4136.41025641 , 2044.0 , 2031.0 , 285.453 , 0.0 , 0.0 , 0.0 , 0.0 , 

109.0 , 4132.30769231 , 4125.12820513 , 4139.48717949 , 4127.17948718 , 4129.23076923 , 4128.71794872 , 4121.53846154 , 4183.07692308 , 4132.82051282 , 4137.43589744 , 4186.15384615 , 4914.87179487 , 4122.56410256 , 4138.97435897 , 2045.0 , 2033.0 , 285.456 , 0.0 , 0.0 , 0.0 , 0.0 , 

110.0 , 4131.79487179 , 4129.23076923 , 4132.82051282 , 4136.41025641 , 4130.25641026 , 4136.92307692 , 4133.84615385 , 4199.48717949 , 4143.07692308 , 4140.51282051 , 4190.25641026 , 4908.71794872 , 4132.82051282 , 4140.0 , 2046.0 , 2033.0 , 285.465 , 0.0 , 0.0 , 0.0 , 0.0 , 

111.0 , 4131.79487179 , 4123.58974359 , 4134.87179487 , 4125.12820513 , 4129.23076923 , 4130.25641026 , 4126.15384615 , 4190.76923077 , 4139.48717949 , 4139.48717949 , 4189.23076923 , 4907.17948718 , 4125.64102564 , 4140.0 , 2046.0 , 2033.0 , 285.472 , 0.0 , 0.0 , 0.0 , 0.0 , 

112.0 , 4132.82051282 , 4129.74358974 , 4130.25641026 , 4129.74358974 , 4130.76923077 , 4131.79487179 , 4131.28205128 , 4189.74358974 , 4142.05128205 , 4144.1025641 , 4191.28205128 , 4905.12820513 , 4133.33333333 , 4136.92307692 , 2046.0 , 2031.0 , 285.484 , 0.0 , 0.0 , 0.0 , 0.0 , 

113.0 , 4133.84615385 , 4127.69230769 , 4133.84615385 , 4130.25641026 , 4130.76923077 , 4126.66666667 , 4121.53846154 , 4178.97435897 , 4135.38461538 , 4143.58974359 , 4185.12820513 , 4912.82051282 , 4128.71794872 , 4139.48717949 , 2046.0 , 2030.0 , 285.487 , 0.0 , 0.0 , 0.0 , 0.0 , 

114.0 , 4133.33333333 , 4133.84615385 , 4132.30769231 , 4133.33333333 , 4131.79487179 , 4130.25641026 , 4121.02564103 , 4178.46153846 , 4131.28205128 , 4138.46153846 , 4188.71794872 , 4911.79487179 , 4132.82051282 , 4138.97435897 , 2046.0 , 2031.0 , 285.496 , 0.0 , 0.0 , 0.0 , 0.0 , 

115.0 , 4131.79487179 , 4132.82051282 , 4130.25641026 , 4133.33333333 , 4130.25641026 , 4129.74358974 , 4118.97435897 , 4175.38461538 , 4122.56410256 , 4133.33333333 , 4188.20512821 , 4913.84615385 , 4135.38461538 , 4138.46153846 , 2045.0 , 2032.0 , 285.505 , 0.0 , 0.0 , 0.0 , 0.0 , 

116.0 , 4132.82051282 , 4134.35897436 , 4128.71794872 , 4140.51282051 , 4130.76923077 , 4126.66666667 , 4122.05128205 , 4177.43589744 , 4120.0 , 4135.38461538 , 4187.69230769 , 4911.79487179 , 4133.84615385 , 4137.94871795 , 2045.0 , 2034.0 , 285.517 , 0.0 , 0.0 , 0.0 , 0.0 , 

117.0 , 4127.69230769 , 4128.71794872 , 4129.23076923 , 4137.43589744 , 4129.74358974 , 4122.56410256 , 4118.97435897 , 4181.53846154 , 4133.33333333 , 4137.43589744 , 4190.25641026 , 4907.69230769 , 4134.35897436 , 4137.43589744 , 2045.0 , 2035.0 , 285.52 , 0.0 , 0.0 , 0.0 , 0.0 , 

118.0 , 4131.28205128 , 4125.64102564 , 4130.25641026 , 4129.74358974 , 4132.30769231 , 4123.58974359 , 4116.92307692 , 4179.48717949 , 4135.8974359 , 4137.94871795 , 4190.25641026 , 4908.71794872 , 4136.41025641 , 4138.97435897 , 2045.0 , 2036.0 , 285.528 , 0.0 , 0.0 , 0.0 , 0.0 , 

119.0 , 4131.79487179 , 4131.28205128 , 4125.64102564 , 4133.84615385 , 4131.28205128 , 4127.69230769 , 4126.66666667 , 4190.76923077 , 4147.69230769 , 4140.0 , 4189.74358974 , 4911.28205128 , 4140.51282051 , 4136.92307692 , 2046.0 , 2037.0 , 285.534 , 0.0 , 0.0 , 0.0 , 0.0 , 

120.0 , 4133.33333333 , 4129.74358974 , 4130.76923077 , 4129.74358974 , 4130.76923077 , 4125.64102564 , 4124.61538462 , 4189.74358974 , 4144.61538462 , 4137.94871795 , 4187.69230769 , 4913.33333333 , 4123.07692308 , 4138.46153846 , 2046.0 , 2039.0 , 285.547 , 0.0 , 0.0 , 0.0 , 0.0 , 

121.0 , 4128.71794872 , 4126.66666667 , 4126.66666667 , 4132.30769231 , 4130.25641026 , 4132.82051282 , 4127.69230769 , 4206.66666667 , 4150.76923077 , 4138.97435897 , 4194.35897436 , 4904.61538462 , 4135.38461538 , 4138.97435897 , 2046.0 , 2039.0 , 285.55 , 0.0 , 0.0 , 0.0 , 0.0 , 

122.0 , 4132.30769231 , 4123.07692308 , 4131.79487179 , 4126.66666667 , 4130.25641026 , 4126.66666667 , 4121.02564103 , 4195.38461538 , 4135.8974359 , 4139.48717949 , 4187.69230769 , 4907.17948718 , 4133.84615385 , 4140.0 , 2043.0 , 2037.0 , 285.559 , 0.0 , 0.0 , 0.0 , 0.0 , 

123.0 , 4128.20512821 , 4130.76923077 , 4131.79487179 , 4132.30769231 , 4132.30769231 , 4128.20512821 , 4130.76923077 , 4204.1025641 , 4142.05128205 , 4140.51282051 , 4189.23076923 , 4909.74358974 , 4133.33333333 , 4135.8974359 , 2044.0 , 2036.0 , 285.567 , 0.0 , 0.0 , 0.0 , 0.0 , 

124.0 , 4133.33333333 , 4125.12820513 , 4142.05128205 , 4125.12820513 , 4134.87179487 , 4122.56410256 , 4121.53846154 , 4187.69230769 , 4126.66666667 , 4136.41025641 , 4186.66666667 , 4915.8974359 , 4114.35897436 , 4138.46153846 , 2042.0 , 2035.0 , 285.578 , 0.0 , 0.0 , 0.0 , 0.0 , 

125.0 , 4133.84615385 , 4129.23076923 , 4134.87179487 , 4133.33333333 , 4130.76923077 , 4129.23076923 , 4130.25641026 , 4192.82051282 , 4137.94871795 , 4140.0 , 4191.28205128 , 4911.79487179 , 4131.79487179 , 4139.48717949 , 2041.0 , 2035.0 , 285.581 , 0.0 , 0.0 , 0.0 , 0.0 , 

126.0 , 4133.33333333 , 4124.1025641 , 4139.48717949 , 4124.1025641 , 4129.23076923 , 4124.1025641 , 4120.51282051 , 4177.43589744 , 4132.30769231 , 4141.02564103 , 4184.1025641 , 4914.87179487 , 4124.61538462 , 4140.0 , 2041.0 , 2035.0 , 285.591 , 0.0 , 0.0 , 0.0 , 0.0 , 

127.0 , 4131.28205128 , 4130.76923077 , 4131.28205128 , 4132.30769231 , 4132.30769231 , 4135.8974359 , 4130.76923077 , 4185.64102564 , 4138.46153846 , 4141.02564103 , 4189.74358974 , 4906.15384615 , 4133.33333333 , 4136.92307692 , 2041.0 , 2035.0 , 285.597 , 0.0 , 0.0 , 0.0 , 0.0 , 

128.0 , 4134.87179487 , 4127.69230769 , 4131.28205128 , 4131.28205128 , 4130.76923077 , 4131.79487179 , 4126.15384615 , 4168.20512821 , 4123.58974359 , 4137.43589744 , 4188.20512821 , 4909.23076923 , 4131.28205128 , 4139.48717949 , 2040.0 , 2035.0 , 285.61 , 0.0 , 0.0 , 0.0 , 0.0 , 

0.0 , 4132.82051282 , 4137.94871795 , 4126.66666667 , 4140.0 , 4131.79487179 , 4133.84615385 , 4133.33333333 , 4178.46153846 , 4134.35897436 , 4140.0 , 4193.33333333 , 4907.17948718 , 4141.53846154 , 4140.51282051 , 2041.0 , 2033.0 , 285.612 , 0.0 , 0.0 , 0.0 , 0.0 , 

1.0 , 4130.76923077 , 4132.30769231 , 4134.87179487 , 4131.79487179 , 4131.79487179 , 4126.66666667 , 4120.0 , 4177.94871795 , 4133.84615385 , 4138.46153846 , 4189.23076923 , 4908.71794872 , 4128.71794872 , 4141.53846154 , 2043.0 , 2034.0 , 285.622 , 0.0 , 0.0 , 0.0 , 0.0 , 

2.0 , 4131.28205128 , 4132.82051282 , 4128.71794872 , 4136.92307692 , 4130.76923077 , 4127.17948718 , 4126.66666667 , 4193.33333333 , 4138.46153846 , 4139.48717949 , 4189.74358974 , 4906.66666667 , 4134.87179487 , 4138.97435897 , 2042.0 , 2033.0 , 285.629 , 0.0 , 0.0 , 0.0 , 0.0 , 

3.0 , 4128.20512821 , 4122.56410256 , 4128.20512821 , 4131.28205128 , 4129.23076923 , 4120.0 , 4121.53846154 , 4188.71794872 , 4134.87179487 , 4138.97435897 , 4187.17948718 , 4910.25641026 , 4132.30769231 , 4138.46153846 , 2043.0 , 2033.0 , 285.642 , 0.0 , 0.0 , 0.0 , 0.0 , 

4.0 , 4129.23076923 , 4124.61538462 , 4131.28205128 , 4127.17948718 , 4131.28205128 , 4126.15384615 , 4119.48717949 , 4189.74358974 , 4137.94871795 , 4138.46153846 , 4189.74358974 , 4905.12820513 , 4129.74358974 , 4139.48717949 , 2042.0 , 2034.0 , 285.644 , 0.0 , 0.0 , 0.0 , 0.0 , 

5.0 , 4129.74358974 , 4125.64102564 , 4136.92307692 , 4124.1025641 , 4130.25641026 , 4129.23076923 , 4118.97435897 , 4194.87179487 , 4141.53846154 , 4135.8974359 , 4188.71794872 , 4909.74358974 , 4128.20512821 , 4142.05128205 , 2042.0 , 2035.0 , 285.655 , 0.0 , 0.0 , 0.0 , 0.0 , 

6.0 , 4130.76923077 , 4127.17948718 , 4132.30769231 , 4130.25641026 , 4132.30769231 , 4126.66666667 , 4126.15384615 , 4195.8974359 , 4137.94871795 , 4139.48717949 , 4189.74358974 , 4914.35897436 , 4128.20512821 , 4140.0 , 2043.0 , 2035.0 , 285.661 , 0.0 , 0.0 , 0.0 , 0.0 , 

7.0 , 4130.25641026 , 4125.12820513 , 4127.17948718 , 4132.82051282 , 4132.30769231 , 4125.12820513 , 4130.25641026 , 4195.38461538 , 4142.56410256 , 4143.07692308 , 4191.28205128 , 4908.71794872 , 4132.82051282 , 4135.8974359 , 2043.0 , 2036.0 , 285.674 , 0.0 , 0.0 , 0.0 , 0.0 , 

8.0 , 4135.8974359 , 4127.17948718 , 4133.84615385 , 4128.20512821 , 4131.79487179 , 4127.17948718 , 4126.66666667 , 4187.69230769 , 4139.48717949 , 4140.51282051 , 4189.23076923 , 4907.17948718 , 4126.66666667 , 4137.94871795 , 2043.0 , 2036.0 , 285.676 , 0.0 , 0.0 , 0.0 , 0.0 , 

9.0 , 4132.82051282 , 4134.35897436 , 4131.79487179 , 4133.33333333 , 4129.23076923 , 4130.25641026 , 4130.25641026 , 4192.82051282 , 4144.61538462 , 4140.0 , 4191.28205128 , 4910.76923077 , 4135.38461538 , 4137.94871795 , 2043.0 , 2036.0 , 285.686 , 0.0 , 0.0 , 0.0 , 0.0 , 

10.0 , 4135.8974359 , 4131.28205128 , 4133.33333333 , 4131.79487179 , 4130.25641026 , 4126.15384615 , 4126.66666667 , 4175.38461538 , 4128.20512821 , 4140.0 , 4185.64102564 , 4914.35897436 , 4133.33333333 , 4138.46153846 , 2043.0 , 2039.0 , 285.693 , 0.0 , 0.0 , 0.0 , 0.0 , 

11.0 , 4133.84615385 , 4132.30769231 , 4128.71794872 , 4138.46153846 , 4129.23076923 , 4133.33333333 , 4135.8974359 , 4182.56410256 , 4132.82051282 , 4138.46153846 , 4186.15384615 , 4912.30769231 , 4143.58974359 , 4136.92307692 , 2044.0 , 2040.0 , 285.705 , 0.0 , 0.0 , 0.0 , 0.0 , 

12.0 , 4133.33333333 , 4129.74358974 , 4134.35897436 , 4133.33333333 , 4127.69230769 , 4127.69230769 , 4124.1025641 , 4167.17948718 , 4125.12820513 , 4132.82051282 , 4183.58974359 , 4918.97435897 , 4131.28205128 , 4140.0 , 2044.0 , 2039.0 , 285.708 , 0.0 , 0.0 , 0.0 , 0.0 , 

13.0 , 4128.71794872 , 4135.38461538 , 4128.71794872 , 4136.92307692 , 4129.74358974 , 4130.25641026 , 4126.66666667 , 4177.94871795 , 4135.8974359 , 4137.43589744 , 4191.28205128 , 4912.82051282 , 4139.48717949 , 4138.46153846 , 2044.0 , 2040.0 , 285.717 , 0.0 , 0.0 , 0.0 , 0.0 , 

14.0 , 4133.33333333 , 4125.64102564 , 4133.33333333 , 4126.15384615 , 4131.79487179 , 4122.05128205 , 4116.41025641 , 4172.30769231 , 4123.58974359 , 4138.97435897 , 4185.64102564 , 4909.23076923 , 4129.74358974 , 4141.53846154 , 2043.0 , 2040.0 , 285.725 , 0.0 , 0.0 , 0.0 , 0.0 , 

15.0 , 4134.87179487 , 4129.74358974 , 4125.12820513 , 4134.35897436 , 4129.23076923 , 4125.64102564 , 4125.64102564 , 4189.23076923 , 4137.94871795 , 4138.46153846 , 4189.74358974 , 4903.58974359 , 4139.48717949 , 4139.48717949 , 2044.0 , 2038.0 , 285.737 , 0.0 , 0.0 , 0.0 , 0.0 , 

16.0 , 4133.84615385 , 4127.69230769 , 4132.82051282 , 4127.17948718 , 4128.71794872 , 4118.97435897 , 4116.41025641 , 4179.48717949 , 4134.35897436 , 4133.33333333 , 4188.71794872 , 4910.76923077 , 4131.79487179 , 4138.97435897 , 2044.0 , 2039.0 , 285.74 , 0.0 , 0.0 , 0.0 , 0.0 , 

17.0 , 4126.66666667 , 4130.76923077 , 4127.17948718 , 4131.28205128 , 4131.79487179 , 4127.69230769 , 4128.20512821 , 4198.46153846 , 4144.61538462 , 4139.48717949 , 4195.38461538 , 4904.1025641 , 4144.61538462 , 4136.41025641 , 2043.0 , 2041.0 , 285.749 , 0.0 , 0.0 , 0.0 , 0.0 , 

18.0 , 4129.23076923 , 4118.46153846 , 4132.82051282 , 4125.12820513 , 4130.25641026 , 4122.05128205 , 4122.56410256 , 4192.82051282 , 4138.97435897 , 4142.05128205 , 4189.23076923 , 4906.66666667 , 4131.28205128 , 4138.46153846 , 2043.0 , 2041.0 , 285.756 , 0.0 , 0.0 , 0.0 , 0.0 , 

19.0 , 4133.33333333 , 4127.17948718 , 4130.25641026 , 4133.84615385 , 4132.30769231 , 4128.71794872 , 4130.25641026 , 4198.46153846 , 4147.17948718 , 4141.02564103 , 4192.30769231 , 4905.64102564 , 4134.35897436 , 4137.94871795 , 2042.0 , 2041.0 , 285.767 , 0.0 , 0.0 , 0.0 , 0.0 , 

20.0 , 4131.28205128 , 4128.71794872 , 4134.35897436 , 4127.69230769 , 4133.33333333 , 4131.28205128 , 4123.58974359 , 4189.74358974 , 4138.46153846 , 4135.38461538 , 4188.71794872 , 4911.28205128 , 4129.23076923 , 4138.97435897 , 2042.0 , 2041.0 , 285.771 , 0.0 , 0.0 , 0.0 , 0.0 , 

21.0 , 4129.23076923 , 4130.25641026 , 4131.28205128 , 4131.79487179 , 4133.84615385 , 4133.84615385 , 4126.66666667 , 4191.28205128 , 4136.92307692 , 4138.97435897 , 4188.71794872 , 4911.28205128 , 4132.82051282 , 4136.92307692 , 2041.0 , 2042.0 , 285.78 , 0.0 , 0.0 , 0.0 , 0.0 , 

22.0 , 4130.76923077 , 4123.58974359 , 4134.35897436 , 4128.20512821 , 4132.82051282 , 4125.64102564 , 4121.02564103 , 4181.02564103 , 4134.87179487 , 4141.02564103 , 4183.07692308 , 4913.33333333 , 4125.12820513 , 4135.8974359 , 2041.0 , 2042.0 , 285.788 , 0.0 , 0.0 , 0.0 , 0.0 , 

23.0 , 4133.33333333 , 4128.71794872 , 4132.82051282 , 4128.71794872 , 4132.30769231 , 4127.69230769 , 4125.64102564 , 4179.48717949 , 4133.33333333 , 4138.97435897 , 4183.58974359 , 4912.30769231 , 4128.71794872 , 4137.43589744 , 2041.0 , 2043.0 , 285.798 , 0.0 , 0.0 , 0.0 , 0.0 , 

24.0 , 4130.76923077 , 4131.28205128 , 4132.30769231 , 4131.79487179 , 4130.25641026 , 4127.17948718 , 4124.61538462 , 4180.0 , 4130.76923077 , 4137.43589744 , 4186.66666667 , 4914.35897436 , 4135.38461538 , 4138.97435897 , 2044.0 , 2042.0 , 285.808 , 0.0 , 0.0 , 0.0 , 0.0 , 

25.0 , 4133.33333333 , 4133.33333333 , 4133.84615385 , 4135.38461538 , 4134.35897436 , 4128.20512821 , 4123.58974359 , 4174.35897436 , 4125.64102564 , 4140.0 , 4189.74358974 , 4912.30769231 , 4132.30769231 , 4138.46153846 , 2042.0 , 2041.0 , 285.812 , 0.0 , 0.0 , 0.0 , 0.0 , 

26.0 , 4130.25641026 , 4131.28205128 , 4127.17948718 , 4133.84615385 , 4131.28205128 , 4130.76923077 , 4125.64102564 , 4175.8974359 , 4134.87179487 , 4137.94871795 , 4190.76923077 , 4905.64102564 , 4140.0 , 4139.48717949 , 2042.0 , 2041.0 , 285.818 , 0.0 , 0.0 , 0.0 , 0.0 , 

27.0 , 4130.76923077 , 4129.23076923 , 4125.64102564 , 4131.28205128 , 4128.71794872 , 4123.58974359 , 4120.51282051 , 4175.38461538 , 4130.76923077 , 4134.35897436 , 4186.66666667 , 4908.71794872 , 4142.56410256 , 4140.51282051 , 2043.0 , 2041.0 , 285.831 , 0.0 , 0.0 , 0.0 , 0.0 , 

28.0 , 4128.20512821 , 4134.35897436 , 4123.07692308 , 4141.02564103 , 4129.23076923 , 4122.56410256 , 4125.12820513 , 4191.28205128 , 4135.8974359 , 4137.94871795 , 4191.79487179 , 4909.23076923 , 4147.17948718 , 4136.41025641 , 2043.0 , 2040.0 , 285.833 , 0.0 , 0.0 , 0.0 , 0.0 , 

29.0 , 4132.82051282 , 4129.74358974 , 4129.74358974 , 4134.35897436 , 4130.76923077 , 4123.58974359 , 4119.48717949 , 4181.53846154 , 4129.74358974 , 4138.46153846 , 4190.76923077 , 4908.71794872 , 4129.23076923 , 4138.97435897 , 2043.0 , 2041.0 , 285.843 , 0.0 , 0.0 , 0.0 , 0.0 , 

30.0 , 4131.28205128 , 4125.12820513 , 4128.20512821 , 4135.8974359 , 4128.71794872 , 4128.20512821 , 4123.58974359 , 4197.94871795 , 4146.66666667 , 4137.94871795 , 4189.23076923 , 4906.15384615 , 4136.41025641 , 4138.46153846 , 2043.0 , 2041.0 , 285.85 , 0.0 , 0.0 , 0.0 , 0.0 , 

31.0 , 4132.30769231 , 4118.46153846 , 4136.92307692 , 4125.12820513 , 4127.69230769 , 4117.43589744 , 4113.84615385 , 4190.25641026 , 4135.8974359 , 4134.87179487 , 4184.1025641 , 4914.87179487 , 4125.64102564 , 4137.94871795 , 2043.0 , 2039.0 , 285.862 , 0.0 , 0.0 , 0.0 , 0.0 , 

32.0 , 4128.71794872 , 4128.71794872 , 4133.33333333 , 4127.17948718 , 4129.74358974 , 4126.15384615 , 4127.17948718 , 4200.51282051 , 4143.07692308 , 4138.46153846 , 4193.84615385 , 4909.23076923 , 4130.25641026 , 4134.87179487 , 2044.0 , 2038.0 , 285.864 , 0.0 , 0.0 , 0.0 , 0.0 , 

33.0 , 4132.30769231 , 4123.07692308 , 4141.02564103 , 4120.51282051 , 4133.84615385 , 4125.64102564 , 4124.1025641 , 4186.66666667 , 4135.38461538 , 4137.43589744 , 4188.20512821 , 4907.69230769 , 4117.94871795 , 4137.94871795 , 2044.0 , 2035.0 , 285.874 , 0.0 , 0.0 , 0.0 , 0.0 , 

34.0 , 4129.74358974 , 4129.74358974 , 4133.33333333 , 4134.35897436 , 4134.87179487 , 4132.82051282 , 4134.35897436 , 4198.46153846 , 4146.15384615 , 4142.05128205 , 4188.20512821 , 4903.07692308 , 4132.82051282 , 4137.43589744 , 2046.0 , 2035.0 , 285.882 , 0.0 , 0.0 , 0.0 , 0.0 , 

35.0 , 4130.76923077 , 4129.23076923 , 4134.87179487 , 4127.69230769 , 4131.79487179 , 4129.74358974 , 4122.05128205 , 4178.46153846 , 4131.28205128 , 4140.51282051 , 4185.12820513 , 4913.33333333 , 4125.64102564 , 4138.97435897 , 2046.0 , 2033.0 , 285.895 , 0.0 , 0.0 , 0.0 , 0.0 , 

36.0 , 4132.82051282 , 4137.94871795 , 4126.66666667 , 4136.92307692 , 4130.76923077 , 4136.92307692 , 4131.28205128 , 4182.05128205 , 4134.35897436 , 4140.0 , 4191.28205128 , 4913.33333333 , 4135.8974359 , 4136.92307692 , 2045.0 , 2032.0 , 285.898 , 0.0 , 0.0 , 0.0 , 0.0 , 

37.0 , 4134.87179487 , 4130.25641026 , 4131.79487179 , 4136.41025641 , 4129.74358974 , 4126.66666667 , 4127.17948718 , 4173.33333333 , 4128.20512821 , 4135.8974359 , 4187.69230769 , 4915.38461538 , 4131.28205128 , 4138.46153846 , 2044.0 , 2032.0 , 285.906 , 0.0 , 0.0 , 0.0 , 0.0 , 

38.0 , 4132.30769231 , 4136.92307692 , 4128.71794872 , 4139.48717949 , 4131.28205128 , 4130.76923077 , 4133.84615385 , 4181.02564103 , 4134.87179487 , 4135.38461538 , 4193.84615385 , 4908.20512821 , 4143.07692308 , 4137.94871795 , 2044.0 , 2030.0 , 285.914 , 0.0 , 0.0 , 0.0 , 0.0 , 

39.0 , 4132.30769231 , 4134.87179487 , 4132.30769231 , 4128.71794872 , 4131.79487179 , 4130.25641026 , 4124.1025641 , 4170.76923077 , 4126.66666667 , 4132.30769231 , 4188.71794872 , 4914.35897436 , 4141.53846154 , 4139.48717949 , 2043.0 , 2031.0 , 285.926 , 0.0 , 0.0 , 0.0 , 0.0 , 

40.0 , 4135.8974359 , 4134.87179487 , 4129.23076923 , 4133.33333333 , 4130.76923077 , 4130.25641026 , 4125.12820513 , 4177.94871795 , 4126.15384615 , 4137.43589744 , 4186.15384615 , 4913.33333333 , 4140.0 , 4138.46153846 , 2043.0 , 2030.0 , 285.929 , 0.0 , 0.0 , 0.0 , 0.0 , 

41.0 , 4133.33333333 , 4124.61538462 , 4130.25641026 , 4130.76923077 , 4125.64102564 , 4120.51282051 , 4115.8974359 , 4184.61538462 , 4129.74358974 , 4138.97435897 , 4188.20512821 , 4909.23076923 , 4132.30769231 , 4136.41025641 , 2043.0 , 2029.0 , 285.94 , 0.0 , 0.0 , 0.0 , 0.0 , 

42.0 , 4130.25641026 , 4122.56410256 , 4128.71794872 , 4130.76923077 , 4126.66666667 , 4121.53846154 , 4115.8974359 , 4190.25641026 , 4133.33333333 , 4135.8974359 , 4193.33333333 , 4906.66666667 , 4135.8974359 , 4135.8974359 , 2043.0 , 2029.0 , 285.945 , 0.0 , 0.0 , 0.0 , 0.0 , 

43.0 , 4128.20512821 , 4122.05128205 , 4129.23076923 , 4128.71794872 , 4129.23076923 , 4124.1025641 , 4120.0 , 4194.35897436 , 4142.05128205 , 4136.92307692 , 4192.82051282 , 4908.71794872 , 4138.97435897 , 4135.8974359 , 2043.0 , 2029.0 , 285.957 , 0.0 , 0.0 , 0.0 , 0.0 , 

44.0 , 4132.82051282 , 4123.58974359 , 4132.82051282 , 4126.15384615 , 4131.28205128 , 4123.58974359 , 4120.0 , 4191.28205128 , 4144.1025641 , 4142.05128205 , 4189.74358974 , 4907.17948718 , 4128.71794872 , 4136.41025641 , 2043.0 , 2030.0 , 285.96 , 0.0 , 0.0 , 0.0 , 0.0 , 

45.0 , 4129.74358974 , 4127.17948718 , 4128.71794872 , 4131.79487179 , 4129.74358974 , 4127.17948718 , 4123.07692308 , 4194.35897436 , 4147.69230769 , 4142.56410256 , 4191.28205128 , 4903.58974359 , 4135.8974359 , 4135.8974359 , 2043.0 , 2030.0 , 285.97 , 0.0 , 0.0 , 0.0 , 0.0 , 

46.0 , 4131.28205128 , 4126.66666667 , 4131.79487179 , 4132.82051282 , 4132.30769231 , 4125.64102564 , 4124.61538462 , 4184.61538462 , 4132.82051282 , 4137.94871795 , 4189.23076923 , 4908.71794872 , 4134.35897436 , 4137.43589744 , 2043.0 , 2031.0 , 285.977 , 0.0 , 0.0 , 0.0 , 0.0 , 

47.0 , 4131.28205128 , 4130.25641026 , 4132.82051282 , 4133.33333333 , 4131.28205128 , 4131.28205128 , 4132.30769231 , 4198.97435897 , 4143.58974359 , 4138.97435897 , 4191.28205128 , 4908.71794872 , 4136.41025641 , 4135.8974359 , 2043.0 , 2030.0 , 285.988 , 0.0 , 0.0 , 0.0 , 0.0 , 

48.0 , 4133.84615385 , 4127.17948718 , 4139.48717949 , 4123.58974359 , 4131.28205128 , 4127.69230769 , 4122.56410256 , 4186.15384615 , 4136.41025641 , 4138.97435897 , 4187.69230769 , 4908.20512821 , 4122.05128205 , 4138.97435897 , 2042.0 , 2031.0 , 285.991 , 0.0 , 0.0 , 0.0 , 0.0 , 

49.0 , 4129.74358974 , 4130.76923077 , 4129.74358974 , 4131.79487179 , 4132.82051282 , 4129.74358974 , 4130.76923077 , 4189.74358974 , 4138.46153846 , 4143.58974359 , 4190.25641026 , 4905.12820513 , 4131.79487179 , 4137.43589744 , 2043.0 , 2032.0 , 286.001 , 0.0 , 0.0 , 0.0 , 0.0 , 

50.0 , 4134.87179487 , 4124.61538462 , 4135.38461538 , 4125.64102564 , 4133.84615385 , 4126.66666667 , 4121.02564103 , 4172.82051282 , 4123.07692308 , 4141.53846154 , 4181.53846154 , 4914.87179487 , 4120.51282051 , 4138.97435897 , 2043.0 , 2029.0 , 286.008 , 0.0 , 0.0 , 0.0 , 0.0 , 

51.0 , 4133.84615385 , 4129.23076923 , 4132.30769231 , 4134.35897436 , 4131.79487179 , 4135.38461538 , 4127.17948718 , 4180.0 , 4134.35897436 , 4137.94871795 , 4187.17948718 , 4911.28205128 , 4135.8974359 , 4136.92307692 , 2043.0 , 2029.0 , 286.021 , 0.0 , 0.0 , 0.0 , 0.0 , 

52.0 , 4133.33333333 , 4123.58974359 , 4138.46153846 , 4130.25641026 , 4128.71794872 , 4122.05128205 , 4119.48717949 , 4165.64102564 , 4124.1025641 , 4134.87179487 , 4187.17948718 , 4911.79487179 , 4133.84615385 , 4138.46153846 , 2042.0 , 2028.0 , 286.024 , 0.0 , 0.0 , 0.0 , 0.0 , 

53.0 , 4129.74358974 , 4133.84615385 , 4127.69230769 , 4137.94871795 , 4129.23076923 , 4127.17948718 , 4128.71794872 , 4181.02564103 , 4134.35897436 , 4141.02564103 , 4193.84615385 , 4906.66666667 , 4144.1025641 , 4136.41025641 , 2042.0 , 2029.0 , 286.032 , 0.0 , 0.0 , 0.0 , 0.0 , 

54.0 , 4132.30769231 , 4129.74358974 , 4127.69230769 , 4128.71794872 , 4131.79487179 , 4127.17948718 , 4117.94871795 , 4174.35897436 , 4127.69230769 , 4137.94871795 , 4187.69230769 , 4910.76923077 , 4133.84615385 , 4139.48717949 , 2043.0 , 2030.0 , 286.04 , 0.0 , 0.0 , 0.0 , 0.0 , 

55.0 , 4130.76923077 , 4131.28205128 , 4122.56410256 , 4136.41025641 , 4133.33333333 , 4127.17948718 , 4127.69230769 , 4191.79487179 , 4140.0 , 4135.8974359 , 4191.79487179 , 4907.17948718 , 4143.07692308 , 4137.94871795 , 2044.0 , 2031.0 , 286.052 , 0.0 , 0.0 , 0.0 , 0.0 , 

56.0 , 4128.20512821 , 4122.56410256 , 4129.74358974 , 4130.25641026 , 4127.69230769 , 4116.41025641 , 4117.94871795 , 4190.76923077 , 4138.46153846 , 4135.8974359 , 4191.28205128 , 4910.25641026 , 4131.79487179 , 4137.94871795 , 2044.0 , 2032.0 , 286.055 , 0.0 , 0.0 , 0.0 , 0.0 , 

57.0 , 4130.25641026 , 4128.71794872 , 4127.17948718 , 4131.28205128 , 4126.66666667 , 4127.69230769 , 4124.1025641 , 4196.92307692 , 4142.05128205 , 4139.48717949 , 4195.38461538 , 4906.66666667 , 4130.76923077 , 4136.92307692 , 2045.0 , 2031.0 , 286.064 , 0.0 , 0.0 , 0.0 , 0.0 , 

58.0 , 4133.33333333 , 4125.12820513 , 4132.30769231 , 4123.58974359 , 4127.69230769 , 4126.15384615 , 4123.58974359 , 4188.71794872 , 4135.8974359 , 4137.94871795 , 4186.66666667 , 4912.30769231 , 4125.64102564 , 4137.94871795 , 2046.0 , 2031.0 , 286.071 , 0.0 , 0.0 , 0.0 , 0.0 , 

59.0 , 4132.82051282 , 4128.20512821 , 4134.35897436 , 4125.64102564 , 4129.74358974 , 4127.69230769 , 4128.20512821 , 4192.82051282 , 4138.97435897 , 4140.0 , 4185.12820513 , 4912.30769231 , 4127.17948718 , 4140.0 , 2044.0 , 2034.0 , 286.084 , 0.0 , 0.0 , 0.0 , 0.0 , 

60.0 , 4129.74358974 , 4127.17948718 , 4136.92307692 , 4123.58974359 , 4128.20512821 , 4131.79487179 , 4125.12820513 , 4191.79487179 , 4141.53846154 , 4141.02564103 , 4186.66666667 , 4910.76923077 , 4123.58974359 , 4142.05128205 , 2045.0 , 2032.0 , 286.087 , 0.0 , 0.0 , 0.0 , 0.0 , 

61.0 , 4133.33333333 , 4128.20512821 , 4135.38461538 , 4125.64102564 , 4131.28205128 , 4132.30769231 , 4129.74358974 , 4184.1025641 , 4137.94871795 , 4142.05128205 , 4188.71794872 , 4910.76923077 , 4124.1025641 , 4140.51282051 , 2043.0 , 2035.0 , 286.096 , 0.0 , 0.0 , 0.0 , 0.0 , 

62.0 , 4130.25641026 , 4130.76923077 , 4132.82051282 , 4132.30769231 , 4133.33333333 , 4130.25641026 , 4129.74358974 , 4181.02564103 , 4138.97435897 , 4142.56410256 , 4188.20512821 , 4913.33333333 , 4132.30769231 , 4135.8974359 , 2043.0 , 2037.0 , 286.103 , 0.0 , 0.0 , 0.0 , 0.0 , 

63.0 , 4131.28205128 , 4134.35897436 , 4133.33333333 , 4135.38461538 , 4134.35897436 , 4131.28205128 , 4127.17948718 , 4173.84615385 , 4130.25641026 , 4140.0 , 4185.64102564 , 4914.35897436 , 4130.76923077 , 4139.48717949 , 2042.0 , 2038.0 , 286.113 , 0.0 , 0.0 , 0.0 , 0.0 , 

64.0 , 4129.74358974 , 4134.87179487 , 4128.71794872 , 4137.43589744 , 4130.76923077 , 4135.8974359 , 4136.92307692 , 4180.51282051 , 4138.97435897 , 4139.48717949 , 4188.71794872 , 4911.28205128 , 4139.48717949 , 4140.0 , 2039.0 , 2039.0 , 286.118 , 0.0 , 0.0 , 0.0 , 0.0 , 

65.0 , 4134.87179487 , 4133.33333333 , 4131.79487179 , 4131.28205128 , 4132.30769231 , 4130.76923077 , 4129.23076923 , 4171.79487179 , 4132.30769231 , 4142.05128205 , 4188.20512821 , 4914.35897436 , 4134.35897436 , 4137.43589744 , 2040.0 , 2041.0 , 286.125 , 0.0 , 0.0 , 0.0 , 0.0 , 

66.0 , 4131.79487179 , 4137.43589744 , 4125.64102564 , 4133.84615385 , 4132.82051282 , 4133.33333333 , 4126.66666667 , 4187.69230769 , 4137.94871795 , 4142.05128205 , 4193.84615385 , 4907.17948718 , 4142.05128205 , 4137.43589744 , 2040.0 , 2040.0 , 286.134 , 0.0 , 0.0 , 0.0 , 0.0 , 

67.0 , 4131.79487179 , 4126.15384615 , 4131.28205128 , 4124.1025641 , 4132.30769231 , 4124.1025641 , 4116.92307692 , 4184.61538462 , 4127.17948718 , 4133.84615385 , 4190.25641026 , 4907.69230769 , 4130.25641026 , 4142.56410256 , 2041.0 , 2044.0 , 286.146 , 0.0 , 0.0 , 0.0 , 0.0 , 

68.0 , 4128.71794872 , 4122.56410256 , 4130.76923077 , 4130.25641026 , 4129.23076923 , 4121.53846154 , 4123.58974359 , 4201.02564103 , 4142.56410256 , 4135.8974359 , 4191.79487179 , 4907.69230769 , 4138.46153846 , 4138.97435897 , 2038.0 , 2041.0 , 286.148 , 0.0 , 0.0 , 0.0 , 0.0 , 

69.0 , 4130.76923077 , 4118.46153846 , 4135.8974359 , 4123.07692308 , 4129.23076923 , 4114.35897436 , 4112.82051282 , 4188.20512821 , 4136.41025641 , 4140.51282051 , 4186.15384615 , 4913.84615385 , 4124.1025641 , 4139.48717949 , 2039.0 , 2041.0 , 286.158 , 0.0 , 0.0 , 0.0 , 0.0 , 

70.0 , 4128.71794872 , 4127.17948718 , 4125.12820513 , 4127.69230769 , 4130.25641026 , 4126.66666667 , 4124.61538462 , 4203.07692308 , 4148.20512821 , 4143.07692308 , 4194.35897436 , 4907.17948718 , 4135.8974359 , 4137.94871795 , 2038.0 , 2041.0 , 286.166 , 0.0 , 0.0 , 0.0 , 0.0 , 

71.0 , 4131.28205128 , 4114.35897436 , 4133.33333333 , 4119.48717949 , 4129.74358974 , 4123.58974359 , 4118.46153846 , 4193.84615385 , 4141.02564103 , 4136.41025641 , 4191.28205128 , 4910.76923077 , 4127.69230769 , 4136.92307692 , 2038.0 , 2041.0 , 286.178 , 0.0 , 0.0 , 0.0 , 0.0 , 

72.0 , 4130.25641026 , 4117.43589744 , 4130.25641026 , 4129.23076923 , 4129.23076923 , 4127.69230769 , 4128.71794872 , 4202.05128205 , 4149.74358974 , 4140.51282051 , 4192.82051282 , 4906.15384615 , 4132.82051282 , 4135.8974359 , 2038.0 , 2040.0 , 286.181 , 0.0 , 0.0 , 0.0 , 0.0 , 

73.0 , 4131.28205128 , 4118.97435897 , 4135.8974359 , 4123.07692308 , 4128.71794872 , 4122.56410256 , 4126.15384615 , 4189.74358974 , 4138.97435897 , 4140.51282051 , 4187.17948718 , 4908.71794872 , 4121.53846154 , 4138.97435897 , 2037.0 , 2040.0 , 286.192 , 0.0 , 0.0 , 0.0 , 0.0 , 

74.0 , 4132.82051282 , 4134.35897436 , 4133.33333333 , 4131.28205128 , 4132.30769231 , 4131.79487179 , 4135.8974359 , 4201.02564103 , 4145.12820513 , 4141.53846154 , 4193.33333333 , 4907.17948718 , 4134.35897436 , 4134.87179487 , 2037.0 , 2042.0 , 286.196 , 0.0 , 0.0 , 0.0 , 0.0 , 

75.0 , 4132.30769231 , 4130.76923077 , 4140.0 , 4129.23076923 , 4132.30769231 , 4130.25641026 , 4127.17948718 , 4186.15384615 , 4138.97435897 , 4137.94871795 , 4187.69230769 , 4914.35897436 , 4128.20512821 , 4136.41025641 , 2039.0 , 2040.0 , 286.209 , 0.0 , 0.0 , 0.0 , 0.0 , 

76.0 , 4131.28205128 , 4133.33333333 , 4134.35897436 , 4133.84615385 , 4132.82051282 , 4133.33333333 , 4133.84615385 , 4176.92307692 , 4132.30769231 , 4135.8974359 , 4187.69230769 , 4911.79487179 , 4130.25641026 , 4138.97435897 , 2039.0 , 2042.0 , 286.212 , 0.0 , 0.0 , 0.0 , 0.0 , 

77.0 , 4131.28205128 , 4128.20512821 , 4133.33333333 , 4130.76923077 , 4130.76923077 , 4126.66666667 , 4125.12820513 , 4170.76923077 , 4122.56410256 , 4136.92307692 , 4186.15384615 , 4914.35897436 , 4132.82051282 , 4138.46153846 , 2040.0 , 2039.0 , 286.222 , 0.0 , 0.0 , 0.0 , 0.0 , 

78.0 , 4134.35897436 , 4129.74358974 , 4131.79487179 , 4135.38461538 , 4131.28205128 , 4129.23076923 , 4121.02564103 , 4175.8974359 , 4126.15384615 , 4142.05128205 , 4187.17948718 , 4913.33333333 , 4140.0 , 4136.92307692 , 2042.0 , 2039.0 , 286.229 , 0.0 , 0.0 , 0.0 , 0.0 , 

79.0 , 4133.84615385 , 4126.15384615 , 4133.33333333 , 4132.30769231 , 4130.25641026 , 4127.69230769 , 4118.46153846 , 4175.8974359 , 4127.69230769 , 4139.48717949 , 4186.15384615 , 4912.30769231 , 4140.51282051 , 4138.46153846 , 2043.0 , 2040.0 , 286.242 , 0.0 , 0.0 , 0.0 , 0.0 , 

80.0 , 4133.84615385 , 4126.66666667 , 4132.30769231 , 4132.30769231 , 4130.76923077 , 4123.07692308 , 4121.02564103 , 4176.41025641 , 4124.61538462 , 4135.8974359 , 4188.71794872 , 4911.79487179 , 4138.97435897 , 4139.48717949 , 2044.0 , 2038.0 , 286.244 , 0.0 , 0.0 , 0.0 , 0.0 , 

81.0 , 4128.20512821 , 4128.71794872 , 4126.15384615 , 4136.41025641 , 4128.20512821 , 4123.58974359 , 4120.51282051 , 4187.17948718 , 4138.97435897 , 4137.43589744 , 4193.33333333 , 4909.74358974 , 4140.51282051 , 4136.92307692 , 2045.0 , 2039.0 , 286.255 , 0.0 , 0.0 , 0.0 , 0.0 , 

82.0 , 4131.28205128 , 4126.66666667 , 4129.23076923 , 4133.33333333 , 4128.71794872 , 4124.61538462 , 4118.46153846 , 4187.69230769 , 4140.51282051 , 4138.97435897 , 4190.25641026 , 4906.66666667 , 4133.33333333 , 4138.46153846 , 2046.0 , 2040.0 , 286.26 , 0.0 , 0.0 , 0.0 , 0.0 , 

83.0 , 4129.74358974 , 4126.15384615 , 4131.28205128 , 4133.33333333 , 4130.76923077 , 4128.20512821 , 4128.71794872 , 4203.58974359 , 4149.74358974 , 4139.48717949 , 4191.28205128 , 4904.1025641 , 4143.07692308 , 4136.92307692 , 2046.0 , 2040.0 , 286.272 , 0.0 , 0.0 , 0.0 , 0.0 , 

84.0 , 4132.30769231 , 4124.1025641 , 4137.43589744 , 4127.17948718 , 4130.76923077 , 4123.58974359 , 4122.05128205 , 4191.28205128 , 4141.02564103 , 4139.48717949 , 4190.76923077 , 4909.23076923 , 4130.76923077 , 4137.43589744 , 2046.0 , 2038.0 , 286.275 , 0.0 , 0.0 , 0.0 , 0.0 , 

85.0 , 4128.71794872 , 4130.25641026 , 4131.28205128 , 4132.30769231 , 4130.25641026 , 4133.33333333 , 4130.76923077 , 4199.48717949 , 4147.17948718 , 4139.48717949 , 4194.35897436 , 4907.17948718 , 4128.71794872 , 4137.43589744 , 2046.0 , 2039.0 , 286.284 , 0.0 , 0.0 , 0.0 , 0.0 , 

86.0 , 4130.76923077 , 4124.1025641 , 4139.48717949 , 4124.1025641 , 4133.33333333 , 4128.20512821 , 4128.71794872 , 4190.25641026 , 4133.84615385 , 4135.38461538 , 4186.15384615 , 4911.28205128 , 4118.46153846 , 4141.02564103 , 2045.0 , 2039.0 , 286.292 , 0.0 , 0.0 , 0.0 , 0.0 , 

87.0 , 4130.76923077 , 4127.69230769 , 4134.87179487 , 4132.82051282 , 4133.33333333 , 4128.20512821 , 4132.30769231 , 4198.46153846 , 4143.58974359 , 4137.43589744 , 4188.20512821 , 4911.79487179 , 4133.33333333 , 4140.51282051 , 2046.0 , 2039.0 , 286.304 , 0.0 , 0.0 , 0.0 , 0.0 , 

88.0 , 4136.41025641 , 4126.66666667 , 4137.43589744 , 4128.20512821 , 4131.28205128 , 4123.58974359 , 4117.94871795 , 4175.8974359 , 4129.23076923 , 4137.94871795 , 4184.61538462 , 4918.97435897 , 4120.0 , 4143.07692308 , 2045.0 , 2037.0 , 286.307 , 0.0 , 0.0 , 0.0 , 0.0 , 

89.0 , 4133.33333333 , 4132.82051282 , 4130.76923077 , 4135.8974359 , 4130.76923077 , 4134.87179487 , 4133.33333333 , 4183.58974359 , 4136.41025641 , 4141.53846154 , 4189.23076923 , 4910.76923077 , 4132.82051282 , 4138.97435897 , 2043.0 , 2038.0 , 286.317 , 0.0 , 0.0 , 0.0 , 0.0 , 

90.0 , 4132.82051282 , 4127.17948718 , 4137.43589744 , 4131.79487179 , 4130.76923077 , 4127.17948718 , 4126.66666667 , 4172.82051282 , 4128.20512821 , 4140.0 , 4183.07692308 , 4911.28205128 , 4132.30769231 , 4138.46153846 , 2045.0 , 2037.0 , 286.324 , 0.0 , 0.0 , 0.0 , 0.0 , 

91.0 , 4132.30769231 , 4137.94871795 , 4130.25641026 , 4140.0 , 4129.74358974 , 4132.82051282 , 4131.79487179 , 4183.07692308 , 4135.38461538 , 4141.02564103 , 4188.71794872 , 4908.20512821 , 4145.64102564 , 4140.0 , 2046.0 , 2035.0 , 286.336 , 0.0 , 0.0 , 0.0 , 0.0 , 

92.0 , 4131.79487179 , 4132.82051282 , 4132.82051282 , 4130.25641026 , 4128.71794872 , 4130.76923077 , 4125.64102564 , 4173.33333333 , 4125.12820513 , 4134.87179487 , 4186.66666667 , 4912.30769231 , 4134.87179487 , 4141.53846154 , 2045.0 , 2037.0 , 286.339 , 0.0 , 0.0 , 0.0 , 0.0 , 

93.0 , 4131.28205128 , 4133.33333333 , 4127.17948718 , 4136.92307692 , 4129.23076923 , 4131.79487179 , 4130.25641026 , 4190.25641026 , 4134.87179487 , 4135.38461538 , 4190.25641026 , 4905.12820513 , 4139.48717949 , 4135.8974359 , 2046.0 , 2038.0 , 286.347 , 0.0 , 0.0 , 0.0 , 0.0 , 

94.0 , 4131.79487179 , 4126.66666667 , 4132.30769231 , 4134.87179487 , 4126.66666667 , 4122.56410256 , 4118.46153846 , 4189.74358974 , 4135.38461538 , 4137.43589744 , 4187.69230769 , 4909.23076923 , 4132.30769231 , 4136.41025641 , 2045.0 , 2037.0 , 286.355 , 0.0 , 0.0 , 0.0 , 0.0 , 

95.0 , 4129.74358974 , 4129.74358974 , 4131.28205128 , 4133.84615385 , 4128.20512821 , 4125.64102564 , 4124.61538462 , 4192.82051282 , 4138.97435897 , 4138.46153846 , 4190.25641026 , 4912.30769231 , 4134.87179487 , 4136.41025641 , 2045.0 , 2037.0 , 286.366 , 0.0 , 0.0 , 0.0 , 0.0 , 

96.0 , 4126.66666667 , 4120.51282051 , 4132.30769231 , 4123.58974359 , 4128.71794872 , 4121.53846154 , 4120.51282051 , 4191.28205128 , 4139.48717949 , 4137.43589744 , 4186.15384615 , 4913.33333333 , 4131.79487179 , 4136.41025641 , 2045.0 , 2034.0 , 286.369 , 0.0 , 0.0 , 0.0 , 0.0 , 

97.0 , 4131.28205128 , 4122.56410256 , 4134.35897436 , 4125.12820513 , 4130.25641026 , 4124.61538462 , 4120.51282051 , 4195.38461538 , 4140.0 , 4140.0 , 4188.20512821 , 4907.69230769 , 4127.69230769 , 4137.43589744 , 2046.0 , 2035.0 , 286.378 , 0.0 , 0.0 , 0.0 , 0.0 , 

98.0 , 4130.76923077 , 4127.17948718 , 4137.94871795 , 4128.20512821 , 4128.71794872 , 4130.76923077 , 4126.15384615 , 4194.87179487 , 4143.58974359 , 4140.0 , 4190.76923077 , 4907.69230769 , 4126.66666667 , 4137.94871795 , 2045.0 , 2036.0 , 286.386 , 0.0 , 0.0 , 0.0 , 0.0 , 

99.0 , 4130.76923077 , 4127.69230769 , 4134.87179487 , 4125.64102564 , 4130.76923077 , 4129.74358974 , 4130.76923077 , 4190.25641026 , 4140.0 , 4138.97435897 , 4188.20512821 , 4911.28205128 , 4126.66666667 , 4137.43589744 , 2045.0 , 2037.0 , 286.398 , 0.0 , 0.0 , 0.0 , 0.0 , 

100.0 , 4129.74358974 , 4127.69230769 , 4129.74358974 , 4126.15384615 , 4132.30769231 , 4129.23076923 , 4130.76923077 , 4200.51282051 , 4147.17948718 , 4142.05128205 , 4189.23076923 , 4910.25641026 , 4133.33333333 , 4136.92307692 , 2046.0 , 2038.0 , 286.401 , 0.0 , 0.0 , 0.0 , 0.0 , 

101.0 , 4134.87179487 , 4129.74358974 , 4135.8974359 , 4124.1025641 , 4133.33333333 , 4129.23076923 , 4127.17948718 , 4189.23076923 , 4138.97435897 , 4139.48717949 , 4187.69230769 , 4911.79487179 , 4125.64102564 , 4139.48717949 , 2045.0 , 2039.0 , 286.411 , 0.0 , 0.0 , 0.0 , 0.0 , 

102.0 , 4131.79487179 , 4134.87179487 , 4130.25641026 , 4133.84615385 , 4129.23076923 , 4132.30769231 , 4134.35897436 , 4190.76923077 , 4142.56410256 , 4138.97435897 , 4188.20512821 , 4912.30769231 , 4135.8974359 , 4137.94871795 , 2043.0 , 2039.0 , 286.418 , 0.0 , 0.0 , 0.0 , 0.0 , 

103.0 , 4133.33333333 , 4129.74358974 , 4133.33333333 , 4132.82051282 , 4128.71794872 , 4128.20512821 , 4123.58974359 , 4173.84615385 , 4125.64102564 , 4138.46153846 , 4185.12820513 , 4915.8974359 , 4131.79487179 , 4138.97435897 , 2044.0 , 2037.0 , 286.432 , 0.0 , 0.0 , 0.0 , 0.0 , 

104.0 , 4129.23076923 , 4132.82051282 , 4128.20512821 , 4136.92307692 , 4130.76923077 , 4135.38461538 , 4126.66666667 , 4181.53846154 , 4129.74358974 , 4136.92307692 , 4191.28205128 , 4909.23076923 , 4141.02564103 , 4135.8974359 , 2044.0 , 2038.0 , 286.434 , 0.0 , 0.0 , 0.0 , 0.0 , 

105.0 , 4130.76923077 , 4125.12820513 , 4132.82051282 , 4127.69230769 , 4129.23076923 , 4124.61538462 , 4114.35897436 , 4170.25641026 , 4121.53846154 , 4133.33333333 , 4183.07692308 , 4912.82051282 , 4128.20512821 , 4136.41025641 , 2045.0 , 2038.0 , 286.443 , 0.0 , 0.0 , 0.0 , 0.0 , 

106.0 , 4130.25641026 , 4128.71794872 , 4127.69230769 , 4135.38461538 , 4128.71794872 , 4123.07692308 , 4118.46153846 , 4186.66666667 , 4138.46153846 , 4138.46153846 , 4185.64102564 , 4910.25641026 , 4140.51282051 , 4135.8974359 , 2044.0 , 2037.0 , 286.45 , 0.0 , 0.0 , 0.0 , 0.0 , 

107.0 , 4132.30769231 , 4127.69230769 , 4133.84615385 , 4127.69230769 , 4131.79487179 , 4119.48717949 , 4111.79487179 , 4177.43589744 , 4128.71794872 , 4137.43589744 , 4187.17948718 , 4911.28205128 , 4130.76923077 , 4138.97435897 , 2045.0 , 2034.0 , 286.462 , 0.0 , 0.0 , 0.0 , 0.0 , 

108.0 , 4127.69230769 , 4131.79487179 , 4126.66666667 , 4133.33333333 , 4131.79487179 , 4128.71794872 , 4129.74358974 , 4191.28205128 , 4142.05128205 , 4139.48717949 , 4196.41025641 , 4905.64102564 , 4138.97435897 , 4136.92307692 , 2044.0 , 2034.0 , 286.465 , 0.0 , 0.0 , 0.0 , 0.0 , 

109.0 , 4130.25641026 , 4118.97435897 , 4132.30769231 , 4124.61538462 , 4128.71794872 , 4120.51282051 , 4117.94871795 , 4183.58974359 , 4144.61538462 , 4139.48717949 , 4190.25641026 , 4913.33333333 , 4128.71794872 , 4140.51282051 , 2043.0 , 2032.0 , 286.475 , 0.0 , 0.0 , 0.0 , 0.0 , 

110.0 , 4132.30769231 , 4128.20512821 , 4127.17948718 , 4130.25641026 , 4133.84615385 , 4126.66666667 , 4122.56410256 , 4198.97435897 , 4153.33333333 , 4140.0 , 4194.87179487 , 4906.66666667 , 4136.92307692 , 4138.46153846 , 2045.0 , 2031.0 , 286.481 , 0.0 , 0.0 , 0.0 , 0.0 , 

111.0 , 4130.25641026 , 4128.71794872 , 4131.28205128 , 4126.66666667 , 4132.82051282 , 4125.12820513 , 4125.12820513 , 4193.33333333 , 4137.94871795 , 4136.41025641 , 4190.25641026 , 4907.17948718 , 4127.69230769 , 4137.94871795 , 2046.0 , 2031.0 , 286.493 , 0.0 , 0.0 , 0.0 , 0.0 , 

112.0 , 4128.20512821 , 4132.82051282 , 4130.76923077 , 4136.41025641 , 4127.17948718 , 4132.30769231 , 4137.94871795 , 4198.97435897 , 4141.02564103 , 4137.94871795 , 4189.74358974 , 4906.66666667 , 4130.25641026 , 4138.97435897 , 2045.0 , 2030.0 , 286.496 , 0.0 , 0.0 , 0.0 , 0.0 , 

113.0 , 4132.82051282 , 4129.74358974 , 4136.41025641 , 4130.76923077 , 4127.69230769 , 4127.17948718 , 4126.15384615 , 4185.64102564 , 4134.87179487 , 4134.87179487 , 4185.12820513 , 4911.28205128 , 4127.17948718 , 4141.02564103 , 2045.0 , 2031.0 , 286.506 , 0.0 , 0.0 , 0.0 , 0.0 , 

114.0 , 4135.8974359 , 4134.87179487 , 4133.84615385 , 4132.82051282 , 4133.33333333 , 4126.15384615 , 4126.66666667 , 4179.48717949 , 4127.69230769 , 4137.94871795 , 4186.15384615 , 4911.28205128 , 4132.30769231 , 4138.97435897 , 2046.0 , 2030.0 , 286.512 , 0.0 , 0.0 , 0.0 , 0.0 , 

115.0 , 4130.25641026 , 4130.25641026 , 4135.38461538 , 4131.28205128 , 4130.76923077 , 4125.64102564 , 4129.23076923 , 4177.94871795 , 4130.25641026 , 4142.05128205 , 4184.1025641 , 4914.35897436 , 4128.20512821 , 4139.48717949 , 2046.0 , 2030.0 , 286.525 , 0.0 , 0.0 , 0.0 , 0.0 , 

116.0 , 4130.25641026 , 4132.82051282 , 4133.84615385 , 4129.74358974 , 4130.25641026 , 4131.79487179 , 4133.33333333 , 4178.46153846 , 4134.87179487 , 4140.0 , 4189.23076923 , 4912.82051282 , 4129.23076923 , 4141.02564103 , 2048.0 , 2030.0 , 286.527 , 0.0 , 0.0 , 0.0 , 0.0 , 

117.0 , 4130.76923077 , 4132.30769231 , 4130.76923077 , 4132.82051282 , 4131.28205128 , 4132.30769231 , 4131.28205128 , 4174.35897436 , 4133.84615385 , 4135.38461538 , 4192.30769231 , 4911.28205128 , 4137.43589744 , 4139.48717949 , 2046.0 , 2033.0 , 286.537 , 0.0 , 0.0 , 0.0 , 0.0 , 

118.0 , 4135.38461538 , 4132.30769231 , 4132.30769231 , 4135.8974359 , 4132.30769231 , 4129.23076923 , 4128.20512821 , 4170.76923077 , 4125.12820513 , 4137.94871795 , 4186.15384615 , 4913.33333333 , 4133.33333333 , 4138.97435897 , 2044.0 , 2032.0 , 286.544 , 0.0 , 0.0 , 0.0 , 0.0 , 

119.0 , 4131.28205128 , 4135.38461538 , 4125.64102564 , 4135.8974359 , 4130.76923077 , 4132.30769231 , 4128.20512821 , 4187.69230769 , 4137.43589744 , 4140.0 , 4187.69230769 , 4909.23076923 , 4141.02564103 , 4137.43589744 , 2043.0 , 2034.0 , 286.557 , 0.0 , 0.0 , 0.0 , 0.0 , 

120.0 , 4130.76923077 , 4130.76923077 , 4124.61538462 , 4132.30769231 , 4130.76923077 , 4125.64102564 , 4118.97435897 , 4178.46153846 , 4131.79487179 , 4135.38461538 , 4189.74358974 , 4908.71794872 , 4139.48717949 , 4138.97435897 , 2043.0 , 2034.0 , 286.56 , 0.0 , 0.0 , 0.0 , 0.0 , 

121.0 , 4128.71794872 , 4129.74358974 , 4123.07692308 , 4141.53846154 , 4129.74358974 , 4126.66666667 , 4127.69230769 , 4189.74358974 , 4138.97435897 , 4136.41025641 , 4192.30769231 , 4907.69230769 , 4141.53846154 , 4136.92307692 , 2044.0 , 2034.0 , 286.57 , 0.0 , 0.0 , 0.0 , 0.0 , 

122.0 , 4133.84615385 , 4125.12820513 , 4132.82051282 , 4130.25641026 , 4132.30769231 , 4124.61538462 , 4126.66666667 , 4186.66666667 , 4134.87179487 , 4136.41025641 , 4186.66666667 , 4912.82051282 , 4122.05128205 , 4141.53846154 , 2043.0 , 2036.0 , 286.576 , 0.0 , 0.0 , 0.0 , 0.0 , 

123.0 , 4129.74358974 , 4130.25641026 , 4129.23076923 , 4132.30769231 , 4131.28205128 , 4130.25641026 , 4133.84615385 , 4200.0 , 4147.17948718 , 4137.94871795 , 4190.25641026 , 4910.76923077 , 4131.28205128 , 4141.53846154 , 2041.0 , 2037.0 , 286.589 , 0.0 , 0.0 , 0.0 , 0.0 , 

124.0 , 4131.79487179 , 4124.61538462 , 4138.46153846 , 4127.17948718 , 4129.74358974 , 4122.56410256 , 4121.02564103 , 4185.12820513 , 4130.25641026 , 4135.8974359 , 4183.58974359 , 4912.82051282 , 4121.53846154 , 4138.97435897 , 2041.0 , 2036.0 , 286.592 , 0.0 , 0.0 , 0.0 , 0.0 , 

125.0 , 4130.76923077 , 4133.33333333 , 4134.87179487 , 4131.79487179 , 4130.25641026 , 4134.35897436 , 4132.30769231 , 4200.51282051 , 4140.51282051 , 4137.43589744 , 4188.20512821 , 4904.1025641 , 4130.25641026 , 4134.87179487 , 2042.0 , 2036.0 , 286.601 , 0.0 , 0.0 , 0.0 , 0.0 , 

126.0 , 4132.30769231 , 4128.71794872 , 4139.48717949 , 4121.53846154 , 4131.79487179 , 4130.76923077 , 4126.15384615 , 4187.17948718 , 4136.92307692 , 4134.87179487 , 4185.64102564 , 4907.17948718 , 4122.05128205 , 4140.51282051 , 2040.0 , 2038.0 , 286.607 , 0.0 , 0.0 , 0.0 , 0.0 , 

127.0 , 4129.74358974 , 4133.33333333 , 4130.25641026 , 4136.41025641 , 4130.25641026 , 4131.28205128 , 4134.87179487 , 4195.8974359 , 4148.71794872 , 4140.51282051 , 4190.76923077 , 4905.64102564 , 4135.38461538 , 4137.94871795 , 2043.0 , 2036.0 , 286.62 , 0.0 , 0.0 , 0.0 , 0.0 , 

128.0 , 4132.30769231 , 4127.17948718 , 4133.84615385 , 4133.33333333 , 4128.71794872 , 4125.12820513 , 4127.69230769 , 4183.07692308 , 4135.38461538 , 4139.48717949 , 4184.1025641 , 4912.30769231 , 4129.23076923 , 4137.43589744 , 2042.0 , 2036.0 , 286.623 , 0.0 , 0.0 , 0.0 , 0.0 , 

0.0 , 4132.82051282 , 4132.30769231 , 4127.17948718 , 4133.84615385 , 4131.79487179 , 4134.87179487 , 4136.92307692 , 4186.66666667 , 4135.38461538 , 4138.97435897 , 4188.71794872 , 4910.76923077 , 4141.53846154 , 4138.46153846 , 2041.0 , 2036.0 , 286.633 , 0.0 , 0.0 , 0.0 , 0.0 , 

1.0 , 4132.82051282 , 4130.76923077 , 4129.74358974 , 4126.66666667 , 4130.25641026 , 4130.25641026 , 4126.15384615 , 4169.74358974 , 4129.74358974 , 4138.46153846 , 4184.61538462 , 4914.35897436 , 4135.8974359 , 4140.51282051 , 2042.0 , 2036.0 , 286.639 , 0.0 , 0.0 , 0.0 , 0.0 , 

2.0 , 4132.30769231 , 4140.0 , 4129.74358974 , 4135.38461538 , 4129.74358974 , 4130.76923077 , 4127.69230769 , 4172.82051282 , 4135.38461538 , 4137.94871795 , 4186.66666667 , 4910.25641026 , 4136.41025641 , 4140.0 , 2044.0 , 2035.0 , 286.652 , 0.0 , 0.0 , 0.0 , 0.0 , 

3.0 , 4132.30769231 , 4131.79487179 , 4133.84615385 , 4131.28205128 , 4129.74358974 , 4124.61538462 , 4119.48717949 , 4175.8974359 , 4127.17948718 , 4129.74358974 , 4187.17948718 , 4912.30769231 , 4131.28205128 , 4142.56410256 , 2045.0 , 2034.0 , 286.656 , 0.0 , 0.0 , 0.0 , 0.0 , 

4.0 , 4135.38461538 , 4126.66666667 , 4127.17948718 , 4131.28205128 , 4131.28205128 , 4125.12820513 , 4120.0 , 4186.15384615 , 4125.64102564 , 4131.79487179 , 4189.23076923 , 4909.74358974 , 4134.35897436 , 4141.02564103 , 2046.0 , 2032.0 , 286.663 , 0.0 , 0.0 , 0.0 , 0.0 , 

5.0 , 4132.82051282 , 4124.61538462 , 4126.66666667 , 4129.74358974 , 4128.71794872 , 4123.58974359 , 4120.0 , 4188.20512821 , 4134.87179487 , 4137.94871795 , 4187.17948718 , 4910.25641026 , 4132.30769231 , 4137.43589744 , 2045.0 , 2031.0 , 286.67 , 0.0 , 0.0 , 0.0 , 0.0 , 

6.0 , 4131.28205128 , 4129.23076923 , 4131.28205128 , 4130.25641026 , 4129.74358974 , 4127.69230769 , 4126.66666667 , 4189.23076923 , 4135.38461538 , 4137.94871795 , 4190.76923077 , 4912.30769231 , 4130.76923077 , 4137.43589744 , 2045.0 , 2031.0 , 286.682 , 0.0 , 0.0 , 0.0 , 0.0 , 

7.0 , 4129.23076923 , 4126.66666667 , 4129.74358974 , 4133.33333333 , 4129.74358974 , 4131.28205128 , 4131.28205128 , 4198.46153846 , 4142.56410256 , 4137.94871795 , 4193.84615385 , 4912.82051282 , 4134.35897436 , 4136.92307692 , 2045.0 , 2031.0 , 286.684 , 0.0 , 0.0 , 0.0 , 0.0 , 

8.0 , 4133.84615385 , 4125.12820513 , 4131.28205128 , 4129.74358974 , 4130.25641026 , 4126.66666667 , 4125.12820513 , 4191.28205128 , 4141.53846154 , 4140.0 , 4187.69230769 , 4909.23076923 , 4126.15384615 , 4136.41025641 , 2045.0 , 2034.0 , 286.694 , 0.0 , 0.0 , 0.0 , 0.0 , 

9.0 , 4130.76923077 , 4129.74358974 , 4131.79487179 , 4127.69230769 , 4129.23076923 , 4130.25641026 , 4130.25641026 , 4196.41025641 , 4146.15384615 , 4140.51282051 , 4188.71794872 , 4904.1025641 , 4132.30769231 , 4135.8974359 , 2043.0 , 2035.0 , 286.702 , 0.0 , 0.0 , 0.0 , 0.0 , 

10.0 , 4131.28205128 , 4129.74358974 , 4140.0 , 4124.1025641 , 4128.71794872 , 4130.76923077 , 4129.23076923 , 4187.17948718 , 4133.84615385 , 4137.43589744 , 4187.17948718 , 4911.79487179 , 4127.17948718 , 4140.0 , 2043.0 , 2038.0 , 286.713 , 0.0 , 0.0 , 0.0 , 0.0 , 

11.0 , 4128.71794872 , 4132.30769231 , 4134.87179487 , 4134.35897436 , 4130.25641026 , 4130.25641026 , 4132.30769231 , 4201.02564103 , 4146.15384615 , 4138.46153846 , 4191.28205128 , 4910.76923077 , 4136.41025641 , 4138.46153846 , 2042.0 , 2040.0 , 286.715 , 0.0 , 0.0 , 0.0 , 0.0 , 

12.0 , 4134.87179487 , 4123.07692308 , 4138.46153846 , 4126.66666667 , 4134.35897436 , 4120.0 , 4117.94871795 , 4183.07692308 , 4131.79487179 , 4136.41025641 , 4186.15384615 , 4910.25641026 , 4127.17948718 , 4138.97435897 , 2043.0 , 2039.0 , 286.726 , 0.0 , 0.0 , 0.0 , 0.0 , 

13.0 , 4132.30769231 , 4127.17948718 , 4129.74358974 , 4130.76923077 , 4132.82051282 , 4130.76923077 , 4130.76923077 , 4183.07692308 , 4134.35897436 , 4139.48717949 , 4189.74358974 , 4908.20512821 , 4137.94871795 , 4136.92307692 , 2042.0 , 2039.0 , 286.733 , 0.0 , 0.0 , 0.0 , 0.0 , 

14.0 , 4130.76923077 , 4127.17948718 , 4134.87179487 , 4124.61538462 , 4130.76923077 , 4128.20512821 , 4124.61538462 , 4171.28205128 , 4125.64102564 , 4137.94871795 , 4183.07692308 , 4917.43589744 , 4125.12820513 , 4141.02564103 , 2042.0 , 2038.0 , 286.745 , 0.0 , 0.0 , 0.0 , 0.0 , 

15.0 , 4129.74358974 , 4133.84615385 , 4127.69230769 , 4135.38461538 , 4131.28205128 , 4129.74358974 , 4127.69230769 , 4185.12820513 , 4137.43589744 , 4138.97435897 , 4189.23076923 , 4910.25641026 , 4138.46153846 , 4140.0 , 2039.0 , 2036.0 , 286.748 , 0.0 , 0.0 , 0.0 , 0.0 , 

16.0 , 4131.79487179 , 4123.07692308 , 4131.28205128 , 4129.74358974 , 4129.23076923 , 4120.0 , 4115.8974359 , 4171.79487179 , 4125.64102564 , 4136.41025641 , 4188.71794872 , 4910.76923077 , 4134.35897436 , 4138.97435897 , 2039.0 , 2033.0 , 286.759 , 0.0 , 0.0 , 0.0 , 0.0 , 

17.0 , 4127.17948718 , 4129.23076923 , 4125.12820513 , 4139.48717949 , 4127.17948718 , 4125.64102564 , 4128.20512821 , 4187.69230769 , 4139.48717949 , 4139.48717949 , 4192.30769231 , 4909.74358974 , 4144.61538462 , 4137.94871795 , 2039.0 , 2032.0 , 286.764 , 0.0 , 0.0 , 0.0 , 0.0 , 

18.0 , 4128.71794872 , 4129.23076923 , 4130.25641026 , 4133.84615385 , 4128.20512821 , 4121.02564103 , 4118.46153846 , 4181.53846154 , 4134.87179487 , 4137.43589744 , 4185.64102564 , 4913.33333333 , 4134.87179487 , 4143.07692308 , 2039.0 , 2031.0 , 286.777 , 0.0 , 0.0 , 0.0 , 0.0 , 

19.0 , 4131.28205128 , 4132.82051282 , 4124.61538462 , 4133.33333333 , 4130.25641026 , 4128.20512821 , 4127.69230769 , 4195.38461538 , 4138.46153846 , 4138.46153846 , 4190.76923077 , 4904.1025641 , 4142.56410256 , 4141.02564103 , 2040.0 , 2029.0 , 286.779 , 0.0 , 0.0 , 0.0 , 0.0 , 

20.0 , 4130.25641026 , 4124.1025641 , 4131.28205128 , 4123.58974359 , 4127.69230769 , 4123.07692308 , 4125.12820513 , 4194.35897436 , 4138.46153846 , 4138.97435897 , 4189.74358974 , 4908.20512821 , 4133.84615385 , 4138.46153846 , 2040.0 , 2027.0 , 286.789 , 0.0 , 0.0 , 0.0 , 0.0 , 

21.0 , 4129.74358974 , 4129.74358974 , 4132.82051282 , 4129.74358974 , 4129.74358974 , 4125.64102564 , 4128.20512821 , 4194.87179487 , 4144.1025641 , 4142.56410256 , 4190.76923077 , 4910.76923077 , 4129.74358974 , 4138.46153846 , 2041.0 , 2026.0 , 286.795 , 0.0 , 0.0 , 0.0 , 0.0 , 

22.0 , 4130.25641026 , 4125.64102564 , 4134.87179487 , 4125.64102564 , 4127.17948718 , 4125.64102564 , 4120.51282051 , 4189.74358974 , 4136.41025641 , 4140.51282051 , 4187.17948718 , 4913.33333333 , 4123.58974359 , 4141.02564103 , 2043.0 , 2025.0 , 286.808 , 0.0 , 0.0 , 0.0 , 0.0 , 

23.0 , 4130.25641026 , 4125.64102564 , 4131.79487179 , 4125.12820513 , 4126.66666667 , 4128.71794872 , 4123.58974359 , 4192.30769231 , 4134.87179487 , 4139.48717949 , 4188.71794872 , 4911.79487179 , 4127.69230769 , 4141.02564103 , 2045.0 , 2027.0 , 286.81 , 0.0 , 0.0 , 0.0 , 0.0 , 

24.0 , 4129.23076923 , 4129.74358974 , 4132.82051282 , 4130.25641026 , 4128.20512821 , 4124.61538462 , 4123.07692308 , 4185.64102564 , 4138.46153846 , 4139.48717949 , 4189.23076923 , 4914.87179487 , 4131.79487179 , 4138.46153846 , 2045.0 , 2027.0 , 286.819 , 0.0 , 0.0 , 0.0 , 0.0 , 

25.0 , 4133.33333333 , 4135.38461538 , 4134.87179487 , 4132.30769231 , 4131.79487179 , 4126.66666667 , 4124.61538462 , 4175.38461538 , 4131.28205128 , 4138.97435897 , 4187.17948718 , 4914.87179487 , 4131.28205128 , 4135.8974359 , 2046.0 , 2027.0 , 286.828 , 0.0 , 0.0 , 0.0 , 0.0 , 

26.0 , 4132.30769231 , 4131.79487179 , 4129.74358974 , 4134.87179487 , 4128.71794872 , 4131.79487179 , 4130.76923077 , 4182.05128205 , 4136.92307692 , 4140.51282051 , 4186.15384615 , 4910.25641026 , 4138.46153846 , 4135.8974359 , 2046.0 , 2027.0 , 286.841 , 0.0 , 0.0 , 0.0 , 0.0 , 

27.0 , 4135.38461538 , 4129.23076923 , 4130.76923077 , 4134.87179487 , 4128.71794872 , 4126.15384615 , 4127.17948718 , 4172.82051282 , 4128.71794872 , 4141.53846154 , 4187.69230769 , 4911.28205128 , 4133.84615385 , 4140.0 , 2047.0 , 2027.0 , 286.843 , 0.0 , 0.0 , 0.0 , 0.0 , 

28.0 , 4130.76923077 , 4133.33333333 , 4127.17948718 , 4137.94871795 , 4129.74358974 , 4132.30769231 , 4132.82051282 , 4181.02564103 , 4132.82051282 , 4141.02564103 , 4196.41025641 , 4908.71794872 , 4143.58974359 , 4137.43589744 , 2047.0 , 2029.0 , 286.853 , 0.0 , 0.0 , 0.0 , 0.0 , 

29.0 , 4132.82051282 , 4127.69230769 , 4132.30769231 , 4130.25641026 , 4128.71794872 , 4131.79487179 , 4129.74358974 , 4173.33333333 , 4126.15384615 , 4136.92307692 , 4190.76923077 , 4911.28205128 , 4133.84615385 , 4137.94871795 , 2046.0 , 2030.0 , 286.858 , 0.0 , 0.0 , 0.0 , 0.0 , 

30.0 , 4132.82051282 , 4132.30769231 , 4126.15384615 , 4136.41025641 , 4127.69230769 , 4128.20512821 , 4133.33333333 , 4188.20512821 , 4143.07692308 , 4136.41025641 , 4189.23076923 , 4907.17948718 , 4134.87179487 , 4137.94871795 , 2046.0 , 2033.0 , 286.871 , 0.0 , 0.0 , 0.0 , 0.0 , 

31.0 , 4134.87179487 , 4126.15384615 , 4133.84615385 , 4127.17948718 , 4130.76923077 , 4116.92307692 , 4119.48717949 , 4183.07692308 , 4132.30769231 , 4134.87179487 , 4183.07692308 , 4910.76923077 , 4120.0 , 4141.53846154 , 2046.0 , 2033.0 , 286.874 , 0.0 , 0.0 , 0.0 , 0.0 , 

32.0 , 4127.17948718 , 4128.20512821 , 4129.23076923 , 4129.23076923 , 4133.33333333 , 4126.15384615 , 4126.15384615 , 4201.02564103 , 4138.46153846 , 4141.02564103 , 4187.69230769 , 4910.25641026 , 4136.41025641 , 4137.43589744 , 2045.0 , 2031.0 , 286.884 , 0.0 , 0.0 , 0.0 , 0.0 , 

33.0 , 4129.23076923 , 4125.64102564 , 4135.38461538 , 4122.05128205 , 4132.30769231 , 4120.51282051 , 4117.94871795 , 4187.69230769 , 4131.28205128 , 4140.0 , 4185.12820513 , 4915.38461538 , 4130.76923077 , 4137.43589744 , 2045.0 , 2030.0 , 286.891 , 0.0 , 0.0 , 0.0 , 0.0 , 

34.0 , 4130.76923077 , 4134.35897436 , 4130.76923077 , 4130.25641026 , 4130.25641026 , 4129.74358974 , 4130.25641026 , 4197.94871795 , 4146.15384615 , 4140.0 , 4193.84615385 , 4906.15384615 , 4136.92307692 , 4137.43589744 , 2043.0 , 2033.0 , 286.902 , 0.0 , 0.0 , 0.0 , 0.0 , 

35.0 , 4130.76923077 , 4124.1025641 , 4137.94871795 , 4122.05128205 , 4129.23076923 , 4128.71794872 , 4124.1025641 , 4188.71794872 , 4136.41025641 , 4139.48717949 , 4188.71794872 , 4909.23076923 , 4121.53846154 , 4137.94871795 , 2044.0 , 2033.0 , 286.905 , 0.0 , 0.0 , 0.0 , 0.0 , 

36.0 , 4130.25641026 , 4131.28205128 , 4131.28205128 , 4133.84615385 , 4131.28205128 , 4131.79487179 , 4133.84615385 , 4200.51282051 , 4143.58974359 , 4144.1025641 , 4191.28205128 , 4910.76923077 , 4131.79487179 , 4134.87179487 , 2042.0 , 2032.0 , 286.915 , 0.0 , 0.0 , 0.0 , 0.0 , 

37.0 , 4134.87179487 , 4132.82051282 , 4132.82051282 , 4131.79487179 , 4131.28205128 , 4126.15384615 , 4126.15384615 , 4185.12820513 , 4137.43589744 , 4140.51282051 , 4189.23076923 , 4914.87179487 , 4129.23076923 , 4137.94871795 , 2042.0 , 2034.0 , 286.922 , 0.0 , 0.0 , 0.0 , 0.0 , 

38.0 , 4136.92307692 , 4137.43589744 , 4128.20512821 , 4135.38461538 , 4131.28205128 , 4132.82051282 , 4131.79487179 , 4187.17948718 , 4137.94871795 , 4138.46153846 , 4191.79487179 , 4910.76923077 , 4133.33333333 , 4138.46153846 , 2040.0 , 2035.0 , 286.934 , 0.0 , 0.0 , 0.0 , 0.0 , 

39.0 , 4134.35897436 , 4128.71794872 , 4134.87179487 , 4126.15384615 , 4129.23076923 , 4124.61538462 , 4124.61538462 , 4179.48717949 , 4128.20512821 , 4136.92307692 , 4184.61538462 , 4916.41025641 , 4123.07692308 , 4138.97435897 , 2040.0 , 2035.0 , 286.938 , 0.0 , 0.0 , 0.0 , 0.0 , 

40.0 , 4133.33333333 , 4131.28205128 , 4133.84615385 , 4131.28205128 , 4130.25641026 , 4125.64102564 , 4128.71794872 , 4175.38461538 , 4129.74358974 , 4138.97435897 , 4187.69230769 , 4913.84615385 , 4129.74358974 , 4137.94871795 , 2039.0 , 2036.0 , 286.947 , 0.0 , 0.0 , 0.0 , 0.0 , 

41.0 , 4131.28205128 , 4124.61538462 , 4134.35897436 , 4131.28205128 , 4130.25641026 , 4124.1025641 , 4121.53846154 , 4172.30769231 , 4130.25641026 , 4137.43589744 , 4188.71794872 , 4911.79487179 , 4135.38461538 , 4137.94871795 , 2040.0 , 2037.0 , 286.955 , 0.0 , 0.0 , 0.0 , 0.0 , 

42.0 , 4133.33333333 , 4124.1025641 , 4132.82051282 , 4133.33333333 , 4133.33333333 , 4125.12820513 , 4120.51282051 , 4180.51282051 , 4127.17948718 , 4137.43589744 , 4188.71794872 , 4912.82051282 , 4134.87179487 , 4137.94871795 , 2040.0 , 2037.0 , 286.966 , 0.0 , 0.0 , 0.0 , 0.0 , 

43.0 , 4131.79487179 , 4127.17948718 , 4131.28205128 , 4130.76923077 , 4131.28205128 , 4127.17948718 , 4120.51282051 , 4181.53846154 , 4130.76923077 , 4137.43589744 , 4190.76923077 , 4913.33333333 , 4134.35897436 , 4135.8974359 , 2041.0 , 2037.0 , 286.968 , 0.0 , 0.0 , 0.0 , 0.0 , 

44.0 , 4132.82051282 , 4128.20512821 , 4132.82051282 , 4130.25641026 , 4128.20512821 , 4125.64102564 , 4115.8974359 , 4177.43589744 , 4130.25641026 , 4136.92307692 , 4191.79487179 , 4910.25641026 , 4132.82051282 , 4137.94871795 , 2039.0 , 2037.0 , 286.979 , 0.0 , 0.0 , 0.0 , 0.0 , 

45.0 , 4127.69230769 , 4129.23076923 , 4130.76923077 , 4137.43589744 , 4128.20512821 , 4127.17948718 , 4120.51282051 , 4195.8974359 , 4143.07692308 , 4138.97435897 , 4191.79487179 , 4910.25641026 , 4140.0 , 4140.0 , 2041.0 , 2036.0 , 286.984 , 0.0 , 0.0 , 0.0 , 0.0 , 

46.0 , 4131.28205128 , 4129.23076923 , 4135.38461538 , 4131.28205128 , 4131.79487179 , 4128.20512821 , 4123.58974359 , 4190.76923077 , 4136.41025641 , 4140.0 , 4189.23076923 , 4911.79487179 , 4132.82051282 , 4141.02564103 , 2040.0 , 2037.0 , 286.997 , 0.0 , 0.0 , 0.0 , 0.0 , 

47.0 , 4131.28205128 , 4131.79487179 , 4130.76923077 , 4131.79487179 , 4129.23076923 , 4132.82051282 , 4131.79487179 , 4201.02564103 , 4142.56410256 , 4142.56410256 , 4193.33333333 , 4908.20512821 , 4138.97435897 , 4137.43589744 , 2040.0 , 2037.0 , 286.999 , 0.0 , 0.0 , 0.0 , 0.0 , 

48.0 , 4133.33333333 , 4125.12820513 , 4134.35897436 , 4127.69230769 , 4128.20512821 , 4124.61538462 , 4122.56410256 , 4192.82051282 , 4133.33333333 , 4139.48717949 , 4187.17948718 , 4913.33333333 , 4125.64102564 , 4138.97435897 , 2042.0 , 2035.0 , 287.007 , 0.0 , 0.0 , 0.0 , 0.0 , 

49.0 , 4129.23076923 , 4129.23076923 , 4129.74358974 , 4131.79487179 , 4130.76923077 , 4128.20512821 , 4130.76923077 , 4201.02564103 , 4145.64102564 , 4138.97435897 , 4188.71794872 , 4909.23076923 , 4130.25641026 , 4136.92307692 , 2041.0 , 2036.0 , 287.017 , 0.0 , 0.0 , 0.0 , 0.0 , 

50.0 , 4133.33333333 , 4125.64102564 , 4140.0 , 4122.05128205 , 4131.28205128 , 4122.56410256 , 4123.07692308 , 4178.46153846 , 4129.74358974 , 4136.92307692 , 4185.12820513 , 4910.25641026 , 4118.97435897 , 4138.97435897 , 2042.0 , 2036.0 , 287.029 , 0.0 , 0.0 , 0.0 , 0.0 , 

51.0 , 4131.28205128 , 4131.79487179 , 4135.38461538 , 4133.84615385 , 4130.76923077 , 4128.20512821 , 4130.76923077 , 4187.17948718 , 4134.35897436 , 4140.0 , 4191.79487179 , 4908.20512821 , 4134.35897436 , 4137.43589744 , 2041.0 , 2037.0 , 287.031 , 0.0 , 0.0 , 0.0 , 0.0 , 

52.0 , 4134.87179487 , 4127.69230769 , 4135.8974359 , 4132.30769231 , 4133.33333333 , 4125.12820513 , 4119.48717949 , 4173.84615385 , 4125.64102564 , 4137.94871795 , 4185.64102564 , 4915.8974359 , 4128.71794872 , 4137.94871795 , 2040.0 , 2037.0 , 287.042 , 0.0 , 0.0 , 0.0 , 0.0 , 

53.0 , 4135.38461538 , 4133.84615385 , 4126.66666667 , 4139.48717949 , 4134.87179487 , 4136.41025641 , 4130.25641026 , 4181.02564103 , 4134.35897436 , 4139.48717949 , 4188.71794872 , 4912.82051282 , 4140.0 , 4135.8974359 , 2040.0 , 2034.0 , 287.047 , 0.0 , 0.0 , 0.0 , 0.0 , 

54.0 , 4134.87179487 , 4126.66666667 , 4135.8974359 , 4128.71794872 , 4131.28205128 , 4130.76923077 , 4124.61538462 , 4167.17948718 , 4123.58974359 , 4139.48717949 , 4186.66666667 , 4916.41025641 , 4130.76923077 , 4140.0 , 2043.0 , 2035.0 , 287.06 , 0.0 , 0.0 , 0.0 , 0.0 , 

55.0 , 4131.28205128 , 4134.87179487 , 4132.30769231 , 4132.82051282 , 4128.71794872 , 4133.84615385 , 4130.76923077 , 4183.07692308 , 4134.87179487 , 4141.02564103 , 4195.38461538 , 4909.23076923 , 4137.94871795 , 4140.0 , 2042.0 , 2037.0 , 287.062 , 0.0 , 0.0 , 0.0 , 0.0 , 

56.0 , 4133.84615385 , 4130.76923077 , 4133.84615385 , 4130.25641026 , 4127.69230769 , 4128.20512821 , 4120.0 , 4183.07692308 , 4133.33333333 , 4137.43589744 , 4192.30769231 , 4908.71794872 , 4131.28205128 , 4142.05128205 , 2042.0 , 2035.0 , 287.072 , 0.0 , 0.0 , 0.0 , 0.0 , 

57.0 , 4133.84615385 , 4131.28205128 , 4128.20512821 , 4137.43589744 , 4130.76923077 , 4130.76923077 , 4126.15384615 , 4192.30769231 , 4136.92307692 , 4140.51282051 , 4188.71794872 , 4907.17948718 , 4140.0 , 4140.51282051 , 2042.0 , 2037.0 , 287.079 , 0.0 , 0.0 , 0.0 , 0.0 , 

58.0 , 4130.25641026 , 4122.05128205 , 4128.71794872 , 4130.25641026 , 4129.23076923 , 4124.1025641 , 4118.97435897 , 4186.66666667 , 4134.87179487 , 4141.53846154 , 4184.1025641 , 4913.33333333 , 4133.84615385 , 4137.43589744 , 2043.0 , 2036.0 , 287.092 , 0.0 , 0.0 , 0.0 , 0.0 , 

59.0 , 4131.79487179 , 4126.66666667 , 4127.17948718 , 4132.82051282 , 4129.74358974 , 4126.66666667 , 4122.05128205 , 4189.23076923 , 4138.97435897 , 4138.97435897 , 4191.28205128 , 4910.76923077 , 4127.17948718 , 4136.92307692 , 2042.0 , 2035.0 , 287.094 , 0.0 , 0.0 , 0.0 , 0.0 , 

60.0 , 4130.76923077 , 4127.17948718 , 4132.30769231 , 4129.74358974 , 4129.23076923 , 4127.17948718 , 4124.1025641 , 4193.84615385 , 4140.51282051 , 4135.8974359 , 4191.79487179 , 4908.20512821 , 4122.05128205 , 4136.41025641 , 2042.0 , 2036.0 , 287.105 , 0.0 , 0.0 , 0.0 , 0.0 , 

61.0 , 4132.82051282 , 4127.69230769 , 4133.33333333 , 4126.15384615 , 4129.74358974 , 4126.15384615 , 4124.61538462 , 4197.43589744 , 4138.97435897 , 4139.48717949 , 4187.17948718 , 4908.71794872 , 4123.07692308 , 4135.38461538 , 2043.0 , 2036.0 , 287.11 , 0.0 , 0.0 , 0.0 , 0.0 , 

62.0 , 4131.28205128 , 4128.20512821 , 4128.20512821 , 4126.66666667 , 4128.71794872 , 4127.69230769 , 4125.12820513 , 4199.48717949 , 4145.12820513 , 4139.48717949 , 4188.71794872 , 4909.74358974 , 4131.28205128 , 4135.38461538 , 2043.0 , 2036.0 , 287.123 , 0.0 , 0.0 , 0.0 , 0.0 , 

63.0 , 4131.79487179 , 4128.20512821 , 4132.82051282 , 4127.69230769 , 4132.30769231 , 4127.69230769 , 4126.66666667 , 4189.23076923 , 4140.0 , 4137.43589744 , 4190.25641026 , 4907.17948718 , 4128.20512821 , 4136.41025641 , 2042.0 , 2035.0 , 287.126 , 0.0 , 0.0 , 0.0 , 0.0 , 

64.0 , 4128.20512821 , 4129.23076923 , 4134.87179487 , 4134.87179487 , 4131.79487179 , 4130.25641026 , 4132.30769231 , 4192.82051282 , 4147.69230769 , 4142.56410256 , 4191.28205128 , 4905.64102564 , 4133.84615385 , 4134.35897436 , 2041.0 , 2035.0 , 287.135 , 0.0 , 0.0 , 0.0 , 0.0 , 

65.0 , 4134.35897436 , 4127.69230769 , 4135.8974359 , 4131.28205128 , 4131.28205128 , 4128.71794872 , 4125.12820513 , 4177.94871795 , 4134.87179487 , 4141.02564103 , 4188.20512821 , 4912.82051282 , 4128.71794872 , 4137.43589744 , 2041.0 , 2035.0 , 287.143 , 0.0 , 0.0 , 0.0 , 0.0 , 

66.0 , 4132.82051282 , 4131.79487179 , 4125.12820513 , 4134.87179487 , 4131.28205128 , 4131.28205128 , 4131.79487179 , 4183.07692308 , 4137.94871795 , 4137.43589744 , 4192.82051282 , 4910.25641026 , 4142.05128205 , 4137.43589744 , 2041.0 , 2038.0 , 287.155 , 0.0 , 0.0 , 0.0 , 0.0 , 

67.0 , 4133.84615385 , 4124.61538462 , 4133.33333333 , 4127.17948718 , 4131.28205128 , 4120.51282051 , 4121.02564103 , 4170.76923077 , 4127.17948718 , 4137.94871795 , 4187.17948718 , 4912.82051282 , 4132.30769231 , 4138.97435897 , 2040.0 , 2038.0 , 287.158 , 0.0 , 0.0 , 0.0 , 0.0 , 

68.0 , 4129.74358974 , 4127.17948718 , 4131.79487179 , 4134.35897436 , 4130.25641026 , 4124.61538462 , 4121.53846154 , 4185.64102564 , 4137.43589744 , 4144.1025641 , 4191.28205128 , 4909.23076923 , 4138.97435897 , 4135.8974359 , 2040.0 , 2038.0 , 287.167 , 0.0 , 0.0 , 0.0 , 0.0 , 

69.0 , 4130.25641026 , 4123.58974359 , 4132.30769231 , 4126.15384615 , 4130.25641026 , 4121.53846154 , 4112.82051282 , 4176.41025641 , 4125.12820513 , 4137.43589744 , 4187.69230769 , 4912.30769231 , 4128.20512821 , 4137.43589744 , 2040.0 , 2039.0 , 287.174 , 0.0 , 0.0 , 0.0 , 0.0 , 

70.0 , 4129.74358974 , 4130.25641026 , 4123.07692308 , 4132.30769231 , 4127.69230769 , 4126.15384615 , 4125.64102564 , 4190.25641026 , 4140.0 , 4137.43589744 , 4191.28205128 , 4906.66666667 , 4140.0 , 4137.94871795 , 2039.0 , 2038.0 , 287.185 , 0.0 , 0.0 , 0.0 , 0.0 , 

71.0 , 4133.84615385 , 4122.56410256 , 4133.33333333 , 4125.64102564 , 4128.20512821 , 4120.51282051 , 4116.41025641 , 4181.02564103 , 4137.43589744 , 4141.53846154 , 4185.64102564 , 4909.23076923 , 4127.69230769 , 4141.53846154 , 2040.0 , 2039.0 , 287.189 , 0.0 , 0.0 , 0.0 , 0.0 , 

72.0 , 4129.74358974 , 4132.82051282 , 4127.69230769 , 4134.35897436 , 4132.30769231 , 4131.28205128 , 4127.17948718 , 4198.46153846 , 4141.53846154 , 4144.1025641 , 4193.84615385 , 4907.17948718 , 4134.87179487 , 4136.92307692 , 2040.0 , 2038.0 , 287.197 , 0.0 , 0.0 , 0.0 , 0.0 , 

73.0 , 4129.74358974 , 4130.25641026 , 4131.79487179 , 4130.25641026 , 4130.76923077 , 4126.15384615 , 4123.07692308 , 4189.74358974 , 4131.28205128 , 4137.43589744 , 4191.28205128 , 4916.41025641 , 4130.76923077 , 4135.8974359 , 2040.0 , 2038.0 , 287.206 , 0.0 , 0.0 , 0.0 , 0.0 , 

74.0 , 4132.30769231 , 4133.84615385 , 4130.25641026 , 4136.92307692 , 4128.20512821 , 4130.76923077 , 4133.84615385 , 4196.92307692 , 4146.66666667 , 4141.53846154 , 4191.79487179 , 4911.28205128 , 4138.97435897 , 4137.43589744 , 2041.0 , 2038.0 , 287.217 , 0.0 , 0.0 , 0.0 , 0.0 , 

75.0 , 4130.76923077 , 4128.71794872 , 4134.35897436 , 4129.74358974 , 4129.23076923 , 4128.71794872 , 4127.17948718 , 4190.25641026 , 4142.56410256 , 4143.07692308 , 4186.66666667 , 4907.69230769 , 4126.15384615 , 4140.51282051 , 2041.0 , 2038.0 , 287.221 , 0.0 , 0.0 , 0.0 , 0.0 , 

76.0 , 4130.25641026 , 4132.30769231 , 4130.76923077 , 4132.82051282 , 4132.30769231 , 4128.71794872 , 4127.17948718 , 4191.79487179 , 4139.48717949 , 4140.0 , 4190.76923077 , 4907.69230769 , 4129.23076923 , 4138.97435897 , 2041.0 , 2037.0 , 287.229 , 0.0 , 0.0 , 0.0 , 0.0 , 

77.0 , 4132.82051282 , 4124.61538462 , 4135.38461538 , 4130.76923077 , 4131.28205128 , 4120.51282051 , 4118.97435897 , 4180.51282051 , 4137.43589744 , 4137.43589744 , 4186.66666667 , 4915.38461538 , 4128.20512821 , 4138.46153846 , 2042.0 , 2037.0 , 287.238 , 0.0 , 0.0 , 0.0 , 0.0 , 

78.0 , 4135.38461538 , 4129.74358974 , 4133.84615385 , 4135.38461538 , 4131.79487179 , 4127.69230769 , 4126.15384615 , 4177.43589744 , 4132.30769231 , 4139.48717949 , 4186.66666667 , 4912.82051282 , 4128.20512821 , 4138.46153846 , 2044.0 , 2034.0 , 287.25 , 0.0 , 0.0 , 0.0 , 0.0 , 

79.0 , 4130.76923077 , 4131.79487179 , 4129.74358974 , 4135.8974359 , 4130.76923077 , 4129.74358974 , 4125.64102564 , 4177.43589744 , 4123.07692308 , 4136.41025641 , 4189.23076923 , 4912.30769231 , 4133.84615385 , 4141.53846154 , 2045.0 , 2034.0 , 287.252 , 0.0 , 0.0 , 0.0 , 0.0 , 

80.0 , 4133.33333333 , 4129.74358974 , 4130.25641026 , 4133.33333333 , 4131.79487179 , 4126.15384615 , 4121.02564103 , 4172.82051282 , 4120.0 , 4135.38461538 , 4190.25641026 , 4912.82051282 , 4137.94871795 , 4142.56410256 , 2047.0 , 2034.0 , 287.262 , 0.0 , 0.0 , 0.0 , 0.0 , 

81.0 , 4131.28205128 , 4128.20512821 , 4128.20512821 , 4131.79487179 , 4128.71794872 , 4128.20512821 , 4124.61538462 , 4178.46153846 , 4136.41025641 , 4139.48717949 , 4189.74358974 , 4908.20512821 , 4138.97435897 , 4137.43589744 , 2045.0 , 2034.0 , 287.269 , 0.0 , 0.0 , 0.0 , 0.0 , 

82.0 , 4131.79487179 , 4128.71794872 , 4128.71794872 , 4129.23076923 , 4128.71794872 , 4127.69230769 , 4121.02564103 , 4178.97435897 , 4135.38461538 , 4142.05128205 , 4188.71794872 , 4905.64102564 , 4132.30769231 , 4138.46153846 , 2044.0 , 2037.0 , 287.28 , 0.0 , 0.0 , 0.0 , 0.0 , 

83.0 , 4128.71794872 , 4131.28205128 , 4124.61538462 , 4136.92307692 , 4130.76923077 , 4129.23076923 , 4122.56410256 , 4193.33333333 , 4141.02564103 , 4142.56410256 , 4192.82051282 , 4905.12820513 , 4142.56410256 , 4138.97435897 , 2045.0 , 2039.0 , 287.283 , 0.0 , 0.0 , 0.0 , 0.0 , 

84.0 , 4129.23076923 , 4128.71794872 , 4130.25641026 , 4130.25641026 , 4132.82051282 , 4125.12820513 , 4122.05128205 , 4184.61538462 , 4130.76923077 , 4138.97435897 , 4187.69230769 , 4911.79487179 , 4131.28205128 , 4139.48717949 , 2045.0 , 2040.0 , 287.293 , 0.0 , 0.0 , 0.0 , 0.0 , 

85.0 , 4126.15384615 , 4131.79487179 , 4126.66666667 , 4130.76923077 , 4129.74358974 , 4131.28205128 , 4133.33333333 , 4197.94871795 , 4143.58974359 , 4139.48717949 , 4190.25641026 , 4911.79487179 , 4135.38461538 , 4136.92307692 , 2045.0 , 2041.0 , 287.3 , 0.0 , 0.0 , 0.0 , 0.0 , 

86.0 , 4131.79487179 , 4127.69230769 , 4137.43589744 , 4120.51282051 , 4129.74358974 , 4125.64102564 , 4121.02564103 , 4186.66666667 , 4137.94871795 , 4137.94871795 , 4185.64102564 , 4916.41025641 , 4121.02564103 , 4140.51282051 , 2044.0 , 2041.0 , 287.312 , 0.0 , 0.0 , 0.0 , 0.0 , 

87.0 , 4129.74358974 , 4132.30769231 , 4136.92307692 , 4125.64102564 , 4130.76923077 , 4131.79487179 , 4130.25641026 , 4195.8974359 , 4146.66666667 , 4140.0 , 4187.17948718 , 4909.74358974 , 4128.20512821 , 4137.43589744 , 2046.0 , 2038.0 , 287.315 , 0.0 , 0.0 , 0.0 , 0.0 , 

88.0 , 4128.71794872 , 4123.58974359 , 4142.56410256 , 4118.97435897 , 4130.25641026 , 4127.69230769 , 4127.69230769 , 4185.64102564 , 4132.82051282 , 4137.43589744 , 4181.53846154 , 4912.30769231 , 4119.48717949 , 4137.43589744 , 2044.0 , 2038.0 , 287.325 , 0.0 , 0.0 , 0.0 , 0.0 , 

89.0 , 4129.23076923 , 4131.79487179 , 4132.82051282 , 4130.76923077 , 4129.74358974 , 4135.8974359 , 4137.43589744 , 4205.64102564 , 4144.61538462 , 4141.02564103 , 4188.71794872 , 4909.74358974 , 4133.84615385 , 4137.43589744 , 2044.0 , 2035.0 , 287.331 , 0.0 , 0.0 , 0.0 , 0.0 , 

90.0 , 4135.8974359 , 4131.79487179 , 4135.8974359 , 4126.15384615 , 4130.76923077 , 4128.71794872 , 4124.61538462 , 4186.66666667 , 4131.79487179 , 4138.46153846 , 4185.12820513 , 4914.87179487 , 4124.1025641 , 4141.02564103 , 2046.0 , 2033.0 , 287.344 , 0.0 , 0.0 , 0.0 , 0.0 , 

91.0 , 4133.84615385 , 4135.8974359 , 4127.69230769 , 4136.41025641 , 4131.79487179 , 4132.30769231 , 4134.87179487 , 4180.0 , 4132.82051282 , 4140.51282051 , 4189.23076923 , 4914.35897436 , 4134.87179487 , 4138.46153846 , 2045.0 , 2031.0 , 287.347 , 0.0 , 0.0 , 0.0 , 0.0 , 

92.0 , 4131.28205128 , 4127.17948718 , 4130.76923077 , 4132.82051282 , 4129.74358974 , 4125.64102564 , 4127.69230769 , 4169.23076923 , 4128.20512821 , 4139.48717949 , 4188.20512821 , 4916.92307692 , 4131.28205128 , 4137.43589744 , 2043.0 , 2029.0 , 287.356 , 0.0 , 0.0 , 0.0 , 0.0 , 

93.0 , 4130.25641026 , 4133.84615385 , 4126.15384615 , 4137.43589744 , 4131.28205128 , 4130.25641026 , 4128.20512821 , 4186.66666667 , 4135.8974359 , 4138.97435897 , 4194.87179487 , 4907.17948718 , 4140.0 , 4137.43589744 , 2044.0 , 2029.0 , 287.363 , 0.0 , 0.0 , 0.0 , 0.0 , 

94.0 , 4130.25641026 , 4123.07692308 , 4128.71794872 , 4129.74358974 , 4131.79487179 , 4125.64102564 , 4118.97435897 , 4178.46153846 , 4128.20512821 , 4136.41025641 , 4190.76923077 , 4910.76923077 , 4132.82051282 , 4141.02564103 , 2045.0 , 2028.0 , 287.376 , 0.0 , 0.0 , 0.0 , 0.0 , 

95.0 , 4131.28205128 , 4119.48717949 , 4126.66666667 , 4132.30769231 , 4130.76923077 , 4124.1025641 , 4122.05128205 , 4176.41025641 , 4131.79487179 , 4138.97435897 , 4190.76923077 , 4911.28205128 , 4134.35897436 , 4139.48717949 , 2045.0 , 2028.0 , 287.378 , 0.0 , 0.0 , 0.0 , 0.0 , 

96.0 , 4131.79487179 , 4122.56410256 , 4131.28205128 , 4130.25641026 , 4127.69230769 , 4118.97435897 , 4113.84615385 , 4181.02564103 , 4136.41025641 , 4139.48717949 , 4189.23076923 , 4909.23076923 , 4130.76923077 , 4137.94871795 , 2045.0 , 2030.0 , 287.388 , 0.0 , 0.0 , 0.0 , 0.0 , 

97.0 , 4132.82051282 , 4129.23076923 , 4132.82051282 , 4128.71794872 , 4130.25641026 , 4123.07692308 , 4115.8974359 , 4195.8974359 , 4137.43589744 , 4140.0 , 4189.74358974 , 4907.17948718 , 4130.76923077 , 4138.46153846 , 2045.0 , 2029.0 , 287.394 , 0.0 , 0.0 , 0.0 , 0.0 , 

98.0 , 4128.20512821 , 4124.1025641 , 4130.76923077 , 4126.15384615 , 4129.74358974 , 4126.15384615 , 4121.53846154 , 4201.02564103 , 4144.61538462 , 4140.0 , 4189.23076923 , 4909.74358974 , 4133.33333333 , 4140.0 , 2044.0 , 2029.0 , 287.407 , 0.0 , 0.0 , 0.0 , 0.0 , 

99.0 , 4130.25641026 , 4126.15384615 , 4131.79487179 , 4127.69230769 , 4130.25641026 , 4126.15384615 , 4120.0 , 4190.25641026 , 4142.05128205 , 4141.53846154 , 4191.79487179 , 4907.17948718 , 4125.64102564 , 4137.94871795 , 2045.0 , 2029.0 , 287.41 , 0.0 , 0.0 , 0.0 , 0.0 , 

100.0 , 4129.74358974 , 4132.30769231 , 4129.74358974 , 4131.79487179 , 4131.28205128 , 4131.79487179 , 4125.64102564 , 4196.41025641 , 4143.58974359 , 4141.53846154 , 4196.41025641 , 4903.58974359 , 4131.28205128 , 4133.33333333 , 2046.0 , 2031.0 , 287.42 , 0.0 , 0.0 , 0.0 , 0.0 , 

101.0 , 4132.30769231 , 4130.25641026 , 4131.79487179 , 4127.17948718 , 4132.30769231 , 4130.76923077 , 4128.20512821 , 4193.33333333 , 4130.25641026 , 4140.0 , 4190.25641026 , 4909.23076923 , 4128.71794872 , 4138.46153846 , 2046.0 , 2033.0 , 287.427 , 0.0 , 0.0 , 0.0 , 0.0 , 

102.0 , 4129.23076923 , 4133.84615385 , 4127.17948718 , 4134.35897436 , 4128.71794872 , 4132.82051282 , 4134.35897436 , 4200.0 , 4138.46153846 , 4143.58974359 , 4191.28205128 , 4908.71794872 , 4135.38461538 , 4138.97435897 , 2047.0 , 2034.0 , 287.44 , 0.0 , 0.0 , 0.0 , 0.0 , 

103.0 , 4134.35897436 , 4130.76923077 , 4131.28205128 , 4134.35897436 , 4130.25641026 , 4128.71794872 , 4123.58974359 , 4175.38461538 , 4126.66666667 , 4141.53846154 , 4187.69230769 , 4912.82051282 , 4127.69230769 , 4137.43589744 , 2047.0 , 2033.0 , 287.442 , 0.0 , 0.0 , 0.0 , 0.0 , 

104.0 , 4131.28205128 , 4132.30769231 , 4125.64102564 , 4141.53846154 , 4133.33333333 , 4133.33333333 , 4126.66666667 , 4180.0 , 4134.35897436 , 4138.97435897 , 4190.25641026 , 4912.82051282 , 4143.07692308 , 4133.84615385 , 2048.0 , 2033.0 , 287.452 , 0.0 , 0.0 , 0.0 , 0.0 , 

105.0 , 4132.82051282 , 4126.15384615 , 4132.30769231 , 4134.35897436 , 4131.28205128 , 4123.07692308 , 4113.84615385 , 4171.79487179 , 4125.64102564 , 4134.87179487 , 4186.15384615 , 4917.43589744 , 4130.76923077 , 4140.0 , 2045.0 , 2034.0 , 287.458 , 0.0 , 0.0 , 0.0 , 0.0 , 

106.0 , 4128.71794872 , 4131.28205128 , 4125.64102564 , 4138.97435897 , 4126.15384615 , 4128.71794872 , 4119.48717949 , 4183.58974359 , 4134.87179487 , 4138.97435897 , 4192.82051282 , 4907.69230769 , 4138.46153846 , 4141.53846154 , 2044.0 , 2033.0 , 287.47 , 0.0 , 0.0 , 0.0 , 0.0 , 

107.0 , 4127.17948718 , 4123.07692308 , 4130.25641026 , 4128.20512821 , 4127.17948718 , 4122.05128205 , 4110.76923077 , 4170.76923077 , 4123.07692308 , 4137.43589744 , 4191.79487179 , 4909.23076923 , 4130.76923077 , 4140.51282051 , 2043.0 , 2034.0 , 287.473 , 0.0 , 0.0 , 0.0 , 0.0 , 

108.0 , 4126.66666667 , 4130.76923077 , 4127.17948718 , 4137.43589744 , 4131.28205128 , 4124.61538462 , 4121.53846154 , 4188.20512821 , 4136.92307692 , 4140.51282051 , 4197.43589744 , 4909.23076923 , 4139.48717949 , 4135.8974359 , 2042.0 , 2032.0 , 287.483 , 0.0 , 0.0 , 0.0 , 0.0 , 

109.0 , 4130.25641026 , 4127.69230769 , 4136.41025641 , 4131.28205128 , 4131.28205128 , 4120.0 , 4116.92307692 , 4180.0 , 4133.84615385 , 4140.0 , 4189.23076923 , 4912.82051282 , 4129.74358974 , 4139.48717949 , 2042.0 , 2032.0 , 287.49 , 0.0 , 0.0 , 0.0 , 0.0 , 

110.0 , 4127.69230769 , 4129.23076923 , 4129.74358974 , 4133.84615385 , 4130.76923077 , 4128.20512821 , 4129.74358974 , 4193.84615385 , 4145.12820513 , 4142.56410256 , 4191.79487179 , 4905.12820513 , 4142.05128205 , 4136.92307692 , 2044.0 , 2033.0 , 287.501 , 0.0 , 0.0 , 0.0 , 0.0 , 

111.0 , 4129.23076923 , 4122.56410256 , 4132.30769231 , 4125.64102564 , 4129.23076923 , 4122.05128205 , 4121.02564103 , 4188.71794872 , 4138.46153846 , 4141.02564103 , 4189.74358974 , 4909.23076923 , 4132.30769231 , 4134.87179487 , 2043.0 , 2033.0 , 287.505 , 0.0 , 0.0 , 0.0 , 0.0 , 

112.0 , 4133.84615385 , 4133.84615385 , 4130.76923077 , 4131.28205128 , 4129.74358974 , 4130.25641026 , 4129.23076923 , 4192.82051282 , 4134.87179487 , 4140.51282051 , 4190.76923077 , 4910.25641026 , 4131.79487179 , 4136.41025641 , 2042.0 , 2031.0 , 287.514 , 0.0 , 0.0 , 0.0 , 0.0 , 

113.0 , 4134.35897436 , 4131.28205128 , 4133.84615385 , 4127.17948718 , 4130.76923077 , 4132.82051282 , 4130.76923077 , 4184.1025641 , 4128.20512821 , 4136.41025641 , 4182.56410256 , 4914.35897436 , 4126.15384615 , 4138.97435897 , 2042.0 , 2033.0 , 287.521 , 0.0 , 0.0 , 0.0 , 0.0 , 

114.0 , 4134.35897436 , 4132.30769231 , 4133.33333333 , 4128.20512821 , 4131.79487179 , 4134.35897436 , 4132.82051282 , 4188.71794872 , 4138.46153846 , 4136.41025641 , 4184.61538462 , 4913.84615385 , 4129.23076923 , 4136.41025641 , 2042.0 , 2033.0 , 287.533 , 0.0 , 0.0 , 0.0 , 0.0 , 

115.0 , 4131.28205128 , 4131.28205128 , 4137.94871795 , 4126.66666667 , 4129.74358974 , 4126.66666667 , 4121.02564103 , 4189.74358974 , 4139.48717949 , 4137.43589744 , 4187.69230769 , 4914.35897436 , 4127.17948718 , 4135.38461538 , 2041.0 , 2033.0 , 287.535 , 0.0 , 0.0 , 0.0 , 0.0 , 

116.0 , 4132.82051282 , 4132.82051282 , 4135.8974359 , 4130.76923077 , 4131.79487179 , 4126.15384615 , 4122.05128205 , 4183.58974359 , 4129.74358974 , 4138.97435897 , 4190.25641026 , 4910.76923077 , 4127.69230769 , 4137.43589744 , 2041.0 , 2033.0 , 287.544 , 0.0 , 0.0 , 0.0 , 0.0 , 

117.0 , 4133.84615385 , 4130.25641026 , 4129.74358974 , 4136.92307692 , 4131.79487179 , 4127.69230769 , 4124.61538462 , 4176.92307692 , 4136.92307692 , 4140.51282051 , 4189.23076923 , 4910.76923077 , 4137.43589744 , 4136.92307692 , 2040.0 , 2035.0 , 287.552 , 0.0 , 0.0 , 0.0 , 0.0 , 

118.0 , 4135.38461538 , 4132.30769231 , 4131.79487179 , 4136.92307692 , 4131.28205128 , 4128.20512821 , 4116.92307692 , 4166.15384615 , 4132.30769231 , 4140.0 , 4187.69230769 , 4914.35897436 , 4140.0 , 4134.87179487 , 2043.0 , 2034.0 , 287.565 , 0.0 , 0.0 , 0.0 , 0.0 , 

119.0 , 4128.71794872 , 4130.76923077 , 4127.17948718 , 4136.92307692 , 4128.71794872 , 4129.23076923 , 4123.07692308 , 4176.92307692 , 4136.41025641 , 4140.51282051 , 4191.28205128 , 4908.20512821 , 4145.12820513 , 4135.38461538 , 2043.0 , 2035.0 , 287.567 , 0.0 , 0.0 , 0.0 , 0.0 , 

120.0 , 4130.76923077 , 4122.05128205 , 4128.71794872 , 4130.25641026 , 4127.69230769 , 4123.58974359 , 4125.64102564 , 4173.84615385 , 4131.79487179 , 4140.0 , 4187.17948718 , 4906.15384615 , 4130.76923077 , 4141.02564103 , 2042.0 , 2035.0 , 287.577 , 0.0 , 0.0 , 0.0 , 0.0 , 

121.0 , 4129.23076923 , 4129.74358974 , 4126.66666667 , 4136.41025641 , 4126.66666667 , 4130.25641026 , 4129.23076923 , 4189.23076923 , 4141.53846154 , 4141.53846154 , 4191.28205128 , 4906.15384615 , 4135.8974359 , 4136.41025641 , 2042.0 , 2035.0 , 287.584 , 0.0 , 0.0 , 0.0 , 0.0 , 

122.0 , 4129.23076923 , 4128.20512821 , 4136.41025641 , 4126.15384615 , 4129.23076923 , 4127.17948718 , 4116.92307692 , 4180.0 , 4130.76923077 , 4138.46153846 , 4189.74358974 , 4911.28205128 , 4128.71794872 , 4134.35897436 , 2043.0 , 2033.0 , 287.596 , 0.0 , 0.0 , 0.0 , 0.0 , 

123.0 , 4125.12820513 , 4124.61538462 , 4131.28205128 , 4126.15384615 , 4130.25641026 , 4128.20512821 , 4127.17948718 , 4198.97435897 , 4146.15384615 , 4141.02564103 , 4189.74358974 , 4906.66666667 , 4138.97435897 , 4135.8974359 , 2042.0 , 2033.0 , 287.599 , 0.0 , 0.0 , 0.0 , 0.0 , 

124.0 , 4129.74358974 , 4116.41025641 , 4138.46153846 , 4122.56410256 , 4128.20512821 , 4121.53846154 , 4120.0 , 4192.30769231 , 4137.43589744 , 4140.51282051 , 4185.12820513 , 4912.82051282 , 4123.58974359 , 4141.53846154 , 2043.0 , 2032.0 , 287.608 , 0.0 , 0.0 , 0.0 , 0.0 , 

125.0 , 4128.71794872 , 4127.69230769 , 4132.30769231 , 4134.87179487 , 4129.74358974 , 4134.35897436 , 4131.79487179 , 4200.51282051 , 4142.05128205 , 4141.02564103 , 4194.35897436 , 4908.71794872 , 4134.35897436 , 4139.48717949 , 2042.0 , 2033.0 , 287.616 , 0.0 , 0.0 , 0.0 , 0.0 , 

126.0 , 4130.25641026 , 4122.05128205 , 4138.46153846 , 4124.1025641 , 4131.79487179 , 4130.76923077 , 4124.61538462 , 4185.12820513 , 4132.30769231 , 4137.94871795 , 4187.17948718 , 4909.23076923 , 4127.17948718 , 4140.0 , 2041.0 , 2032.0 , 287.627 , 0.0 , 0.0 , 0.0 , 0.0 , 

127.0 , 4130.76923077 , 4130.25641026 , 4132.30769231 , 4133.84615385 , 4131.79487179 , 4136.41025641 , 4133.33333333 , 4201.53846154 , 4143.58974359 , 4140.51282051 , 4188.20512821 , 4906.15384615 , 4135.38461538 , 4136.92307692 , 2040.0 , 2031.0 , 287.63 , 0.0 , 0.0 , 0.0 , 0.0 , 

128.0 , 4132.82051282 , 4132.82051282 , 4134.87179487 , 4134.87179487 , 4130.76923077 , 4130.76923077 , 4124.61538462 , 4188.71794872 , 4131.79487179 , 4136.41025641 , 4185.12820513 , 4915.38461538 , 4126.66666667 , 4138.97435897 , 2042.0 , 2031.0 , 287.641 , 0.0 , 0.0 , 0.0 , 0.0 , 

0.0 , 4130.25641026 , 4139.48717949 , 4126.66666667 , 4141.02564103 , 4132.82051282 , 4133.84615385 , 4131.79487179 , 4190.25641026 , 4138.46153846 , 4139.48717949 , 4190.25641026 , 4911.79487179 , 4135.8974359 , 4137.94871795 , 2042.0 , 2028.0 , 287.646 , 0.0 , 0.0 , 0.0 , 0.0 , 

1.0 , 4130.25641026 , 4130.76923077 , 4130.76923077 , 4132.30769231 , 4130.76923077 , 4128.71794872 , 4122.56410256 , 4179.48717949 , 4134.35897436 , 4142.05128205 , 4186.66666667 , 4913.84615385 , 4126.66666667 , 4136.92307692 , 2041.0 , 2030.0 , 287.659 , 0.0 , 0.0 , 0.0 , 0.0 , 

2.0 , 4132.30769231 , 4133.84615385 , 4129.74358974 , 4137.94871795 , 4131.28205128 , 4133.84615385 , 4128.71794872 , 4178.97435897 , 4132.30769231 , 4140.0 , 4190.25641026 , 4909.74358974 , 4132.30769231 , 4136.41025641 , 2044.0 , 2030.0 , 287.661 , 0.0 , 0.0 , 0.0 , 0.0 , 

3.0 , 4130.76923077 , 4127.17948718 , 4133.33333333 , 4132.82051282 , 4131.28205128 , 4126.66666667 , 4121.53846154 , 4170.76923077 , 4123.07692308 , 4134.87179487 , 4189.23076923 , 4911.79487179 , 4135.38461538 , 4138.97435897 , 2044.0 , 2029.0 , 287.671 , 0.0 , 0.0 , 0.0 , 0.0 , 

4.0 , 4130.25641026 , 4128.71794872 , 4129.23076923 , 4130.76923077 , 4130.76923077 , 4123.58974359 , 4117.94871795 , 4175.38461538 , 4124.61538462 , 4136.92307692 , 4190.76923077 , 4910.25641026 , 4136.41025641 , 4138.97435897 , 2044.0 , 2031.0 , 287.679 , 0.0 , 0.0 , 0.0 , 0.0 , 

5.0 , 4126.66666667 , 4126.15384615 , 4129.74358974 , 4130.25641026 , 4127.17948718 , 4121.02564103 , 4117.43589744 , 4180.0 , 4131.79487179 , 4138.97435897 , 4190.25641026 , 4908.71794872 , 4132.30769231 , 4137.94871795 , 2043.0 , 2032.0 , 287.691 , 0.0 , 0.0 , 0.0 , 0.0 , 

6.0 , 4129.23076923 , 4122.05128205 , 4133.33333333 , 4131.79487179 , 4128.20512821 , 4121.53846154 , 4122.05128205 , 4183.07692308 , 4132.30769231 , 4141.53846154 , 4189.23076923 , 4907.17948718 , 4130.76923077 , 4141.02564103 , 2043.0 , 2032.0 , 287.694 , 0.0 , 0.0 , 0.0 , 0.0 , 

7.0 , 4129.74358974 , 4123.07692308 , 4132.82051282 , 4132.82051282 , 4128.20512821 , 4126.66666667 , 4123.07692308 , 4189.74358974 , 4143.07692308 , 4143.07692308 , 4188.71794872 , 4909.23076923 , 4134.87179487 , 4143.07692308 , 2043.0 , 2031.0 , 287.704 , 0.0 , 0.0 , 0.0 , 0.0 , 

8.0 , 4132.82051282 , 4129.74358974 , 4135.38461538 , 4129.23076923 , 4129.74358974 , 4130.76923077 , 4122.05128205 , 4184.61538462 , 4142.05128205 , 4140.51282051 , 4188.71794872 , 4908.71794872 , 4126.15384615 , 4141.02564103 , 2044.0 , 2031.0 , 287.71 , 0.0 , 0.0 , 0.0 , 0.0 , 

9.0 , 4128.20512821 , 4132.30769231 , 4129.74358974 , 4134.87179487 , 4130.25641026 , 4132.30769231 , 4130.25641026 , 4198.97435897 , 4149.23076923 , 4140.0 , 4192.82051282 , 4906.66666667 , 4134.87179487 , 4135.8974359 , 2044.0 , 2032.0 , 287.724 , 0.0 , 0.0 , 0.0 , 0.0 , 

10.0 , 4132.30769231 , 4127.69230769 , 4133.33333333 , 4131.79487179 , 4132.30769231 , 4125.64102564 , 4123.58974359 , 4193.84615385 , 4135.38461538 , 4137.43589744 , 4185.64102564 , 4914.87179487 , 4129.23076923 , 4137.43589744 , 2043.0 , 2032.0 , 287.726 , 0.0 , 0.0 , 0.0 , 0.0 , 

11.0 , 4131.28205128 , 4132.30769231 , 4132.30769231 , 4132.82051282 , 4130.76923077 , 4132.82051282 , 4130.25641026 , 4205.12820513 , 4141.02564103 , 4137.94871795 , 4189.23076923 , 4910.25641026 , 4134.87179487 , 4133.84615385 , 2045.0 , 2032.0 , 287.736 , 0.0 , 0.0 , 0.0 , 0.0 , 

12.0 , 4134.87179487 , 4126.15384615 , 4141.02564103 , 4123.58974359 , 4131.28205128 , 4128.20512821 , 4122.56410256 , 4186.66666667 , 4130.25641026 , 4138.97435897 , 4188.71794872 , 4909.74358974 , 4124.1025641 , 4135.38461538 , 2043.0 , 2032.0 , 287.742 , 0.0 , 0.0 , 0.0 , 0.0 , 

13.0 , 4132.82051282 , 4131.79487179 , 4131.79487179 , 4139.48717949 , 4130.25641026 , 4128.71794872 , 4127.17948718 , 4190.25641026 , 4140.0 , 4144.61538462 , 4191.28205128 , 4912.30769231 , 4135.38461538 , 4137.94871795 , 2044.0 , 2034.0 , 287.753 , 0.0 , 0.0 , 0.0 , 0.0 , 

14.0 , 4136.41025641 , 4132.82051282 , 4135.8974359 , 4135.8974359 , 4128.20512821 , 4121.53846154 , 4117.43589744 , 4171.79487179 , 4125.64102564 , 4139.48717949 , 4185.12820513 , 4921.02564103 , 4124.1025641 , 4141.02564103 , 2043.0 , 2034.0 , 287.757 , 0.0 , 0.0 , 0.0 , 0.0 , 

15.0 , 4131.28205128 , 4135.8974359 , 4130.76923077 , 4135.38461538 , 4128.71794872 , 4129.74358974 , 4128.71794872 , 4183.07692308 , 4133.84615385 , 4138.97435897 , 4192.30769231 , 4909.74358974 , 4137.94871795 , 4137.43589744 , 2043.0 , 2034.0 , 287.765 , 0.0 , 0.0 , 0.0 , 0.0 , 

16.0 , 4128.71794872 , 4122.05128205 , 4133.84615385 , 4128.71794872 , 4130.25641026 , 4121.02564103 , 4115.38461538 , 4166.66666667 , 4127.17948718 , 4140.0 , 4187.17948718 , 4910.76923077 , 4135.8974359 , 4138.97435897 , 2042.0 , 2035.0 , 287.773 , 0.0 , 0.0 , 0.0 , 0.0 , 

17.0 , 4127.69230769 , 4131.79487179 , 4128.71794872 , 4141.02564103 , 4131.28205128 , 4127.17948718 , 4125.64102564 , 4175.8974359 , 4140.51282051 , 4143.58974359 , 4192.82051282 , 4908.20512821 , 4143.07692308 , 4136.92307692 , 2041.0 , 2034.0 , 287.785 , 0.0 , 0.0 , 0.0 , 0.0 , 

18.0 , 4131.79487179 , 4130.25641026 , 4137.94871795 , 4128.20512821 , 4129.23076923 , 4126.15384615 , 4122.56410256 , 4176.41025641 , 4136.41025641 , 4140.0 , 4190.76923077 , 4909.23076923 , 4127.69230769 , 4138.97435897 , 2041.0 , 2035.0 , 287.789 , 0.0 , 0.0 , 0.0 , 0.0 , 

19.0 , 4133.84615385 , 4131.28205128 , 4131.28205128 , 4131.79487179 , 4130.25641026 , 4130.76923077 , 4127.17948718 , 4196.92307692 , 4140.51282051 , 4141.02564103 , 4192.82051282 , 4904.61538462 , 4138.46153846 , 4138.97435897 , 2042.0 , 2035.0 , 287.798 , 0.0 , 0.0 , 0.0 , 0.0 , 

20.0 , 4132.82051282 , 4125.64102564 , 4131.79487179 , 4132.82051282 , 4129.74358974 , 4125.64102564 , 4118.97435897 , 4190.76923077 , 4134.87179487 , 4140.51282051 , 4187.69230769 , 4912.82051282 , 4135.38461538 , 4139.48717949 , 2042.0 , 2034.0 , 287.805 , 0.0 , 0.0 , 0.0 , 0.0 , 

21.0 , 4130.25641026 , 4131.28205128 , 4130.76923077 , 4130.25641026 , 4130.76923077 , 4132.30769231 , 4126.66666667 , 4190.25641026 , 4139.48717949 , 4141.02564103 , 4189.74358974 , 4914.87179487 , 4132.30769231 , 4137.94871795 , 2043.0 , 2035.0 , 287.816 , 0.0 , 0.0 , 0.0 , 0.0 , 

22.0 , 4129.74358974 , 4128.20512821 , 4133.33333333 , 4121.02564103 , 4130.25641026 , 4128.20512821 , 4122.05128205 , 4187.17948718 , 4136.92307692 , 4138.46153846 , 4189.23076923 , 4915.38461538 , 4126.15384615 , 4137.43589744 , 2043.0 , 2035.0 , 287.819 , 0.0 , 0.0 , 0.0 , 0.0 , 

23.0 , 4133.84615385 , 4129.23076923 , 4133.84615385 , 4130.25641026 , 4131.79487179 , 4125.12820513 , 4124.1025641 , 4188.71794872 , 4133.84615385 , 4138.46153846 , 4190.76923077 , 4912.30769231 , 4127.69230769 , 4140.0 , 2044.0 , 2034.0 , 287.828 , 0.0 , 0.0 , 0.0 , 0.0 , 

24.0 , 4131.28205128 , 4126.66666667 , 4135.8974359 , 4132.30769231 , 4130.25641026 , 4128.20512821 , 4128.71794872 , 4191.28205128 , 4138.46153846 , 4140.0 , 4190.25641026 , 4909.74358974 , 4126.66666667 , 4138.97435897 , 2046.0 , 2034.0 , 287.835 , 0.0 , 0.0 , 0.0 , 0.0 , 

25.0 , 4132.82051282 , 4128.71794872 , 4134.87179487 , 4129.74358974 , 4130.25641026 , 4133.33333333 , 4126.15384615 , 4189.74358974 , 4138.46153846 , 4139.48717949 , 4189.23076923 , 4909.74358974 , 4123.58974359 , 4137.94871795 , 2045.0 , 2029.0 , 287.847 , 0.0 , 0.0 , 0.0 , 0.0 , 

26.0 , 4132.30769231 , 4133.33333333 , 4128.71794872 , 4137.94871795 , 4129.74358974 , 4131.79487179 , 4121.53846154 , 4192.82051282 , 4144.1025641 , 4137.94871795 , 4190.25641026 , 4909.74358974 , 4135.38461538 , 4138.46153846 , 2047.0 , 2029.0 , 287.85 , 0.0 , 0.0 , 0.0 , 0.0 , 

27.0 , 4133.84615385 , 4131.28205128 , 4131.79487179 , 4135.38461538 , 4130.76923077 , 4125.64102564 , 4120.0 , 4179.48717949 , 4132.30769231 , 4138.97435897 , 4189.74358974 , 4907.69230769 , 4131.79487179 , 4140.0 , 2046.0 , 2030.0 , 287.859 , 0.0 , 0.0 , 0.0 , 0.0 , 

28.0 , 4127.69230769 , 4130.76923077 , 4128.20512821 , 4135.38461538 , 4129.74358974 , 4129.74358974 , 4133.33333333 , 4188.20512821 , 4138.46153846 , 4143.07692308 , 4192.30769231 , 4904.61538462 , 4137.94871795 , 4135.38461538 , 2046.0 , 2032.0 , 287.867 , 0.0 , 0.0 , 0.0 , 0.0 , 

29.0 , 4131.79487179 , 4127.69230769 , 4133.84615385 , 4131.28205128 , 4130.25641026 , 4124.61538462 , 4124.61538462 , 4174.87179487 , 4129.23076923 , 4141.02564103 , 4183.07692308 , 4913.84615385 , 4128.71794872 , 4137.94871795 , 2045.0 , 2033.0 , 287.879 , 0.0 , 0.0 , 0.0 , 0.0 , 

30.0 , 4132.30769231 , 4129.23076923 , 4129.23076923 , 4134.35897436 , 4129.23076923 , 4127.69230769 , 4121.53846154 , 4180.51282051 , 4137.94871795 , 4142.05128205 , 4188.20512821 , 4909.74358974 , 4138.97435897 , 4138.46153846 , 2042.0 , 2035.0 , 287.882 , 0.0 , 0.0 , 0.0 , 0.0 , 

31.0 , 4131.28205128 , 4118.97435897 , 4134.35897436 , 4121.02564103 , 4129.23076923 , 4120.0 , 4111.28205128 , 4172.30769231 , 4127.69230769 , 4139.48717949 , 4191.79487179 , 4908.20512821 , 4130.25641026 , 4142.56410256 , 2042.0 , 2036.0 , 287.892 , 0.0 , 0.0 , 0.0 , 0.0 , 

32.0 , 4126.66666667 , 4125.64102564 , 4127.17948718 , 4131.79487179 , 4128.71794872 , 4123.58974359 , 4123.58974359 , 4195.8974359 , 4142.56410256 , 4138.97435897 , 4193.33333333 , 4904.61538462 , 4138.97435897 , 4140.51282051 , 2041.0 , 2037.0 , 287.898 , 0.0 , 0.0 , 0.0 , 0.0 , 

33.0 , 4131.79487179 , 4124.1025641 , 4132.82051282 , 4127.69230769 , 4128.20512821 , 4116.92307692 , 4112.82051282 , 4184.1025641 , 4130.76923077 , 4135.38461538 , 4185.12820513 , 4910.76923077 , 4126.66666667 , 4140.51282051 , 2041.0 , 2035.0 , 287.91 , 0.0 , 0.0 , 0.0 , 0.0 , 

34.0 , 4128.20512821 , 4128.71794872 , 4128.20512821 , 4135.38461538 , 4129.23076923 , 4124.61538462 , 4123.58974359 , 4197.43589744 , 4136.92307692 , 4138.46153846 , 4191.28205128 , 4908.71794872 , 4142.05128205 , 4139.48717949 , 2037.0 , 2036.0 , 287.913 , 0.0 , 0.0 , 0.0 , 0.0 , 

35.0 , 4127.17948718 , 4123.58974359 , 4135.8974359 , 4130.76923077 , 4130.25641026 , 4121.53846154 , 4122.56410256 , 4194.35897436 , 4133.84615385 , 4138.46153846 , 4185.64102564 , 4915.8974359 , 4134.87179487 , 4142.05128205 , 2036.0 , 2035.0 , 287.923 , 0.0 , 0.0 , 0.0 , 0.0 , 

36.0 , 4129.23076923 , 4135.8974359 , 4129.74358974 , 4136.41025641 , 4131.28205128 , 4131.28205128 , 4133.33333333 , 4204.1025641 , 4144.61538462 , 4140.0 , 4191.28205128 , 4906.66666667 , 4137.94871795 , 4138.46153846 , 2036.0 , 2034.0 , 287.93 , 0.0 , 0.0 , 0.0 , 0.0 , 

37.0 , 4130.76923077 , 4129.74358974 , 4130.25641026 , 4128.20512821 , 4130.25641026 , 4127.69230769 , 4122.56410256 , 4189.74358974 , 4133.33333333 , 4136.92307692 , 4190.76923077 , 4905.12820513 , 4129.74358974 , 4138.46153846 , 2035.0 , 2032.0 , 287.943 , 0.0 , 0.0 , 0.0 , 0.0 , 

38.0 , 4132.30769231 , 4131.28205128 , 4125.64102564 , 4138.97435897 , 4131.28205128 , 4129.74358974 , 4127.69230769 , 4198.46153846 , 4134.87179487 , 4137.94871795 , 4191.28205128 , 4907.69230769 , 4136.92307692 , 4136.92307692 , 2034.0 , 2030.0 , 287.945 , 0.0 , 0.0 , 0.0 , 0.0 , 

39.0 , 4135.8974359 , 4131.79487179 , 4133.33333333 , 4136.41025641 , 4132.82051282 , 4126.15384615 , 4121.53846154 , 4188.71794872 , 4129.74358974 , 4137.43589744 , 4184.61538462 , 4916.92307692 , 4130.25641026 , 4136.41025641 , 2035.0 , 2029.0 , 287.956 , 0.0 , 0.0 , 0.0 , 0.0 , 

40.0 , 4136.41025641 , 4136.92307692 , 4132.30769231 , 4134.87179487 , 4134.87179487 , 4130.25641026 , 4126.15384615 , 4178.97435897 , 4127.17948718 , 4138.46153846 , 4186.15384615 , 4915.38461538 , 4131.79487179 , 4136.41025641 , 2037.0 , 2029.0 , 287.962 , 0.0 , 0.0 , 0.0 , 0.0 , 

41.0 , 4130.76923077 , 4128.20512821 , 4130.76923077 , 4131.79487179 , 4129.23076923 , 4125.12820513 , 4122.56410256 , 4172.30769231 , 4126.15384615 , 4137.43589744 , 4185.12820513 , 4915.8974359 , 4132.30769231 , 4140.0 , 2038.0 , 2028.0 , 287.975 , 0.0 , 0.0 , 0.0 , 0.0 , 

42.0 , 4131.79487179 , 4129.23076923 , 4132.82051282 , 4130.76923077 , 4127.17948718 , 4125.12820513 , 4120.0 , 4173.33333333 , 4130.25641026 , 4137.94871795 , 4187.69230769 , 4911.79487179 , 4131.79487179 , 4140.51282051 , 2039.0 , 2027.0 , 287.978 , 0.0 , 0.0 , 0.0 , 0.0 , 

43.0 , 4130.76923077 , 4129.74358974 , 4132.82051282 , 4126.66666667 , 4128.71794872 , 4127.17948718 , 4121.53846154 , 4173.33333333 , 4137.43589744 , 4137.94871795 , 4190.25641026 , 4908.20512821 , 4134.87179487 , 4136.92307692 , 2039.0 , 2028.0 , 287.987 , 0.0 , 0.0 , 0.0 , 0.0 , 

44.0 , 4134.87179487 , 4127.17948718 , 4129.23076923 , 4128.20512821 , 4128.71794872 , 4123.58974359 , 4122.05128205 , 4172.82051282 , 4131.28205128 , 4137.43589744 , 4188.20512821 , 4909.23076923 , 4135.38461538 , 4136.41025641 , 2042.0 , 2029.0 , 287.993 , 0.0 , 0.0 , 0.0 , 0.0 , 

45.0 , 4131.79487179 , 4128.71794872 , 4126.66666667 , 4135.38461538 , 4125.64102564 , 4124.1025641 , 4126.15384615 , 4188.71794872 , 4140.51282051 , 4139.48717949 , 4190.25641026 , 4908.20512821 , 4141.53846154 , 4137.43589744 , 2042.0 , 2029.0 , 288.006 , 0.0 , 0.0 , 0.0 , 0.0 , 

46.0 , 4132.30769231 , 4124.1025641 , 4133.84615385 , 4128.20512821 , 4128.20512821 , 4125.12820513 , 4121.02564103 , 4183.07692308 , 4140.0 , 4140.51282051 , 4188.71794872 , 4908.20512821 , 4132.82051282 , 4140.51282051 , 2045.0 , 2031.0 , 288.009 , 0.0 , 0.0 , 0.0 , 0.0 , 

47.0 , 4129.74358974 , 4125.12820513 , 4126.66666667 , 4130.76923077 , 4130.76923077 , 4131.28205128 , 4129.23076923 , 4198.97435897 , 4152.30769231 , 4141.02564103 , 4191.79487179 , 4906.15384615 , 4138.97435897 , 4135.38461538 , 2045.0 , 2032.0 , 288.019 , 0.0 , 0.0 , 0.0 , 0.0 , 

48.0 , 4133.33333333 , 4124.1025641 , 4132.30769231 , 4124.1025641 , 4130.76923077 , 4124.1025641 , 4122.56410256 , 4189.74358974 , 4137.43589744 , 4138.46153846 , 4183.58974359 , 4911.28205128 , 4125.64102564 , 4135.8974359 , 2045.0 , 2031.0 , 288.026 , 0.0 , 0.0 , 0.0 , 0.0 , 

49.0 , 4129.74358974 , 4129.74358974 , 4134.87179487 , 4128.20512821 , 4130.25641026 , 4130.76923077 , 4130.76923077 , 4196.41025641 , 4143.58974359 , 4141.02564103 , 4185.12820513 , 4908.20512821 , 4132.30769231 , 4136.41025641 , 2045.0 , 2033.0 , 288.039 , 0.0 , 0.0 , 0.0 , 0.0 , 

50.0 , 4132.30769231 , 4124.61538462 , 4141.02564103 , 4123.07692308 , 4131.28205128 , 4128.20512821 , 4124.61538462 , 4184.1025641 , 4133.33333333 , 4137.94871795 , 4184.61538462 , 4915.38461538 , 4121.02564103 , 4137.94871795 , 2045.0 , 2034.0 , 288.041 , 0.0 , 0.0 , 0.0 , 0.0 , 

51.0 , 4130.76923077 , 4133.84615385 , 4129.74358974 , 4131.79487179 , 4132.30769231 , 4131.28205128 , 4132.82051282 , 4200.0 , 4141.53846154 , 4139.48717949 , 4191.28205128 , 4912.82051282 , 4131.28205128 , 4135.8974359 , 2045.0 , 2033.0 , 288.05 , 0.0 , 0.0 , 0.0 , 0.0 , 

52.0 , 4133.33333333 , 4130.25641026 , 4134.87179487 , 4122.56410256 , 4132.82051282 , 4122.05128205 , 4121.53846154 , 4178.46153846 , 4127.17948718 , 4139.48717949 , 4184.1025641 , 4913.33333333 , 4121.02564103 , 4138.97435897 , 2044.0 , 2034.0 , 288.057 , 0.0 , 0.0 , 0.0 , 0.0 , 

53.0 , 4131.79487179 , 4133.33333333 , 4128.20512821 , 4135.8974359 , 4132.30769231 , 4129.74358974 , 4129.23076923 , 4179.48717949 , 4138.97435897 , 4140.51282051 , 4189.74358974 , 4907.17948718 , 4137.43589744 , 4135.8974359 , 2044.0 , 2034.0 , 288.068 , 0.0 , 0.0 , 0.0 , 0.0 , 

54.0 , 4133.33333333 , 4127.69230769 , 4132.82051282 , 4137.43589744 , 4128.71794872 , 4127.17948718 , 4119.48717949 , 4169.74358974 , 4135.8974359 , 4135.8974359 , 4189.74358974 , 4913.84615385 , 4133.84615385 , 4138.97435897 , 2043.0 , 2034.0 , 288.071 , 0.0 , 0.0 , 0.0 , 0.0 , 

55.0 , 4130.76923077 , 4135.38461538 , 4127.69230769 , 4141.02564103 , 4129.23076923 , 4133.33333333 , 4130.76923077 , 4180.51282051 , 4139.48717949 , 4137.43589744 , 4193.33333333 , 4908.20512821 , 4140.0 , 4142.05128205 , 2042.0 , 2034.0 , 288.08 , 0.0 , 0.0 , 0.0 , 0.0 , 

56.0 , 4127.69230769 , 4128.71794872 , 4129.74358974 , 4129.74358974 , 4130.25641026 , 4127.69230769 , 4125.64102564 , 4171.79487179 , 4129.74358974 , 4140.51282051 , 4186.15384615 , 4909.23076923 , 4132.30769231 , 4138.97435897 , 2042.0 , 2032.0 , 288.089 , 0.0 , 0.0 , 0.0 , 0.0 , 

57.0 , 4128.71794872 , 4132.82051282 , 4126.15384615 , 4132.82051282 , 4131.79487179 , 4130.25641026 , 4125.12820513 , 4178.46153846 , 4136.41025641 , 4140.0 , 4190.25641026 , 4906.15384615 , 4136.92307692 , 4135.8974359 , 2042.0 , 2034.0 , 288.101 , 0.0 , 0.0 , 0.0 , 0.0 , 

58.0 , 4131.28205128 , 4127.17948718 , 4133.33333333 , 4125.64102564 , 4131.28205128 , 4123.07692308 , 4116.41025641 , 4175.8974359 , 4135.38461538 , 4134.87179487 , 4190.25641026 , 4906.66666667 , 4128.71794872 , 4144.1025641 , 2041.0 , 2033.0 , 288.103 , 0.0 , 0.0 , 0.0 , 0.0 , 

59.0 , 4131.28205128 , 4126.66666667 , 4132.82051282 , 4124.61538462 , 4132.82051282 , 4121.53846154 , 4124.61538462 , 4183.07692308 , 4135.8974359 , 4138.46153846 , 4189.23076923 , 4907.69230769 , 4129.74358974 , 4143.58974359 , 2041.0 , 2032.0 , 288.114 , 0.0 , 0.0 , 0.0 , 0.0 , 

60.0 , 4127.69230769 , 4123.07692308 , 4129.74358974 , 4125.12820513 , 4130.25641026 , 4118.97435897 , 4123.07692308 , 4190.25641026 , 4144.61538462 , 4142.05128205 , 4185.12820513 , 4915.8974359 , 4132.30769231 , 4135.38461538 , 2041.0 , 2034.0 , 288.12 , 0.0 , 0.0 , 0.0 , 0.0 , 

61.0 , 4131.28205128 , 4126.15384615 , 4130.76923077 , 4124.61538462 , 4130.76923077 , 4123.58974359 , 4123.07692308 , 4190.76923077 , 4146.66666667 , 4140.51282051 , 4185.64102564 , 4912.82051282 , 4127.69230769 , 4137.43589744 , 2043.0 , 2033.0 , 288.133 , 0.0 , 0.0 , 0.0 , 0.0 , 

62.0 , 4130.76923077 , 4127.69230769 , 4132.82051282 , 4126.15384615 , 4129.74358974 , 4131.28205128 , 4130.25641026 , 4194.87179487 , 4142.56410256 , 4137.94871795 , 4188.71794872 , 4903.07692308 , 4130.25641026 , 4140.0 , 2043.0 , 2034.0 , 288.135 , 0.0 , 0.0 , 0.0 , 0.0 , 

63.0 , 4130.76923077 , 4127.69230769 , 4136.41025641 , 4129.23076923 , 4131.79487179 , 4132.30769231 , 4130.25641026 , 4188.71794872 , 4133.33333333 , 4138.97435897 , 4187.69230769 , 4906.15384615 , 4129.23076923 , 4136.41025641 , 2043.0 , 2034.0 , 288.144 , 0.0 , 0.0 , 0.0 , 0.0 , 

64.0 , 4128.20512821 , 4133.84615385 , 4131.28205128 , 4133.33333333 , 4132.30769231 , 4135.8974359 , 4129.23076923 , 4195.38461538 , 4142.56410256 , 4140.51282051 , 4190.76923077 , 4910.76923077 , 4135.38461538 , 4134.87179487 , 2043.0 , 2036.0 , 288.151 , 0.0 , 0.0 , 0.0 , 0.0 , 

65.0 , 4134.35897436 , 4132.82051282 , 4133.84615385 , 4127.69230769 , 4132.30769231 , 4132.82051282 , 4120.0 , 4183.07692308 , 4131.79487179 , 4138.46153846 , 4188.71794872 , 4913.84615385 , 4128.20512821 , 4141.02564103 , 2043.0 , 2035.0 , 288.165 , 0.0 , 0.0 , 0.0 , 0.0 , 

66.0 , 4131.79487179 , 4134.87179487 , 4126.66666667 , 4136.41025641 , 4128.20512821 , 4132.30769231 , 4127.17948718 , 4191.28205128 , 4139.48717949 , 4139.48717949 , 4193.33333333 , 4910.25641026 , 4141.53846154 , 4138.97435897 , 2044.0 , 2036.0 , 288.167 , 0.0 , 0.0 , 0.0 , 0.0 , 

67.0 , 4132.30769231 , 4130.25641026 , 4132.30769231 , 4131.28205128 , 4128.20512821 , 4122.56410256 , 4117.94871795 , 4172.82051282 , 4124.61538462 , 4134.87179487 , 4185.12820513 , 4913.84615385 , 4131.79487179 , 4136.41025641 , 2044.0 , 2038.0 , 288.178 , 0.0 , 0.0 , 0.0 , 0.0 , 

68.0 , 4129.23076923 , 4132.82051282 , 4128.71794872 , 4132.82051282 , 4129.74358974 , 4129.23076923 , 4122.56410256 , 4178.46153846 , 4126.15384615 , 4134.87179487 , 4187.17948718 , 4910.25641026 , 4140.0 , 4136.41025641 , 2043.0 , 2036.0 , 288.183 , 0.0 , 0.0 , 0.0 , 0.0 , 

69.0 , 4132.30769231 , 4124.1025641 , 4133.84615385 , 4126.15384615 , 4129.23076923 , 4121.53846154 , 4111.28205128 , 4168.20512821 , 4116.92307692 , 4133.33333333 , 4186.66666667 , 4914.87179487 , 4132.82051282 , 4143.07692308 , 2041.0 , 2038.0 , 288.195 , 0.0 , 0.0 , 0.0 , 0.0 , 

70.0 , 4130.76923077 , 4131.79487179 , 4125.12820513 , 4137.43589744 , 4128.20512821 , 4124.1025641 , 4121.53846154 , 4186.15384615 , 4135.38461538 , 4137.43589744 , 4195.38461538 , 4907.69230769 , 4142.05128205 , 4141.02564103 , 2042.0 , 2037.0 , 288.197 , 0.0 , 0.0 , 0.0 , 0.0 , 

71.0 , 4133.33333333 , 4127.69230769 , 4134.87179487 , 4126.66666667 , 4127.69230769 , 4118.97435897 , 4116.92307692 , 4177.43589744 , 4129.74358974 , 4136.92307692 , 4188.71794872 , 4908.71794872 , 4129.74358974 , 4138.97435897 , 2044.0 , 2038.0 , 288.207 , 0.0 , 0.0 , 0.0 , 0.0 , 

72.0 , 4129.74358974 , 4128.71794872 , 4129.74358974 , 4132.82051282 , 4128.20512821 , 4126.66666667 , 4129.23076923 , 4190.76923077 , 4143.07692308 , 4140.0 , 4192.82051282 , 4905.12820513 , 4142.56410256 , 4135.8974359 , 2043.0 , 2039.0 , 288.215 , 0.0 , 0.0 , 0.0 , 0.0 , 

73.0 , 4129.23076923 , 4122.56410256 , 4131.28205128 , 4131.28205128 , 4126.66666667 , 4122.05128205 , 4118.97435897 , 4181.53846154 , 4140.0 , 4138.97435897 , 4192.30769231 , 4911.28205128 , 4133.84615385 , 4137.94871795 , 2042.0 , 2040.0 , 288.227 , 0.0 , 0.0 , 0.0 , 0.0 , 

74.0 , 4131.28205128 , 4131.28205128 , 4127.69230769 , 4135.8974359 , 4127.69230769 , 4131.79487179 , 4124.61538462 , 4194.87179487 , 4145.12820513 , 4139.48717949 , 4195.8974359 , 4909.74358974 , 4135.38461538 , 4135.8974359 , 2042.0 , 2038.0 , 288.23 , 0.0 , 0.0 , 0.0 , 0.0 , 

75.0 , 4130.76923077 , 4126.15384615 , 4136.92307692 , 4125.64102564 , 4128.71794872 , 4130.76923077 , 4120.51282051 , 4194.87179487 , 4138.97435897 , 4138.46153846 , 4187.17948718 , 4911.79487179 , 4127.17948718 , 4135.38461538 , 2043.0 , 2036.0 , 288.239 , 0.0 , 0.0 , 0.0 , 0.0 , 

