['COUNTER', 'AF3', 'F7', 'F3', 'FC5', 'T7', 'P7', 'O1', 'O2', 'P8', 'T8', 'FC6', 'F4', 'F8', 'AF4', 'GYROX', 'GYROY', 'TIMESTAMP', 'FUNC_ID', 'FUNC_VALUE', 'MARKER', 'SYNC_SIGNAL']
93.0 , 4125.64102564 , 4127.69230769 , 4130.76923077 , 4130.25641026 , 4128.20512821 , 4136.92307692 , 4124.1025641 , 4140.0 , 4126.66666667 , 4135.8974359 , 4123.07692308 , 4067.17948718 , 4153.84615385 , 4126.15384615 , 2040.0 , 2027.0 , 257.495 , 0.0 , 0.0 , 0.0 , 0.0 , 

94.0 , 4125.64102564 , 4128.71794872 , 4130.25641026 , 4129.74358974 , 4128.20512821 , 4137.43589744 , 4124.1025641 , 4138.46153846 , 4130.25641026 , 4135.8974359 , 4126.15384615 , 4069.74358974 , 4154.35897436 , 4127.17948718 , 2040.0 , 2028.0 , 257.511 , 0.0 , 0.0 , 0.0 , 0.0 , 

95.0 , 4125.64102564 , 4128.20512821 , 4131.28205128 , 4127.69230769 , 4129.74358974 , 4138.46153846 , 4124.61538462 , 4135.38461538 , 4130.25641026 , 4135.8974359 , 4128.20512821 , 4069.23076923 , 4155.38461538 , 4124.61538462 , 2041.0 , 2028.0 , 257.511 , 0.0 , 0.0 , 0.0 , 0.0 , 

96.0 , 4127.69230769 , 4128.20512821 , 4131.28205128 , 4127.69230769 , 4130.25641026 , 4135.38461538 , 4127.17948718 , 4135.38461538 , 4125.64102564 , 4135.8974359 , 4126.66666667 , 4066.66666667 , 4155.8974359 , 4124.61538462 , 2042.0 , 2032.0 , 257.527 , 0.0 , 0.0 , 0.0 , 0.0 , 

97.0 , 4128.20512821 , 4128.20512821 , 4128.71794872 , 4129.23076923 , 4131.28205128 , 4133.84615385 , 4126.15384615 , 4134.35897436 , 4124.1025641 , 4135.8974359 , 4123.07692308 , 4067.69230769 , 4151.79487179 , 4128.20512821 , 2040.0 , 2034.0 , 257.527 , 0.0 , 0.0 , 0.0 , 0.0 , 

98.0 , 4126.66666667 , 4128.71794872 , 4129.23076923 , 4129.74358974 , 4131.79487179 , 4134.35897436 , 4125.12820513 , 4135.8974359 , 4127.69230769 , 4135.8974359 , 4122.05128205 , 4071.28205128 , 4152.30769231 , 4128.71794872 , 2040.0 , 2036.0 , 257.542 , 0.0 , 0.0 , 0.0 , 0.0 , 

99.0 , 4129.74358974 , 4129.23076923 , 4132.30769231 , 4130.76923077 , 4130.76923077 , 4133.33333333 , 4125.64102564 , 4136.41025641 , 4131.79487179 , 4135.8974359 , 4125.12820513 , 4070.76923077 , 4153.84615385 , 4127.17948718 , 2040.0 , 2037.0 , 257.542 , 0.0 , 0.0 , 0.0 , 0.0 , 

100.0 , 4132.30769231 , 4127.69230769 , 4133.33333333 , 4131.28205128 , 4130.76923077 , 4135.38461538 , 4123.07692308 , 4133.84615385 , 4130.76923077 , 4135.8974359 , 4126.66666667 , 4067.69230769 , 4153.84615385 , 4129.23076923 , 2041.0 , 2036.0 , 257.56 , 0.0 , 0.0 , 0.0 , 0.0 , 

101.0 , 4129.23076923 , 4127.17948718 , 4133.84615385 , 4129.23076923 , 4131.79487179 , 4139.48717949 , 4121.02564103 , 4132.82051282 , 4127.69230769 , 4135.8974359 , 4125.12820513 , 4067.69230769 , 4153.33333333 , 4130.76923077 , 2042.0 , 2034.0 , 257.563 , 0.0 , 0.0 , 0.0 , 0.0 , 

102.0 , 4124.61538462 , 4129.74358974 , 4131.79487179 , 4126.66666667 , 4131.28205128 , 4136.41025641 , 4123.07692308 , 4133.33333333 , 4129.23076923 , 4135.8974359 , 4123.07692308 , 4070.25641026 , 4156.92307692 , 4126.66666667 , 2042.0 , 2036.0 , 257.563 , 0.0 , 0.0 , 0.0 , 0.0 , 

103.0 , 4126.66666667 , 4131.28205128 , 4131.28205128 , 4129.74358974 , 4130.25641026 , 4134.35897436 , 4124.1025641 , 4133.84615385 , 4129.74358974 , 4135.8974359 , 4123.58974359 , 4069.74358974 , 4155.38461538 , 4127.69230769 , 2044.0 , 2033.0 , 257.578 , 0.0 , 0.0 , 0.0 , 0.0 , 

104.0 , 4129.23076923 , 4129.74358974 , 4131.28205128 , 4130.76923077 , 4129.23076923 , 4136.92307692 , 4123.58974359 , 4132.30769231 , 4128.20512821 , 4135.8974359 , 4126.66666667 , 4069.74358974 , 4153.33333333 , 4130.25641026 , 2046.0 , 2032.0 , 257.578 , 0.0 , 0.0 , 0.0 , 0.0 , 

105.0 , 4128.20512821 , 4128.71794872 , 4133.33333333 , 4128.71794872 , 4129.74358974 , 4135.38461538 , 4122.56410256 , 4136.92307692 , 4126.66666667 , 4135.8974359 , 4126.15384615 , 4071.28205128 , 4154.87179487 , 4128.20512821 , 2046.0 , 2033.0 , 257.594 , 0.0 , 0.0 , 0.0 , 0.0 , 

106.0 , 4126.66666667 , 4128.71794872 , 4131.79487179 , 4130.25641026 , 4128.71794872 , 4134.35897436 , 4121.02564103 , 4135.38461538 , 4125.64102564 , 4135.8974359 , 4122.05128205 , 4066.66666667 , 4155.8974359 , 4125.64102564 , 2046.0 , 2032.0 , 257.594 , 0.0 , 0.0 , 0.0 , 0.0 , 

107.0 , 4127.17948718 , 4128.71794872 , 4130.25641026 , 4131.28205128 , 4128.71794872 , 4136.41025641 , 4123.58974359 , 4127.17948718 , 4126.66666667 , 4135.8974359 , 4121.02564103 , 4064.61538462 , 4152.82051282 , 4127.69230769 , 2048.0 , 2032.0 , 257.615 , 0.0 , 0.0 , 0.0 , 0.0 , 

108.0 , 4125.64102564 , 4128.20512821 , 4128.71794872 , 4127.69230769 , 4129.23076923 , 4136.92307692 , 4125.64102564 , 4127.17948718 , 4126.66666667 , 4135.8974359 , 4124.61538462 , 4070.76923077 , 4153.84615385 , 4129.23076923 , 2047.0 , 2033.0 , 257.624 , 0.0 , 0.0 , 0.0 , 0.0 , 

109.0 , 4127.17948718 , 4128.71794872 , 4127.69230769 , 4126.66666667 , 4127.69230769 , 4138.97435897 , 4123.07692308 , 4130.25641026 , 4124.61538462 , 4135.8974359 , 4126.15384615 , 4073.33333333 , 4152.82051282 , 4128.71794872 , 2046.0 , 2034.0 , 257.631 , 0.0 , 0.0 , 0.0 , 0.0 , 

110.0 , 4129.74358974 , 4129.23076923 , 4127.69230769 , 4129.74358974 , 4127.17948718 , 4138.46153846 , 4120.0 , 4128.20512821 , 4126.15384615 , 4135.8974359 , 4123.07692308 , 4069.74358974 , 4152.82051282 , 4127.69230769 , 2045.0 , 2034.0 , 257.638 , 0.0 , 0.0 , 0.0 , 0.0 , 

111.0 , 4129.23076923 , 4127.69230769 , 4131.28205128 , 4130.76923077 , 4130.25641026 , 4135.38461538 , 4122.56410256 , 4127.17948718 , 4127.69230769 , 4135.8974359 , 4122.56410256 , 4067.69230769 , 4152.82051282 , 4127.17948718 , 2044.0 , 2033.0 , 257.646 , 0.0 , 0.0 , 0.0 , 0.0 , 

112.0 , 4125.64102564 , 4126.15384615 , 4132.30769231 , 4128.71794872 , 4130.76923077 , 4134.87179487 , 4125.64102564 , 4129.74358974 , 4127.17948718 , 4135.8974359 , 4125.12820513 , 4068.20512821 , 4151.79487179 , 4128.20512821 , 2043.0 , 2032.0 , 257.654 , 0.0 , 0.0 , 0.0 , 0.0 , 

113.0 , 4124.61538462 , 4127.69230769 , 4128.71794872 , 4128.71794872 , 4129.23076923 , 4135.8974359 , 4124.1025641 , 4127.69230769 , 4129.23076923 , 4135.8974359 , 4126.15384615 , 4069.74358974 , 4151.79487179 , 4128.20512821 , 2043.0 , 2033.0 , 257.659 , 0.0 , 0.0 , 0.0 , 0.0 , 

114.0 , 4127.69230769 , 4129.23076923 , 4129.23076923 , 4130.25641026 , 4131.28205128 , 4136.92307692 , 4121.02564103 , 4125.12820513 , 4131.79487179 , 4135.8974359 , 4125.12820513 , 4071.79487179 , 4152.82051282 , 4127.17948718 , 2042.0 , 2034.0 , 257.659 , 0.0 , 0.0 , 0.0 , 0.0 , 

115.0 , 4129.23076923 , 4128.20512821 , 4131.28205128 , 4131.79487179 , 4131.79487179 , 4134.35897436 , 4119.48717949 , 4127.17948718 , 4127.17948718 , 4135.8974359 , 4125.64102564 , 4070.25641026 , 4151.79487179 , 4127.17948718 , 2042.0 , 2033.0 , 257.675 , 0.0 , 0.0 , 0.0 , 0.0 , 

116.0 , 4127.69230769 , 4127.69230769 , 4129.23076923 , 4131.79487179 , 4129.23076923 , 4130.25641026 , 4122.05128205 , 4130.25641026 , 4128.71794872 , 4135.8974359 , 4124.61538462 , 4069.23076923 , 4150.25641026 , 4127.17948718 , 2043.0 , 2033.0 , 257.675 , 0.0 , 0.0 , 0.0 , 0.0 , 

117.0 , 4126.15384615 , 4129.23076923 , 4129.23076923 , 4129.74358974 , 4129.74358974 , 4132.82051282 , 4124.1025641 , 4127.17948718 , 4132.30769231 , 4135.8974359 , 4122.05128205 , 4069.74358974 , 4150.25641026 , 4128.71794872 , 2041.0 , 2033.0 , 257.69 , 0.0 , 0.0 , 0.0 , 0.0 , 

118.0 , 4127.69230769 , 4130.25641026 , 4133.33333333 , 4127.17948718 , 4130.25641026 , 4136.41025641 , 4120.51282051 , 4123.58974359 , 4128.71794872 , 4135.8974359 , 4124.61538462 , 4069.23076923 , 4148.71794872 , 4131.28205128 , 2043.0 , 2033.0 , 257.69 , 0.0 , 0.0 , 0.0 , 0.0 , 

119.0 , 4128.71794872 , 4129.74358974 , 4132.30769231 , 4129.23076923 , 4128.20512821 , 4136.41025641 , 4117.94871795 , 4129.74358974 , 4126.15384615 , 4135.8974359 , 4126.15384615 , 4068.20512821 , 4148.71794872 , 4129.74358974 , 2042.0 , 2034.0 , 257.706 , 0.0 , 0.0 , 0.0 , 0.0 , 

120.0 , 4127.69230769 , 4129.23076923 , 4127.69230769 , 4133.33333333 , 4127.17948718 , 4136.92307692 , 4122.56410256 , 4134.35897436 , 4128.71794872 , 4135.8974359 , 4123.07692308 , 4069.74358974 , 4150.25641026 , 4127.17948718 , 2042.0 , 2035.0 , 257.706 , 0.0 , 0.0 , 0.0 , 0.0 , 

121.0 , 4125.12820513 , 4128.20512821 , 4127.17948718 , 4131.79487179 , 4128.71794872 , 4139.48717949 , 4125.12820513 , 4131.79487179 , 4128.20512821 , 4135.8974359 , 4121.53846154 , 4070.76923077 , 4153.84615385 , 4126.15384615 , 2042.0 , 2033.0 , 257.722 , 0.0 , 0.0 , 0.0 , 0.0 , 

122.0 , 4127.69230769 , 4129.23076923 , 4130.76923077 , 4128.20512821 , 4130.25641026 , 4137.94871795 , 4122.56410256 , 4132.30769231 , 4127.69230769 , 4135.8974359 , 4123.58974359 , 4071.28205128 , 4152.30769231 , 4126.66666667 , 2043.0 , 2033.0 , 257.722 , 0.0 , 0.0 , 0.0 , 0.0 , 

123.0 , 4132.30769231 , 4130.76923077 , 4130.25641026 , 4128.71794872 , 4129.23076923 , 4136.92307692 , 4121.53846154 , 4133.84615385 , 4129.23076923 , 4135.8974359 , 4125.64102564 , 4071.28205128 , 4149.23076923 , 4126.15384615 , 2043.0 , 2032.0 , 257.737 , 0.0 , 0.0 , 0.0 , 0.0 , 

124.0 , 4131.79487179 , 4131.28205128 , 4128.71794872 , 4130.76923077 , 4127.69230769 , 4138.97435897 , 4123.58974359 , 4131.28205128 , 4130.76923077 , 4135.8974359 , 4125.12820513 , 4071.79487179 , 4150.25641026 , 4126.66666667 , 2044.0 , 2030.0 , 257.737 , 0.0 , 0.0 , 0.0 , 0.0 , 

125.0 , 4127.17948718 , 4130.25641026 , 4128.20512821 , 4130.25641026 , 4128.71794872 , 4138.46153846 , 4122.56410256 , 4127.69230769 , 4130.25641026 , 4135.8974359 , 4125.12820513 , 4071.28205128 , 4155.8974359 , 4127.17948718 , 2044.0 , 2030.0 , 257.756 , 0.0 , 0.0 , 0.0 , 0.0 , 

126.0 , 4127.69230769 , 4128.20512821 , 4130.25641026 , 4129.74358974 , 4131.79487179 , 4137.43589744 , 4123.58974359 , 4126.66666667 , 4127.69230769 , 4135.8974359 , 4125.64102564 , 4069.23076923 , 4155.8974359 , 4127.69230769 , 2043.0 , 2032.0 , 257.763 , 0.0 , 0.0 , 0.0 , 0.0 , 

127.0 , 4129.23076923 , 4127.69230769 , 4128.71794872 , 4129.23076923 , 4131.28205128 , 4136.41025641 , 4122.56410256 , 4128.71794872 , 4125.64102564 , 4135.8974359 , 4125.64102564 , 4068.20512821 , 4153.84615385 , 4125.64102564 , 2043.0 , 2032.0 , 257.771 , 0.0 , 0.0 , 0.0 , 0.0 , 

128.0 , 4127.69230769 , 4128.71794872 , 4129.74358974 , 4129.74358974 , 4129.74358974 , 4137.43589744 , 4117.94871795 , 4133.84615385 , 4127.17948718 , 4135.8974359 , 4125.12820513 , 4070.76923077 , 4150.76923077 , 4125.64102564 , 2042.0 , 2035.0 , 257.779 , 0.0 , 0.0 , 0.0 , 0.0 , 

0.0 , 4125.64102564 , 4127.69230769 , 4130.76923077 , 4130.25641026 , 4128.71794872 , 4136.41025641 , 4120.0 , 4133.84615385 , 4127.69230769 , 4135.8974359 , 4124.1025641 , 4068.71794872 , 4149.74358974 , 4128.20512821 , 2043.0 , 2034.0 , 257.787 , 0.0 , 0.0 , 0.0 , 0.0 , 

1.0 , 4126.66666667 , 4129.23076923 , 4129.23076923 , 4130.76923077 , 4129.74358974 , 4132.82051282 , 4123.07692308 , 4131.28205128 , 4127.69230769 , 4135.8974359 , 4123.58974359 , 4065.12820513 , 4150.25641026 , 4129.74358974 , 2043.0 , 2037.0 , 257.794 , 0.0 , 0.0 , 0.0 , 0.0 , 

2.0 , 4128.20512821 , 4131.79487179 , 4130.25641026 , 4130.76923077 , 4130.25641026 , 4133.33333333 , 4118.46153846 , 4132.82051282 , 4130.76923077 , 4135.8974359 , 4122.56410256 , 4065.64102564 , 4152.30769231 , 4128.71794872 , 2042.0 , 2039.0 , 257.794 , 0.0 , 0.0 , 0.0 , 0.0 , 

3.0 , 4128.71794872 , 4130.25641026 , 4132.82051282 , 4131.28205128 , 4129.23076923 , 4138.97435897 , 4117.94871795 , 4133.84615385 , 4129.74358974 , 4135.8974359 , 4122.05128205 , 4068.20512821 , 4153.33333333 , 4127.69230769 , 2043.0 , 2039.0 , 257.809 , 0.0 , 0.0 , 0.0 , 0.0 , 

4.0 , 4128.20512821 , 4128.71794872 , 4131.79487179 , 4129.74358974 , 4127.69230769 , 4139.48717949 , 4125.64102564 , 4131.28205128 , 4126.66666667 , 4135.8974359 , 4122.56410256 , 4070.25641026 , 4152.82051282 , 4127.69230769 , 2043.0 , 2042.0 , 257.809 , 0.0 , 0.0 , 0.0 , 0.0 , 

5.0 , 4128.20512821 , 4128.71794872 , 4130.76923077 , 4129.74358974 , 4129.74358974 , 4133.84615385 , 4126.15384615 , 4132.82051282 , 4126.15384615 , 4135.8974359 , 4125.12820513 , 4070.25641026 , 4153.33333333 , 4127.17948718 , 2042.0 , 2042.0 , 257.825 , 0.0 , 0.0 , 0.0 , 0.0 , 

6.0 , 4129.23076923 , 4128.71794872 , 4131.79487179 , 4130.25641026 , 4130.25641026 , 4134.35897436 , 4123.07692308 , 4134.87179487 , 4126.15384615 , 4135.8974359 , 4126.66666667 , 4066.66666667 , 4154.35897436 , 4127.69230769 , 2041.0 , 2042.0 , 257.825 , 0.0 , 0.0 , 0.0 , 0.0 , 

7.0 , 4129.23076923 , 4130.76923077 , 4131.79487179 , 4129.23076923 , 4129.23076923 , 4137.43589744 , 4122.56410256 , 4133.33333333 , 4125.12820513 , 4135.8974359 , 4124.1025641 , 4066.66666667 , 4154.35897436 , 4129.23076923 , 2042.0 , 2043.0 , 257.844 , 0.0 , 0.0 , 0.0 , 0.0 , 

8.0 , 4127.17948718 , 4130.25641026 , 4132.82051282 , 4129.74358974 , 4129.74358974 , 4136.92307692 , 4122.56410256 , 4131.28205128 , 4126.15384615 , 4135.8974359 , 4125.12820513 , 4070.76923077 , 4154.87179487 , 4128.20512821 , 2043.0 , 2041.0 , 257.851 , 0.0 , 0.0 , 0.0 , 0.0 , 

9.0 , 4125.64102564 , 4126.66666667 , 4130.76923077 , 4131.79487179 , 4128.71794872 , 4134.35897436 , 4119.48717949 , 4131.79487179 , 4125.12820513 , 4135.8974359 , 4128.20512821 , 4069.74358974 , 4157.94871795 , 4127.69230769 , 2042.0 , 2038.0 , 257.859 , 0.0 , 0.0 , 0.0 , 0.0 , 

10.0 , 4127.17948718 , 4127.69230769 , 4128.71794872 , 4130.25641026 , 4127.69230769 , 4132.82051282 , 4117.43589744 , 4132.82051282 , 4124.1025641 , 4135.8974359 , 4128.20512821 , 4067.69230769 , 4155.8974359 , 4128.20512821 , 2040.0 , 2038.0 , 257.867 , 0.0 , 0.0 , 0.0 , 0.0 , 

11.0 , 4127.17948718 , 4129.23076923 , 4129.74358974 , 4127.17948718 , 4127.17948718 , 4135.38461538 , 4117.94871795 , 4134.87179487 , 4125.12820513 , 4135.8974359 , 4124.61538462 , 4068.71794872 , 4155.38461538 , 4128.20512821 , 2042.0 , 2034.0 , 257.875 , 0.0 , 0.0 , 0.0 , 0.0 , 

12.0 , 4127.17948718 , 4128.71794872 , 4131.28205128 , 4129.23076923 , 4129.23076923 , 4140.51282051 , 4118.46153846 , 4135.8974359 , 4125.64102564 , 4135.8974359 , 4125.12820513 , 4069.74358974 , 4157.43589744 , 4128.71794872 , 2043.0 , 2033.0 , 257.884 , 0.0 , 0.0 , 0.0 , 0.0 , 

13.0 , 4127.69230769 , 4129.23076923 , 4128.71794872 , 4128.71794872 , 4132.30769231 , 4137.94871795 , 4118.46153846 , 4134.87179487 , 4124.61538462 , 4135.8974359 , 4126.15384615 , 4069.74358974 , 4158.97435897 , 4127.17948718 , 2042.0 , 2034.0 , 257.892 , 0.0 , 0.0 , 0.0 , 0.0 , 

14.0 , 4127.69230769 , 4129.74358974 , 4129.23076923 , 4126.66666667 , 4130.25641026 , 4132.82051282 , 4116.92307692 , 4134.87179487 , 4126.15384615 , 4135.8974359 , 4124.1025641 , 4069.74358974 , 4157.94871795 , 4126.66666667 , 2043.0 , 2035.0 , 257.898 , 0.0 , 0.0 , 0.0 , 0.0 , 

15.0 , 4126.15384615 , 4128.71794872 , 4129.23076923 , 4128.20512821 , 4127.69230769 , 4134.35897436 , 4117.94871795 , 4135.38461538 , 4128.20512821 , 4135.8974359 , 4124.61538462 , 4071.79487179 , 4157.94871795 , 4129.23076923 , 2043.0 , 2034.0 , 257.906 , 0.0 , 0.0 , 0.0 , 0.0 , 

16.0 , 4127.69230769 , 4128.71794872 , 4129.23076923 , 4130.25641026 , 4130.76923077 , 4134.87179487 , 4121.02564103 , 4135.8974359 , 4127.17948718 , 4135.8974359 , 4126.66666667 , 4072.82051282 , 4154.35897436 , 4129.74358974 , 2041.0 , 2035.0 , 257.914 , 0.0 , 0.0 , 0.0 , 0.0 , 

17.0 , 4128.71794872 , 4129.74358974 , 4130.25641026 , 4128.71794872 , 4132.82051282 , 4133.33333333 , 4122.56410256 , 4134.87179487 , 4128.71794872 , 4135.8974359 , 4125.64102564 , 4071.28205128 , 4152.30769231 , 4127.17948718 , 2042.0 , 2035.0 , 257.922 , 0.0 , 0.0 , 0.0 , 0.0 , 

18.0 , 4127.17948718 , 4129.74358974 , 4131.28205128 , 4127.69230769 , 4130.25641026 , 4132.82051282 , 4124.61538462 , 4134.87179487 , 4130.25641026 , 4135.8974359 , 4125.64102564 , 4069.23076923 , 4155.8974359 , 4127.17948718 , 2043.0 , 2037.0 , 257.93 , 0.0 , 0.0 , 0.0 , 0.0 , 

19.0 , 4124.1025641 , 4128.20512821 , 4129.23076923 , 4127.17948718 , 4128.20512821 , 4131.79487179 , 4124.61538462 , 4135.8974359 , 4129.74358974 , 4135.8974359 , 4127.17948718 , 4069.23076923 , 4159.48717949 , 4127.69230769 , 2043.0 , 2035.0 , 257.938 , 0.0 , 0.0 , 0.0 , 0.0 , 

20.0 , 4127.69230769 , 4127.69230769 , 4129.23076923 , 4128.20512821 , 4129.74358974 , 4133.84615385 , 4124.1025641 , 4136.92307692 , 4127.69230769 , 4135.8974359 , 4125.64102564 , 4070.25641026 , 4157.94871795 , 4126.66666667 , 2041.0 , 2035.0 , 257.946 , 0.0 , 0.0 , 0.0 , 0.0 , 

21.0 , 4129.74358974 , 4129.23076923 , 4132.82051282 , 4129.74358974 , 4129.74358974 , 4137.94871795 , 4124.1025641 , 4135.8974359 , 4128.71794872 , 4135.8974359 , 4123.07692308 , 4071.28205128 , 4160.0 , 4126.66666667 , 2040.0 , 2036.0 , 257.954 , 0.0 , 0.0 , 0.0 , 0.0 , 

22.0 , 4126.66666667 , 4130.25641026 , 4134.35897436 , 4128.20512821 , 4127.17948718 , 4135.8974359 , 4124.61538462 , 4135.38461538 , 4130.76923077 , 4135.8974359 , 4125.64102564 , 4070.25641026 , 4163.58974359 , 4127.17948718 , 2040.0 , 2035.0 , 257.962 , 0.0 , 0.0 , 0.0 , 0.0 , 

23.0 , 4126.15384615 , 4130.25641026 , 4133.33333333 , 4127.69230769 , 4127.17948718 , 4132.30769231 , 4123.58974359 , 4135.38461538 , 4131.28205128 , 4135.8974359 , 4127.69230769 , 4068.20512821 , 4161.02564103 , 4127.17948718 , 2038.0 , 2034.0 , 257.969 , 0.0 , 0.0 , 0.0 , 0.0 , 

24.0 , 4128.71794872 , 4130.25641026 , 4133.33333333 , 4129.74358974 , 4129.74358974 , 4136.41025641 , 4122.56410256 , 4134.87179487 , 4128.71794872 , 4135.8974359 , 4125.64102564 , 4067.69230769 , 4157.43589744 , 4127.17948718 , 2040.0 , 2034.0 , 257.977 , 0.0 , 0.0 , 0.0 , 0.0 , 

25.0 , 4127.17948718 , 4130.25641026 , 4132.82051282 , 4131.79487179 , 4128.20512821 , 4141.02564103 , 4122.56410256 , 4136.41025641 , 4126.66666667 , 4135.8974359 , 4124.61538462 , 4068.71794872 , 4157.94871795 , 4127.69230769 , 2041.0 , 2034.0 , 257.985 , 0.0 , 0.0 , 0.0 , 0.0 , 

26.0 , 4125.12820513 , 4130.25641026 , 4129.74358974 , 4128.71794872 , 4127.69230769 , 4137.43589744 , 4123.58974359 , 4137.94871795 , 4129.23076923 , 4135.8974359 , 4125.12820513 , 4069.23076923 , 4159.48717949 , 4127.17948718 , 2040.0 , 2035.0 , 257.993 , 0.0 , 0.0 , 0.0 , 0.0 , 

27.0 , 4127.17948718 , 4128.71794872 , 4130.25641026 , 4128.20512821 , 4131.28205128 , 4132.30769231 , 4125.64102564 , 4136.41025641 , 4131.28205128 , 4135.8974359 , 4127.17948718 , 4070.25641026 , 4157.94871795 , 4127.17948718 , 2042.0 , 2035.0 , 258.001 , 0.0 , 0.0 , 0.0 , 0.0 , 

28.0 , 4126.66666667 , 4126.66666667 , 4130.25641026 , 4129.23076923 , 4131.79487179 , 4131.79487179 , 4124.1025641 , 4134.35897436 , 4130.25641026 , 4135.8974359 , 4127.69230769 , 4070.76923077 , 4160.0 , 4127.17948718 , 2044.0 , 2035.0 , 258.01 , 0.0 , 0.0 , 0.0 , 0.0 , 

29.0 , 4127.69230769 , 4127.17948718 , 4128.71794872 , 4128.71794872 , 4129.23076923 , 4135.8974359 , 4124.61538462 , 4134.87179487 , 4128.71794872 , 4135.8974359 , 4128.71794872 , 4070.76923077 , 4159.48717949 , 4127.69230769 , 2043.0 , 2033.0 , 258.017 , 0.0 , 0.0 , 0.0 , 0.0 , 

30.0 , 4127.69230769 , 4129.23076923 , 4128.71794872 , 4128.20512821 , 4128.71794872 , 4134.87179487 , 4126.66666667 , 4136.41025641 , 4127.69230769 , 4135.8974359 , 4128.20512821 , 4071.28205128 , 4157.94871795 , 4126.66666667 , 2043.0 , 2034.0 , 258.025 , 0.0 , 0.0 , 0.0 , 0.0 , 

31.0 , 4124.61538462 , 4130.76923077 , 4132.30769231 , 4130.25641026 , 4129.23076923 , 4130.76923077 , 4127.17948718 , 4137.43589744 , 4128.71794872 , 4135.8974359 , 4126.15384615 , 4070.25641026 , 4156.92307692 , 4126.15384615 , 2043.0 , 2032.0 , 258.032 , 0.0 , 0.0 , 0.0 , 0.0 , 

32.0 , 4125.12820513 , 4130.25641026 , 4132.30769231 , 4129.23076923 , 4128.20512821 , 4131.28205128 , 4125.12820513 , 4134.87179487 , 4129.74358974 , 4135.8974359 , 4128.20512821 , 4067.17948718 , 4160.51282051 , 4126.66666667 , 2042.0 , 2033.0 , 258.04 , 0.0 , 0.0 , 0.0 , 0.0 , 

33.0 , 4128.71794872 , 4128.20512821 , 4129.74358974 , 4126.66666667 , 4127.69230769 , 4132.82051282 , 4123.07692308 , 4133.33333333 , 4133.84615385 , 4135.8974359 , 4129.23076923 , 4066.15384615 , 4159.48717949 , 4127.69230769 , 2042.0 , 2033.0 , 258.048 , 0.0 , 0.0 , 0.0 , 0.0 , 

34.0 , 4127.69230769 , 4127.17948718 , 4126.15384615 , 4128.20512821 , 4128.71794872 , 4131.28205128 , 4123.07692308 , 4134.87179487 , 4135.8974359 , 4135.8974359 , 4124.61538462 , 4068.20512821 , 4159.48717949 , 4126.66666667 , 2042.0 , 2034.0 , 258.056 , 0.0 , 0.0 , 0.0 , 0.0 , 

35.0 , 4128.71794872 , 4129.23076923 , 4128.71794872 , 4130.25641026 , 4129.74358974 , 4130.25641026 , 4125.64102564 , 4135.38461538 , 4128.20512821 , 4135.8974359 , 4122.56410256 , 4070.25641026 , 4161.02564103 , 4126.66666667 , 2041.0 , 2034.0 , 258.064 , 0.0 , 0.0 , 0.0 , 0.0 , 

36.0 , 4128.20512821 , 4129.74358974 , 4132.82051282 , 4128.20512821 , 4128.20512821 , 4132.30769231 , 4125.12820513 , 4134.87179487 , 4123.07692308 , 4135.8974359 , 4127.69230769 , 4068.20512821 , 4160.0 , 4127.69230769 , 2040.0 , 2034.0 , 258.072 , 0.0 , 0.0 , 0.0 , 0.0 , 

37.0 , 4125.12820513 , 4128.20512821 , 4132.82051282 , 4127.69230769 , 4126.66666667 , 4131.79487179 , 4124.1025641 , 4135.8974359 , 4129.23076923 , 4135.8974359 , 4128.20512821 , 4066.66666667 , 4158.97435897 , 4128.20512821 , 2038.0 , 2033.0 , 258.08 , 0.0 , 0.0 , 0.0 , 0.0 , 

38.0 , 4125.12820513 , 4127.17948718 , 4129.74358974 , 4127.69230769 , 4129.23076923 , 4131.28205128 , 4127.17948718 , 4136.92307692 , 4132.30769231 , 4135.8974359 , 4124.1025641 , 4068.20512821 , 4162.05128205 , 4128.20512821 , 2038.0 , 2034.0 , 258.088 , 0.0 , 0.0 , 0.0 , 0.0 , 

39.0 , 4128.20512821 , 4127.17948718 , 4129.23076923 , 4128.20512821 , 4131.28205128 , 4132.82051282 , 4127.69230769 , 4135.38461538 , 4128.20512821 , 4135.8974359 , 4126.15384615 , 4069.23076923 , 4160.51282051 , 4128.20512821 , 2036.0 , 2034.0 , 258.095 , 0.0 , 0.0 , 0.0 , 0.0 , 

40.0 , 4127.69230769 , 4126.66666667 , 4128.20512821 , 4128.71794872 , 4128.71794872 , 4132.82051282 , 4126.66666667 , 4135.38461538 , 4128.71794872 , 4135.8974359 , 4126.66666667 , 4066.66666667 , 4160.51282051 , 4127.69230769 , 2036.0 , 2035.0 , 258.103 , 0.0 , 0.0 , 0.0 , 0.0 , 

41.0 , 4126.66666667 , 4126.66666667 , 4128.71794872 , 4128.71794872 , 4127.17948718 , 4131.79487179 , 4129.74358974 , 4137.43589744 , 4129.74358974 , 4135.8974359 , 4124.1025641 , 4066.66666667 , 4165.64102564 , 4128.20512821 , 2036.0 , 2034.0 , 258.147 , 0.0 , 0.0 , 0.0 , 0.0 , 

42.0 , 4126.66666667 , 4128.20512821 , 4133.33333333 , 4127.69230769 , 4129.23076923 , 4129.74358974 , 4132.30769231 , 4136.41025641 , 4128.20512821 , 4135.8974359 , 4125.12820513 , 4069.74358974 , 4163.58974359 , 4126.66666667 , 2035.0 , 2036.0 , 258.15 , 0.0 , 0.0 , 0.0 , 0.0 , 

43.0 , 4126.66666667 , 4127.69230769 , 4134.87179487 , 4127.17948718 , 4128.71794872 , 4129.74358974 , 4131.79487179 , 4134.87179487 , 4126.15384615 , 4135.8974359 , 4126.66666667 , 4068.20512821 , 4162.05128205 , 4124.61538462 , 2036.0 , 2038.0 , 258.15 , 0.0 , 0.0 , 0.0 , 0.0 , 

44.0 , 4127.69230769 , 4128.71794872 , 4133.84615385 , 4128.71794872 , 4125.64102564 , 4130.76923077 , 4132.82051282 , 4137.94871795 , 4126.15384615 , 4135.8974359 , 4124.61538462 , 4065.64102564 , 4168.71794872 , 4126.15384615 , 2034.0 , 2039.0 , 258.15 , 0.0 , 0.0 , 0.0 , 0.0 , 

45.0 , 4126.66666667 , 4130.25641026 , 4131.79487179 , 4128.71794872 , 4126.15384615 , 4129.23076923 , 4134.35897436 , 4140.51282051 , 4128.71794872 , 4135.8974359 , 4124.1025641 , 4066.66666667 , 4170.25641026 , 4125.12820513 , 2032.0 , 2041.0 , 258.15 , 0.0 , 0.0 , 0.0 , 0.0 , 

46.0 , 4126.15384615 , 4128.20512821 , 4131.79487179 , 4125.64102564 , 4127.69230769 , 4128.71794872 , 4133.84615385 , 4139.48717949 , 4130.25641026 , 4135.8974359 , 4124.61538462 , 4068.20512821 , 4162.56410256 , 4123.07692308 , 2033.0 , 2041.0 , 258.152 , 0.0 , 0.0 , 0.0 , 0.0 , 

47.0 , 4126.15384615 , 4127.69230769 , 4132.30769231 , 4124.61538462 , 4127.69230769 , 4130.25641026 , 4134.87179487 , 4138.97435897 , 4129.74358974 , 4135.8974359 , 4129.74358974 , 4065.12820513 , 4165.12820513 , 4125.12820513 , 2033.0 , 2042.0 , 258.158 , 0.0 , 0.0 , 0.0 , 0.0 , 

48.0 , 4127.17948718 , 4129.23076923 , 4133.33333333 , 4125.64102564 , 4128.71794872 , 4129.23076923 , 4138.97435897 , 4142.05128205 , 4130.25641026 , 4135.8974359 , 4136.41025641 , 4063.58974359 , 4168.71794872 , 4127.17948718 , 2034.0 , 2038.0 , 258.166 , 0.0 , 0.0 , 0.0 , 0.0 , 

49.0 , 4126.15384615 , 4125.64102564 , 4130.25641026 , 4126.66666667 , 4128.71794872 , 4126.15384615 , 4141.53846154 , 4141.02564103 , 4127.69230769 , 4135.8974359 , 4131.79487179 , 4065.12820513 , 4167.69230769 , 4126.66666667 , 2035.0 , 2036.0 , 258.174 , 0.0 , 0.0 , 0.0 , 0.0 , 

50.0 , 4127.69230769 , 4124.1025641 , 4132.30769231 , 4126.66666667 , 4127.69230769 , 4126.66666667 , 4140.51282051 , 4139.48717949 , 4126.15384615 , 4135.8974359 , 4125.12820513 , 4064.61538462 , 4169.74358974 , 4126.15384615 , 2035.0 , 2034.0 , 258.182 , 0.0 , 0.0 , 0.0 , 0.0 , 

51.0 , 4128.71794872 , 4126.66666667 , 4136.41025641 , 4123.58974359 , 4127.17948718 , 4128.20512821 , 4141.02564103 , 4145.12820513 , 4128.71794872 , 4135.8974359 , 4131.28205128 , 4066.15384615 , 4175.8974359 , 4121.53846154 , 2038.0 , 2037.0 , 258.19 , 0.0 , 0.0 , 0.0 , 0.0 , 

52.0 , 4127.69230769 , 4128.20512821 , 4133.84615385 , 4124.1025641 , 4128.71794872 , 4127.69230769 , 4142.56410256 , 4146.15384615 , 4131.28205128 , 4135.8974359 , 4137.94871795 , 4067.69230769 , 4174.35897436 , 4121.53846154 , 2037.0 , 2038.0 , 258.193 , 0.0 , 0.0 , 0.0 , 0.0 , 

53.0 , 4125.12820513 , 4126.66666667 , 4130.25641026 , 4126.15384615 , 4128.71794872 , 4125.12820513 , 4140.0 , 4141.53846154 , 4130.76923077 , 4135.8974359 , 4132.82051282 , 4061.02564103 , 4169.23076923 , 4127.69230769 , 2040.0 , 2038.0 , 258.193 , 0.0 , 0.0 , 0.0 , 0.0 , 

54.0 , 4126.15384615 , 4126.66666667 , 4132.30769231 , 4127.69230769 , 4127.69230769 , 4125.12820513 , 4140.0 , 4140.51282051 , 4127.69230769 , 4135.8974359 , 4130.76923077 , 4057.43589744 , 4167.17948718 , 4129.23076923 , 2040.0 , 2039.0 , 258.224 , 0.0 , 0.0 , 0.0 , 0.0 , 

55.0 , 4126.66666667 , 4127.17948718 , 4134.35897436 , 4128.20512821 , 4126.66666667 , 4127.17948718 , 4140.51282051 , 4139.48717949 , 4125.64102564 , 4135.8974359 , 4132.30769231 , 4063.07692308 , 4167.69230769 , 4127.69230769 , 2040.0 , 2041.0 , 258.224 , 0.0 , 0.0 , 0.0 , 0.0 , 

56.0 , 4125.64102564 , 4126.66666667 , 4134.87179487 , 4128.20512821 , 4127.69230769 , 4127.69230769 , 4136.41025641 , 4137.43589744 , 4127.17948718 , 4135.8974359 , 4129.23076923 , 4063.07692308 , 4164.61538462 , 4128.71794872 , 2040.0 , 2042.0 , 258.224 , 0.0 , 0.0 , 0.0 , 0.0 , 

57.0 , 4126.15384615 , 4127.69230769 , 4131.28205128 , 4127.17948718 , 4128.20512821 , 4126.15384615 , 4132.30769231 , 4136.92307692 , 4128.20512821 , 4135.8974359 , 4123.07692308 , 4057.43589744 , 4162.05128205 , 4127.69230769 , 2042.0 , 2042.0 , 258.224 , 0.0 , 0.0 , 0.0 , 0.0 , 

58.0 , 4128.71794872 , 4129.74358974 , 4126.15384615 , 4130.25641026 , 4127.69230769 , 4126.15384615 , 4130.25641026 , 4133.84615385 , 4126.66666667 , 4135.8974359 , 4122.05128205 , 4056.92307692 , 4161.02564103 , 4127.17948718 , 2043.0 , 2041.0 , 258.24 , 0.0 , 0.0 , 0.0 , 0.0 , 

59.0 , 4128.71794872 , 4130.25641026 , 4128.20512821 , 4132.82051282 , 4127.17948718 , 4126.66666667 , 4129.74358974 , 4131.28205128 , 4127.69230769 , 4135.8974359 , 4123.58974359 , 4060.0 , 4158.46153846 , 4128.71794872 , 2043.0 , 2040.0 , 258.24 , 0.0 , 0.0 , 0.0 , 0.0 , 

60.0 , 4129.23076923 , 4128.71794872 , 4133.84615385 , 4128.20512821 , 4126.15384615 , 4127.17948718 , 4128.71794872 , 4130.76923077 , 4130.76923077 , 4135.8974359 , 4123.07692308 , 4060.51282051 , 4156.92307692 , 4128.20512821 , 2046.0 , 2038.0 , 258.261 , 0.0 , 0.0 , 0.0 , 0.0 , 

61.0 , 4128.71794872 , 4128.71794872 , 4133.33333333 , 4127.17948718 , 4127.17948718 , 4126.66666667 , 4127.17948718 , 4127.69230769 , 4128.71794872 , 4135.8974359 , 4124.61538462 , 4058.46153846 , 4156.92307692 , 4127.69230769 , 2045.0 , 2036.0 , 258.267 , 0.0 , 0.0 , 0.0 , 0.0 , 

62.0 , 4124.1025641 , 4129.23076923 , 4131.28205128 , 4129.74358974 , 4129.23076923 , 4125.12820513 , 4126.15384615 , 4126.66666667 , 4127.17948718 , 4135.8974359 , 4125.12820513 , 4056.41025641 , 4155.8974359 , 4128.20512821 , 2047.0 , 2035.0 , 258.267 , 0.0 , 0.0 , 0.0 , 0.0 , 

63.0 , 4127.69230769 , 4128.20512821 , 4132.30769231 , 4130.25641026 , 4128.20512821 , 4126.66666667 , 4127.69230769 , 4127.69230769 , 4127.69230769 , 4135.8974359 , 4123.58974359 , 4058.46153846 , 4150.76923077 , 4127.69230769 , 2046.0 , 2033.0 , 258.282 , 0.0 , 0.0 , 0.0 , 0.0 , 

64.0 , 4134.87179487 , 4127.69230769 , 4132.82051282 , 4129.23076923 , 4126.15384615 , 4129.74358974 , 4125.12820513 , 4126.15384615 , 4125.12820513 , 4135.8974359 , 4124.1025641 , 4058.97435897 , 4148.71794872 , 4125.64102564 , 2046.0 , 2033.0 , 258.282 , 0.0 , 0.0 , 0.0 , 0.0 , 

65.0 , 4133.33333333 , 4129.74358974 , 4133.33333333 , 4130.25641026 , 4129.23076923 , 4129.74358974 , 4120.51282051 , 4123.58974359 , 4125.12820513 , 4135.8974359 , 4123.07692308 , 4055.38461538 , 4146.15384615 , 4125.12820513 , 2048.0 , 2034.0 , 258.298 , 0.0 , 0.0 , 0.0 , 0.0 , 

66.0 , 4127.69230769 , 4131.28205128 , 4130.25641026 , 4130.25641026 , 4132.30769231 , 4128.20512821 , 4121.53846154 , 4123.07692308 , 4125.12820513 , 4135.8974359 , 4121.02564103 , 4053.84615385 , 4147.17948718 , 4127.17948718 , 2049.0 , 2034.0 , 258.298 , 0.0 , 0.0 , 0.0 , 0.0 , 

67.0 , 4128.20512821 , 4132.30769231 , 4130.76923077 , 4129.74358974 , 4129.23076923 , 4129.74358974 , 4124.61538462 , 4122.56410256 , 4124.61538462 , 4135.8974359 , 4124.1025641 , 4055.38461538 , 4147.69230769 , 4131.79487179 , 2050.0 , 2032.0 , 258.313 , 0.0 , 0.0 , 0.0 , 0.0 , 

68.0 , 4129.74358974 , 4130.25641026 , 4134.35897436 , 4131.79487179 , 4128.71794872 , 4129.74358974 , 4124.1025641 , 4122.56410256 , 4126.15384615 , 4135.8974359 , 4125.64102564 , 4057.43589744 , 4146.66666667 , 4130.25641026 , 2051.0 , 2030.0 , 258.313 , 0.0 , 0.0 , 0.0 , 0.0 , 

69.0 , 4131.28205128 , 4129.23076923 , 4134.87179487 , 4132.30769231 , 4130.76923077 , 4128.71794872 , 4123.58974359 , 4122.05128205 , 4127.17948718 , 4135.8974359 , 4123.07692308 , 4057.43589744 , 4146.66666667 , 4125.64102564 , 2050.0 , 2026.0 , 258.329 , 0.0 , 0.0 , 0.0 , 0.0 , 

70.0 , 4130.25641026 , 4129.74358974 , 4132.82051282 , 4128.71794872 , 4128.20512821 , 4129.23076923 , 4121.02564103 , 4122.56410256 , 4126.66666667 , 4135.8974359 , 4125.64102564 , 4055.8974359 , 4149.23076923 , 4128.20512821 , 2049.0 , 2026.0 , 258.329 , 0.0 , 0.0 , 0.0 , 0.0 , 

71.0 , 4127.17948718 , 4131.79487179 , 4131.79487179 , 4128.20512821 , 4126.15384615 , 4128.20512821 , 4117.94871795 , 4122.56410256 , 4129.23076923 , 4135.8974359 , 4127.17948718 , 4056.92307692 , 4146.15384615 , 4133.33333333 , 2048.0 , 2026.0 , 258.345 , 0.0 , 0.0 , 0.0 , 0.0 , 

72.0 , 4127.69230769 , 4132.30769231 , 4127.69230769 , 4131.28205128 , 4128.20512821 , 4126.15384615 , 4119.48717949 , 4118.97435897 , 4130.76923077 , 4135.8974359 , 4121.53846154 , 4057.94871795 , 4142.05128205 , 4131.79487179 , 2050.0 , 2026.0 , 258.345 , 0.0 , 0.0 , 0.0 , 0.0 , 

73.0 , 4132.82051282 , 4131.28205128 , 4127.17948718 , 4130.25641026 , 4128.71794872 , 4128.71794872 , 4123.58974359 , 4118.46153846 , 4125.64102564 , 4135.8974359 , 4120.0 , 4057.43589744 , 4141.53846154 , 4128.20512821 , 2047.0 , 2030.0 , 258.36 , 0.0 , 0.0 , 0.0 , 0.0 , 

74.0 , 4131.28205128 , 4131.28205128 , 4129.74358974 , 4128.71794872 , 4129.74358974 , 4131.28205128 , 4121.53846154 , 4120.51282051 , 4124.61538462 , 4135.8974359 , 4122.05128205 , 4056.92307692 , 4141.02564103 , 4127.69230769 , 2049.0 , 2028.0 , 258.36 , 0.0 , 0.0 , 0.0 , 0.0 , 

75.0 , 4128.71794872 , 4132.30769231 , 4128.71794872 , 4132.30769231 , 4131.28205128 , 4129.74358974 , 4116.92307692 , 4121.02564103 , 4127.69230769 , 4135.8974359 , 4120.51282051 , 4055.8974359 , 4140.51282051 , 4130.76923077 , 2047.0 , 2029.0 , 258.376 , 0.0 , 0.0 , 0.0 , 0.0 , 

76.0 , 4130.76923077 , 4129.74358974 , 4128.20512821 , 4132.30769231 , 4131.28205128 , 4128.71794872 , 4117.43589744 , 4123.07692308 , 4128.71794872 , 4135.8974359 , 4121.53846154 , 4055.38461538 , 4142.56410256 , 4132.82051282 , 2047.0 , 2031.0 , 258.376 , 0.0 , 0.0 , 0.0 , 0.0 , 

77.0 , 4130.76923077 , 4128.71794872 , 4129.74358974 , 4130.76923077 , 4129.74358974 , 4130.25641026 , 4118.46153846 , 4126.66666667 , 4128.20512821 , 4135.8974359 , 4124.1025641 , 4055.38461538 , 4143.07692308 , 4131.79487179 , 2047.0 , 2033.0 , 258.392 , 0.0 , 0.0 , 0.0 , 0.0 , 

78.0 , 4130.25641026 , 4132.30769231 , 4129.23076923 , 4130.76923077 , 4128.20512821 , 4131.28205128 , 4116.92307692 , 4124.1025641 , 4127.17948718 , 4135.8974359 , 4122.56410256 , 4056.41025641 , 4140.51282051 , 4128.20512821 , 2045.0 , 2030.0 , 258.392 , 0.0 , 0.0 , 0.0 , 0.0 , 

79.0 , 4132.82051282 , 4132.82051282 , 4129.23076923 , 4130.76923077 , 4128.20512821 , 4129.23076923 , 4117.43589744 , 4120.51282051 , 4127.17948718 , 4135.8974359 , 4118.97435897 , 4055.8974359 , 4142.05128205 , 4128.20512821 , 2044.0 , 2031.0 , 258.423 , 0.0 , 0.0 , 0.0 , 0.0 , 

80.0 , 4132.30769231 , 4128.20512821 , 4131.79487179 , 4131.28205128 , 4130.25641026 , 4128.20512821 , 4122.56410256 , 4122.56410256 , 4129.74358974 , 4135.8974359 , 4121.02564103 , 4054.87179487 , 4144.61538462 , 4129.74358974 , 2045.0 , 2033.0 , 258.423 , 0.0 , 0.0 , 0.0 , 0.0 , 

81.0 , 4129.23076923 , 4127.69230769 , 4131.79487179 , 4131.79487179 , 4132.82051282 , 4131.28205128 , 4124.1025641 , 4122.05128205 , 4129.74358974 , 4135.8974359 , 4123.07692308 , 4055.8974359 , 4146.15384615 , 4129.23076923 , 2046.0 , 2033.0 , 258.423 , 0.0 , 0.0 , 0.0 , 0.0 , 

82.0 , 4129.23076923 , 4130.76923077 , 4130.76923077 , 4131.79487179 , 4131.79487179 , 4132.30769231 , 4120.0 , 4121.53846154 , 4126.15384615 , 4135.8974359 , 4122.56410256 , 4057.94871795 , 4144.61538462 , 4129.74358974 , 2044.0 , 2032.0 , 258.423 , 0.0 , 0.0 , 0.0 , 0.0 , 

83.0 , 4127.17948718 , 4129.74358974 , 4131.79487179 , 4131.28205128 , 4129.23076923 , 4129.23076923 , 4120.0 , 4125.12820513 , 4125.12820513 , 4135.8974359 , 4122.05128205 , 4055.8974359 , 4145.64102564 , 4130.25641026 , 2044.0 , 2034.0 , 258.438 , 0.0 , 0.0 , 0.0 , 0.0 , 

84.0 , 4127.17948718 , 4128.20512821 , 4131.79487179 , 4130.76923077 , 4127.69230769 , 4128.20512821 , 4125.12820513 , 4124.61538462 , 4127.17948718 , 4135.8974359 , 4124.61538462 , 4053.84615385 , 4146.66666667 , 4129.74358974 , 2045.0 , 2034.0 , 258.438 , 0.0 , 0.0 , 0.0 , 0.0 , 

85.0 , 4130.25641026 , 4128.20512821 , 4128.20512821 , 4128.20512821 , 4127.17948718 , 4130.76923077 , 4126.15384615 , 4125.64102564 , 4128.71794872 , 4135.8974359 , 4125.12820513 , 4057.43589744 , 4147.69230769 , 4128.71794872 , 2044.0 , 2033.0 , 258.454 , 0.0 , 0.0 , 0.0 , 0.0 , 

86.0 , 4130.76923077 , 4127.69230769 , 4128.71794872 , 4129.74358974 , 4127.17948718 , 4131.28205128 , 4124.1025641 , 4136.41025641 , 4128.71794872 , 4135.8974359 , 4122.56410256 , 4057.94871795 , 4147.17948718 , 4128.20512821 , 2043.0 , 2033.0 , 258.454 , 0.0 , 0.0 , 0.0 , 0.0 , 

87.0 , 4125.64102564 , 4126.66666667 , 4129.23076923 , 4130.76923077 , 4127.17948718 , 4129.74358974 , 4126.15384615 , 4136.41025641 , 4129.74358974 , 4135.8974359 , 4122.56410256 , 4055.38461538 , 4148.71794872 , 4127.17948718 , 2044.0 , 2036.0 , 258.474 , 0.0 , 0.0 , 0.0 , 0.0 , 

88.0 , 4127.17948718 , 4128.71794872 , 4127.69230769 , 4128.71794872 , 4128.20512821 , 4129.74358974 , 4128.20512821 , 4127.17948718 , 4131.79487179 , 4135.8974359 , 4125.12820513 , 4058.97435897 , 4147.17948718 , 4128.20512821 , 2044.0 , 2037.0 , 258.482 , 0.0 , 0.0 , 0.0 , 0.0 , 

89.0 , 4128.71794872 , 4129.23076923 , 4129.74358974 , 4129.23076923 , 4128.71794872 , 4130.76923077 , 4124.61538462 , 4129.74358974 , 4130.76923077 , 4135.8974359 , 4126.15384615 , 4063.58974359 , 4146.66666667 , 4127.17948718 , 2045.0 , 2037.0 , 258.489 , 0.0 , 0.0 , 0.0 , 0.0 , 

90.0 , 4128.20512821 , 4128.71794872 , 4135.38461538 , 4130.76923077 , 4128.20512821 , 4131.28205128 , 4123.07692308 , 4131.28205128 , 4126.66666667 , 4135.8974359 , 4123.07692308 , 4059.48717949 , 4147.69230769 , 4125.12820513 , 2043.0 , 2040.0 , 258.497 , 0.0 , 0.0 , 0.0 , 0.0 , 

91.0 , 4128.20512821 , 4129.23076923 , 4132.30769231 , 4128.71794872 , 4128.71794872 , 4129.74358974 , 4125.12820513 , 4124.61538462 , 4127.17948718 , 4135.8974359 , 4122.56410256 , 4053.84615385 , 4147.69230769 , 4126.15384615 , 2044.0 , 2040.0 , 258.505 , 0.0 , 0.0 , 0.0 , 0.0 , 

92.0 , 4130.25641026 , 4130.25641026 , 4130.76923077 , 4127.69230769 , 4129.74358974 , 4129.74358974 , 4125.64102564 , 4123.07692308 , 4130.25641026 , 4135.8974359 , 4126.66666667 , 4055.38461538 , 4146.15384615 , 4127.69230769 , 2047.0 , 2036.0 , 258.508 , 0.0 , 0.0 , 0.0 , 0.0 , 

93.0 , 4130.76923077 , 4129.23076923 , 4134.35897436 , 4129.23076923 , 4128.20512821 , 4129.74358974 , 4125.64102564 , 4124.61538462 , 4128.71794872 , 4135.8974359 , 4126.66666667 , 4056.92307692 , 4146.66666667 , 4127.17948718 , 2048.0 , 2036.0 , 258.508 , 0.0 , 0.0 , 0.0 , 0.0 , 

94.0 , 4132.30769231 , 4129.74358974 , 4133.33333333 , 4129.23076923 , 4127.17948718 , 4129.74358974 , 4123.07692308 , 4123.58974359 , 4126.15384615 , 4135.8974359 , 4122.05128205 , 4057.43589744 , 4148.71794872 , 4128.71794872 , 2048.0 , 2033.0 , 258.524 , 0.0 , 0.0 , 0.0 , 0.0 , 

95.0 , 4133.84615385 , 4130.76923077 , 4130.25641026 , 4130.25641026 , 4127.69230769 , 4129.74358974 , 4121.02564103 , 4125.64102564 , 4128.20512821 , 4135.8974359 , 4122.56410256 , 4060.0 , 4148.20512821 , 4130.25641026 , 2050.0 , 2034.0 , 258.524 , 0.0 , 0.0 , 0.0 , 0.0 , 

96.0 , 4132.82051282 , 4129.74358974 , 4132.82051282 , 4132.82051282 , 4128.20512821 , 4129.23076923 , 4123.58974359 , 4127.17948718 , 4127.17948718 , 4135.8974359 , 4125.12820513 , 4059.48717949 , 4147.69230769 , 4129.23076923 , 2050.0 , 2033.0 , 258.539 , 0.0 , 0.0 , 0.0 , 0.0 , 

97.0 , 4130.76923077 , 4129.74358974 , 4132.82051282 , 4132.30769231 , 4128.71794872 , 4128.71794872 , 4124.1025641 , 4123.07692308 , 4125.64102564 , 4135.8974359 , 4123.07692308 , 4056.41025641 , 4148.71794872 , 4128.71794872 , 2049.0 , 2032.0 , 258.539 , 0.0 , 0.0 , 0.0 , 0.0 , 

98.0 , 4129.74358974 , 4131.79487179 , 4129.74358974 , 4130.25641026 , 4128.20512821 , 4129.74358974 , 4118.46153846 , 4121.02564103 , 4130.25641026 , 4135.8974359 , 4122.56410256 , 4054.35897436 , 4149.23076923 , 4129.74358974 , 2049.0 , 2032.0 , 258.561 , 0.0 , 0.0 , 0.0 , 0.0 , 

99.0 , 4129.23076923 , 4133.84615385 , 4128.71794872 , 4130.25641026 , 4127.17948718 , 4131.28205128 , 4116.41025641 , 4123.07692308 , 4129.74358974 , 4135.8974359 , 4123.58974359 , 4054.35897436 , 4145.12820513 , 4129.74358974 , 2047.0 , 2031.0 , 258.568 , 0.0 , 0.0 , 0.0 , 0.0 , 

100.0 , 4129.74358974 , 4131.79487179 , 4129.23076923 , 4128.20512821 , 4128.20512821 , 4129.23076923 , 4118.46153846 , 4123.58974359 , 4127.69230769 , 4135.8974359 , 4123.58974359 , 4055.38461538 , 4145.12820513 , 4127.69230769 , 2046.0 , 2030.0 , 258.576 , 0.0 , 0.0 , 0.0 , 0.0 , 

101.0 , 4130.76923077 , 4130.25641026 , 4129.23076923 , 4128.71794872 , 4130.76923077 , 4128.20512821 , 4118.97435897 , 4123.58974359 , 4128.71794872 , 4135.8974359 , 4123.07692308 , 4056.92307692 , 4146.66666667 , 4128.71794872 , 2044.0 , 2029.0 , 258.578 , 0.0 , 0.0 , 0.0 , 0.0 , 

102.0 , 4130.25641026 , 4131.28205128 , 4126.66666667 , 4131.79487179 , 4129.74358974 , 4130.25641026 , 4120.0 , 4123.07692308 , 4127.69230769 , 4135.8974359 , 4122.05128205 , 4057.43589744 , 4147.69230769 , 4128.71794872 , 2044.0 , 2030.0 , 258.578 , 0.0 , 0.0 , 0.0 , 0.0 , 

103.0 , 4130.76923077 , 4131.79487179 , 4127.69230769 , 4131.79487179 , 4128.20512821 , 4130.76923077 , 4123.07692308 , 4124.1025641 , 4127.69230769 , 4135.8974359 , 4122.05128205 , 4057.94871795 , 4144.61538462 , 4126.66666667 , 2043.0 , 2033.0 , 258.593 , 0.0 , 0.0 , 0.0 , 0.0 , 

104.0 , 4131.28205128 , 4131.28205128 , 4131.28205128 , 4128.20512821 , 4129.23076923 , 4129.74358974 , 4123.07692308 , 4126.15384615 , 4130.25641026 , 4135.8974359 , 4122.05128205 , 4058.46153846 , 4146.15384615 , 4126.66666667 , 2042.0 , 2033.0 , 258.593 , 0.0 , 0.0 , 0.0 , 0.0 , 

105.0 , 4133.84615385 , 4131.28205128 , 4134.35897436 , 4128.20512821 , 4131.28205128 , 4131.79487179 , 4124.61538462 , 4125.64102564 , 4129.23076923 , 4135.8974359 , 4121.53846154 , 4058.46153846 , 4149.23076923 , 4129.23076923 , 2041.0 , 2033.0 , 258.609 , 0.0 , 0.0 , 0.0 , 0.0 , 

106.0 , 4131.79487179 , 4131.28205128 , 4131.28205128 , 4129.23076923 , 4130.25641026 , 4133.84615385 , 4124.1025641 , 4123.58974359 , 4128.71794872 , 4135.8974359 , 4122.05128205 , 4058.46153846 , 4149.74358974 , 4128.71794872 , 2044.0 , 2036.0 , 258.609 , 0.0 , 0.0 , 0.0 , 0.0 , 

107.0 , 4128.71794872 , 4130.25641026 , 4128.71794872 , 4131.28205128 , 4129.23076923 , 4131.28205128 , 4124.61538462 , 4123.07692308 , 4131.28205128 , 4135.8974359 , 4123.58974359 , 4061.02564103 , 4149.74358974 , 4127.17948718 , 2043.0 , 2036.0 , 258.631 , 0.0 , 0.0 , 0.0 , 0.0 , 

108.0 , 4129.23076923 , 4127.69230769 , 4128.71794872 , 4131.79487179 , 4129.23076923 , 4128.71794872 , 4128.20512821 , 4126.66666667 , 4130.76923077 , 4135.8974359 , 4124.1025641 , 4063.58974359 , 4152.30769231 , 4126.66666667 , 2042.0 , 2032.0 , 258.639 , 0.0 , 0.0 , 0.0 , 0.0 , 

109.0 , 4130.25641026 , 4127.69230769 , 4132.30769231 , 4130.25641026 , 4129.23076923 , 4130.25641026 , 4128.71794872 , 4133.84615385 , 4128.71794872 , 4135.8974359 , 4123.58974359 , 4061.02564103 , 4152.82051282 , 4127.17948718 , 2042.0 , 2033.0 , 258.647 , 0.0 , 0.0 , 0.0 , 0.0 , 

110.0 , 4127.17948718 , 4130.76923077 , 4132.82051282 , 4129.23076923 , 4128.71794872 , 4130.25641026 , 4126.15384615 , 4135.38461538 , 4128.20512821 , 4135.8974359 , 4125.12820513 , 4057.94871795 , 4151.28205128 , 4128.20512821 , 2042.0 , 2030.0 , 258.655 , 0.0 , 0.0 , 0.0 , 0.0 , 

111.0 , 4125.12820513 , 4132.82051282 , 4129.74358974 , 4128.71794872 , 4128.71794872 , 4130.25641026 , 4127.69230769 , 4127.17948718 , 4125.64102564 , 4135.8974359 , 4125.12820513 , 4059.48717949 , 4149.74358974 , 4128.20512821 , 2042.0 , 2031.0 , 258.663 , 0.0 , 0.0 , 0.0 , 0.0 , 

112.0 , 4127.69230769 , 4131.28205128 , 4129.74358974 , 4128.20512821 , 4129.23076923 , 4130.76923077 , 4128.20512821 , 4124.1025641 , 4125.12820513 , 4135.8974359 , 4122.56410256 , 4063.07692308 , 4147.69230769 , 4126.66666667 , 2043.0 , 2032.0 , 258.671 , 0.0 , 0.0 , 0.0 , 0.0 , 

113.0 , 4128.20512821 , 4130.25641026 , 4133.84615385 , 4129.23076923 , 4130.76923077 , 4130.25641026 , 4123.58974359 , 4127.69230769 , 4126.15384615 , 4135.8974359 , 4122.56410256 , 4063.07692308 , 4148.71794872 , 4125.64102564 , 2046.0 , 2030.0 , 258.679 , 0.0 , 0.0 , 0.0 , 0.0 , 

114.0 , 4127.17948718 , 4130.25641026 , 4134.87179487 , 4129.74358974 , 4128.20512821 , 4129.23076923 , 4124.1025641 , 4128.71794872 , 4126.15384615 , 4135.8974359 , 4125.12820513 , 4060.51282051 , 4150.76923077 , 4126.66666667 , 2045.0 , 2029.0 , 258.679 , 0.0 , 0.0 , 0.0 , 0.0 , 

115.0 , 4127.17948718 , 4128.71794872 , 4133.33333333 , 4130.76923077 , 4127.17948718 , 4130.76923077 , 4128.20512821 , 4128.71794872 , 4128.20512821 , 4135.8974359 , 4124.61538462 , 4058.46153846 , 4151.28205128 , 4127.69230769 , 2046.0 , 2028.0 , 258.679 , 0.0 , 0.0 , 0.0 , 0.0 , 

116.0 , 4126.66666667 , 4128.71794872 , 4133.84615385 , 4131.79487179 , 4131.28205128 , 4132.82051282 , 4124.61538462 , 4131.79487179 , 4129.23076923 , 4135.8974359 , 4123.58974359 , 4060.0 , 4149.23076923 , 4128.20512821 , 2048.0 , 2029.0 , 258.694 , 0.0 , 0.0 , 0.0 , 0.0 , 

117.0 , 4125.64102564 , 4129.74358974 , 4132.82051282 , 4132.82051282 , 4132.82051282 , 4131.28205128 , 4121.02564103 , 4127.69230769 , 4127.69230769 , 4135.8974359 , 4124.61538462 , 4060.51282051 , 4151.28205128 , 4129.23076923 , 2047.0 , 2030.0 , 258.71 , 0.0 , 0.0 , 0.0 , 0.0 , 

118.0 , 4126.66666667 , 4130.76923077 , 4130.76923077 , 4132.82051282 , 4130.76923077 , 4131.28205128 , 4124.61538462 , 4124.61538462 , 4129.23076923 , 4135.8974359 , 4125.64102564 , 4058.46153846 , 4151.28205128 , 4129.23076923 , 2046.0 , 2028.0 , 258.71 , 0.0 , 0.0 , 0.0 , 0.0 , 

119.0 , 4129.74358974 , 4130.76923077 , 4131.28205128 , 4130.25641026 , 4129.74358974 , 4132.30769231 , 4128.20512821 , 4127.69230769 , 4132.82051282 , 4135.8974359 , 4122.56410256 , 4060.0 , 4149.23076923 , 4126.15384615 , 2048.0 , 2029.0 , 258.726 , 0.0 , 0.0 , 0.0 , 0.0 , 

120.0 , 4131.79487179 , 4129.23076923 , 4133.84615385 , 4128.71794872 , 4129.74358974 , 4132.82051282 , 4124.61538462 , 4128.20512821 , 4133.84615385 , 4135.8974359 , 4122.05128205 , 4060.51282051 , 4147.69230769 , 4125.64102564 , 2047.0 , 2030.0 , 258.726 , 0.0 , 0.0 , 0.0 , 0.0 , 

121.0 , 4127.69230769 , 4128.71794872 , 4130.25641026 , 4131.28205128 , 4128.71794872 , 4131.79487179 , 4121.02564103 , 4124.1025641 , 4133.33333333 , 4135.8974359 , 4126.15384615 , 4057.43589744 , 4150.25641026 , 4128.20512821 , 2046.0 , 2030.0 , 258.741 , 0.0 , 0.0 , 0.0 , 0.0 , 

122.0 , 4126.66666667 , 4130.25641026 , 4128.20512821 , 4133.84615385 , 4129.23076923 , 4131.28205128 , 4124.1025641 , 4122.56410256 , 4134.35897436 , 4135.8974359 , 4126.15384615 , 4060.0 , 4150.25641026 , 4128.71794872 , 2044.0 , 2030.0 , 258.741 , 0.0 , 0.0 , 0.0 , 0.0 , 

123.0 , 4129.23076923 , 4129.74358974 , 4129.74358974 , 4132.30769231 , 4130.76923077 , 4131.79487179 , 4125.64102564 , 4124.1025641 , 4134.35897436 , 4135.8974359 , 4124.1025641 , 4064.61538462 , 4152.30769231 , 4127.69230769 , 2044.0 , 2032.0 , 258.758 , 0.0 , 0.0 , 0.0 , 0.0 , 

124.0 , 4130.25641026 , 4128.20512821 , 4133.84615385 , 4130.76923077 , 4132.30769231 , 4132.82051282 , 4123.58974359 , 4125.64102564 , 4131.28205128 , 4135.8974359 , 4124.61538462 , 4062.56410256 , 4153.33333333 , 4126.66666667 , 2044.0 , 2032.0 , 258.765 , 0.0 , 0.0 , 0.0 , 0.0 , 

125.0 , 4129.74358974 , 4127.69230769 , 4131.28205128 , 4129.74358974 , 4131.79487179 , 4134.35897436 , 4123.07692308 , 4124.61538462 , 4127.69230769 , 4135.8974359 , 4124.1025641 , 4058.97435897 , 4153.33333333 , 4126.66666667 , 2044.0 , 2033.0 , 258.773 , 0.0 , 0.0 , 0.0 , 0.0 , 

126.0 , 4130.76923077 , 4129.74358974 , 4130.25641026 , 4129.23076923 , 4130.25641026 , 4132.82051282 , 4126.15384615 , 4124.1025641 , 4131.79487179 , 4135.8974359 , 4121.53846154 , 4062.05128205 , 4153.33333333 , 4128.20512821 , 2044.0 , 2033.0 , 258.779 , 0.0 , 0.0 , 0.0 , 0.0 , 

127.0 , 4128.71794872 , 4130.25641026 , 4130.76923077 , 4128.20512821 , 4129.74358974 , 4130.76923077 , 4127.17948718 , 4128.20512821 , 4136.41025641 , 4135.8974359 , 4121.02564103 , 4063.58974359 , 4155.38461538 , 4128.71794872 , 2044.0 , 2032.0 , 258.779 , 0.0 , 0.0 , 0.0 , 0.0 , 

128.0 , 4126.66666667 , 4128.20512821 , 4130.25641026 , 4128.20512821 , 4130.25641026 , 4132.30769231 , 4126.66666667 , 4130.25641026 , 4131.79487179 , 4135.8974359 , 4123.07692308 , 4059.48717949 , 4154.87179487 , 4127.69230769 , 2045.0 , 2031.0 , 258.795 , 0.0 , 0.0 , 0.0 , 0.0 , 

0.0 , 4127.17948718 , 4127.69230769 , 4131.28205128 , 4127.69230769 , 4127.69230769 , 4131.79487179 , 4126.66666667 , 4126.66666667 , 4130.25641026 , 4135.8974359 , 4126.66666667 , 4057.94871795 , 4153.84615385 , 4127.69230769 , 2044.0 , 2032.0 , 258.795 , 0.0 , 0.0 , 0.0 , 0.0 , 

1.0 , 4127.69230769 , 4130.25641026 , 4131.79487179 , 4128.20512821 , 4127.69230769 , 4130.76923077 , 4125.64102564 , 4130.76923077 , 4131.79487179 , 4135.8974359 , 4126.66666667 , 4061.53846154 , 4154.87179487 , 4127.17948718 , 2044.0 , 2032.0 , 258.811 , 0.0 , 0.0 , 0.0 , 0.0 , 

2.0 , 4126.66666667 , 4129.74358974 , 4130.25641026 , 4128.71794872 , 4129.74358974 , 4132.30769231 , 4127.17948718 , 4137.94871795 , 4127.17948718 , 4135.8974359 , 4123.07692308 , 4062.05128205 , 4153.33333333 , 4125.64102564 , 2046.0 , 2034.0 , 258.811 , 0.0 , 0.0 , 0.0 , 0.0 , 

3.0 , 4124.61538462 , 4128.20512821 , 4129.74358974 , 4129.23076923 , 4128.71794872 , 4133.84615385 , 4129.23076923 , 4135.8974359 , 4125.64102564 , 4135.8974359 , 4123.07692308 , 4060.0 , 4150.25641026 , 4127.69230769 , 2045.0 , 2032.0 , 258.826 , 0.0 , 0.0 , 0.0 , 0.0 , 

4.0 , 4124.61538462 , 4131.79487179 , 4133.84615385 , 4128.71794872 , 4127.17948718 , 4134.87179487 , 4127.17948718 , 4128.71794872 , 4131.28205128 , 4135.8974359 , 4125.12820513 , 4061.53846154 , 4149.74358974 , 4132.82051282 , 2046.0 , 2032.0 , 258.826 , 0.0 , 0.0 , 0.0 , 0.0 , 

5.0 , 4127.17948718 , 4131.28205128 , 4134.35897436 , 4127.69230769 , 4128.20512821 , 4135.38461538 , 4124.61538462 , 4128.71794872 , 4131.28205128 , 4135.8974359 , 4123.07692308 , 4064.1025641 , 4155.38461538 , 4129.74358974 , 2046.0 , 2029.0 , 258.844 , 0.0 , 0.0 , 0.0 , 0.0 , 

6.0 , 4130.25641026 , 4127.17948718 , 4130.25641026 , 4129.74358974 , 4128.20512821 , 4132.30769231 , 4125.64102564 , 4132.82051282 , 4128.20512821 , 4135.8974359 , 4124.1025641 , 4064.1025641 , 4154.35897436 , 4124.1025641 , 2045.0 , 2027.0 , 258.851 , 0.0 , 0.0 , 0.0 , 0.0 , 

7.0 , 4130.25641026 , 4128.71794872 , 4128.71794872 , 4129.74358974 , 4128.20512821 , 4129.23076923 , 4126.66666667 , 4132.30769231 , 4130.25641026 , 4135.8974359 , 4128.20512821 , 4061.02564103 , 4150.25641026 , 4126.15384615 , 2047.0 , 2029.0 , 258.86 , 0.0 , 0.0 , 0.0 , 0.0 , 

8.0 , 4129.74358974 , 4130.76923077 , 4132.30769231 , 4127.69230769 , 4129.74358974 , 4130.25641026 , 4125.64102564 , 4130.25641026 , 4128.71794872 , 4135.8974359 , 4127.17948718 , 4059.48717949 , 4152.82051282 , 4129.74358974 , 2045.0 , 2030.0 , 258.868 , 0.0 , 0.0 , 0.0 , 0.0 , 

9.0 , 4128.20512821 , 4128.71794872 , 4132.30769231 , 4128.71794872 , 4129.23076923 , 4131.79487179 , 4125.12820513 , 4128.71794872 , 4126.66666667 , 4135.8974359 , 4125.12820513 , 4060.0 , 4155.38461538 , 4127.17948718 , 2044.0 , 2032.0 , 258.876 , 0.0 , 0.0 , 0.0 , 0.0 , 

10.0 , 4129.74358974 , 4127.69230769 , 4129.74358974 , 4131.28205128 , 4129.23076923 , 4132.30769231 , 4127.69230769 , 4128.71794872 , 4128.71794872 , 4135.8974359 , 4126.15384615 , 4058.97435897 , 4148.71794872 , 4126.15384615 , 2044.0 , 2035.0 , 258.883 , 0.0 , 0.0 , 0.0 , 0.0 , 

11.0 , 4128.71794872 , 4129.74358974 , 4130.76923077 , 4130.76923077 , 4131.28205128 , 4131.28205128 , 4128.20512821 , 4126.15384615 , 4129.23076923 , 4135.8974359 , 4127.17948718 , 4056.92307692 , 4152.30769231 , 4128.71794872 , 2045.0 , 2037.0 , 258.891 , 0.0 , 0.0 , 0.0 , 0.0 , 

12.0 , 4127.17948718 , 4130.25641026 , 4134.35897436 , 4129.74358974 , 4131.28205128 , 4131.28205128 , 4125.12820513 , 4127.17948718 , 4126.15384615 , 4135.8974359 , 4125.64102564 , 4058.97435897 , 4155.8974359 , 4128.20512821 , 2045.0 , 2036.0 , 258.898 , 0.0 , 0.0 , 0.0 , 0.0 , 

13.0 , 4127.17948718 , 4129.74358974 , 4132.82051282 , 4129.74358974 , 4127.17948718 , 4131.79487179 , 4122.56410256 , 4130.76923077 , 4124.61538462 , 4135.8974359 , 4122.56410256 , 4061.02564103 , 4149.74358974 , 4126.66666667 , 2044.0 , 2035.0 , 258.902 , 0.0 , 0.0 , 0.0 , 0.0 , 

14.0 , 4129.23076923 , 4130.76923077 , 4130.25641026 , 4128.71794872 , 4128.20512821 , 4131.79487179 , 4126.15384615 , 4128.20512821 , 4127.17948718 , 4135.8974359 , 4122.05128205 , 4062.05128205 , 4146.66666667 , 4127.17948718 , 2044.0 , 2036.0 , 258.902 , 0.0 , 0.0 , 0.0 , 0.0 , 

15.0 , 4128.20512821 , 4130.25641026 , 4130.25641026 , 4127.17948718 , 4131.28205128 , 4131.28205128 , 4128.20512821 , 4128.71794872 , 4132.30769231 , 4135.8974359 , 4124.61538462 , 4062.05128205 , 4153.33333333 , 4127.17948718 , 2042.0 , 2034.0 , 258.917 , 0.0 , 0.0 , 0.0 , 0.0 , 

16.0 , 4126.66666667 , 4130.25641026 , 4133.33333333 , 4127.69230769 , 4129.74358974 , 4130.76923077 , 4125.12820513 , 4133.33333333 , 4131.79487179 , 4135.8974359 , 4123.58974359 , 4061.02564103 , 4155.8974359 , 4126.66666667 , 2044.0 , 2033.0 , 258.917 , 0.0 , 0.0 , 0.0 , 0.0 , 

17.0 , 4127.17948718 , 4130.76923077 , 4131.28205128 , 4129.23076923 , 4126.66666667 , 4130.76923077 , 4124.61538462 , 4134.87179487 , 4124.1025641 , 4135.8974359 , 4121.53846154 , 4060.0 , 4154.87179487 , 4125.12820513 , 2045.0 , 2031.0 , 258.933 , 0.0 , 0.0 , 0.0 , 0.0 , 

18.0 , 4129.23076923 , 4129.74358974 , 4130.25641026 , 4130.25641026 , 4129.23076923 , 4133.84615385 , 4124.1025641 , 4129.23076923 , 4127.69230769 , 4135.8974359 , 4122.56410256 , 4060.51282051 , 4152.30769231 , 4125.12820513 , 2045.0 , 2029.0 , 258.933 , 0.0 , 0.0 , 0.0 , 0.0 , 

19.0 , 4130.25641026 , 4127.17948718 , 4132.30769231 , 4129.23076923 , 4131.28205128 , 4134.35897436 , 4123.58974359 , 4128.20512821 , 4137.94871795 , 4135.8974359 , 4123.07692308 , 4060.0 , 4151.28205128 , 4127.69230769 , 2045.0 , 2029.0 , 258.948 , 0.0 , 0.0 , 0.0 , 0.0 , 

20.0 , 4131.79487179 , 4128.71794872 , 4132.82051282 , 4129.23076923 , 4129.74358974 , 4131.28205128 , 4125.12820513 , 4135.38461538 , 4130.76923077 , 4135.8974359 , 4123.58974359 , 4057.43589744 , 4151.79487179 , 4128.71794872 , 2046.0 , 2031.0 , 258.948 , 0.0 , 0.0 , 0.0 , 0.0 , 

21.0 , 4130.76923077 , 4133.33333333 , 4130.25641026 , 4128.71794872 , 4129.23076923 , 4131.28205128 , 4121.02564103 , 4133.84615385 , 4124.1025641 , 4135.8974359 , 4124.1025641 , 4056.92307692 , 4150.25641026 , 4128.71794872 , 2045.0 , 2030.0 , 258.97 , 0.0 , 0.0 , 0.0 , 0.0 , 

22.0 , 4127.17948718 , 4131.79487179 , 4131.28205128 , 4127.69230769 , 4128.71794872 , 4134.87179487 , 4118.46153846 , 4125.12820513 , 4128.71794872 , 4135.8974359 , 4124.1025641 , 4056.92307692 , 4149.74358974 , 4129.23076923 , 2046.0 , 2031.0 , 258.978 , 0.0 , 0.0 , 0.0 , 0.0 , 

23.0 , 4128.20512821 , 4128.71794872 , 4131.28205128 , 4129.23076923 , 4129.74358974 , 4133.84615385 , 4124.61538462 , 4121.02564103 , 4128.20512821 , 4135.8974359 , 4123.58974359 , 4058.46153846 , 4150.76923077 , 4129.74358974 , 2046.0 , 2032.0 , 258.986 , 0.0 , 0.0 , 0.0 , 0.0 , 

24.0 , 4131.79487179 , 4129.74358974 , 4128.20512821 , 4130.25641026 , 4130.25641026 , 4133.84615385 , 4129.23076923 , 4123.07692308 , 4124.61538462 , 4135.8974359 , 4123.58974359 , 4059.48717949 , 4147.69230769 , 4128.71794872 , 2047.0 , 2031.0 , 258.994 , 0.0 , 0.0 , 0.0 , 0.0 , 

25.0 , 4130.76923077 , 4129.23076923 , 4128.71794872 , 4129.23076923 , 4128.20512821 , 4136.92307692 , 4124.1025641 , 4124.61538462 , 4127.69230769 , 4135.8974359 , 4124.61538462 , 4060.0 , 4146.15384615 , 4128.71794872 , 2047.0 , 2031.0 , 259.002 , 0.0 , 0.0 , 0.0 , 0.0 , 

26.0 , 4130.25641026 , 4126.66666667 , 4129.23076923 , 4129.23076923 , 4127.17948718 , 4134.35897436 , 4120.0 , 4125.12820513 , 4129.23076923 , 4135.8974359 , 4125.64102564 , 4060.51282051 , 4151.79487179 , 4127.69230769 , 2047.0 , 2032.0 , 259.004 , 0.0 , 0.0 , 0.0 , 0.0 , 

27.0 , 4132.30769231 , 4127.17948718 , 4129.23076923 , 4130.76923077 , 4128.71794872 , 4132.30769231 , 4124.61538462 , 4124.61538462 , 4127.17948718 , 4135.8974359 , 4124.61538462 , 4062.05128205 , 4149.74358974 , 4127.17948718 , 2047.0 , 2031.0 , 259.004 , 0.0 , 0.0 , 0.0 , 0.0 , 

28.0 , 4130.25641026 , 4129.74358974 , 4129.23076923 , 4130.76923077 , 4129.23076923 , 4132.30769231 , 4127.17948718 , 4125.12820513 , 4128.20512821 , 4135.8974359 , 4124.1025641 , 4060.0 , 4148.20512821 , 4128.71794872 , 2047.0 , 2032.0 , 259.019 , 0.0 , 0.0 , 0.0 , 0.0 , 

29.0 , 4129.23076923 , 4129.74358974 , 4132.82051282 , 4130.76923077 , 4129.23076923 , 4132.30769231 , 4124.1025641 , 4125.64102564 , 4132.30769231 , 4135.8974359 , 4123.58974359 , 4057.94871795 , 4149.23076923 , 4129.23076923 , 2046.0 , 2031.0 , 259.019 , 0.0 , 0.0 , 0.0 , 0.0 , 

30.0 , 4129.23076923 , 4128.71794872 , 4133.84615385 , 4130.76923077 , 4129.74358974 , 4133.84615385 , 4122.05128205 , 4129.23076923 , 4134.35897436 , 4135.8974359 , 4122.05128205 , 4060.0 , 4151.28205128 , 4126.66666667 , 2044.0 , 2031.0 , 259.035 , 0.0 , 0.0 , 0.0 , 0.0 , 

31.0 , 4127.17948718 , 4128.71794872 , 4131.79487179 , 4129.74358974 , 4129.74358974 , 4133.33333333 , 4126.66666667 , 4135.38461538 , 4129.23076923 , 4135.8974359 , 4123.58974359 , 4060.51282051 , 4150.25641026 , 4127.17948718 , 2044.0 , 2030.0 , 259.035 , 0.0 , 0.0 , 0.0 , 0.0 , 

32.0 , 4126.66666667 , 4129.74358974 , 4129.74358974 , 4129.23076923 , 4127.17948718 , 4132.30769231 , 4127.17948718 , 4136.41025641 , 4129.23076923 , 4135.8974359 , 4126.15384615 , 4057.43589744 , 4152.30769231 , 4127.17948718 , 2042.0 , 2031.0 , 259.05 , 0.0 , 0.0 , 0.0 , 0.0 , 

33.0 , 4130.25641026 , 4130.25641026 , 4132.30769231 , 4129.74358974 , 4127.69230769 , 4135.8974359 , 4124.61538462 , 4134.35897436 , 4132.30769231 , 4135.8974359 , 4126.66666667 , 4058.97435897 , 4152.30769231 , 4127.17948718 , 2041.0 , 2032.0 , 259.05 , 0.0 , 0.0 , 0.0 , 0.0 , 

34.0 , 4127.69230769 , 4128.20512821 , 4130.76923077 , 4128.71794872 , 4129.23076923 , 4136.41025641 , 4128.20512821 , 4135.38461538 , 4127.17948718 , 4135.8974359 , 4125.64102564 , 4062.56410256 , 4150.76923077 , 4128.20512821 , 2039.0 , 2030.0 , 259.066 , 0.0 , 0.0 , 0.0 , 0.0 , 

35.0 , 4125.12820513 , 4127.17948718 , 4126.66666667 , 4130.25641026 , 4129.74358974 , 4134.35897436 , 4130.76923077 , 4136.41025641 , 4125.64102564 , 4135.8974359 , 4124.61538462 , 4062.05128205 , 4151.79487179 , 4128.20512821 , 2038.0 , 2032.0 , 259.066 , 0.0 , 0.0 , 0.0 , 0.0 , 

36.0 , 4126.15384615 , 4126.66666667 , 4126.15384615 , 4130.76923077 , 4127.69230769 , 4135.38461538 , 4129.74358974 , 4135.38461538 , 4132.82051282 , 4135.8974359 , 4125.12820513 , 4061.53846154 , 4155.38461538 , 4126.66666667 , 2038.0 , 2033.0 , 259.082 , 0.0 , 0.0 , 0.0 , 0.0 , 

37.0 , 4128.20512821 , 4126.66666667 , 4129.23076923 , 4128.20512821 , 4127.17948718 , 4136.41025641 , 4129.74358974 , 4136.92307692 , 4130.76923077 , 4135.8974359 , 4125.64102564 , 4062.05128205 , 4157.43589744 , 4127.69230769 , 2038.0 , 2032.0 , 259.082 , 0.0 , 0.0 , 0.0 , 0.0 , 

38.0 , 4127.69230769 , 4126.15384615 , 4131.79487179 , 4127.69230769 , 4128.20512821 , 4133.84615385 , 4133.84615385 , 4137.43589744 , 4125.64102564 , 4135.8974359 , 4125.64102564 , 4062.56410256 , 4158.46153846 , 4127.17948718 , 2037.0 , 2030.0 , 259.097 , 0.0 , 0.0 , 0.0 , 0.0 , 

39.0 , 4127.17948718 , 4126.66666667 , 4133.33333333 , 4129.74358974 , 4128.71794872 , 4131.28205128 , 4135.8974359 , 4136.92307692 , 4127.69230769 , 4135.8974359 , 4128.20512821 , 4065.64102564 , 4158.97435897 , 4124.61538462 , 2038.0 , 2030.0 , 259.097 , 0.0 , 0.0 , 0.0 , 0.0 , 

40.0 , 4127.17948718 , 4127.69230769 , 4131.28205128 , 4127.69230769 , 4127.69230769 , 4131.79487179 , 4133.84615385 , 4138.46153846 , 4129.74358974 , 4135.8974359 , 4132.30769231 , 4065.64102564 , 4158.97435897 , 4125.64102564 , 2037.0 , 2028.0 , 259.113 , 0.0 , 0.0 , 0.0 , 0.0 , 

41.0 , 4126.66666667 , 4126.66666667 , 4128.71794872 , 4127.69230769 , 4127.69230769 , 4132.82051282 , 4134.87179487 , 4138.46153846 , 4127.69230769 , 4135.8974359 , 4128.20512821 , 4063.07692308 , 4157.43589744 , 4126.15384615 , 2036.0 , 2030.0 , 259.129 , 0.0 , 0.0 , 0.0 , 0.0 , 

42.0 , 4127.69230769 , 4126.66666667 , 4133.33333333 , 4129.74358974 , 4129.23076923 , 4131.79487179 , 4137.43589744 , 4135.38461538 , 4126.15384615 , 4135.8974359 , 4126.15384615 , 4062.05128205 , 4154.87179487 , 4125.12820513 , 2035.0 , 2031.0 , 259.129 , 0.0 , 0.0 , 0.0 , 0.0 , 

43.0 , 4127.69230769 , 4128.71794872 , 4134.35897436 , 4127.69230769 , 4128.20512821 , 4131.79487179 , 4135.38461538 , 4134.87179487 , 4127.69230769 , 4135.8974359 , 4128.20512821 , 4061.53846154 , 4155.8974359 , 4126.66666667 , 2035.0 , 2033.0 , 259.129 , 0.0 , 0.0 , 0.0 , 0.0 , 

44.0 , 4128.20512821 , 4129.74358974 , 4130.25641026 , 4127.17948718 , 4128.71794872 , 4137.43589744 , 4132.30769231 , 4137.94871795 , 4128.71794872 , 4135.8974359 , 4129.23076923 , 4064.1025641 , 4156.92307692 , 4124.61538462 , 2037.0 , 2035.0 , 259.144 , 0.0 , 0.0 , 0.0 , 0.0 , 

45.0 , 4126.15384615 , 4127.17948718 , 4130.25641026 , 4129.23076923 , 4129.74358974 , 4136.41025641 , 4135.8974359 , 4137.94871795 , 4125.12820513 , 4135.8974359 , 4129.23076923 , 4063.07692308 , 4157.43589744 , 4122.05128205 , 2037.0 , 2039.0 , 259.144 , 0.0 , 0.0 , 0.0 , 0.0 , 

46.0 , 4125.12820513 , 4126.15384615 , 4133.33333333 , 4129.23076923 , 4128.20512821 , 4130.25641026 , 4140.51282051 , 4137.43589744 , 4125.12820513 , 4135.8974359 , 4128.20512821 , 4058.97435897 , 4156.92307692 , 4124.1025641 , 2041.0 , 2040.0 , 259.16 , 0.0 , 0.0 , 0.0 , 0.0 , 

47.0 , 4124.1025641 , 4127.17948718 , 4128.20512821 , 4128.20512821 , 4126.66666667 , 4127.69230769 , 4140.51282051 , 4138.46153846 , 4129.74358974 , 4135.8974359 , 4128.20512821 , 4060.0 , 4160.0 , 4125.64102564 , 2041.0 , 2040.0 , 259.16 , 0.0 , 0.0 , 0.0 , 0.0 , 

48.0 , 4124.61538462 , 4126.15384615 , 4130.76923077 , 4128.20512821 , 4128.71794872 , 4128.20512821 , 4142.56410256 , 4140.0 , 4129.23076923 , 4135.8974359 , 4127.69230769 , 4064.1025641 , 4160.51282051 , 4125.12820513 , 2042.0 , 2040.0 , 259.175 , 0.0 , 0.0 , 0.0 , 0.0 , 

49.0 , 4126.66666667 , 4126.66666667 , 4138.46153846 , 4125.64102564 , 4130.25641026 , 4127.69230769 , 4141.53846154 , 4143.07692308 , 4127.17948718 , 4135.8974359 , 4127.69230769 , 4062.56410256 , 4161.02564103 , 4124.1025641 , 2042.0 , 2039.0 , 259.191 , 0.0 , 0.0 , 0.0 , 0.0 , 

50.0 , 4127.17948718 , 4130.25641026 , 4134.87179487 , 4127.69230769 , 4129.74358974 , 4129.23076923 , 4138.46153846 , 4143.07692308 , 4130.76923077 , 4135.8974359 , 4126.66666667 , 4063.07692308 , 4162.05128205 , 4126.15384615 , 2041.0 , 2036.0 , 259.197 , 0.0 , 0.0 , 0.0 , 0.0 , 

51.0 , 4125.64102564 , 4130.76923077 , 4128.71794872 , 4128.71794872 , 4129.74358974 , 4132.30769231 , 4138.97435897 , 4138.46153846 , 4131.79487179 , 4135.8974359 , 4128.71794872 , 4064.1025641 , 4162.56410256 , 4126.66666667 , 2041.0 , 2034.0 , 259.205 , 0.0 , 0.0 , 0.0 , 0.0 , 

52.0 , 4126.15384615 , 4128.71794872 , 4133.33333333 , 4127.69230769 , 4131.28205128 , 4131.79487179 , 4138.97435897 , 4138.46153846 , 4127.69230769 , 4135.8974359 , 4128.71794872 , 4060.51282051 , 4159.48717949 , 4127.17948718 , 2041.0 , 2034.0 , 259.216 , 0.0 , 0.0 , 0.0 , 0.0 , 

53.0 , 4125.64102564 , 4128.71794872 , 4133.33333333 , 4127.69230769 , 4130.76923077 , 4128.20512821 , 4136.41025641 , 4137.43589744 , 4127.17948718 , 4135.8974359 , 4123.07692308 , 4056.92307692 , 4157.94871795 , 4128.20512821 , 2040.0 , 2034.0 , 259.222 , 0.0 , 0.0 , 0.0 , 0.0 , 

54.0 , 4126.66666667 , 4131.28205128 , 4126.66666667 , 4128.71794872 , 4127.17948718 , 4128.20512821 , 4132.82051282 , 4131.79487179 , 4127.69230769 , 4135.8974359 , 4122.56410256 , 4057.94871795 , 4155.8974359 , 4128.20512821 , 2040.0 , 2036.0 , 259.23 , 0.0 , 0.0 , 0.0 , 0.0 , 

55.0 , 4129.23076923 , 4130.76923077 , 4129.74358974 , 4128.71794872 , 4127.17948718 , 4133.33333333 , 4128.71794872 , 4132.82051282 , 4126.66666667 , 4135.8974359 , 4126.66666667 , 4059.48717949 , 4151.28205128 , 4129.23076923 , 2042.0 , 2036.0 , 259.238 , 0.0 , 0.0 , 0.0 , 0.0 , 

56.0 , 4130.25641026 , 4129.23076923 , 4134.87179487 , 4129.23076923 , 4130.25641026 , 4132.82051282 , 4126.66666667 , 4134.87179487 , 4124.1025641 , 4135.8974359 , 4127.17948718 , 4057.94871795 , 4151.28205128 , 4129.74358974 , 2043.0 , 2036.0 , 259.245 , 0.0 , 0.0 , 0.0 , 0.0 , 

57.0 , 4129.23076923 , 4129.74358974 , 4133.33333333 , 4131.28205128 , 4130.76923077 , 4128.20512821 , 4130.25641026 , 4131.79487179 , 4127.69230769 , 4135.8974359 , 4123.58974359 , 4056.41025641 , 4152.82051282 , 4128.20512821 , 2045.0 , 2034.0 , 259.245 , 0.0 , 0.0 , 0.0 , 0.0 , 

58.0 , 4130.76923077 , 4130.25641026 , 4132.30769231 , 4132.30769231 , 4128.71794872 , 4127.69230769 , 4129.23076923 , 4126.66666667 , 4131.79487179 , 4135.8974359 , 4124.1025641 , 4057.43589744 , 4151.79487179 , 4125.64102564 , 2045.0 , 2033.0 , 259.261 , 0.0 , 0.0 , 0.0 , 0.0 , 

59.0 , 4130.76923077 , 4130.76923077 , 4133.33333333 , 4132.30769231 , 4128.20512821 , 4129.23076923 , 4126.15384615 , 4125.12820513 , 4129.74358974 , 4135.8974359 , 4124.1025641 , 4057.43589744 , 4151.28205128 , 4128.20512821 , 2045.0 , 2030.0 , 259.261 , 0.0 , 0.0 , 0.0 , 0.0 , 

60.0 , 4127.17948718 , 4130.25641026 , 4133.84615385 , 4130.25641026 , 4129.23076923 , 4128.20512821 , 4129.74358974 , 4126.15384615 , 4127.17948718 , 4135.8974359 , 4123.58974359 , 4056.92307692 , 4154.35897436 , 4130.25641026 , 2044.0 , 2031.0 , 259.276 , 0.0 , 0.0 , 0.0 , 0.0 , 

61.0 , 4129.23076923 , 4129.74358974 , 4132.82051282 , 4129.23076923 , 4128.71794872 , 4128.20512821 , 4130.25641026 , 4125.12820513 , 4129.74358974 , 4135.8974359 , 4123.58974359 , 4059.48717949 , 4151.79487179 , 4127.69230769 , 2043.0 , 2032.0 , 259.276 , 0.0 , 0.0 , 0.0 , 0.0 , 

62.0 , 4132.82051282 , 4130.25641026 , 4131.79487179 , 4129.23076923 , 4127.17948718 , 4129.74358974 , 4127.17948718 , 4123.07692308 , 4131.28205128 , 4135.8974359 , 4123.07692308 , 4059.48717949 , 4147.17948718 , 4125.64102564 , 2044.0 , 2031.0 , 259.292 , 0.0 , 0.0 , 0.0 , 0.0 , 

63.0 , 4132.82051282 , 4132.82051282 , 4132.30769231 , 4129.74358974 , 4128.20512821 , 4130.25641026 , 4127.17948718 , 4121.53846154 , 4128.20512821 , 4135.8974359 , 4122.56410256 , 4056.41025641 , 4145.64102564 , 4128.20512821 , 2044.0 , 2033.0 , 259.292 , 0.0 , 0.0 , 0.0 , 0.0 , 

64.0 , 4131.28205128 , 4131.79487179 , 4132.30769231 , 4130.25641026 , 4128.71794872 , 4128.20512821 , 4127.17948718 , 4120.51282051 , 4127.17948718 , 4135.8974359 , 4123.07692308 , 4057.43589744 , 4147.17948718 , 4130.25641026 , 2045.0 , 2032.0 , 259.31 , 0.0 , 0.0 , 0.0 , 0.0 , 

65.0 , 4129.74358974 , 4128.71794872 , 4133.84615385 , 4131.79487179 , 4129.74358974 , 4128.71794872 , 4126.15384615 , 4121.02564103 , 4129.23076923 , 4135.8974359 , 4122.56410256 , 4058.97435897 , 4145.12820513 , 4131.28205128 , 2045.0 , 2033.0 , 259.317 , 0.0 , 0.0 , 0.0 , 0.0 , 

66.0 , 4127.69230769 , 4129.23076923 , 4132.30769231 , 4133.84615385 , 4128.20512821 , 4130.76923077 , 4125.12820513 , 4122.05128205 , 4127.69230769 , 4135.8974359 , 4122.56410256 , 4056.92307692 , 4144.61538462 , 4130.25641026 , 2045.0 , 2034.0 , 259.325 , 0.0 , 0.0 , 0.0 , 0.0 , 

67.0 , 4131.79487179 , 4130.25641026 , 4130.76923077 , 4132.82051282 , 4126.66666667 , 4131.79487179 , 4126.15384615 , 4122.05128205 , 4127.17948718 , 4135.8974359 , 4124.61538462 , 4056.41025641 , 4146.15384615 , 4129.74358974 , 2045.0 , 2032.0 , 259.333 , 0.0 , 0.0 , 0.0 , 0.0 , 

68.0 , 4133.84615385 , 4129.23076923 , 4129.74358974 , 4131.79487179 , 4127.69230769 , 4130.76923077 , 4127.17948718 , 4122.56410256 , 4127.69230769 , 4135.8974359 , 4124.61538462 , 4056.92307692 , 4146.66666667 , 4129.74358974 , 2045.0 , 2033.0 , 259.342 , 0.0 , 0.0 , 0.0 , 0.0 , 

69.0 , 4129.74358974 , 4129.23076923 , 4130.25641026 , 4130.76923077 , 4129.23076923 , 4130.25641026 , 4127.69230769 , 4124.1025641 , 4126.15384615 , 4135.8974359 , 4124.61538462 , 4055.8974359 , 4143.58974359 , 4131.28205128 , 2045.0 , 2034.0 , 259.348 , 0.0 , 0.0 , 0.0 , 0.0 , 

70.0 , 4128.20512821 , 4129.74358974 , 4129.74358974 , 4131.79487179 , 4127.69230769 , 4130.76923077 , 4125.64102564 , 4123.07692308 , 4126.15384615 , 4135.8974359 , 4123.58974359 , 4055.8974359 , 4145.64102564 , 4131.28205128 , 2046.0 , 2031.0 , 259.356 , 0.0 , 0.0 , 0.0 , 0.0 , 

71.0 , 4130.76923077 , 4131.28205128 , 4132.82051282 , 4131.28205128 , 4127.69230769 , 4132.30769231 , 4123.58974359 , 4123.07692308 , 4127.17948718 , 4135.8974359 , 4123.07692308 , 4057.94871795 , 4146.15384615 , 4129.74358974 , 2047.0 , 2030.0 , 259.364 , 0.0 , 0.0 , 0.0 , 0.0 , 

72.0 , 4127.69230769 , 4130.25641026 , 4132.82051282 , 4128.20512821 , 4128.20512821 , 4130.25641026 , 4123.58974359 , 4126.15384615 , 4125.64102564 , 4135.8974359 , 4123.58974359 , 4058.46153846 , 4145.12820513 , 4128.20512821 , 2048.0 , 2029.0 , 259.372 , 0.0 , 0.0 , 0.0 , 0.0 , 

73.0 , 4127.17948718 , 4129.23076923 , 4131.79487179 , 4128.71794872 , 4126.66666667 , 4129.23076923 , 4124.61538462 , 4126.15384615 , 4126.66666667 , 4135.8974359 , 4123.07692308 , 4060.0 , 4145.64102564 , 4127.69230769 , 2048.0 , 2031.0 , 259.38 , 0.0 , 0.0 , 0.0 , 0.0 , 

74.0 , 4129.74358974 , 4129.74358974 , 4133.84615385 , 4129.74358974 , 4129.23076923 , 4130.25641026 , 4123.07692308 , 4123.58974359 , 4130.76923077 , 4135.8974359 , 4122.56410256 , 4061.02564103 , 4146.66666667 , 4128.71794872 , 2047.0 , 2030.0 , 259.388 , 0.0 , 0.0 , 0.0 , 0.0 , 

75.0 , 4131.28205128 , 4129.74358974 , 4134.87179487 , 4128.71794872 , 4131.79487179 , 4131.28205128 , 4121.02564103 , 4122.05128205 , 4130.76923077 , 4135.8974359 , 4122.56410256 , 4060.0 , 4144.61538462 , 4129.74358974 , 2046.0 , 2031.0 , 259.396 , 0.0 , 0.0 , 0.0 , 0.0 , 

76.0 , 4131.79487179 , 4128.71794872 , 4131.28205128 , 4130.25641026 , 4129.74358974 , 4129.74358974 , 4121.02564103 , 4121.02564103 , 4129.23076923 , 4135.8974359 , 4123.07692308 , 4058.97435897 , 4143.58974359 , 4128.20512821 , 2047.0 , 2029.0 , 259.404 , 0.0 , 0.0 , 0.0 , 0.0 , 

77.0 , 4131.79487179 , 4128.20512821 , 4131.28205128 , 4132.82051282 , 4127.69230769 , 4130.25641026 , 4123.07692308 , 4120.51282051 , 4128.20512821 , 4135.8974359 , 4123.58974359 , 4058.46153846 , 4143.58974359 , 4128.20512821 , 2047.0 , 2032.0 , 259.41 , 0.0 , 0.0 , 0.0 , 0.0 , 

78.0 , 4130.76923077 , 4130.25641026 , 4132.82051282 , 4132.82051282 , 4128.71794872 , 4133.84615385 , 4122.56410256 , 4121.02564103 , 4125.64102564 , 4135.8974359 , 4124.61538462 , 4057.43589744 , 4142.05128205 , 4131.79487179 , 2047.0 , 2032.0 , 259.418 , 0.0 , 0.0 , 0.0 , 0.0 , 

79.0 , 4131.28205128 , 4131.79487179 , 4130.76923077 , 4132.30769231 , 4130.25641026 , 4132.82051282 , 4121.53846154 , 4121.53846154 , 4126.15384615 , 4135.8974359 , 4125.64102564 , 4056.41025641 , 4142.56410256 , 4132.30769231 , 2046.0 , 2032.0 , 259.427 , 0.0 , 0.0 , 0.0 , 0.0 , 

80.0 , 4133.84615385 , 4130.76923077 , 4131.28205128 , 4132.30769231 , 4131.28205128 , 4130.25641026 , 4121.53846154 , 4121.53846154 , 4129.74358974 , 4135.8974359 , 4124.1025641 , 4057.43589744 , 4142.05128205 , 4129.74358974 , 2047.0 , 2030.0 , 259.435 , 0.0 , 0.0 , 0.0 , 0.0 , 

81.0 , 4131.28205128 , 4128.71794872 , 4132.30769231 , 4132.30769231 , 4131.28205128 , 4131.79487179 , 4121.02564103 , 4123.07692308 , 4129.74358974 , 4135.8974359 , 4123.07692308 , 4057.94871795 , 4145.12820513 , 4129.74358974 , 2045.0 , 2033.0 , 259.443 , 0.0 , 0.0 , 0.0 , 0.0 , 

82.0 , 4128.71794872 , 4129.74358974 , 4131.28205128 , 4133.33333333 , 4129.23076923 , 4131.28205128 , 4120.51282051 , 4124.1025641 , 4127.69230769 , 4135.8974359 , 4125.12820513 , 4058.46153846 , 4146.66666667 , 4130.76923077 , 2047.0 , 2032.0 , 259.451 , 0.0 , 0.0 , 0.0 , 0.0 , 

83.0 , 4128.20512821 , 4130.76923077 , 4130.25641026 , 4130.25641026 , 4128.71794872 , 4128.71794872 , 4120.51282051 , 4122.56410256 , 4125.64102564 , 4135.8974359 , 4124.61538462 , 4058.97435897 , 4146.15384615 , 4128.71794872 , 2048.0 , 2031.0 , 259.459 , 0.0 , 0.0 , 0.0 , 0.0 , 

84.0 , 4128.71794872 , 4130.25641026 , 4132.30769231 , 4128.71794872 , 4130.76923077 , 4131.79487179 , 4122.56410256 , 4123.58974359 , 4126.15384615 , 4135.8974359 , 4122.05128205 , 4059.48717949 , 4144.61538462 , 4128.71794872 , 2047.0 , 2031.0 , 259.467 , 0.0 , 0.0 , 0.0 , 0.0 , 

85.0 , 4128.71794872 , 4129.23076923 , 4131.79487179 , 4131.79487179 , 4129.23076923 , 4134.87179487 , 4126.15384615 , 4125.64102564 , 4128.71794872 , 4135.8974359 , 4121.53846154 , 4057.94871795 , 4146.15384615 , 4131.28205128 , 2047.0 , 2032.0 , 259.475 , 0.0 , 0.0 , 0.0 , 0.0 , 

86.0 , 4130.25641026 , 4129.23076923 , 4133.84615385 , 4130.76923077 , 4130.76923077 , 4131.28205128 , 4126.66666667 , 4126.66666667 , 4127.69230769 , 4135.8974359 , 4122.56410256 , 4057.94871795 , 4147.17948718 , 4132.82051282 , 2046.0 , 2032.0 , 259.482 , 0.0 , 0.0 , 0.0 , 0.0 , 

87.0 , 4131.28205128 , 4131.28205128 , 4135.38461538 , 4127.69230769 , 4131.79487179 , 4128.20512821 , 4123.07692308 , 4124.1025641 , 4126.15384615 , 4135.8974359 , 4120.51282051 , 4058.46153846 , 4146.15384615 , 4130.76923077 , 2046.0 , 2033.0 , 259.49 , 0.0 , 0.0 , 0.0 , 0.0 , 

88.0 , 4131.28205128 , 4133.33333333 , 4133.33333333 , 4129.23076923 , 4128.71794872 , 4129.23076923 , 4122.56410256 , 4121.53846154 , 4128.20512821 , 4135.8974359 , 4122.05128205 , 4055.8974359 , 4143.58974359 , 4130.76923077 , 2046.0 , 2032.0 , 259.498 , 0.0 , 0.0 , 0.0 , 0.0 , 

89.0 , 4130.25641026 , 4130.25641026 , 4130.25641026 , 4129.74358974 , 4127.69230769 , 4131.28205128 , 4124.61538462 , 4124.1025641 , 4129.23076923 , 4135.8974359 , 4124.1025641 , 4054.35897436 , 4146.66666667 , 4133.33333333 , 2047.0 , 2034.0 , 259.506 , 0.0 , 0.0 , 0.0 , 0.0 , 

90.0 , 4128.71794872 , 4128.20512821 , 4132.30769231 , 4127.69230769 , 4130.25641026 , 4131.79487179 , 4124.1025641 , 4125.12820513 , 4126.15384615 , 4135.8974359 , 4122.56410256 , 4059.48717949 , 4146.66666667 , 4131.79487179 , 2046.0 , 2032.0 , 259.515 , 0.0 , 0.0 , 0.0 , 0.0 , 

91.0 , 4128.20512821 , 4130.76923077 , 4130.76923077 , 4130.25641026 , 4128.71794872 , 4130.76923077 , 4121.02564103 , 4123.07692308 , 4125.64102564 , 4135.8974359 , 4122.56410256 , 4063.58974359 , 4144.1025641 , 4127.69230769 , 2046.0 , 2030.0 , 259.522 , 0.0 , 0.0 , 0.0 , 0.0 , 

92.0 , 4130.25641026 , 4130.76923077 , 4129.74358974 , 4133.84615385 , 4128.71794872 , 4131.79487179 , 4120.51282051 , 4125.12820513 , 4125.12820513 , 4135.8974359 , 4124.1025641 , 4062.56410256 , 4148.20512821 , 4127.69230769 , 2047.0 , 2030.0 , 259.53 , 0.0 , 0.0 , 0.0 , 0.0 , 

93.0 , 4129.74358974 , 4127.69230769 , 4133.84615385 , 4130.25641026 , 4132.30769231 , 4132.30769231 , 4125.12820513 , 4129.23076923 , 4123.58974359 , 4135.8974359 , 4123.07692308 , 4060.0 , 4151.79487179 , 4128.20512821 , 2047.0 , 2032.0 , 259.538 , 0.0 , 0.0 , 0.0 , 0.0 , 

94.0 , 4128.20512821 , 4129.23076923 , 4132.82051282 , 4127.69230769 , 4130.25641026 , 4131.79487179 , 4127.69230769 , 4126.66666667 , 4127.69230769 , 4135.8974359 , 4122.56410256 , 4058.97435897 , 4147.69230769 , 4128.20512821 , 2046.0 , 2034.0 , 259.545 , 0.0 , 0.0 , 0.0 , 0.0 , 

95.0 , 4128.20512821 , 4132.30769231 , 4126.15384615 , 4129.74358974 , 4126.15384615 , 4131.28205128 , 4126.15384615 , 4125.64102564 , 4130.76923077 , 4135.8974359 , 4124.1025641 , 4058.97435897 , 4146.15384615 , 4128.71794872 , 2045.0 , 2034.0 , 259.553 , 0.0 , 0.0 , 0.0 , 0.0 , 

96.0 , 4129.23076923 , 4129.74358974 , 4128.20512821 , 4129.74358974 , 4128.20512821 , 4129.74358974 , 4126.15384615 , 4127.69230769 , 4126.15384615 , 4135.8974359 , 4122.56410256 , 4060.0 , 4148.71794872 , 4127.69230769 , 2045.0 , 2034.0 , 259.561 , 0.0 , 0.0 , 0.0 , 0.0 , 

97.0 , 4129.74358974 , 4125.64102564 , 4134.87179487 , 4128.71794872 , 4129.74358974 , 4130.25641026 , 4125.64102564 , 4129.23076923 , 4125.12820513 , 4135.8974359 , 4123.07692308 , 4062.05128205 , 4146.15384615 , 4127.17948718 , 2044.0 , 2034.0 , 259.568 , 0.0 , 0.0 , 0.0 , 0.0 , 

98.0 , 4129.23076923 , 4128.20512821 , 4133.33333333 , 4130.76923077 , 4128.20512821 , 4131.28205128 , 4122.05128205 , 4128.71794872 , 4126.15384615 , 4135.8974359 , 4126.66666667 , 4061.53846154 , 4148.20512821 , 4129.74358974 , 2043.0 , 2034.0 , 259.577 , 0.0 , 0.0 , 0.0 , 0.0 , 

99.0 , 4129.23076923 , 4131.79487179 , 4130.76923077 , 4132.30769231 , 4127.69230769 , 4129.23076923 , 4124.61538462 , 4127.17948718 , 4125.12820513 , 4135.8974359 , 4125.64102564 , 4058.97435897 , 4150.76923077 , 4130.25641026 , 2043.0 , 2032.0 , 259.584 , 0.0 , 0.0 , 0.0 , 0.0 , 

100.0 , 4131.28205128 , 4128.71794872 , 4132.30769231 , 4130.25641026 , 4129.23076923 , 4128.71794872 , 4127.69230769 , 4124.1025641 , 4125.12820513 , 4135.8974359 , 4122.05128205 , 4061.02564103 , 4150.25641026 , 4127.69230769 , 2043.0 , 2032.0 , 259.594 , 0.0 , 0.0 , 0.0 , 0.0 , 

101.0 , 4133.84615385 , 4127.69230769 , 4135.38461538 , 4130.25641026 , 4130.76923077 , 4131.79487179 , 4127.69230769 , 4121.53846154 , 4127.69230769 , 4135.8974359 , 4123.07692308 , 4062.05128205 , 4148.20512821 , 4129.23076923 , 2043.0 , 2033.0 , 259.601 , 0.0 , 0.0 , 0.0 , 0.0 , 

102.0 , 4130.25641026 , 4129.74358974 , 4132.82051282 , 4130.25641026 , 4129.74358974 , 4131.79487179 , 4127.69230769 , 4126.15384615 , 4128.71794872 , 4135.8974359 , 4124.1025641 , 4060.0 , 4152.82051282 , 4129.23076923 , 2044.0 , 2033.0 , 259.609 , 0.0 , 0.0 , 0.0 , 0.0 , 

103.0 , 4129.23076923 , 4131.28205128 , 4132.30769231 , 4130.25641026 , 4129.23076923 , 4128.71794872 , 4127.69230769 , 4133.84615385 , 4127.17948718 , 4135.8974359 , 4124.1025641 , 4063.58974359 , 4155.8974359 , 4127.69230769 , 2044.0 , 2033.0 , 259.616 , 0.0 , 0.0 , 0.0 , 0.0 , 

104.0 , 4130.25641026 , 4129.23076923 , 4133.84615385 , 4131.28205128 , 4128.20512821 , 4129.74358974 , 4126.66666667 , 4133.33333333 , 4127.69230769 , 4135.8974359 , 4126.15384615 , 4066.15384615 , 4155.8974359 , 4127.69230769 , 2043.0 , 2033.0 , 259.624 , 0.0 , 0.0 , 0.0 , 0.0 , 

105.0 , 4131.28205128 , 4128.20512821 , 4133.84615385 , 4131.79487179 , 4127.17948718 , 4132.82051282 , 4126.66666667 , 4131.79487179 , 4129.23076923 , 4135.8974359 , 4126.66666667 , 4061.53846154 , 4149.23076923 , 4128.20512821 , 2042.0 , 2034.0 , 259.632 , 0.0 , 0.0 , 0.0 , 0.0 , 

106.0 , 4130.76923077 , 4127.69230769 , 4130.25641026 , 4131.79487179 , 4126.15384615 , 4133.84615385 , 4126.15384615 , 4134.35897436 , 4130.25641026 , 4135.8974359 , 4124.1025641 , 4057.94871795 , 4148.20512821 , 4128.20512821 , 2041.0 , 2034.0 , 259.64 , 0.0 , 0.0 , 0.0 , 0.0 , 

107.0 , 4129.74358974 , 4129.23076923 , 4131.28205128 , 4134.87179487 , 4127.69230769 , 4132.30769231 , 4125.64102564 , 4131.28205128 , 4126.15384615 , 4135.8974359 , 4123.07692308 , 4059.48717949 , 4151.79487179 , 4127.69230769 , 2039.0 , 2034.0 , 259.647 , 0.0 , 0.0 , 0.0 , 0.0 , 

108.0 , 4128.20512821 , 4129.23076923 , 4132.30769231 , 4134.35897436 , 4129.23076923 , 4130.25641026 , 4128.71794872 , 4128.20512821 , 4127.17948718 , 4135.8974359 , 4123.58974359 , 4060.0 , 4151.79487179 , 4126.15384615 , 2040.0 , 2033.0 , 259.65 , 0.0 , 0.0 , 0.0 , 0.0 , 

109.0 , 4128.71794872 , 4125.12820513 , 4131.28205128 , 4129.74358974 , 4129.23076923 , 4130.25641026 , 4129.74358974 , 4135.8974359 , 4130.25641026 , 4135.8974359 , 4124.1025641 , 4060.51282051 , 4148.71794872 , 4126.15384615 , 2041.0 , 2032.0 , 259.65 , 0.0 , 0.0 , 0.0 , 0.0 , 

110.0 , 4127.17948718 , 4124.61538462 , 4132.82051282 , 4127.17948718 , 4129.23076923 , 4129.74358974 , 4128.20512821 , 4137.43589744 , 4128.20512821 , 4135.8974359 , 4125.64102564 , 4062.56410256 , 4148.71794872 , 4127.69230769 , 2042.0 , 2032.0 , 259.672 , 0.0 , 0.0 , 0.0 , 0.0 , 

111.0 , 4125.64102564 , 4129.23076923 , 4132.30769231 , 4128.71794872 , 4130.25641026 , 4130.76923077 , 4129.74358974 , 4134.35897436 , 4128.20512821 , 4135.8974359 , 4126.66666667 , 4062.56410256 , 4148.71794872 , 4127.17948718 , 2043.0 , 2031.0 , 259.679 , 0.0 , 0.0 , 0.0 , 0.0 , 

112.0 , 4128.71794872 , 4129.74358974 , 4130.25641026 , 4130.25641026 , 4129.74358974 , 4131.79487179 , 4132.30769231 , 4135.38461538 , 4131.79487179 , 4135.8974359 , 4125.64102564 , 4062.05128205 , 4147.69230769 , 4127.69230769 , 2044.0 , 2032.0 , 259.687 , 0.0 , 0.0 , 0.0 , 0.0 , 

113.0 , 4129.23076923 , 4127.69230769 , 4132.82051282 , 4130.25641026 , 4129.23076923 , 4131.79487179 , 4131.79487179 , 4137.43589744 , 4129.74358974 , 4135.8974359 , 4124.61538462 , 4063.07692308 , 4152.82051282 , 4127.17948718 , 2045.0 , 2033.0 , 259.695 , 0.0 , 0.0 , 0.0 , 0.0 , 

114.0 , 4126.66666667 , 4130.76923077 , 4135.38461538 , 4128.71794872 , 4128.71794872 , 4130.25641026 , 4127.69230769 , 4134.87179487 , 4126.15384615 , 4135.8974359 , 4124.1025641 , 4063.58974359 , 4155.8974359 , 4127.17948718 , 2047.0 , 2034.0 , 259.703 , 0.0 , 0.0 , 0.0 , 0.0 , 

115.0 , 4127.69230769 , 4130.76923077 , 4130.76923077 , 4128.20512821 , 4127.69230769 , 4129.23076923 , 4126.15384615 , 4132.82051282 , 4128.71794872 , 4135.8974359 , 4123.07692308 , 4062.56410256 , 4149.74358974 , 4127.17948718 , 2046.0 , 2034.0 , 259.709 , 0.0 , 0.0 , 0.0 , 0.0 , 

116.0 , 4129.74358974 , 4126.15384615 , 4128.20512821 , 4131.79487179 , 4128.71794872 , 4129.74358974 , 4129.23076923 , 4133.84615385 , 4130.25641026 , 4135.8974359 , 4124.1025641 , 4061.02564103 , 4143.58974359 , 4127.69230769 , 2047.0 , 2035.0 , 259.709 , 0.0 , 0.0 , 0.0 , 0.0 , 

117.0 , 4128.20512821 , 4126.66666667 , 4131.79487179 , 4131.28205128 , 4131.79487179 , 4129.74358974 , 4129.23076923 , 4134.87179487 , 4127.17948718 , 4135.8974359 , 4126.15384615 , 4057.43589744 , 4147.17948718 , 4129.23076923 , 2048.0 , 2034.0 , 259.756 , 0.0 , 0.0 , 0.0 , 0.0 , 

118.0 , 4130.25641026 , 4131.28205128 , 4135.8974359 , 4128.71794872 , 4129.74358974 , 4130.25641026 , 4125.64102564 , 4134.35897436 , 4124.61538462 , 4135.8974359 , 4126.66666667 , 4057.43589744 , 4148.71794872 , 4129.23076923 , 2049.0 , 2033.0 , 259.756 , 0.0 , 0.0 , 0.0 , 0.0 , 

119.0 , 4131.79487179 , 4129.74358974 , 4132.30769231 , 4129.23076923 , 4126.15384615 , 4131.28205128 , 4125.12820513 , 4131.28205128 , 4125.64102564 , 4135.8974359 , 4125.64102564 , 4060.51282051 , 4146.15384615 , 4127.69230769 , 2049.0 , 2031.0 , 259.756 , 0.0 , 0.0 , 0.0 , 0.0 , 

120.0 , 4127.69230769 , 4129.74358974 , 4129.74358974 , 4131.28205128 , 4128.71794872 , 4131.79487179 , 4126.15384615 , 4131.28205128 , 4129.23076923 , 4135.8974359 , 4124.1025641 , 4060.51282051 , 4143.58974359 , 4127.69230769 , 2049.0 , 2027.0 , 259.756 , 0.0 , 0.0 , 0.0 , 0.0 , 

121.0 , 4125.12820513 , 4131.28205128 , 4131.28205128 , 4131.79487179 , 4131.28205128 , 4130.76923077 , 4125.12820513 , 4130.25641026 , 4130.76923077 , 4135.8974359 , 4122.56410256 , 4057.43589744 , 4145.12820513 , 4129.74358974 , 2049.0 , 2027.0 , 259.756 , 0.0 , 0.0 , 0.0 , 0.0 , 

122.0 , 4128.71794872 , 4129.23076923 , 4134.35897436 , 4130.76923077 , 4130.76923077 , 4129.74358974 , 4125.12820513 , 4127.69230769 , 4128.20512821 , 4135.8974359 , 4124.61538462 , 4059.48717949 , 4146.15384615 , 4130.25641026 , 2048.0 , 2028.0 , 259.756 , 0.0 , 0.0 , 0.0 , 0.0 , 

123.0 , 4131.79487179 , 4127.69230769 , 4131.79487179 , 4131.28205128 , 4129.23076923 , 4129.23076923 , 4124.1025641 , 4127.17948718 , 4128.20512821 , 4135.8974359 , 4126.15384615 , 4058.97435897 , 4148.71794872 , 4129.74358974 , 2047.0 , 2031.0 , 259.771 , 0.0 , 0.0 , 0.0 , 0.0 , 

124.0 , 4131.79487179 , 4130.76923077 , 4130.25641026 , 4132.30769231 , 4129.74358974 , 4130.76923077 , 4124.1025641 , 4125.12820513 , 4127.69230769 , 4135.8974359 , 4123.58974359 , 4056.92307692 , 4147.69230769 , 4131.28205128 , 2046.0 , 2033.0 , 259.771 , 0.0 , 0.0 , 0.0 , 0.0 , 

125.0 , 4127.69230769 , 4129.74358974 , 4131.28205128 , 4132.30769231 , 4130.76923077 , 4132.30769231 , 4127.17948718 , 4123.07692308 , 4125.64102564 , 4135.8974359 , 4122.56410256 , 4057.94871795 , 4146.66666667 , 4129.74358974 , 2044.0 , 2034.0 , 259.787 , 0.0 , 0.0 , 0.0 , 0.0 , 

126.0 , 4126.66666667 , 4128.71794872 , 4134.87179487 , 4132.30769231 , 4131.28205128 , 4131.79487179 , 4126.66666667 , 4124.61538462 , 4127.17948718 , 4135.8974359 , 4123.58974359 , 4059.48717949 , 4147.17948718 , 4127.69230769 , 2044.0 , 2035.0 , 259.787 , 0.0 , 0.0 , 0.0 , 0.0 , 

127.0 , 4131.28205128 , 4130.76923077 , 4133.33333333 , 4133.33333333 , 4129.74358974 , 4130.25641026 , 4123.07692308 , 4126.66666667 , 4129.74358974 , 4135.8974359 , 4124.1025641 , 4060.51282051 , 4148.71794872 , 4128.20512821 , 2042.0 , 2037.0 , 259.803 , 0.0 , 0.0 , 0.0 , 0.0 , 

128.0 , 4132.30769231 , 4128.71794872 , 4130.76923077 , 4134.87179487 , 4131.79487179 , 4129.23076923 , 4123.58974359 , 4123.07692308 , 4127.17948718 , 4135.8974359 , 4123.58974359 , 4061.53846154 , 4147.17948718 , 4129.23076923 , 2041.0 , 2036.0 , 259.803 , 0.0 , 0.0 , 0.0 , 0.0 , 

0.0 , 4129.74358974 , 4126.15384615 , 4130.25641026 , 4132.82051282 , 4132.30769231 , 4129.74358974 , 4126.66666667 , 4125.12820513 , 4127.17948718 , 4135.8974359 , 4123.58974359 , 4061.02564103 , 4145.64102564 , 4128.71794872 , 2039.0 , 2036.0 , 259.818 , 0.0 , 0.0 , 0.0 , 0.0 , 

1.0 , 4131.28205128 , 4128.71794872 , 4131.28205128 , 4129.74358974 , 4129.74358974 , 4131.79487179 , 4127.17948718 , 4133.84615385 , 4130.25641026 , 4135.8974359 , 4125.64102564 , 4060.51282051 , 4146.66666667 , 4128.20512821 , 2038.0 , 2037.0 , 259.818 , 0.0 , 0.0 , 0.0 , 0.0 , 

2.0 , 4131.79487179 , 4129.23076923 , 4130.25641026 , 4129.23076923 , 4129.23076923 , 4131.79487179 , 4126.15384615 , 4134.87179487 , 4128.20512821 , 4135.8974359 , 4126.66666667 , 4063.07692308 , 4147.69230769 , 4126.66666667 , 2039.0 , 2036.0 , 259.834 , 0.0 , 0.0 , 0.0 , 0.0 , 

3.0 , 4130.25641026 , 4127.17948718 , 4128.20512821 , 4131.28205128 , 4129.23076923 , 4130.76923077 , 4125.64102564 , 4132.30769231 , 4126.15384615 , 4135.8974359 , 4125.64102564 , 4064.1025641 , 4149.23076923 , 4126.15384615 , 2037.0 , 2036.0 , 259.834 , 0.0 , 0.0 , 0.0 , 0.0 , 

4.0 , 4132.30769231 , 4127.69230769 , 4130.76923077 , 4130.76923077 , 4127.69230769 , 4132.82051282 , 4126.15384615 , 4131.79487179 , 4128.20512821 , 4135.8974359 , 4125.12820513 , 4062.05128205 , 4147.69230769 , 4127.69230769 , 2039.0 , 2036.0 , 259.85 , 0.0 , 0.0 , 0.0 , 0.0 , 

5.0 , 4132.82051282 , 4128.20512821 , 4131.79487179 , 4128.20512821 , 4128.71794872 , 4133.84615385 , 4127.17948718 , 4133.84615385 , 4127.17948718 , 4135.8974359 , 4124.61538462 , 4061.02564103 , 4149.74358974 , 4128.20512821 , 2041.0 , 2039.0 , 259.85 , 0.0 , 0.0 , 0.0 , 0.0 , 

6.0 , 4130.25641026 , 4127.69230769 , 4130.25641026 , 4130.25641026 , 4128.20512821 , 4131.79487179 , 4129.23076923 , 4133.84615385 , 4125.64102564 , 4135.8974359 , 4124.61538462 , 4062.05128205 , 4151.79487179 , 4127.69230769 , 2041.0 , 2038.0 , 259.865 , 0.0 , 0.0 , 0.0 , 0.0 , 

7.0 , 4129.23076923 , 4125.64102564 , 4130.25641026 , 4130.76923077 , 4126.15384615 , 4130.25641026 , 4129.23076923 , 4135.38461538 , 4127.17948718 , 4135.8974359 , 4126.66666667 , 4062.56410256 , 4152.30769231 , 4128.71794872 , 2042.0 , 2037.0 , 259.865 , 0.0 , 0.0 , 0.0 , 0.0 , 

8.0 , 4130.76923077 , 4125.64102564 , 4134.35897436 , 4127.69230769 , 4129.23076923 , 4130.25641026 , 4125.64102564 , 4135.8974359 , 4130.76923077 , 4135.8974359 , 4126.66666667 , 4062.05128205 , 4150.76923077 , 4127.17948718 , 2042.0 , 2038.0 , 259.884 , 0.0 , 0.0 , 0.0 , 0.0 , 

9.0 , 4130.25641026 , 4129.23076923 , 4133.33333333 , 4128.20512821 , 4129.74358974 , 4131.28205128 , 4125.12820513 , 4135.38461538 , 4132.30769231 , 4135.8974359 , 4124.61538462 , 4062.56410256 , 4152.30769231 , 4126.66666667 , 2043.0 , 2036.0 , 259.892 , 0.0 , 0.0 , 0.0 , 0.0 , 

10.0 , 4129.74358974 , 4128.71794872 , 4129.23076923 , 4131.28205128 , 4128.20512821 , 4130.76923077 , 4128.71794872 , 4135.8974359 , 4131.79487179 , 4135.8974359 , 4125.64102564 , 4061.53846154 , 4149.23076923 , 4130.25641026 , 2044.0 , 2034.0 , 259.9 , 0.0 , 0.0 , 0.0 , 0.0 , 

11.0 , 4127.17948718 , 4125.64102564 , 4129.23076923 , 4130.76923077 , 4130.25641026 , 4129.74358974 , 4129.23076923 , 4133.33333333 , 4132.82051282 , 4135.8974359 , 4126.15384615 , 4060.0 , 4148.71794872 , 4128.71794872 , 2045.0 , 2032.0 , 259.908 , 0.0 , 0.0 , 0.0 , 0.0 , 

12.0 , 4126.66666667 , 4128.20512821 , 4131.79487179 , 4130.25641026 , 4130.76923077 , 4132.82051282 , 4128.71794872 , 4132.82051282 , 4133.33333333 , 4135.8974359 , 4123.58974359 , 4061.53846154 , 4151.79487179 , 4126.66666667 , 2044.0 , 2032.0 , 259.916 , 0.0 , 0.0 , 0.0 , 0.0 , 

13.0 , 4127.17948718 , 4131.28205128 , 4130.76923077 , 4131.79487179 , 4127.17948718 , 4134.87179487 , 4129.23076923 , 4132.30769231 , 4127.17948718 , 4135.8974359 , 4122.56410256 , 4062.56410256 , 4152.30769231 , 4127.17948718 , 2043.0 , 2033.0 , 259.924 , 0.0 , 0.0 , 0.0 , 0.0 , 

14.0 , 4128.20512821 , 4129.74358974 , 4130.25641026 , 4130.25641026 , 4126.15384615 , 4131.28205128 , 4128.71794872 , 4128.20512821 , 4123.58974359 , 4135.8974359 , 4124.61538462 , 4062.05128205 , 4145.64102564 , 4128.20512821 , 2042.0 , 2030.0 , 259.932 , 0.0 , 0.0 , 0.0 , 0.0 , 

15.0 , 4125.64102564 , 4127.69230769 , 4130.25641026 , 4128.71794872 , 4130.25641026 , 4129.23076923 , 4127.17948718 , 4129.74358974 , 4128.20512821 , 4135.8974359 , 4126.15384615 , 4062.05128205 , 4147.69230769 , 4128.20512821 , 2041.0 , 2032.0 , 259.939 , 0.0 , 0.0 , 0.0 , 0.0 , 

16.0 , 4126.15384615 , 4128.71794872 , 4130.76923077 , 4130.76923077 , 4131.28205128 , 4131.79487179 , 4128.71794872 , 4135.8974359 , 4130.76923077 , 4135.8974359 , 4126.15384615 , 4062.05128205 , 4152.30769231 , 4128.71794872 , 2038.0 , 2033.0 , 259.943 , 0.0 , 0.0 , 0.0 , 0.0 , 

17.0 , 4126.66666667 , 4128.20512821 , 4130.76923077 , 4130.25641026 , 4129.23076923 , 4132.82051282 , 4131.28205128 , 4134.35897436 , 4127.17948718 , 4135.8974359 , 4125.64102564 , 4058.97435897 , 4149.23076923 , 4129.74358974 , 2035.0 , 2034.0 , 259.943 , 0.0 , 0.0 , 0.0 , 0.0 , 

18.0 , 4126.66666667 , 4129.23076923 , 4131.28205128 , 4127.69230769 , 4129.74358974 , 4129.74358974 , 4130.76923077 , 4131.79487179 , 4126.15384615 , 4135.8974359 , 4124.61538462 , 4057.94871795 , 4151.28205128 , 4129.23076923 , 2034.0 , 2034.0 , 259.959 , 0.0 , 0.0 , 0.0 , 0.0 , 

19.0 , 4127.69230769 , 4128.71794872 , 4130.76923077 , 4129.23076923 , 4129.23076923 , 4128.71794872 , 4130.25641026 , 4136.92307692 , 4130.76923077 , 4135.8974359 , 4126.15384615 , 4059.48717949 , 4157.94871795 , 4127.69230769 , 2029.0 , 2036.0 , 259.959 , 0.0 , 0.0 , 0.0 , 0.0 , 

20.0 , 4126.66666667 , 4127.69230769 , 4129.74358974 , 4130.25641026 , 4128.71794872 , 4131.79487179 , 4135.38461538 , 4137.43589744 , 4132.30769231 , 4135.8974359 , 4127.69230769 , 4060.51282051 , 4154.87179487 , 4126.66666667 , 2030.0 , 2036.0 , 259.974 , 0.0 , 0.0 , 0.0 , 0.0 , 

21.0 , 4123.07692308 , 4127.69230769 , 4128.20512821 , 4126.66666667 , 4130.76923077 , 4132.82051282 , 4142.05128205 , 4136.41025641 , 4130.76923077 , 4135.8974359 , 4127.17948718 , 4063.58974359 , 4154.87179487 , 4128.20512821 , 2033.0 , 2036.0 , 259.974 , 0.0 , 0.0 , 0.0 , 0.0 , 

22.0 , 4122.05128205 , 4126.66666667 , 4129.23076923 , 4125.12820513 , 4130.76923077 , 4130.25641026 , 4144.1025641 , 4138.46153846 , 4131.28205128 , 4135.8974359 , 4125.64102564 , 4066.15384615 , 4161.02564103 , 4126.66666667 , 2034.0 , 2035.0 , 259.99 , 0.0 , 0.0 , 0.0 , 0.0 , 

23.0 , 4125.64102564 , 4126.15384615 , 4132.30769231 , 4126.66666667 , 4127.17948718 , 4128.71794872 , 4144.61538462 , 4141.53846154 , 4130.76923077 , 4135.8974359 , 4125.12820513 , 4065.12820513 , 4159.48717949 , 4125.12820513 , 2033.0 , 2035.0 , 259.99 , 0.0 , 0.0 , 0.0 , 0.0 , 

24.0 , 4127.17948718 , 4127.17948718 , 4131.79487179 , 4126.15384615 , 4127.69230769 , 4128.71794872 , 4145.12820513 , 4147.17948718 , 4129.23076923 , 4135.8974359 , 4130.25641026 , 4062.05128205 , 4160.51282051 , 4127.17948718 , 2032.0 , 2034.0 , 260.005 , 0.0 , 0.0 , 0.0 , 0.0 , 

25.0 , 4126.15384615 , 4128.20512821 , 4133.33333333 , 4125.12820513 , 4130.25641026 , 4128.20512821 , 4143.07692308 , 4149.23076923 , 4133.33333333 , 4135.8974359 , 4137.94871795 , 4063.07692308 , 4164.61538462 , 4127.17948718 , 2030.0 , 2034.0 , 260.005 , 0.0 , 0.0 , 0.0 , 0.0 , 

26.0 , 4124.61538462 , 4126.66666667 , 4134.35897436 , 4127.17948718 , 4128.20512821 , 4127.17948718 , 4142.05128205 , 4145.12820513 , 4134.87179487 , 4135.8974359 , 4136.41025641 , 4062.05128205 , 4163.07692308 , 4125.12820513 , 2036.0 , 2036.0 , 260.026 , 0.0 , 0.0 , 0.0 , 0.0 , 

27.0 , 4125.64102564 , 4126.15384615 , 4130.76923077 , 4129.74358974 , 4125.64102564 , 4126.66666667 , 4143.58974359 , 4140.0 , 4134.87179487 , 4135.8974359 , 4127.69230769 , 4058.97435897 , 4160.0 , 4125.64102564 , 2036.0 , 2036.0 , 260.034 , 0.0 , 0.0 , 0.0 , 0.0 , 

28.0 , 4126.15384615 , 4126.15384615 , 4128.71794872 , 4129.23076923 , 4128.71794872 , 4128.20512821 , 4143.58974359 , 4137.94871795 , 4135.8974359 , 4135.8974359 , 4127.69230769 , 4059.48717949 , 4161.02564103 , 4126.66666667 , 2040.0 , 2034.0 , 260.042 , 0.0 , 0.0 , 0.0 , 0.0 , 

29.0 , 4127.69230769 , 4125.64102564 , 4133.33333333 , 4129.23076923 , 4130.76923077 , 4128.71794872 , 4144.61538462 , 4138.46153846 , 4131.79487179 , 4135.8974359 , 4134.87179487 , 4061.53846154 , 4161.53846154 , 4127.69230769 , 2042.0 , 2033.0 , 260.05 , 0.0 , 0.0 , 0.0 , 0.0 , 

30.0 , 4130.25641026 , 4126.15384615 , 4134.87179487 , 4128.71794872 , 4126.66666667 , 4126.15384615 , 4142.05128205 , 4137.43589744 , 4125.64102564 , 4135.8974359 , 4133.33333333 , 4060.51282051 , 4164.1025641 , 4125.64102564 , 2044.0 , 2032.0 , 260.053 , 0.0 , 0.0 , 0.0 , 0.0 , 

31.0 , 4130.76923077 , 4129.23076923 , 4133.84615385 , 4128.20512821 , 4125.64102564 , 4126.66666667 , 4134.87179487 , 4138.46153846 , 4128.20512821 , 4135.8974359 , 4125.64102564 , 4058.97435897 , 4160.0 , 4125.12820513 , 2045.0 , 2033.0 , 260.053 , 0.0 , 0.0 , 0.0 , 0.0 , 

32.0 , 4125.64102564 , 4131.79487179 , 4130.25641026 , 4129.23076923 , 4127.69230769 , 4126.15384615 , 4129.74358974 , 4135.8974359 , 4131.28205128 , 4135.8974359 , 4122.56410256 , 4059.48717949 , 4152.30769231 , 4128.71794872 , 2045.0 , 2032.0 , 260.068 , 0.0 , 0.0 , 0.0 , 0.0 , 

33.0 , 4127.17948718 , 4131.79487179 , 4127.17948718 , 4130.25641026 , 4128.20512821 , 4126.15384615 , 4127.69230769 , 4129.23076923 , 4127.69230769 , 4135.8974359 , 4124.61538462 , 4057.94871795 , 4148.71794872 , 4130.76923077 , 2047.0 , 2034.0 , 260.068 , 0.0 , 0.0 , 0.0 , 0.0 , 

34.0 , 4130.76923077 , 4130.76923077 , 4127.17948718 , 4131.79487179 , 4127.17948718 , 4128.71794872 , 4125.64102564 , 4125.12820513 , 4129.23076923 , 4135.8974359 , 4123.58974359 , 4054.87179487 , 4148.71794872 , 4128.20512821 , 2046.0 , 2033.0 , 260.084 , 0.0 , 0.0 , 0.0 , 0.0 , 

35.0 , 4129.74358974 , 4129.74358974 , 4132.30769231 , 4133.33333333 , 4129.23076923 , 4129.74358974 , 4125.12820513 , 4126.15384615 , 4131.28205128 , 4135.8974359 , 4121.02564103 , 4056.41025641 , 4146.15384615 , 4129.23076923 , 2047.0 , 2032.0 , 260.084 , 0.0 , 0.0 , 0.0 , 0.0 , 

36.0 , 4126.66666667 , 4129.74358974 , 4132.82051282 , 4131.28205128 , 4131.79487179 , 4128.71794872 , 4125.64102564 , 4125.64102564 , 4128.20512821 , 4135.8974359 , 4121.53846154 , 4057.94871795 , 4144.1025641 , 4129.23076923 , 2047.0 , 2032.0 , 260.106 , 0.0 , 0.0 , 0.0 , 0.0 , 

37.0 , 4128.71794872 , 4129.74358974 , 4129.74358974 , 4128.71794872 , 4132.82051282 , 4129.23076923 , 4123.58974359 , 4124.61538462 , 4127.17948718 , 4135.8974359 , 4124.1025641 , 4056.41025641 , 4144.61538462 , 4125.64102564 , 2048.0 , 2030.0 , 260.114 , 0.0 , 0.0 , 0.0 , 0.0 , 

38.0 , 4132.82051282 , 4130.76923077 , 4129.74358974 , 4132.30769231 , 4131.28205128 , 4128.71794872 , 4123.58974359 , 4125.64102564 , 4131.79487179 , 4135.8974359 , 4124.61538462 , 4055.38461538 , 4145.64102564 , 4127.69230769 , 2050.0 , 2031.0 , 260.121 , 0.0 , 0.0 , 0.0 , 0.0 , 

39.0 , 4131.79487179 , 4131.79487179 , 4131.28205128 , 4132.82051282 , 4128.71794872 , 4126.66666667 , 4126.15384615 , 4124.1025641 , 4132.82051282 , 4135.8974359 , 4123.07692308 , 4055.38461538 , 4145.12820513 , 4132.30769231 , 2050.0 , 2031.0 , 260.123 , 0.0 , 0.0 , 0.0 , 0.0 , 

40.0 , 4128.20512821 , 4131.28205128 , 4130.25641026 , 4128.20512821 , 4128.71794872 , 4129.74358974 , 4127.17948718 , 4124.61538462 , 4128.20512821 , 4135.8974359 , 4121.53846154 , 4053.84615385 , 4144.1025641 , 4130.76923077 , 2051.0 , 2032.0 , 260.123 , 0.0 , 0.0 , 0.0 , 0.0 , 

41.0 , 4127.17948718 , 4129.74358974 , 4130.25641026 , 4128.71794872 , 4130.25641026 , 4131.28205128 , 4127.69230769 , 4127.17948718 , 4125.12820513 , 4135.8974359 , 4123.58974359 , 4056.41025641 , 4146.66666667 , 4128.71794872 , 2051.0 , 2032.0 , 260.139 , 0.0 , 0.0 , 0.0 , 0.0 , 

42.0 , 4128.20512821 , 4131.28205128 , 4130.25641026 , 4131.79487179 , 4129.74358974 , 4129.23076923 , 4128.71794872 , 4128.20512821 , 4127.69230769 , 4135.8974359 , 4123.58974359 , 4058.46153846 , 4148.71794872 , 4130.25641026 , 2047.0 , 2032.0 , 260.139 , 0.0 , 0.0 , 0.0 , 0.0 , 

43.0 , 4128.71794872 , 4132.82051282 , 4127.69230769 , 4129.74358974 , 4127.69230769 , 4128.20512821 , 4127.17948718 , 4128.71794872 , 4128.71794872 , 4135.8974359 , 4121.53846154 , 4055.38461538 , 4147.69230769 , 4129.74358974 , 2047.0 , 2033.0 , 260.155 , 0.0 , 0.0 , 0.0 , 0.0 , 

44.0 , 4130.25641026 , 4130.76923077 , 4129.23076923 , 4130.25641026 , 4127.69230769 , 4129.23076923 , 4125.64102564 , 4127.69230769 , 4126.66666667 , 4135.8974359 , 4121.53846154 , 4055.8974359 , 4143.58974359 , 4127.69230769 , 2045.0 , 2030.0 , 260.155 , 0.0 , 0.0 , 0.0 , 0.0 , 

45.0 , 4129.74358974 , 4129.23076923 , 4129.23076923 , 4133.33333333 , 4128.71794872 , 4129.23076923 , 4127.17948718 , 4123.07692308 , 4126.15384615 , 4135.8974359 , 4122.05128205 , 4058.46153846 , 4145.12820513 , 4129.23076923 , 2045.0 , 2030.0 , 260.17 , 0.0 , 0.0 , 0.0 , 0.0 , 

46.0 , 4131.79487179 , 4130.76923077 , 4129.23076923 , 4132.30769231 , 4127.69230769 , 4129.74358974 , 4127.69230769 , 4121.02564103 , 4129.74358974 , 4135.8974359 , 4122.56410256 , 4057.43589744 , 4144.61538462 , 4130.25641026 , 2044.0 , 2032.0 , 260.17 , 0.0 , 0.0 , 0.0 , 0.0 , 

47.0 , 4132.82051282 , 4129.23076923 , 4132.30769231 , 4128.20512821 , 4128.20512821 , 4130.25641026 , 4123.07692308 , 4122.56410256 , 4130.76923077 , 4135.8974359 , 4124.1025641 , 4056.41025641 , 4143.07692308 , 4129.23076923 , 2044.0 , 2036.0 , 260.186 , 0.0 , 0.0 , 0.0 , 0.0 , 

48.0 , 4131.28205128 , 4127.17948718 , 4135.8974359 , 4127.17948718 , 4131.79487179 , 4130.25641026 , 4123.07692308 , 4123.07692308 , 4128.20512821 , 4135.8974359 , 4123.58974359 , 4056.92307692 , 4143.07692308 , 4129.23076923 , 2043.0 , 2037.0 , 260.186 , 0.0 , 0.0 , 0.0 , 0.0 , 

49.0 , 4131.28205128 , 4129.23076923 , 4131.79487179 , 4129.23076923 , 4130.76923077 , 4129.74358974 , 4127.69230769 , 4126.15384615 , 4125.12820513 , 4135.8974359 , 4120.51282051 , 4055.8974359 , 4144.1025641 , 4128.71794872 , 2042.0 , 2041.0 , 260.201 , 0.0 , 0.0 , 0.0 , 0.0 , 

50.0 , 4132.82051282 , 4130.76923077 , 4128.71794872 , 4131.28205128 , 4128.20512821 , 4129.74358974 , 4128.20512821 , 4128.20512821 , 4129.23076923 , 4135.8974359 , 4122.56410256 , 4055.8974359 , 4142.56410256 , 4127.69230769 , 2041.0 , 2042.0 , 260.201 , 0.0 , 0.0 , 0.0 , 0.0 , 

51.0 , 4130.25641026 , 4129.23076923 , 4131.28205128 , 4129.23076923 , 4127.69230769 , 4128.20512821 , 4125.64102564 , 4127.69230769 , 4136.92307692 , 4135.8974359 , 4127.69230769 , 4057.43589744 , 4144.61538462 , 4127.69230769 , 2042.0 , 2041.0 , 260.217 , 0.0 , 0.0 , 0.0 , 0.0 , 

52.0 , 4128.71794872 , 4127.69230769 , 4134.87179487 , 4127.69230769 , 4126.15384615 , 4129.23076923 , 4128.20512821 , 4133.33333333 , 4134.35897436 , 4135.8974359 , 4126.66666667 , 4057.94871795 , 4145.64102564 , 4128.71794872 , 2042.0 , 2041.0 , 260.217 , 0.0 , 0.0 , 0.0 , 0.0 , 

53.0 , 4127.17948718 , 4127.69230769 , 4132.82051282 , 4129.74358974 , 4127.17948718 , 4130.76923077 , 4130.76923077 , 4138.46153846 , 4128.20512821 , 4135.8974359 , 4122.56410256 , 4057.94871795 , 4147.69230769 , 4129.23076923 , 2043.0 , 2039.0 , 260.239 , 0.0 , 0.0 , 0.0 , 0.0 , 

54.0 , 4126.66666667 , 4129.74358974 , 4130.76923077 , 4130.25641026 , 4132.30769231 , 4129.74358974 , 4129.74358974 , 4133.33333333 , 4129.74358974 , 4135.8974359 , 4122.56410256 , 4058.46153846 , 4150.25641026 , 4128.71794872 , 2043.0 , 2037.0 , 260.248 , 0.0 , 0.0 , 0.0 , 0.0 , 

55.0 , 4127.17948718 , 4129.74358974 , 4131.28205128 , 4127.69230769 , 4129.74358974 , 4128.20512821 , 4129.74358974 , 4128.20512821 , 4131.28205128 , 4135.8974359 , 4124.61538462 , 4060.0 , 4150.76923077 , 4126.15384615 , 2043.0 , 2035.0 , 260.255 , 0.0 , 0.0 , 0.0 , 0.0 , 

56.0 , 4128.20512821 , 4127.69230769 , 4133.33333333 , 4127.69230769 , 4125.12820513 , 4129.23076923 , 4130.25641026 , 4133.84615385 , 4129.23076923 , 4135.8974359 , 4123.07692308 , 4058.97435897 , 4148.20512821 , 4124.61538462 , 2046.0 , 2034.0 , 260.259 , 0.0 , 0.0 , 0.0 , 0.0 , 

57.0 , 4128.20512821 , 4128.20512821 , 4134.35897436 , 4129.74358974 , 4126.66666667 , 4130.25641026 , 4127.17948718 , 4138.46153846 , 4129.23076923 , 4135.8974359 , 4122.05128205 , 4057.43589744 , 4148.71794872 , 4126.66666667 , 2046.0 , 2033.0 , 260.259 , 0.0 , 0.0 , 0.0 , 0.0 , 

58.0 , 4128.20512821 , 4129.23076923 , 4130.25641026 , 4130.25641026 , 4126.66666667 , 4126.66666667 , 4125.64102564 , 4134.35897436 , 4127.69230769 , 4135.8974359 , 4122.56410256 , 4057.94871795 , 4149.23076923 , 4128.71794872 , 2047.0 , 2032.0 , 260.275 , 0.0 , 0.0 , 0.0 , 0.0 , 

59.0 , 4129.23076923 , 4128.20512821 , 4126.66666667 , 4128.71794872 , 4126.15384615 , 4125.64102564 , 4128.20512821 , 4129.23076923 , 4124.61538462 , 4135.8974359 , 4122.56410256 , 4057.43589744 , 4145.64102564 , 4128.20512821 , 2046.0 , 2032.0 , 260.275 , 0.0 , 0.0 , 0.0 , 0.0 , 

60.0 , 4130.25641026 , 4128.71794872 , 4129.74358974 , 4128.20512821 , 4129.23076923 , 4128.71794872 , 4127.17948718 , 4132.82051282 , 4126.15384615 , 4135.8974359 , 4122.05128205 , 4055.38461538 , 4147.17948718 , 4127.17948718 , 2046.0 , 2035.0 , 260.29 , 0.0 , 0.0 , 0.0 , 0.0 , 

61.0 , 4129.23076923 , 4130.25641026 , 4134.87179487 , 4130.25641026 , 4131.28205128 , 4130.76923077 , 4127.17948718 , 4136.41025641 , 4126.66666667 , 4135.8974359 , 4121.02564103 , 4055.8974359 , 4147.69230769 , 4127.69230769 , 2045.0 , 2036.0 , 260.29 , 0.0 , 0.0 , 0.0 , 0.0 , 

62.0 , 4125.64102564 , 4129.74358974 , 4132.82051282 , 4130.25641026 , 4129.23076923 , 4129.74358974 , 4130.25641026 , 4127.17948718 , 4125.64102564 , 4135.8974359 , 4121.02564103 , 4056.92307692 , 4146.15384615 , 4129.23076923 , 2045.0 , 2037.0 , 260.31 , 0.0 , 0.0 , 0.0 , 0.0 , 

63.0 , 4128.20512821 , 4128.71794872 , 4131.28205128 , 4129.74358974 , 4129.23076923 , 4128.71794872 , 4130.76923077 , 4121.53846154 , 4129.23076923 , 4135.8974359 , 4122.56410256 , 4055.8974359 , 4143.58974359 , 4128.71794872 , 2045.0 , 2037.0 , 260.318 , 0.0 , 0.0 , 0.0 , 0.0 , 

64.0 , 4131.28205128 , 4129.23076923 , 4132.82051282 , 4129.74358974 , 4129.74358974 , 4128.71794872 , 4128.20512821 , 4128.20512821 , 4132.82051282 , 4135.8974359 , 4123.58974359 , 4055.38461538 , 4146.15384615 , 4126.66666667 , 2045.0 , 2035.0 , 260.326 , 0.0 , 0.0 , 0.0 , 0.0 , 

65.0 , 4130.25641026 , 4129.74358974 , 4135.8974359 , 4129.23076923 , 4129.74358974 , 4129.23076923 , 4128.71794872 , 4132.30769231 , 4129.74358974 , 4135.8974359 , 4123.58974359 , 4057.94871795 , 4147.17948718 , 4127.17948718 , 2049.0 , 2034.0 , 260.333 , 0.0 , 0.0 , 0.0 , 0.0 , 

66.0 , 4127.17948718 , 4130.76923077 , 4133.84615385 , 4125.64102564 , 4129.23076923 , 4128.71794872 , 4129.74358974 , 4129.23076923 , 4127.17948718 , 4135.8974359 , 4124.61538462 , 4058.46153846 , 4146.66666667 , 4127.17948718 , 2051.0 , 2031.0 , 260.341 , 0.0 , 0.0 , 0.0 , 0.0 , 

67.0 , 4128.71794872 , 4132.82051282 , 4130.76923077 , 4125.64102564 , 4129.74358974 , 4128.20512821 , 4129.74358974 , 4128.20512821 , 4132.30769231 , 4135.8974359 , 4125.12820513 , 4056.92307692 , 4145.12820513 , 4126.66666667 , 2052.0 , 2030.0 , 260.349 , 0.0 , 0.0 , 0.0 , 0.0 , 

68.0 , 4129.74358974 , 4129.23076923 , 4129.74358974 , 4129.23076923 , 4128.71794872 , 4129.23076923 , 4129.74358974 , 4130.25641026 , 4136.41025641 , 4135.8974359 , 4122.05128205 , 4056.41025641 , 4145.64102564 , 4128.71794872 , 2052.0 , 2030.0 , 260.357 , 0.0 , 0.0 , 0.0 , 0.0 , 

69.0 , 4131.79487179 , 4126.66666667 , 4133.84615385 , 4129.74358974 , 4128.20512821 , 4129.74358974 , 4127.17948718 , 4128.71794872 , 4129.74358974 , 4135.8974359 , 4122.05128205 , 4058.46153846 , 4146.66666667 , 4130.25641026 , 2050.0 , 2030.0 , 260.362 , 0.0 , 0.0 , 0.0 , 0.0 , 

70.0 , 4131.28205128 , 4129.74358974 , 4133.84615385 , 4128.71794872 , 4128.71794872 , 4128.20512821 , 4122.05128205 , 4124.1025641 , 4123.58974359 , 4135.8974359 , 4123.58974359 , 4054.35897436 , 4144.61538462 , 4127.69230769 , 2051.0 , 2030.0 , 260.362 , 0.0 , 0.0 , 0.0 , 0.0 , 

71.0 , 4127.69230769 , 4131.79487179 , 4132.30769231 , 4131.28205128 , 4128.71794872 , 4128.20512821 , 4122.56410256 , 4121.02564103 , 4129.74358974 , 4135.8974359 , 4121.53846154 , 4049.74358974 , 4141.02564103 , 4128.71794872 , 2051.0 , 2031.0 , 260.378 , 0.0 , 0.0 , 0.0 , 0.0 , 

72.0 , 4129.74358974 , 4131.79487179 , 4132.30769231 , 4132.82051282 , 4129.23076923 , 4128.20512821 , 4121.53846154 , 4119.48717949 , 4135.8974359 , 4135.8974359 , 4120.51282051 , 4053.33333333 , 4140.0 , 4132.30769231 , 2050.0 , 2034.0 , 260.378 , 0.0 , 0.0 , 0.0 , 0.0 , 

73.0 , 4134.35897436 , 4134.35897436 , 4132.30769231 , 4130.76923077 , 4129.74358974 , 4129.74358974 , 4115.8974359 , 4120.0 , 4132.30769231 , 4135.8974359 , 4122.56410256 , 4057.43589744 , 4140.51282051 , 4133.84615385 , 2050.0 , 2032.0 , 260.393 , 0.0 , 0.0 , 0.0 , 0.0 , 

74.0 , 4132.30769231 , 4134.87179487 , 4129.23076923 , 4130.76923077 , 4127.17948718 , 4129.74358974 , 4115.8974359 , 4120.0 , 4133.33333333 , 4135.8974359 , 4123.07692308 , 4054.87179487 , 4136.41025641 , 4131.79487179 , 2049.0 , 2032.0 , 260.393 , 0.0 , 0.0 , 0.0 , 0.0 , 

75.0 , 4129.74358974 , 4132.30769231 , 4128.71794872 , 4131.79487179 , 4130.76923077 , 4127.69230769 , 4121.53846154 , 4121.02564103 , 4135.38461538 , 4135.8974359 , 4123.07692308 , 4052.30769231 , 4133.33333333 , 4128.20512821 , 2048.0 , 2029.0 , 260.411 , 0.0 , 0.0 , 0.0 , 0.0 , 

76.0 , 4132.82051282 , 4130.25641026 , 4132.30769231 , 4129.74358974 , 4134.87179487 , 4128.71794872 , 4122.56410256 , 4121.02564103 , 4133.84615385 , 4135.8974359 , 4123.58974359 , 4055.8974359 , 4138.97435897 , 4128.20512821 , 2046.0 , 2028.0 , 260.42 , 0.0 , 0.0 , 0.0 , 0.0 , 

77.0 , 4134.87179487 , 4129.74358974 , 4136.41025641 , 4128.20512821 , 4131.28205128 , 4130.25641026 , 4123.07692308 , 4122.56410256 , 4133.33333333 , 4135.8974359 , 4122.56410256 , 4056.92307692 , 4145.64102564 , 4131.28205128 , 2044.0 , 2028.0 , 260.428 , 0.0 , 0.0 , 0.0 , 0.0 , 

78.0 , 4131.28205128 , 4129.74358974 , 4133.84615385 , 4130.76923077 , 4127.69230769 , 4128.71794872 , 4124.61538462 , 4124.61538462 , 4132.82051282 , 4135.8974359 , 4122.56410256 , 4055.8974359 , 4145.12820513 , 4131.28205128 , 2041.0 , 2027.0 , 260.435 , 0.0 , 0.0 , 0.0 , 0.0 , 

79.0 , 4128.71794872 , 4129.74358974 , 4129.74358974 , 4132.30769231 , 4129.74358974 , 4127.69230769 , 4123.58974359 , 4124.61538462 , 4131.28205128 , 4135.8974359 , 4124.1025641 , 4057.43589744 , 4143.58974359 , 4128.71794872 , 2040.0 , 2029.0 , 260.435 , 0.0 , 0.0 , 0.0 , 0.0 , 

80.0 , 4130.25641026 , 4129.23076923 , 4132.82051282 , 4130.76923077 , 4129.74358974 , 4130.25641026 , 4126.66666667 , 4126.66666667 , 4133.84615385 , 4135.8974359 , 4125.64102564 , 4061.02564103 , 4143.07692308 , 4129.74358974 , 2038.0 , 2030.0 , 260.451 , 0.0 , 0.0 , 0.0 , 0.0 , 

81.0 , 4131.28205128 , 4128.20512821 , 4134.87179487 , 4127.17948718 , 4128.20512821 , 4129.74358974 , 4130.25641026 , 4130.76923077 , 4134.87179487 , 4135.8974359 , 4124.1025641 , 4059.48717949 , 4144.61538462 , 4129.74358974 , 2037.0 , 2032.0 , 260.451 , 0.0 , 0.0 , 0.0 , 0.0 , 

82.0 , 4131.28205128 , 4127.17948718 , 4132.30769231 , 4128.71794872 , 4131.28205128 , 4129.23076923 , 4129.74358974 , 4130.25641026 , 4131.79487179 , 4135.8974359 , 4122.05128205 , 4056.41025641 , 4147.69230769 , 4128.20512821 , 2036.0 , 2033.0 , 260.466 , 0.0 , 0.0 , 0.0 , 0.0 , 

83.0 , 4128.71794872 , 4126.15384615 , 4131.79487179 , 4130.76923077 , 4130.76923077 , 4129.74358974 , 4130.25641026 , 4131.28205128 , 4133.33333333 , 4135.8974359 , 4122.05128205 , 4058.46153846 , 4149.23076923 , 4128.20512821 , 2038.0 , 2037.0 , 260.466 , 0.0 , 0.0 , 0.0 , 0.0 , 

84.0 , 4127.69230769 , 4128.20512821 , 4133.33333333 , 4129.74358974 , 4128.71794872 , 4129.23076923 , 4133.84615385 , 4137.43589744 , 4135.38461538 , 4135.8974359 , 4123.58974359 , 4062.56410256 , 4145.64102564 , 4128.20512821 , 2039.0 , 2039.0 , 260.482 , 0.0 , 0.0 , 0.0 , 0.0 , 

85.0 , 4127.17948718 , 4129.74358974 , 4130.76923077 , 4129.23076923 , 4128.20512821 , 4129.23076923 , 4133.33333333 , 4137.43589744 , 4132.82051282 , 4135.8974359 , 4124.1025641 , 4062.05128205 , 4148.71794872 , 4128.71794872 , 2038.0 , 2039.0 , 260.482 , 0.0 , 0.0 , 0.0 , 0.0 , 

86.0 , 4128.20512821 , 4128.71794872 , 4129.74358974 , 4129.23076923 , 4129.23076923 , 4131.28205128 , 4132.30769231 , 4134.87179487 , 4131.79487179 , 4135.8974359 , 4123.58974359 , 4058.97435897 , 4151.28205128 , 4129.23076923 , 2040.0 , 2036.0 , 260.498 , 0.0 , 0.0 , 0.0 , 0.0 , 

87.0 , 4126.66666667 , 4128.71794872 , 4130.76923077 , 4127.17948718 , 4129.74358974 , 4129.74358974 , 4132.82051282 , 4137.94871795 , 4133.84615385 , 4135.8974359 , 4124.1025641 , 4060.0 , 4150.76923077 , 4125.64102564 , 2041.0 , 2034.0 , 260.498 , 0.0 , 0.0 , 0.0 , 0.0 , 

88.0 , 4126.66666667 , 4130.76923077 , 4134.35897436 , 4126.66666667 , 4129.23076923 , 4128.20512821 , 4130.76923077 , 4138.46153846 , 4133.84615385 , 4135.8974359 , 4124.1025641 , 4062.56410256 , 4149.23076923 , 4124.1025641 , 2042.0 , 2035.0 , 260.515 , 0.0 , 0.0 , 0.0 , 0.0 , 

89.0 , 4130.25641026 , 4130.76923077 , 4135.38461538 , 4129.23076923 , 4127.17948718 , 4127.69230769 , 4128.20512821 , 4132.30769231 , 4133.33333333 , 4135.8974359 , 4122.56410256 , 4060.0 , 4148.71794872 , 4127.17948718 , 2040.0 , 2036.0 , 260.523 , 0.0 , 0.0 , 0.0 , 0.0 , 

90.0 , 4129.74358974 , 4129.23076923 , 4132.82051282 , 4129.23076923 , 4128.20512821 , 4127.17948718 , 4126.66666667 , 4132.82051282 , 4132.82051282 , 4135.8974359 , 4122.56410256 , 4056.41025641 , 4147.69230769 , 4129.74358974 , 2043.0 , 2038.0 , 260.531 , 0.0 , 0.0 , 0.0 , 0.0 , 

91.0 , 4128.20512821 , 4128.20512821 , 4131.79487179 , 4127.69230769 , 4131.28205128 , 4128.71794872 , 4127.17948718 , 4133.84615385 , 4129.74358974 , 4135.8974359 , 4123.07692308 , 4055.8974359 , 4145.64102564 , 4129.74358974 , 2042.0 , 2038.0 , 260.535 , 0.0 , 0.0 , 0.0 , 0.0 , 

92.0 , 4129.74358974 , 4128.20512821 , 4134.35897436 , 4131.28205128 , 4131.28205128 , 4130.76923077 , 4129.23076923 , 4126.66666667 , 4128.71794872 , 4135.8974359 , 4122.05128205 , 4056.92307692 , 4143.58974359 , 4131.79487179 , 2045.0 , 2038.0 , 260.535 , 0.0 , 0.0 , 0.0 , 0.0 , 

93.0 , 4129.74358974 , 4130.25641026 , 4134.35897436 , 4133.84615385 , 4128.71794872 , 4130.76923077 , 4127.17948718 , 4125.64102564 , 4130.76923077 , 4135.8974359 , 4122.56410256 , 4056.92307692 , 4141.53846154 , 4131.28205128 , 2045.0 , 2036.0 , 260.551 , 0.0 , 0.0 , 0.0 , 0.0 , 

94.0 , 4129.74358974 , 4131.79487179 , 4132.82051282 , 4130.76923077 , 4129.74358974 , 4129.74358974 , 4124.1025641 , 4130.25641026 , 4131.79487179 , 4135.8974359 , 4123.07692308 , 4055.8974359 , 4143.07692308 , 4129.74358974 , 2045.0 , 2034.0 , 260.551 , 0.0 , 0.0 , 0.0 , 0.0 , 

95.0 , 4131.28205128 , 4130.25641026 , 4131.28205128 , 4129.23076923 , 4129.74358974 , 4129.74358974 , 4126.66666667 , 4130.76923077 , 4131.28205128 , 4135.8974359 , 4121.02564103 , 4055.38461538 , 4143.07692308 , 4127.69230769 , 2046.0 , 2033.0 , 260.567 , 0.0 , 0.0 , 0.0 , 0.0 , 

96.0 , 4128.71794872 , 4128.20512821 , 4129.23076923 , 4131.28205128 , 4126.66666667 , 4129.23076923 , 4129.74358974 , 4128.20512821 , 4131.79487179 , 4135.8974359 , 4121.53846154 , 4055.38461538 , 4142.05128205 , 4126.66666667 , 2048.0 , 2032.0 , 260.567 , 0.0 , 0.0 , 0.0 , 0.0 , 

97.0 , 4126.66666667 , 4128.20512821 , 4130.25641026 , 4130.76923077 , 4125.64102564 , 4128.71794872 , 4127.17948718 , 4132.30769231 , 4132.30769231 , 4135.8974359 , 4125.12820513 , 4055.8974359 , 4144.1025641 , 4127.69230769 , 2044.0 , 2032.0 , 260.586 , 0.0 , 0.0 , 0.0 , 0.0 , 

98.0 , 4130.76923077 , 4127.69230769 , 4130.76923077 , 4128.71794872 , 4128.71794872 , 4129.74358974 , 4125.12820513 , 4132.30769231 , 4133.84615385 , 4135.8974359 , 4124.61538462 , 4056.41025641 , 4147.69230769 , 4127.69230769 , 2045.0 , 2034.0 , 260.593 , 0.0 , 0.0 , 0.0 , 0.0 , 

99.0 , 4132.82051282 , 4128.71794872 , 4131.28205128 , 4130.76923077 , 4129.74358974 , 4131.28205128 , 4128.20512821 , 4128.20512821 , 4132.82051282 , 4135.8974359 , 4121.53846154 , 4057.94871795 , 4145.12820513 , 4127.69230769 , 2046.0 , 2035.0 , 260.594 , 0.0 , 0.0 , 0.0 , 0.0 , 

100.0 , 4128.71794872 , 4128.20512821 , 4133.33333333 , 4130.25641026 , 4127.69230769 , 4129.74358974 , 4128.71794872 , 4127.69230769 , 4127.17948718 , 4135.8974359 , 4122.05128205 , 4059.48717949 , 4143.07692308 , 4127.69230769 , 2044.0 , 2035.0 , 260.594 , 0.0 , 0.0 , 0.0 , 0.0 , 

101.0 , 4129.23076923 , 4126.66666667 , 4134.35897436 , 4127.69230769 , 4129.23076923 , 4128.71794872 , 4128.20512821 , 4131.79487179 , 4124.1025641 , 4135.8974359 , 4125.64102564 , 4058.97435897 , 4144.1025641 , 4128.20512821 , 2043.0 , 2036.0 , 260.61 , 0.0 , 0.0 , 0.0 , 0.0 , 

102.0 , 4131.79487179 , 4127.17948718 , 4130.25641026 , 4128.71794872 , 4130.76923077 , 4129.74358974 , 4128.71794872 , 4131.79487179 , 4125.64102564 , 4135.8974359 , 4124.1025641 , 4056.92307692 , 4144.61538462 , 4128.71794872 , 2045.0 , 2036.0 , 260.61 , 0.0 , 0.0 , 0.0 , 0.0 , 

103.0 , 4132.30769231 , 4128.71794872 , 4129.74358974 , 4130.76923077 , 4129.23076923 , 4130.25641026 , 4130.76923077 , 4129.74358974 , 4125.12820513 , 4135.8974359 , 4123.58974359 , 4057.94871795 , 4145.12820513 , 4130.76923077 , 2044.0 , 2035.0 , 260.626 , 0.0 , 0.0 , 0.0 , 0.0 , 

104.0 , 4130.76923077 , 4128.71794872 , 4130.76923077 , 4129.74358974 , 4128.71794872 , 4128.20512821 , 4129.23076923 , 4130.25641026 , 4125.64102564 , 4135.8974359 , 4127.17948718 , 4057.94871795 , 4149.23076923 , 4128.71794872 , 2041.0 , 2034.0 , 260.641 , 0.0 , 0.0 , 0.0 , 0.0 , 

105.0 , 4128.71794872 , 4128.20512821 , 4131.28205128 , 4129.23076923 , 4130.25641026 , 4127.69230769 , 4128.20512821 , 4130.25641026 , 4129.23076923 , 4135.8974359 , 4127.17948718 , 4057.43589744 , 4148.71794872 , 4126.66666667 , 2043.0 , 2034.0 , 260.644 , 0.0 , 0.0 , 0.0 , 0.0 , 

106.0 , 4126.66666667 , 4127.69230769 , 4131.28205128 , 4129.23076923 , 4130.25641026 , 4128.20512821 , 4128.71794872 , 4129.23076923 , 4130.25641026 , 4135.8974359 , 4124.1025641 , 4058.46153846 , 4146.66666667 , 4127.69230769 , 2042.0 , 2034.0 , 260.644 , 0.0 , 0.0 , 0.0 , 0.0 , 

107.0 , 4129.74358974 , 4129.23076923 , 4132.82051282 , 4129.74358974 , 4129.74358974 , 4129.23076923 , 4127.17948718 , 4131.79487179 , 4132.30769231 , 4135.8974359 , 4123.07692308 , 4058.46153846 , 4146.15384615 , 4128.71794872 , 2041.0 , 2032.0 , 260.659 , 0.0 , 0.0 , 0.0 , 0.0 , 

108.0 , 4132.82051282 , 4131.28205128 , 4134.87179487 , 4130.25641026 , 4129.23076923 , 4130.25641026 , 4125.64102564 , 4131.79487179 , 4135.8974359 , 4135.8974359 , 4125.64102564 , 4056.92307692 , 4146.15384615 , 4128.71794872 , 2043.0 , 2031.0 , 260.659 , 0.0 , 0.0 , 0.0 , 0.0 , 

109.0 , 4131.28205128 , 4131.79487179 , 4135.8974359 , 4130.76923077 , 4129.74358974 , 4130.25641026 , 4126.66666667 , 4128.20512821 , 4132.82051282 , 4135.8974359 , 4126.15384615 , 4059.48717949 , 4144.1025641 , 4128.71794872 , 2042.0 , 2030.0 , 260.675 , 0.0 , 0.0 , 0.0 , 0.0 , 

110.0 , 4128.20512821 , 4131.28205128 , 4133.84615385 , 4129.23076923 , 4130.76923077 , 4129.23076923 , 4127.17948718 , 4129.23076923 , 4132.30769231 , 4135.8974359 , 4123.58974359 , 4061.53846154 , 4143.07692308 , 4128.71794872 , 2043.0 , 2030.0 , 260.675 , 0.0 , 0.0 , 0.0 , 0.0 , 

111.0 , 4128.71794872 , 4130.25641026 , 4133.33333333 , 4130.25641026 , 4128.71794872 , 4129.23076923 , 4128.20512821 , 4129.74358974 , 4134.35897436 , 4135.8974359 , 4123.07692308 , 4059.48717949 , 4143.58974359 , 4129.74358974 , 2044.0 , 2032.0 , 260.691 , 0.0 , 0.0 , 0.0 , 0.0 , 

112.0 , 4130.76923077 , 4130.76923077 , 4133.84615385 , 4132.30769231 , 4127.69230769 , 4129.74358974 , 4128.71794872 , 4125.64102564 , 4129.74358974 , 4135.8974359 , 4123.07692308 , 4057.94871795 , 4145.12820513 , 4129.74358974 , 2044.0 , 2033.0 , 260.691 , 0.0 , 0.0 , 0.0 , 0.0 , 

113.0 , 4130.76923077 , 4133.33333333 , 4133.84615385 , 4132.82051282 , 4128.71794872 , 4129.23076923 , 4126.15384615 , 4126.66666667 , 4126.66666667 , 4135.8974359 , 4122.05128205 , 4060.0 , 4147.69230769 , 4126.66666667 , 2044.0 , 2034.0 , 260.706 , 0.0 , 0.0 , 0.0 , 0.0 , 

114.0 , 4130.76923077 , 4132.30769231 , 4131.28205128 , 4130.76923077 , 4128.71794872 , 4127.17948718 , 4126.15384615 , 4129.23076923 , 4130.76923077 , 4135.8974359 , 4120.51282051 , 4060.51282051 , 4147.17948718 , 4126.66666667 , 2044.0 , 2033.0 , 260.706 , 0.0 , 0.0 , 0.0 , 0.0 , 

115.0 , 4130.25641026 , 4127.69230769 , 4129.74358974 , 4129.74358974 , 4128.71794872 , 4127.17948718 , 4127.17948718 , 4130.76923077 , 4130.76923077 , 4135.8974359 , 4122.56410256 , 4056.92307692 , 4145.64102564 , 4130.25641026 , 2044.0 , 2033.0 , 260.727 , 0.0 , 0.0 , 0.0 , 0.0 , 

116.0 , 4131.79487179 , 4128.71794872 , 4132.82051282 , 4130.25641026 , 4128.71794872 , 4130.25641026 , 4125.64102564 , 4134.35897436 , 4134.35897436 , 4135.8974359 , 4124.1025641 , 4056.92307692 , 4144.1025641 , 4130.25641026 , 2043.0 , 2033.0 , 260.735 , 0.0 , 0.0 , 0.0 , 0.0 , 

117.0 , 4131.79487179 , 4130.76923077 , 4133.33333333 , 4128.71794872 , 4128.20512821 , 4130.76923077 , 4128.71794872 , 4134.35897436 , 4137.94871795 , 4135.8974359 , 4123.07692308 , 4060.0 , 4146.15384615 , 4127.17948718 , 2044.0 , 2031.0 , 260.743 , 0.0 , 0.0 , 0.0 , 0.0 , 

118.0 , 4131.79487179 , 4129.23076923 , 4131.28205128 , 4128.71794872 , 4129.23076923 , 4129.74358974 , 4132.82051282 , 4131.79487179 , 4130.76923077 , 4135.8974359 , 4126.66666667 , 4060.0 , 4146.15384615 , 4127.69230769 , 2042.0 , 2029.0 , 260.751 , 0.0 , 0.0 , 0.0 , 0.0 , 

119.0 , 4130.76923077 , 4127.69230769 , 4128.20512821 , 4129.23076923 , 4129.74358974 , 4129.74358974 , 4129.23076923 , 4132.82051282 , 4127.17948718 , 4135.8974359 , 4130.25641026 , 4056.92307692 , 4143.58974359 , 4129.74358974 , 2043.0 , 2027.0 , 260.753 , 0.0 , 0.0 , 0.0 , 0.0 , 

120.0 , 4129.23076923 , 4128.71794872 , 4131.28205128 , 4130.76923077 , 4127.17948718 , 4130.25641026 , 4126.66666667 , 4133.84615385 , 4129.23076923 , 4135.8974359 , 4127.17948718 , 4057.94871795 , 4142.05128205 , 4129.23076923 , 2044.0 , 2029.0 , 260.753 , 0.0 , 0.0 , 0.0 , 0.0 , 

121.0 , 4125.12820513 , 4127.69230769 , 4133.33333333 , 4131.28205128 , 4128.20512821 , 4128.71794872 , 4128.71794872 , 4132.82051282 , 4127.17948718 , 4135.8974359 , 4121.53846154 , 4057.43589744 , 4145.64102564 , 4126.66666667 , 2043.0 , 2029.0 , 260.769 , 0.0 , 0.0 , 0.0 , 0.0 , 

122.0 , 4126.66666667 , 4127.17948718 , 4132.82051282 , 4131.79487179 , 4130.76923077 , 4129.23076923 , 4130.25641026 , 4135.8974359 , 4129.74358974 , 4135.8974359 , 4123.07692308 , 4055.38461538 , 4145.12820513 , 4126.66666667 , 2044.0 , 2031.0 , 260.769 , 0.0 , 0.0 , 0.0 , 0.0 , 

123.0 , 4131.28205128 , 4128.71794872 , 4129.23076923 , 4130.25641026 , 4128.20512821 , 4127.17948718 , 4129.74358974 , 4135.38461538 , 4136.92307692 , 4135.8974359 , 4126.66666667 , 4056.92307692 , 4144.61538462 , 4126.66666667 , 2044.0 , 2031.0 , 260.785 , 0.0 , 0.0 , 0.0 , 0.0 , 

124.0 , 4131.28205128 , 4128.20512821 , 4132.30769231 , 4128.71794872 , 4129.23076923 , 4126.66666667 , 4130.25641026 , 4134.35897436 , 4131.28205128 , 4135.8974359 , 4125.12820513 , 4058.46153846 , 4144.1025641 , 4127.17948718 , 2044.0 , 2030.0 , 260.785 , 0.0 , 0.0 , 0.0 , 0.0 , 

125.0 , 4127.69230769 , 4126.15384615 , 4135.38461538 , 4127.69230769 , 4130.25641026 , 4129.74358974 , 4129.23076923 , 4133.33333333 , 4126.15384615 , 4135.8974359 , 4124.1025641 , 4056.92307692 , 4145.64102564 , 4127.69230769 , 2044.0 , 2032.0 , 260.8 , 0.0 , 0.0 , 0.0 , 0.0 , 

126.0 , 4131.28205128 , 4127.69230769 , 4129.23076923 , 4127.69230769 , 4127.17948718 , 4129.23076923 , 4127.69230769 , 4130.76923077 , 4131.28205128 , 4135.8974359 , 4124.1025641 , 4056.92307692 , 4147.69230769 , 4128.20512821 , 2045.0 , 2030.0 , 260.8 , 0.0 , 0.0 , 0.0 , 0.0 , 

127.0 , 4131.28205128 , 4128.20512821 , 4127.69230769 , 4128.20512821 , 4126.66666667 , 4127.17948718 , 4129.74358974 , 4130.76923077 , 4132.30769231 , 4135.8974359 , 4126.15384615 , 4057.43589744 , 4146.15384615 , 4128.71794872 , 2042.0 , 2031.0 , 260.816 , 0.0 , 0.0 , 0.0 , 0.0 , 

128.0 , 4127.17948718 , 4126.15384615 , 4132.30769231 , 4128.20512821 , 4129.74358974 , 4129.74358974 , 4130.76923077 , 4128.71794872 , 4128.20512821 , 4135.8974359 , 4127.69230769 , 4057.94871795 , 4143.58974359 , 4129.23076923 , 2043.0 , 2032.0 , 260.816 , 0.0 , 0.0 , 0.0 , 0.0 , 

