['COUNTER', 'AF3', 'F7', 'F3', 'FC5', 'T7', 'P7', 'O1', 'O2', 'P8', 'T8', 'FC6', 'F4', 'F8', 'AF4', 'GYROX', 'GYROY', 'TIMESTAMP', 'FUNC_ID', 'FUNC_VALUE', 'MARKER', 'SYNC_SIGNAL']
123.0 , 4129.23076923 , 4134.87179487 , 4129.74358974 , 4135.8974359 , 4130.76923077 , 4133.84615385 , 4131.28205128 , 4202.56410256 , 4144.61538462 , 4139.48717949 , 4185.12820513 , 4913.33333333 , 4133.84615385 , 4133.84615385 , 2043.0 , 2033.0 , 324.196 , 0.0 , 0.0 , 0.0 , 0.0 , 

124.0 , 4135.8974359 , 4127.69230769 , 4137.94871795 , 4127.69230769 , 4129.74358974 , 4125.64102564 , 4118.97435897 , 4181.53846154 , 4132.30769231 , 4137.43589744 , 4183.07692308 , 4911.79487179 , 4118.46153846 , 4135.8974359 , 2041.0 , 2030.0 , 324.203 , 0.0 , 0.0 , 0.0 , 0.0 , 

125.0 , 4132.82051282 , 4131.79487179 , 4131.79487179 , 4134.35897436 , 4129.74358974 , 4131.28205128 , 4126.66666667 , 4186.66666667 , 4140.0 , 4138.46153846 , 4191.79487179 , 4906.15384615 , 4135.8974359 , 4139.48717949 , 2041.0 , 2032.0 , 324.218 , 0.0 , 0.0 , 0.0 , 0.0 , 

126.0 , 4132.30769231 , 4126.15384615 , 4134.35897436 , 4131.79487179 , 4128.20512821 , 4125.64102564 , 4115.8974359 , 4172.30769231 , 4129.23076923 , 4137.43589744 , 4184.1025641 , 4912.30769231 , 4131.79487179 , 4144.1025641 , 2041.0 , 2028.0 , 324.226 , 0.0 , 0.0 , 0.0 , 0.0 , 

127.0 , 4131.79487179 , 4133.84615385 , 4126.15384615 , 4135.8974359 , 4129.74358974 , 4132.82051282 , 4128.71794872 , 4180.51282051 , 4138.46153846 , 4138.97435897 , 4188.20512821 , 4907.17948718 , 4137.94871795 , 4140.0 , 2041.0 , 2027.0 , 324.23 , 0.0 , 0.0 , 0.0 , 0.0 , 

128.0 , 4132.82051282 , 4128.20512821 , 4131.28205128 , 4126.15384615 , 4132.30769231 , 4126.66666667 , 4121.53846154 , 4169.23076923 , 4131.28205128 , 4137.43589744 , 4189.23076923 , 4912.30769231 , 4130.76923077 , 4138.97435897 , 2042.0 , 2030.0 , 324.235 , 0.0 , 0.0 , 0.0 , 0.0 , 

0.0 , 4131.79487179 , 4134.35897436 , 4125.64102564 , 4141.02564103 , 4131.28205128 , 4133.84615385 , 4126.15384615 , 4188.20512821 , 4142.56410256 , 4138.97435897 , 4195.8974359 , 4909.23076923 , 4147.17948718 , 4138.46153846 , 2043.0 , 2028.0 , 324.249 , 0.0 , 0.0 , 0.0 , 0.0 , 

1.0 , 4132.30769231 , 4127.69230769 , 4131.28205128 , 4134.87179487 , 4129.23076923 , 4131.28205128 , 4119.48717949 , 4186.15384615 , 4137.43589744 , 4135.38461538 , 4188.71794872 , 4911.28205128 , 4136.92307692 , 4140.51282051 , 2041.0 , 2030.0 , 324.255 , 0.0 , 0.0 , 0.0 , 0.0 , 

2.0 , 4130.76923077 , 4129.23076923 , 4129.74358974 , 4129.23076923 , 4132.30769231 , 4131.28205128 , 4127.17948718 , 4193.84615385 , 4143.07692308 , 4138.46153846 , 4190.76923077 , 4907.17948718 , 4135.38461538 , 4138.97435897 , 2044.0 , 2030.0 , 324.26 , 0.0 , 0.0 , 0.0 , 0.0 , 

3.0 , 4129.23076923 , 4125.12820513 , 4133.84615385 , 4127.17948718 , 4130.76923077 , 4120.0 , 4119.48717949 , 4190.25641026 , 4145.64102564 , 4138.97435897 , 4188.71794872 , 4910.76923077 , 4132.30769231 , 4140.0 , 2045.0 , 2031.0 , 324.267 , 0.0 , 0.0 , 0.0 , 0.0 , 

4.0 , 4132.82051282 , 4130.76923077 , 4133.33333333 , 4135.38461538 , 4130.76923077 , 4125.64102564 , 4122.56410256 , 4194.35897436 , 4146.15384615 , 4138.97435897 , 4191.28205128 , 4908.71794872 , 4132.30769231 , 4140.0 , 2045.0 , 2032.0 , 324.282 , 0.0 , 0.0 , 0.0 , 0.0 , 

5.0 , 4133.33333333 , 4123.58974359 , 4135.38461538 , 4128.20512821 , 4130.76923077 , 4131.28205128 , 4125.12820513 , 4193.33333333 , 4140.51282051 , 4138.97435897 , 4190.25641026 , 4910.25641026 , 4126.66666667 , 4137.94871795 , 2044.0 , 2032.0 , 324.283 , 0.0 , 0.0 , 0.0 , 0.0 , 

6.0 , 4133.84615385 , 4123.58974359 , 4137.43589744 , 4124.61538462 , 4129.74358974 , 4130.25641026 , 4128.20512821 , 4193.84615385 , 4137.94871795 , 4138.97435897 , 4188.20512821 , 4911.28205128 , 4125.64102564 , 4137.94871795 , 2044.0 , 2033.0 , 324.291 , 0.0 , 0.0 , 0.0 , 0.0 , 

7.0 , 4129.23076923 , 4131.28205128 , 4134.87179487 , 4129.23076923 , 4129.23076923 , 4130.25641026 , 4126.15384615 , 4199.48717949 , 4147.17948718 , 4138.46153846 , 4188.71794872 , 4909.74358974 , 4131.79487179 , 4137.43589744 , 2044.0 , 2033.0 , 324.298 , 0.0 , 0.0 , 0.0 , 0.0 , 

8.0 , 4133.33333333 , 4134.35897436 , 4133.84615385 , 4130.76923077 , 4134.35897436 , 4130.25641026 , 4125.64102564 , 4188.20512821 , 4139.48717949 , 4140.51282051 , 4188.20512821 , 4911.79487179 , 4128.71794872 , 4139.48717949 , 2045.0 , 2035.0 , 324.311 , 0.0 , 0.0 , 0.0 , 0.0 , 

9.0 , 4132.82051282 , 4132.30769231 , 4129.74358974 , 4136.92307692 , 4131.28205128 , 4130.25641026 , 4134.35897436 , 4189.23076923 , 4141.53846154 , 4144.61538462 , 4191.28205128 , 4909.74358974 , 4135.8974359 , 4138.46153846 , 2045.0 , 2035.0 , 324.318 , 0.0 , 0.0 , 0.0 , 0.0 , 

10.0 , 4133.33333333 , 4129.74358974 , 4134.35897436 , 4134.87179487 , 4128.71794872 , 4127.17948718 , 4126.15384615 , 4176.92307692 , 4130.76923077 , 4140.0 , 4189.23076923 , 4912.82051282 , 4131.28205128 , 4138.97435897 , 2045.0 , 2035.0 , 324.322 , 0.0 , 0.0 , 0.0 , 0.0 , 

11.0 , 4129.74358974 , 4135.8974359 , 4128.71794872 , 4137.43589744 , 4130.25641026 , 4136.41025641 , 4129.23076923 , 4186.15384615 , 4136.92307692 , 4136.92307692 , 4193.33333333 , 4911.79487179 , 4146.15384615 , 4136.92307692 , 2044.0 , 2035.0 , 324.33 , 0.0 , 0.0 , 0.0 , 0.0 , 

12.0 , 4136.41025641 , 4130.76923077 , 4132.30769231 , 4126.66666667 , 4130.76923077 , 4125.64102564 , 4119.48717949 , 4171.79487179 , 4124.61538462 , 4135.38461538 , 4188.71794872 , 4914.35897436 , 4135.8974359 , 4140.0 , 2044.0 , 2035.0 , 324.345 , 0.0 , 0.0 , 0.0 , 0.0 , 

13.0 , 4133.84615385 , 4131.28205128 , 4128.20512821 , 4131.79487179 , 4129.23076923 , 4123.07692308 , 4122.05128205 , 4187.17948718 , 4137.43589744 , 4138.97435897 , 4192.82051282 , 4908.20512821 , 4137.43589744 , 4139.48717949 , 2045.0 , 2036.0 , 324.347 , 0.0 , 0.0 , 0.0 , 0.0 , 

14.0 , 4131.79487179 , 4121.53846154 , 4135.8974359 , 4125.64102564 , 4130.76923077 , 4120.0 , 4109.74358974 , 4180.51282051 , 4128.71794872 , 4136.41025641 , 4188.20512821 , 4910.76923077 , 4126.15384615 , 4140.51282051 , 2045.0 , 2035.0 , 324.353 , 0.0 , 0.0 , 0.0 , 0.0 , 

15.0 , 4128.20512821 , 4127.17948718 , 4129.23076923 , 4134.87179487 , 4130.76923077 , 4130.25641026 , 4123.07692308 , 4196.41025641 , 4142.56410256 , 4140.51282051 , 4192.30769231 , 4906.15384615 , 4146.66666667 , 4138.97435897 , 2043.0 , 2035.0 , 324.361 , 0.0 , 0.0 , 0.0 , 0.0 , 

16.0 , 4130.25641026 , 4122.56410256 , 4135.38461538 , 4127.17948718 , 4128.71794872 , 4121.53846154 , 4117.43589744 , 4186.66666667 , 4140.51282051 , 4141.02564103 , 4188.20512821 , 4910.25641026 , 4135.38461538 , 4140.51282051 , 2044.0 , 2035.0 , 324.379 , 0.0 , 0.0 , 0.0 , 0.0 , 

17.0 , 4128.71794872 , 4129.74358974 , 4129.74358974 , 4134.87179487 , 4129.23076923 , 4131.28205128 , 4131.28205128 , 4198.46153846 , 4148.71794872 , 4141.02564103 , 4192.82051282 , 4907.69230769 , 4137.43589744 , 4136.92307692 , 2045.0 , 2035.0 , 324.381 , 0.0 , 0.0 , 0.0 , 0.0 , 

18.0 , 4130.76923077 , 4126.66666667 , 4134.87179487 , 4130.25641026 , 4129.23076923 , 4130.76923077 , 4127.17948718 , 4186.15384615 , 4134.87179487 , 4137.43589744 , 4185.64102564 , 4912.82051282 , 4129.74358974 , 4136.92307692 , 2045.0 , 2034.0 , 324.386 , 0.0 , 0.0 , 0.0 , 0.0 , 

19.0 , 4132.82051282 , 4133.33333333 , 4129.74358974 , 4135.38461538 , 4131.28205128 , 4132.30769231 , 4134.87179487 , 4198.97435897 , 4143.07692308 , 4140.0 , 4188.71794872 , 4910.25641026 , 4137.43589744 , 4136.92307692 , 2045.0 , 2035.0 , 324.393 , 0.0 , 0.0 , 0.0 , 0.0 , 

20.0 , 4133.84615385 , 4128.20512821 , 4134.35897436 , 4125.64102564 , 4131.28205128 , 4127.17948718 , 4127.17948718 , 4192.82051282 , 4135.8974359 , 4138.46153846 , 4187.69230769 , 4914.87179487 , 4127.69230769 , 4139.48717949 , 2046.0 , 2035.0 , 324.406 , 0.0 , 0.0 , 0.0 , 0.0 , 

21.0 , 4133.84615385 , 4134.87179487 , 4132.30769231 , 4132.30769231 , 4131.28205128 , 4133.84615385 , 4129.23076923 , 4186.66666667 , 4131.28205128 , 4138.46153846 , 4190.25641026 , 4913.33333333 , 4133.84615385 , 4138.97435897 , 2047.0 , 2031.0 , 324.412 , 0.0 , 0.0 , 0.0 , 0.0 , 

22.0 , 4132.82051282 , 4129.74358974 , 4134.35897436 , 4133.84615385 , 4128.71794872 , 4126.66666667 , 4116.92307692 , 4175.38461538 , 4134.35897436 , 4136.41025641 , 4185.12820513 , 4914.87179487 , 4130.76923077 , 4138.46153846 , 2046.0 , 2031.0 , 324.417 , 0.0 , 0.0 , 0.0 , 0.0 , 

23.0 , 4133.84615385 , 4129.23076923 , 4132.82051282 , 4134.87179487 , 4129.74358974 , 4126.66666667 , 4121.53846154 , 4175.38461538 , 4136.92307692 , 4137.43589744 , 4189.23076923 , 4911.79487179 , 4128.71794872 , 4137.94871795 , 2045.0 , 2033.0 , 324.424 , 0.0 , 0.0 , 0.0 , 0.0 , 

24.0 , 4132.30769231 , 4128.71794872 , 4131.28205128 , 4129.74358974 , 4130.25641026 , 4131.79487179 , 4126.15384615 , 4174.87179487 , 4130.25641026 , 4138.46153846 , 4188.20512821 , 4912.30769231 , 4137.43589744 , 4139.48717949 , 2045.0 , 2032.0 , 324.445 , 0.0 , 0.0 , 0.0 , 0.0 , 

25.0 , 4134.87179487 , 4133.84615385 , 4132.30769231 , 4129.74358974 , 4132.30769231 , 4130.76923077 , 4123.07692308 , 4176.92307692 , 4128.71794872 , 4135.8974359 , 4184.61538462 , 4912.30769231 , 4143.58974359 , 4140.0 , 2045.0 , 2034.0 , 324.445 , 0.0 , 0.0 , 0.0 , 0.0 , 

26.0 , 4130.76923077 , 4134.35897436 , 4133.33333333 , 4135.8974359 , 4128.71794872 , 4127.17948718 , 4121.02564103 , 4185.64102564 , 4142.05128205 , 4134.35897436 , 4189.23076923 , 4908.71794872 , 4142.05128205 , 4136.41025641 , 2043.0 , 2034.0 , 324.45 , 0.0 , 0.0 , 0.0 , 0.0 , 

27.0 , 4131.79487179 , 4129.74358974 , 4135.38461538 , 4133.33333333 , 4129.23076923 , 4123.58974359 , 4118.46153846 , 4182.05128205 , 4134.87179487 , 4136.92307692 , 4191.28205128 , 4907.17948718 , 4133.33333333 , 4137.43589744 , 2042.0 , 2034.0 , 324.455 , 0.0 , 0.0 , 0.0 , 0.0 , 

28.0 , 4130.76923077 , 4131.28205128 , 4128.20512821 , 4135.38461538 , 4129.74358974 , 4128.20512821 , 4125.12820513 , 4200.0 , 4147.17948718 , 4141.02564103 , 4191.28205128 , 4905.64102564 , 4145.64102564 , 4140.0 , 2041.0 , 2036.0 , 324.473 , 0.0 , 0.0 , 0.0 , 0.0 , 

29.0 , 4134.87179487 , 4127.69230769 , 4133.84615385 , 4127.69230769 , 4130.76923077 , 4126.15384615 , 4123.07692308 , 4191.28205128 , 4144.1025641 , 4140.0 , 4185.12820513 , 4910.25641026 , 4131.79487179 , 4142.05128205 , 2041.0 , 2037.0 , 324.474 , 0.0 , 0.0 , 0.0 , 0.0 , 

30.0 , 4129.74358974 , 4128.20512821 , 4130.76923077 , 4129.74358974 , 4129.23076923 , 4130.25641026 , 4130.25641026 , 4195.8974359 , 4146.15384615 , 4140.0 , 4189.23076923 , 4906.15384615 , 4137.94871795 , 4137.94871795 , 2041.0 , 2038.0 , 324.482 , 0.0 , 0.0 , 0.0 , 0.0 , 

31.0 , 4131.28205128 , 4124.1025641 , 4136.92307692 , 4123.07692308 , 4129.23076923 , 4125.12820513 , 4120.0 , 4190.76923077 , 4129.74358974 , 4135.38461538 , 4185.64102564 , 4911.28205128 , 4130.76923077 , 4137.94871795 , 2040.0 , 2034.0 , 324.487 , 0.0 , 0.0 , 0.0 , 0.0 , 

32.0 , 4131.79487179 , 4131.28205128 , 4133.84615385 , 4132.30769231 , 4130.25641026 , 4136.41025641 , 4131.28205128 , 4212.30769231 , 4142.56410256 , 4136.92307692 , 4191.79487179 , 4908.71794872 , 4132.82051282 , 4138.46153846 , 2039.0 , 2035.0 , 324.504 , 0.0 , 0.0 , 0.0 , 0.0 , 

33.0 , 4136.92307692 , 4126.15384615 , 4138.97435897 , 4124.61538462 , 4132.30769231 , 4128.71794872 , 4123.07692308 , 4191.79487179 , 4130.25641026 , 4135.8974359 , 4185.12820513 , 4913.33333333 , 4115.8974359 , 4141.02564103 , 2038.0 , 2034.0 , 324.507 , 0.0 , 0.0 , 0.0 , 0.0 , 

34.0 , 4133.33333333 , 4133.33333333 , 4130.25641026 , 4135.38461538 , 4132.82051282 , 4129.23076923 , 4130.76923077 , 4195.38461538 , 4142.56410256 , 4138.97435897 , 4188.71794872 , 4909.74358974 , 4136.41025641 , 4136.41025641 , 2039.0 , 2034.0 , 324.513 , 0.0 , 0.0 , 0.0 , 0.0 , 

35.0 , 4133.84615385 , 4127.69230769 , 4137.94871795 , 4132.82051282 , 4130.76923077 , 4127.69230769 , 4123.58974359 , 4178.97435897 , 4137.43589744 , 4139.48717949 , 4187.17948718 , 4913.33333333 , 4131.79487179 , 4137.94871795 , 2039.0 , 2033.0 , 324.518 , 0.0 , 0.0 , 0.0 , 0.0 , 

36.0 , 4131.79487179 , 4134.35897436 , 4129.74358974 , 4137.43589744 , 4129.74358974 , 4139.48717949 , 4135.8974359 , 4184.61538462 , 4143.58974359 , 4142.56410256 , 4192.82051282 , 4907.17948718 , 4138.46153846 , 4138.97435897 , 2037.0 , 2031.0 , 324.532 , 0.0 , 0.0 , 0.0 , 0.0 , 

37.0 , 4129.23076923 , 4130.76923077 , 4131.28205128 , 4129.23076923 , 4127.69230769 , 4126.66666667 , 4123.07692308 , 4174.87179487 , 4132.82051282 , 4139.48717949 , 4187.17948718 , 4911.79487179 , 4136.92307692 , 4141.02564103 , 2038.0 , 2031.0 , 324.536 , 0.0 , 0.0 , 0.0 , 0.0 , 

38.0 , 4130.76923077 , 4135.38461538 , 4127.17948718 , 4138.46153846 , 4129.23076923 , 4125.12820513 , 4124.61538462 , 4184.1025641 , 4137.43589744 , 4138.46153846 , 4191.79487179 , 4908.71794872 , 4147.17948718 , 4138.46153846 , 2039.0 , 2028.0 , 324.543 , 0.0 , 0.0 , 0.0 , 0.0 , 

39.0 , 4132.82051282 , 4121.02564103 , 4132.30769231 , 4129.23076923 , 4129.74358974 , 4123.07692308 , 4117.94871795 , 4178.46153846 , 4132.82051282 , 4136.41025641 , 4188.71794872 , 4906.66666667 , 4134.87179487 , 4137.94871795 , 2040.0 , 2028.0 , 324.55 , 0.0 , 0.0 , 0.0 , 0.0 , 

40.0 , 4130.76923077 , 4121.02564103 , 4130.25641026 , 4129.23076923 , 4128.71794872 , 4124.1025641 , 4122.05128205 , 4189.23076923 , 4137.94871795 , 4139.48717949 , 4190.25641026 , 4904.1025641 , 4135.38461538 , 4140.0 , 2041.0 , 2028.0 , 324.569 , 0.0 , 0.0 , 0.0 , 0.0 , 

41.0 , 4129.23076923 , 4126.66666667 , 4134.35897436 , 4129.23076923 , 4128.71794872 , 4118.97435897 , 4115.8974359 , 4191.28205128 , 4138.97435897 , 4139.48717949 , 4189.23076923 , 4912.30769231 , 4133.84615385 , 4142.05128205 , 2043.0 , 2032.0 , 324.569 , 0.0 , 0.0 , 0.0 , 0.0 , 

42.0 , 4134.35897436 , 4128.71794872 , 4137.94871795 , 4127.69230769 , 4131.79487179 , 4124.61538462 , 4120.51282051 , 4191.79487179 , 4138.97435897 , 4138.46153846 , 4190.25641026 , 4912.82051282 , 4134.35897436 , 4139.48717949 , 2043.0 , 2032.0 , 324.574 , 0.0 , 0.0 , 0.0 , 0.0 , 

43.0 , 4131.28205128 , 4120.0 , 4136.41025641 , 4127.17948718 , 4127.69230769 , 4127.17948718 , 4125.12820513 , 4194.35897436 , 4145.64102564 , 4138.46153846 , 4189.23076923 , 4907.69230769 , 4136.41025641 , 4139.48717949 , 2044.0 , 2032.0 , 324.581 , 0.0 , 0.0 , 0.0 , 0.0 , 

44.0 , 4130.25641026 , 4125.64102564 , 4130.76923077 , 4132.82051282 , 4128.71794872 , 4126.66666667 , 4125.64102564 , 4189.74358974 , 4142.56410256 , 4139.48717949 , 4190.25641026 , 4907.69230769 , 4132.30769231 , 4142.56410256 , 2045.0 , 2032.0 , 324.601 , 0.0 , 0.0 , 0.0 , 0.0 , 

45.0 , 4128.20512821 , 4131.79487179 , 4125.64102564 , 4131.79487179 , 4130.25641026 , 4133.33333333 , 4127.69230769 , 4198.97435897 , 4146.15384615 , 4137.94871795 , 4194.35897436 , 4908.20512821 , 4138.46153846 , 4137.94871795 , 2045.0 , 2033.0 , 324.601 , 0.0 , 0.0 , 0.0 , 0.0 , 

46.0 , 4130.76923077 , 4126.15384615 , 4133.84615385 , 4122.56410256 , 4129.74358974 , 4132.30769231 , 4121.53846154 , 4194.35897436 , 4138.46153846 , 4136.41025641 , 4188.71794872 , 4908.71794872 , 4133.33333333 , 4136.92307692 , 2046.0 , 2034.0 , 324.606 , 0.0 , 0.0 , 0.0 , 0.0 , 

47.0 , 4131.28205128 , 4133.33333333 , 4130.25641026 , 4136.92307692 , 4127.69230769 , 4132.82051282 , 4128.20512821 , 4198.97435897 , 4148.20512821 , 4140.51282051 , 4190.76923077 , 4906.15384615 , 4141.02564103 , 4137.43589744 , 2046.0 , 2032.0 , 324.614 , 0.0 , 0.0 , 0.0 , 0.0 , 

48.0 , 4135.8974359 , 4135.8974359 , 4134.35897436 , 4134.87179487 , 4130.25641026 , 4129.23076923 , 4124.61538462 , 4176.92307692 , 4132.82051282 , 4137.94871795 , 4189.23076923 , 4910.76923077 , 4129.74358974 , 4139.48717949 , 2045.0 , 2034.0 , 324.627 , 0.0 , 0.0 , 0.0 , 0.0 , 

49.0 , 4131.79487179 , 4136.92307692 , 4130.76923077 , 4132.82051282 , 4130.76923077 , 4133.84615385 , 4129.74358974 , 4183.07692308 , 4133.33333333 , 4137.43589744 , 4191.28205128 , 4910.25641026 , 4137.94871795 , 4138.46153846 , 2045.0 , 2033.0 , 324.632 , 0.0 , 0.0 , 0.0 , 0.0 , 

50.0 , 4132.30769231 , 4129.23076923 , 4135.8974359 , 4126.66666667 , 4129.23076923 , 4121.02564103 , 4114.87179487 , 4170.76923077 , 4121.02564103 , 4136.41025641 , 4184.61538462 , 4915.38461538 , 4130.76923077 , 4141.53846154 , 2045.0 , 2033.0 , 324.637 , 0.0 , 0.0 , 0.0 , 0.0 , 

51.0 , 4129.23076923 , 4133.33333333 , 4127.17948718 , 4136.92307692 , 4129.74358974 , 4126.15384615 , 4123.58974359 , 4184.61538462 , 4135.8974359 , 4141.02564103 , 4192.30769231 , 4910.25641026 , 4144.1025641 , 4137.43589744 , 2044.0 , 2034.0 , 324.645 , 0.0 , 0.0 , 0.0 , 0.0 , 

52.0 , 4130.25641026 , 4123.58974359 , 4133.33333333 , 4126.66666667 , 4128.71794872 , 4123.07692308 , 4114.87179487 , 4172.82051282 , 4127.17948718 , 4135.8974359 , 4190.76923077 , 4913.33333333 , 4132.82051282 , 4136.41025641 , 2045.0 , 2034.0 , 324.66 , 0.0 , 0.0 , 0.0 , 0.0 , 

53.0 , 4130.76923077 , 4130.76923077 , 4127.17948718 , 4135.38461538 , 4127.69230769 , 4127.17948718 , 4123.58974359 , 4190.25641026 , 4137.43589744 , 4137.94871795 , 4195.38461538 , 4907.17948718 , 4144.1025641 , 4137.94871795 , 2046.0 , 2034.0 , 324.663 , 0.0 , 0.0 , 0.0 , 0.0 , 

54.0 , 4133.84615385 , 4126.15384615 , 4133.33333333 , 4130.25641026 , 4129.23076923 , 4120.0 , 4116.41025641 , 4188.20512821 , 4132.82051282 , 4138.97435897 , 4190.76923077 , 4908.20512821 , 4133.33333333 , 4141.53846154 , 2044.0 , 2033.0 , 324.67 , 0.0 , 0.0 , 0.0 , 0.0 , 

55.0 , 4130.25641026 , 4130.76923077 , 4128.20512821 , 4136.41025641 , 4130.76923077 , 4131.28205128 , 4129.23076923 , 4203.58974359 , 4145.64102564 , 4139.48717949 , 4192.82051282 , 4907.17948718 , 4141.53846154 , 4136.92307692 , 2044.0 , 2033.0 , 324.677 , 0.0 , 0.0 , 0.0 , 0.0 , 

56.0 , 4130.25641026 , 4124.61538462 , 4130.25641026 , 4130.76923077 , 4130.25641026 , 4130.25641026 , 4122.56410256 , 4192.30769231 , 4141.02564103 , 4136.92307692 , 4187.69230769 , 4914.35897436 , 4136.41025641 , 4135.8974359 , 2045.0 , 2034.0 , 324.696 , 0.0 , 0.0 , 0.0 , 0.0 , 

57.0 , 4133.84615385 , 4132.30769231 , 4128.20512821 , 4134.35897436 , 4133.33333333 , 4135.8974359 , 4131.28205128 , 4197.43589744 , 4142.56410256 , 4141.02564103 , 4193.84615385 , 4908.20512821 , 4136.92307692 , 4137.94871795 , 2043.0 , 2033.0 , 324.7 , 0.0 , 0.0 , 0.0 , 0.0 , 

58.0 , 4134.35897436 , 4129.23076923 , 4135.8974359 , 4127.69230769 , 4132.82051282 , 4132.30769231 , 4126.66666667 , 4190.25641026 , 4132.82051282 , 4138.97435897 , 4190.76923077 , 4911.79487179 , 4124.61538462 , 4138.97435897 , 2042.0 , 2033.0 , 324.702 , 0.0 , 0.0 , 0.0 , 0.0 , 

59.0 , 4133.84615385 , 4131.79487179 , 4135.8974359 , 4134.87179487 , 4131.79487179 , 4134.35897436 , 4127.69230769 , 4189.74358974 , 4133.84615385 , 4137.43589744 , 4186.66666667 , 4914.35897436 , 4128.71794872 , 4136.41025641 , 2042.0 , 2034.0 , 324.708 , 0.0 , 0.0 , 0.0 , 0.0 , 

60.0 , 4130.76923077 , 4130.25641026 , 4134.35897436 , 4136.92307692 , 4130.25641026 , 4132.30769231 , 4124.61538462 , 4187.17948718 , 4136.41025641 , 4138.46153846 , 4182.05128205 , 4916.41025641 , 4129.74358974 , 4137.94871795 , 2042.0 , 2034.0 , 324.723 , 0.0 , 0.0 , 0.0 , 0.0 , 

61.0 , 4132.30769231 , 4132.82051282 , 4133.33333333 , 4133.84615385 , 4131.28205128 , 4132.30769231 , 4129.23076923 , 4180.51282051 , 4130.25641026 , 4138.46153846 , 4186.15384615 , 4912.82051282 , 4130.76923077 , 4141.02564103 , 2041.0 , 2034.0 , 324.73 , 0.0 , 0.0 , 0.0 , 0.0 , 

62.0 , 4132.30769231 , 4130.25641026 , 4132.82051282 , 4132.30769231 , 4129.23076923 , 4131.79487179 , 4127.69230769 , 4175.38461538 , 4130.76923077 , 4137.43589744 , 4189.74358974 , 4911.28205128 , 4140.0 , 4137.94871795 , 2042.0 , 2035.0 , 324.734 , 0.0 , 0.0 , 0.0 , 0.0 , 

63.0 , 4134.87179487 , 4130.76923077 , 4132.82051282 , 4137.43589744 , 4130.76923077 , 4132.82051282 , 4119.48717949 , 4172.30769231 , 4127.17948718 , 4137.94871795 , 4189.23076923 , 4912.82051282 , 4136.41025641 , 4136.92307692 , 2041.0 , 2034.0 , 324.74 , 0.0 , 0.0 , 0.0 , 0.0 , 

64.0 , 4127.69230769 , 4135.38461538 , 4130.25641026 , 4141.02564103 , 4129.74358974 , 4132.82051282 , 4125.64102564 , 4182.56410256 , 4140.0 , 4137.94871795 , 4191.79487179 , 4908.71794872 , 4142.05128205 , 4136.41025641 , 2043.0 , 2034.0 , 324.754 , 0.0 , 0.0 , 0.0 , 0.0 , 

65.0 , 4130.76923077 , 4130.25641026 , 4133.84615385 , 4129.74358974 , 4129.74358974 , 4124.61538462 , 4123.07692308 , 4174.87179487 , 4135.8974359 , 4135.8974359 , 4187.69230769 , 4907.69230769 , 4140.0 , 4137.43589744 , 2043.0 , 2033.0 , 324.76 , 0.0 , 0.0 , 0.0 , 0.0 , 

66.0 , 4134.87179487 , 4128.20512821 , 4124.61538462 , 4134.35897436 , 4129.23076923 , 4128.20512821 , 4125.12820513 , 4194.35897436 , 4144.1025641 , 4137.94871795 , 4191.79487179 , 4906.66666667 , 4145.64102564 , 4137.43589744 , 2042.0 , 2033.0 , 324.764 , 0.0 , 0.0 , 0.0 , 0.0 , 

67.0 , 4136.92307692 , 4124.61538462 , 4130.25641026 , 4128.71794872 , 4130.25641026 , 4126.66666667 , 4115.38461538 , 4189.23076923 , 4131.79487179 , 4136.92307692 , 4188.20512821 , 4915.38461538 , 4127.17948718 , 4142.05128205 , 2041.0 , 2033.0 , 324.77 , 0.0 , 0.0 , 0.0 , 0.0 , 

68.0 , 4126.66666667 , 4129.74358974 , 4130.76923077 , 4129.74358974 , 4129.74358974 , 4133.33333333 , 4125.64102564 , 4201.02564103 , 4145.12820513 , 4140.51282051 , 4191.79487179 , 4912.82051282 , 4137.94871795 , 4135.8974359 , 2043.0 , 2032.0 , 324.788 , 0.0 , 0.0 , 0.0 , 0.0 , 

69.0 , 4129.23076923 , 4120.0 , 4140.0 , 4121.53846154 , 4129.23076923 , 4125.12820513 , 4119.48717949 , 4189.23076923 , 4137.43589744 , 4138.97435897 , 4186.15384615 , 4914.87179487 , 4125.64102564 , 4133.33333333 , 2043.0 , 2034.0 , 324.788 , 0.0 , 0.0 , 0.0 , 0.0 , 

70.0 , 4133.33333333 , 4126.66666667 , 4134.35897436 , 4134.35897436 , 4129.74358974 , 4131.79487179 , 4132.30769231 , 4204.61538462 , 4145.64102564 , 4140.0 , 4191.28205128 , 4911.28205128 , 4129.23076923 , 4135.38461538 , 2043.0 , 2033.0 , 324.795 , 0.0 , 0.0 , 0.0 , 0.0 , 

71.0 , 4132.30769231 , 4129.23076923 , 4140.51282051 , 4127.69230769 , 4130.76923077 , 4130.25641026 , 4126.66666667 , 4187.17948718 , 4134.35897436 , 4138.97435897 , 4185.64102564 , 4916.41025641 , 4123.07692308 , 4140.51282051 , 2043.0 , 2032.0 , 324.802 , 0.0 , 0.0 , 0.0 , 0.0 , 

72.0 , 4128.20512821 , 4140.0 , 4133.33333333 , 4137.43589744 , 4130.76923077 , 4133.33333333 , 4132.30769231 , 4197.43589744 , 4146.66666667 , 4141.02564103 , 4192.30769231 , 4909.23076923 , 4139.48717949 , 4137.43589744 , 2044.0 , 2032.0 , 324.82 , 0.0 , 0.0 , 0.0 , 0.0 , 

73.0 , 4134.87179487 , 4131.79487179 , 4136.41025641 , 4132.30769231 , 4128.71794872 , 4122.05128205 , 4121.02564103 , 4188.71794872 , 4136.41025641 , 4135.8974359 , 4188.71794872 , 4911.28205128 , 4128.71794872 , 4138.97435897 , 2043.0 , 2032.0 , 324.82 , 0.0 , 0.0 , 0.0 , 0.0 , 

74.0 , 4135.38461538 , 4136.41025641 , 4129.74358974 , 4138.97435897 , 4131.28205128 , 4130.76923077 , 4133.33333333 , 4191.28205128 , 4137.94871795 , 4138.97435897 , 4190.25641026 , 4910.76923077 , 4137.43589744 , 4137.43589744 , 2043.0 , 2033.0 , 324.827 , 0.0 , 0.0 , 0.0 , 0.0 , 

75.0 , 4132.30769231 , 4132.30769231 , 4132.30769231 , 4133.84615385 , 4130.76923077 , 4127.17948718 , 4124.1025641 , 4175.38461538 , 4132.30769231 , 4140.51282051 , 4185.12820513 , 4912.82051282 , 4135.38461538 , 4136.41025641 , 2043.0 , 2033.0 , 324.833 , 0.0 , 0.0 , 0.0 , 0.0 , 

76.0 , 4133.84615385 , 4135.8974359 , 4128.71794872 , 4135.8974359 , 4130.76923077 , 4129.23076923 , 4124.61538462 , 4176.92307692 , 4132.30769231 , 4137.43589744 , 4188.71794872 , 4906.15384615 , 4139.48717949 , 4137.94871795 , 2043.0 , 2034.0 , 324.848 , 0.0 , 0.0 , 0.0 , 0.0 , 

77.0 , 4132.82051282 , 4130.25641026 , 4132.82051282 , 4127.17948718 , 4132.30769231 , 4126.66666667 , 4120.0 , 4169.23076923 , 4121.53846154 , 4131.28205128 , 4186.66666667 , 4910.76923077 , 4135.38461538 , 4140.0 , 2043.0 , 2034.0 , 324.85 , 0.0 , 0.0 , 0.0 , 0.0 , 

78.0 , 4132.82051282 , 4129.74358974 , 4130.25641026 , 4130.76923077 , 4132.30769231 , 4124.1025641 , 4118.46153846 , 4175.38461538 , 4126.66666667 , 4135.8974359 , 4190.76923077 , 4911.28205128 , 4138.97435897 , 4138.46153846 , 2042.0 , 2036.0 , 324.858 , 0.0 , 0.0 , 0.0 , 0.0 , 

79.0 , 4131.28205128 , 4124.1025641 , 4132.82051282 , 4130.25641026 , 4127.17948718 , 4118.97435897 , 4111.79487179 , 4186.15384615 , 4142.05128205 , 4137.94871795 , 4191.79487179 , 4908.20512821 , 4134.87179487 , 4136.92307692 , 2041.0 , 2036.0 , 324.866 , 0.0 , 0.0 , 0.0 , 0.0 , 

80.0 , 4132.82051282 , 4124.61538462 , 4134.35897436 , 4125.64102564 , 4129.74358974 , 4126.66666667 , 4120.51282051 , 4191.28205128 , 4144.1025641 , 4137.43589744 , 4189.74358974 , 4907.69230769 , 4132.82051282 , 4136.41025641 , 2042.0 , 2035.0 , 324.885 , 0.0 , 0.0 , 0.0 , 0.0 , 

81.0 , 4128.20512821 , 4125.12820513 , 4129.23076923 , 4127.17948718 , 4131.79487179 , 4132.30769231 , 4127.17948718 , 4197.94871795 , 4147.17948718 , 4138.46153846 , 4189.23076923 , 4911.28205128 , 4143.58974359 , 4136.41025641 , 2042.0 , 2034.0 , 324.885 , 0.0 , 0.0 , 0.0 , 0.0 , 

82.0 , 4128.71794872 , 4125.64102564 , 4131.79487179 , 4127.69230769 , 4131.28205128 , 4127.17948718 , 4120.0 , 4193.84615385 , 4142.05128205 , 4139.48717949 , 4190.25641026 , 4909.23076923 , 4137.43589744 , 4138.46153846 , 2042.0 , 2036.0 , 324.89 , 0.0 , 0.0 , 0.0 , 0.0 , 

83.0 , 4127.69230769 , 4130.25641026 , 4131.79487179 , 4131.28205128 , 4128.71794872 , 4132.30769231 , 4128.71794872 , 4200.0 , 4149.74358974 , 4142.56410256 , 4194.87179487 , 4906.15384615 , 4136.92307692 , 4136.41025641 , 2042.0 , 2035.0 , 324.899 , 0.0 , 0.0 , 0.0 , 0.0 , 

84.0 , 4133.84615385 , 4129.23076923 , 4135.38461538 , 4128.71794872 , 4128.71794872 , 4133.33333333 , 4128.20512821 , 4186.66666667 , 4138.97435897 , 4140.51282051 , 4187.69230769 , 4915.8974359 , 4124.61538462 , 4137.94871795 , 2041.0 , 2035.0 , 324.915 , 0.0 , 0.0 , 0.0 , 0.0 , 

85.0 , 4131.28205128 , 4133.84615385 , 4130.76923077 , 4133.84615385 , 4128.20512821 , 4136.41025641 , 4132.30769231 , 4201.02564103 , 4146.66666667 , 4138.46153846 , 4187.69230769 , 4912.82051282 , 4133.33333333 , 4138.46153846 , 2043.0 , 2037.0 , 324.915 , 0.0 , 0.0 , 0.0 , 0.0 , 

86.0 , 4134.35897436 , 4130.76923077 , 4139.48717949 , 4124.1025641 , 4130.76923077 , 4127.17948718 , 4120.0 , 4185.12820513 , 4128.20512821 , 4136.41025641 , 4184.1025641 , 4911.28205128 , 4122.56410256 , 4139.48717949 , 2042.0 , 2037.0 , 324.924 , 0.0 , 0.0 , 0.0 , 0.0 , 

87.0 , 4133.33333333 , 4132.82051282 , 4131.28205128 , 4134.87179487 , 4130.25641026 , 4129.74358974 , 4125.12820513 , 4185.12820513 , 4131.28205128 , 4139.48717949 , 4191.28205128 , 4911.79487179 , 4137.94871795 , 4135.8974359 , 2042.0 , 2036.0 , 324.93 , 0.0 , 0.0 , 0.0 , 0.0 , 

88.0 , 4134.35897436 , 4125.64102564 , 4133.84615385 , 4130.76923077 , 4128.71794872 , 4123.07692308 , 4113.33333333 , 4166.15384615 , 4124.1025641 , 4136.41025641 , 4186.66666667 , 4920.0 , 4133.33333333 , 4139.48717949 , 2044.0 , 2037.0 , 324.947 , 0.0 , 0.0 , 0.0 , 0.0 , 

89.0 , 4130.76923077 , 4133.84615385 , 4126.66666667 , 4135.38461538 , 4128.71794872 , 4131.79487179 , 4125.12820513 , 4179.48717949 , 4140.0 , 4138.97435897 , 4191.28205128 , 4909.23076923 , 4143.58974359 , 4138.97435897 , 2044.0 , 2035.0 , 324.947 , 0.0 , 0.0 , 0.0 , 0.0 , 

90.0 , 4132.82051282 , 4123.07692308 , 4130.76923077 , 4126.66666667 , 4127.17948718 , 4124.61538462 , 4114.35897436 , 4169.74358974 , 4131.79487179 , 4137.94871795 , 4188.20512821 , 4909.74358974 , 4134.87179487 , 4138.46153846 , 2043.0 , 2036.0 , 324.954 , 0.0 , 0.0 , 0.0 , 0.0 , 

91.0 , 4131.79487179 , 4128.20512821 , 4125.64102564 , 4137.43589744 , 4128.20512821 , 4127.69230769 , 4123.07692308 , 4186.66666667 , 4143.58974359 , 4138.46153846 , 4195.38461538 , 4907.69230769 , 4147.69230769 , 4137.43589744 , 2045.0 , 2036.0 , 324.96 , 0.0 , 0.0 , 0.0 , 0.0 , 

92.0 , 4132.30769231 , 4128.20512821 , 4134.87179487 , 4130.25641026 , 4129.74358974 , 4124.61538462 , 4120.51282051 , 4182.05128205 , 4140.0 , 4135.38461538 , 4192.82051282 , 4910.76923077 , 4135.8974359 , 4138.97435897 , 2045.0 , 2036.0 , 324.978 , 0.0 , 0.0 , 0.0 , 0.0 , 

93.0 , 4131.28205128 , 4132.82051282 , 4130.76923077 , 4136.41025641 , 4130.76923077 , 4132.30769231 , 4129.74358974 , 4196.41025641 , 4147.17948718 , 4137.94871795 , 4194.87179487 , 4907.17948718 , 4141.53846154 , 4136.92307692 , 2047.0 , 2036.0 , 324.978 , 0.0 , 0.0 , 0.0 , 0.0 , 

94.0 , 4130.76923077 , 4124.61538462 , 4131.28205128 , 4131.79487179 , 4129.23076923 , 4127.69230769 , 4120.51282051 , 4195.8974359 , 4142.05128205 , 4137.43589744 , 4187.69230769 , 4912.30769231 , 4136.41025641 , 4137.94871795 , 2047.0 , 2037.0 , 324.985 , 0.0 , 0.0 , 0.0 , 0.0 , 

95.0 , 4132.30769231 , 4129.74358974 , 4133.33333333 , 4129.23076923 , 4132.30769231 , 4133.84615385 , 4129.74358974 , 4201.02564103 , 4144.61538462 , 4138.97435897 , 4188.20512821 , 4911.79487179 , 4133.84615385 , 4137.94871795 , 2047.0 , 2036.0 , 324.992 , 0.0 , 0.0 , 0.0 , 0.0 , 

96.0 , 4132.82051282 , 4123.58974359 , 4140.0 , 4123.58974359 , 4131.79487179 , 4131.79487179 , 4128.20512821 , 4195.38461538 , 4140.0 , 4137.94871795 , 4186.66666667 , 4913.84615385 , 4127.69230769 , 4136.92307692 , 2048.0 , 2033.0 , 325.007 , 0.0 , 0.0 , 0.0 , 0.0 , 

97.0 , 4136.41025641 , 4124.61538462 , 4137.43589744 , 4131.79487179 , 4130.25641026 , 4129.23076923 , 4126.66666667 , 4195.38461538 , 4139.48717949 , 4140.0 , 4187.17948718 , 4910.76923077 , 4131.28205128 , 4138.46153846 , 2048.0 , 2033.0 , 325.007 , 0.0 , 0.0 , 0.0 , 0.0 , 

98.0 , 4132.30769231 , 4128.71794872 , 4134.35897436 , 4133.84615385 , 4128.71794872 , 4127.17948718 , 4123.58974359 , 4193.84615385 , 4140.51282051 , 4142.05128205 , 4187.69230769 , 4910.76923077 , 4132.30769231 , 4139.48717949 , 2048.0 , 2033.0 , 325.015 , 0.0 , 0.0 , 0.0 , 0.0 , 

99.0 , 4132.30769231 , 4132.82051282 , 4133.33333333 , 4131.28205128 , 4131.28205128 , 4128.20512821 , 4125.12820513 , 4182.05128205 , 4132.30769231 , 4142.05128205 , 4189.23076923 , 4910.25641026 , 4130.25641026 , 4139.48717949 , 2046.0 , 2035.0 , 325.023 , 0.0 , 0.0 , 0.0 , 0.0 , 

100.0 , 4131.28205128 , 4133.84615385 , 4129.74358974 , 4134.87179487 , 4131.28205128 , 4128.71794872 , 4129.74358974 , 4182.05128205 , 4140.0 , 4141.53846154 , 4189.23076923 , 4907.69230769 , 4141.02564103 , 4138.46153846 , 2044.0 , 2035.0 , 325.038 , 0.0 , 0.0 , 0.0 , 0.0 , 

101.0 , 4131.79487179 , 4132.30769231 , 4132.30769231 , 4134.35897436 , 4132.30769231 , 4127.17948718 , 4126.15384615 , 4174.87179487 , 4132.30769231 , 4141.02564103 , 4185.64102564 , 4908.71794872 , 4137.43589744 , 4140.51282051 , 2043.0 , 2038.0 , 325.041 , 0.0 , 0.0 , 0.0 , 0.0 , 

102.0 , 4126.66666667 , 4133.33333333 , 4125.12820513 , 4140.0 , 4130.25641026 , 4136.41025641 , 4130.76923077 , 4181.53846154 , 4136.92307692 , 4141.02564103 , 4189.74358974 , 4907.17948718 , 4145.64102564 , 4138.46153846 , 2042.0 , 2039.0 , 325.048 , 0.0 , 0.0 , 0.0 , 0.0 , 

103.0 , 4134.35897436 , 4128.20512821 , 4129.23076923 , 4133.33333333 , 4129.23076923 , 4129.74358974 , 4119.48717949 , 4170.25641026 , 4129.74358974 , 4136.92307692 , 4188.20512821 , 4908.71794872 , 4135.8974359 , 4140.0 , 2041.0 , 2039.0 , 325.055 , 0.0 , 0.0 , 0.0 , 0.0 , 

104.0 , 4134.87179487 , 4131.28205128 , 4129.23076923 , 4132.30769231 , 4128.20512821 , 4128.71794872 , 4121.02564103 , 4193.33333333 , 4143.07692308 , 4139.48717949 , 4192.82051282 , 4903.07692308 , 4139.48717949 , 4139.48717949 , 2040.0 , 2039.0 , 325.073 , 0.0 , 0.0 , 0.0 , 0.0 , 

105.0 , 4133.33333333 , 4124.1025641 , 4137.94871795 , 4119.48717949 , 4129.23076923 , 4122.05128205 , 4111.79487179 , 4189.74358974 , 4131.28205128 , 4137.43589744 , 4187.17948718 , 4909.23076923 , 4127.17948718 , 4142.56410256 , 2039.0 , 2038.0 , 325.075 , 0.0 , 0.0 , 0.0 , 0.0 , 

106.0 , 4125.64102564 , 4125.12820513 , 4129.23076923 , 4130.25641026 , 4129.23076923 , 4126.66666667 , 4123.58974359 , 4198.97435897 , 4145.64102564 , 4138.46153846 , 4190.76923077 , 4909.74358974 , 4141.02564103 , 4137.94871795 , 2039.0 , 2036.0 , 325.079 , 0.0 , 0.0 , 0.0 , 0.0 , 

107.0 , 4127.17948718 , 4117.94871795 , 4135.38461538 , 4124.1025641 , 4129.23076923 , 4117.94871795 , 4116.41025641 , 4189.23076923 , 4141.53846154 , 4138.46153846 , 4188.20512821 , 4911.79487179 , 4128.20512821 , 4136.92307692 , 2038.0 , 2036.0 , 325.085 , 0.0 , 0.0 , 0.0 , 0.0 , 

108.0 , 4128.71794872 , 4127.69230769 , 4132.30769231 , 4126.15384615 , 4130.25641026 , 4128.20512821 , 4129.74358974 , 4207.69230769 , 4150.76923077 , 4140.51282051 , 4194.87179487 , 4904.61538462 , 4136.41025641 , 4136.41025641 , 2040.0 , 2036.0 , 325.1 , 0.0 , 0.0 , 0.0 , 0.0 , 

109.0 , 4132.82051282 , 4124.1025641 , 4137.43589744 , 4117.94871795 , 4129.74358974 , 4129.23076923 , 4127.69230769 , 4191.79487179 , 4136.41025641 , 4136.92307692 , 4186.15384615 , 4912.30769231 , 4128.71794872 , 4140.51282051 , 2038.0 , 2033.0 , 325.105 , 0.0 , 0.0 , 0.0 , 0.0 , 

110.0 , 4132.30769231 , 4134.87179487 , 4129.74358974 , 4131.28205128 , 4129.74358974 , 4134.87179487 , 4136.41025641 , 4198.97435897 , 4142.56410256 , 4141.02564103 , 4189.74358974 , 4910.25641026 , 4139.48717949 , 4138.97435897 , 2039.0 , 2032.0 , 325.111 , 0.0 , 0.0 , 0.0 , 0.0 , 

111.0 , 4132.30769231 , 4134.35897436 , 4134.35897436 , 4130.76923077 , 4130.25641026 , 4129.74358974 , 4124.1025641 , 4192.30769231 , 4134.87179487 , 4137.94871795 , 4190.25641026 , 4909.74358974 , 4131.28205128 , 4138.46153846 , 2039.0 , 2030.0 , 325.118 , 0.0 , 0.0 , 0.0 , 0.0 , 

112.0 , 4130.25641026 , 4137.94871795 , 4130.76923077 , 4138.97435897 , 4132.82051282 , 4136.41025641 , 4129.74358974 , 4197.43589744 , 4137.43589744 , 4136.92307692 , 4192.82051282 , 4908.20512821 , 4137.94871795 , 4137.43589744 , 2039.0 , 2029.0 , 325.131 , 0.0 , 0.0 , 0.0 , 0.0 , 

113.0 , 4130.25641026 , 4128.20512821 , 4133.84615385 , 4134.87179487 , 4130.25641026 , 4127.69230769 , 4122.56410256 , 4181.02564103 , 4131.28205128 , 4137.94871795 , 4184.61538462 , 4915.8974359 , 4132.30769231 , 4139.48717949 , 2039.0 , 2029.0 , 325.135 , 0.0 , 0.0 , 0.0 , 0.0 , 

114.0 , 4134.87179487 , 4131.79487179 , 4130.25641026 , 4136.41025641 , 4129.23076923 , 4128.20512821 , 4123.07692308 , 4173.84615385 , 4130.76923077 , 4137.43589744 , 4186.66666667 , 4911.28205128 , 4135.8974359 , 4141.02564103 , 2042.0 , 2030.0 , 325.142 , 0.0 , 0.0 , 0.0 , 0.0 , 

115.0 , 4131.79487179 , 4128.71794872 , 4131.28205128 , 4132.30769231 , 4128.71794872 , 4129.23076923 , 4115.8974359 , 4172.82051282 , 4130.25641026 , 4132.82051282 , 4190.25641026 , 4908.71794872 , 4140.51282051 , 4140.51282051 , 2043.0 , 2032.0 , 325.148 , 0.0 , 0.0 , 0.0 , 0.0 , 

116.0 , 4129.74358974 , 4127.69230769 , 4130.76923077 , 4134.87179487 , 4129.74358974 , 4125.12820513 , 4115.38461538 , 4179.48717949 , 4132.30769231 , 4135.8974359 , 4191.79487179 , 4909.74358974 , 4144.61538462 , 4140.0 , 2044.0 , 2032.0 , 325.163 , 0.0 , 0.0 , 0.0 , 0.0 , 

117.0 , 4128.20512821 , 4125.64102564 , 4131.79487179 , 4135.38461538 , 4128.20512821 , 4119.48717949 , 4116.92307692 , 4182.56410256 , 4138.46153846 , 4139.48717949 , 4188.20512821 , 4910.25641026 , 4141.53846154 , 4139.48717949 , 2044.0 , 2035.0 , 325.169 , 0.0 , 0.0 , 0.0 , 0.0 , 

118.0 , 4131.28205128 , 4126.15384615 , 4132.82051282 , 4132.82051282 , 4130.25641026 , 4123.58974359 , 4117.43589744 , 4177.94871795 , 4131.79487179 , 4138.46153846 , 4188.20512821 , 4907.69230769 , 4133.33333333 , 4138.97435897 , 2045.0 , 2034.0 , 325.173 , 0.0 , 0.0 , 0.0 , 0.0 , 

119.0 , 4129.23076923 , 4128.20512821 , 4126.66666667 , 4134.35897436 , 4128.20512821 , 4127.17948718 , 4122.56410256 , 4194.87179487 , 4142.56410256 , 4139.48717949 , 4194.35897436 , 4905.64102564 , 4144.1025641 , 4136.41025641 , 2047.0 , 2036.0 , 325.181 , 0.0 , 0.0 , 0.0 , 0.0 , 

120.0 , 4132.82051282 , 4127.17948718 , 4133.84615385 , 4128.71794872 , 4127.17948718 , 4122.56410256 , 4121.53846154 , 4194.35897436 , 4142.56410256 , 4140.51282051 , 4190.25641026 , 4908.71794872 , 4136.41025641 , 4137.94871795 , 2046.0 , 2035.0 , 325.196 , 0.0 , 0.0 , 0.0 , 0.0 , 

121.0 , 4129.23076923 , 4131.28205128 , 4133.84615385 , 4129.74358974 , 4127.17948718 , 4132.30769231 , 4132.82051282 , 4204.1025641 , 4149.74358974 , 4142.05128205 , 4190.76923077 , 4905.64102564 , 4138.97435897 , 4138.46153846 , 2046.0 , 2035.0 , 325.2 , 0.0 , 0.0 , 0.0 , 0.0 , 

122.0 , 4132.30769231 , 4128.20512821 , 4137.43589744 , 4124.1025641 , 4131.28205128 , 4128.71794872 , 4122.56410256 , 4191.79487179 , 4132.30769231 , 4137.43589744 , 4188.71794872 , 4910.76923077 , 4128.20512821 , 4139.48717949 , 2043.0 , 2037.0 , 325.205 , 0.0 , 0.0 , 0.0 , 0.0 , 

123.0 , 4132.82051282 , 4135.8974359 , 4131.28205128 , 4133.84615385 , 4132.82051282 , 4131.79487179 , 4127.69230769 , 4202.56410256 , 4140.51282051 , 4136.92307692 , 4191.28205128 , 4911.79487179 , 4134.87179487 , 4138.97435897 , 2044.0 , 2036.0 , 325.213 , 0.0 , 0.0 , 0.0 , 0.0 , 

124.0 , 4133.33333333 , 4131.79487179 , 4141.02564103 , 4124.61538462 , 4132.30769231 , 4129.74358974 , 4123.58974359 , 4184.61538462 , 4130.76923077 , 4135.8974359 , 4182.05128205 , 4918.97435897 , 4120.51282051 , 4141.02564103 , 2044.0 , 2036.0 , 325.228 , 0.0 , 0.0 , 0.0 , 0.0 , 

125.0 , 4129.74358974 , 4134.35897436 , 4131.79487179 , 4132.82051282 , 4131.79487179 , 4132.82051282 , 4130.25641026 , 4191.28205128 , 4140.51282051 , 4140.51282051 , 4188.71794872 , 4914.35897436 , 4136.41025641 , 4136.92307692 , 2044.0 , 2036.0 , 325.228 , 0.0 , 0.0 , 0.0 , 0.0 , 

126.0 , 4134.35897436 , 4126.15384615 , 4132.30769231 , 4131.28205128 , 4131.79487179 , 4118.97435897 , 4112.82051282 , 4175.38461538 , 4129.23076923 , 4138.97435897 , 4189.23076923 , 4915.38461538 , 4131.79487179 , 4138.46153846 , 2044.0 , 2036.0 , 325.238 , 0.0 , 0.0 , 0.0 , 0.0 , 

127.0 , 4131.28205128 , 4132.82051282 , 4128.20512821 , 4138.46153846 , 4131.28205128 , 4131.79487179 , 4128.20512821 , 4180.0 , 4139.48717949 , 4140.0 , 4195.38461538 , 4905.64102564 , 4142.05128205 , 4139.48717949 , 2045.0 , 2036.0 , 325.244 , 0.0 , 0.0 , 0.0 , 0.0 , 

128.0 , 4128.71794872 , 4126.15384615 , 4133.84615385 , 4127.17948718 , 4128.71794872 , 4129.74358974 , 4123.58974359 , 4166.66666667 , 4133.84615385 , 4137.43589744 , 4189.23076923 , 4907.17948718 , 4136.92307692 , 4141.02564103 , 2046.0 , 2037.0 , 325.262 , 0.0 , 0.0 , 0.0 , 0.0 , 

0.0 , 4129.23076923 , 4131.79487179 , 4124.1025641 , 4138.46153846 , 4128.71794872 , 4129.23076923 , 4124.1025641 , 4188.20512821 , 4142.05128205 , 4141.02564103 , 4193.84615385 , 4905.12820513 , 4147.69230769 , 4138.46153846 , 2045.0 , 2038.0 , 325.265 , 0.0 , 0.0 , 0.0 , 0.0 , 

1.0 , 4129.74358974 , 4126.66666667 , 4131.28205128 , 4132.30769231 , 4129.74358974 , 4125.12820513 , 4117.43589744 , 4183.58974359 , 4134.87179487 , 4140.0 , 4189.74358974 , 4910.25641026 , 4135.8974359 , 4137.94871795 , 2046.0 , 2038.0 , 325.27 , 0.0 , 0.0 , 0.0 , 0.0 , 

2.0 , 4129.74358974 , 4128.20512821 , 4132.30769231 , 4132.30769231 , 4128.71794872 , 4130.25641026 , 4129.23076923 , 4185.64102564 , 4143.07692308 , 4142.05128205 , 4190.76923077 , 4908.20512821 , 4139.48717949 , 4135.38461538 , 2045.0 , 2038.0 , 325.276 , 0.0 , 0.0 , 0.0 , 0.0 , 

3.0 , 4130.25641026 , 4123.07692308 , 4131.79487179 , 4128.71794872 , 4128.20512821 , 4118.97435897 , 4115.8974359 , 4187.17948718 , 4143.58974359 , 4140.0 , 4186.66666667 , 4912.30769231 , 4134.87179487 , 4138.97435897 , 2045.0 , 2037.0 , 325.29 , 0.0 , 0.0 , 0.0 , 0.0 , 

4.0 , 4130.76923077 , 4126.15384615 , 4130.76923077 , 4128.20512821 , 4131.79487179 , 4121.02564103 , 4117.94871795 , 4198.97435897 , 4143.07692308 , 4138.97435897 , 4190.25641026 , 4909.74358974 , 4132.30769231 , 4141.02564103 , 2043.0 , 2036.0 , 325.297 , 0.0 , 0.0 , 0.0 , 0.0 , 

5.0 , 4127.17948718 , 4119.48717949 , 4138.46153846 , 4122.05128205 , 4128.71794872 , 4126.66666667 , 4127.17948718 , 4198.97435897 , 4142.05128205 , 4141.02564103 , 4187.69230769 , 4908.71794872 , 4127.17948718 , 4135.8974359 , 2044.0 , 2037.0 , 325.301 , 0.0 , 0.0 , 0.0 , 0.0 , 

6.0 , 4132.82051282 , 4122.56410256 , 4139.48717949 , 4127.17948718 , 4129.23076923 , 4129.23076923 , 4132.82051282 , 4194.35897436 , 4139.48717949 , 4143.07692308 , 4186.15384615 , 4907.69230769 , 4127.17948718 , 4134.35897436 , 2044.0 , 2037.0 , 325.306 , 0.0 , 0.0 , 0.0 , 0.0 , 

7.0 , 4132.82051282 , 4131.79487179 , 4133.33333333 , 4133.33333333 , 4131.28205128 , 4132.30769231 , 4129.74358974 , 4194.35897436 , 4141.53846154 , 4138.97435897 , 4189.23076923 , 4907.17948718 , 4133.84615385 , 4136.92307692 , 2042.0 , 2037.0 , 325.378 , 0.0 , 0.0 , 0.0 , 0.0 , 

8.0 , 4133.33333333 , 4136.41025641 , 4132.82051282 , 4129.74358974 , 4133.84615385 , 4132.30769231 , 4122.05128205 , 4185.12820513 , 4137.43589744 , 4136.92307692 , 4187.17948718 , 4911.28205128 , 4130.76923077 , 4138.97435897 , 2042.0 , 2037.0 , 325.382 , 0.0 , 0.0 , 0.0 , 0.0 , 

9.0 , 4129.23076923 , 4135.38461538 , 4129.74358974 , 4132.82051282 , 4130.76923077 , 4131.28205128 , 4126.66666667 , 4193.33333333 , 4150.25641026 , 4140.0 , 4187.17948718 , 4912.30769231 , 4138.46153846 , 4137.94871795 , 2041.0 , 2037.0 , 325.382 , 0.0 , 0.0 , 0.0 , 0.0 , 

10.0 , 4132.30769231 , 4131.79487179 , 4133.84615385 , 4129.23076923 , 4130.76923077 , 4127.17948718 , 4125.64102564 , 4178.97435897 , 4137.43589744 , 4137.94871795 , 4185.64102564 , 4909.74358974 , 4131.79487179 , 4140.0 , 2041.0 , 2038.0 , 325.382 , 0.0 , 0.0 , 0.0 , 0.0 , 

11.0 , 4129.23076923 , 4136.92307692 , 4129.74358974 , 4134.35897436 , 4129.74358974 , 4136.41025641 , 4132.82051282 , 4181.53846154 , 4139.48717949 , 4138.46153846 , 4191.79487179 , 4903.07692308 , 4143.07692308 , 4138.97435897 , 2040.0 , 2036.0 , 325.382 , 0.0 , 0.0 , 0.0 , 0.0 , 

12.0 , 4132.30769231 , 4129.23076923 , 4134.35897436 , 4127.17948718 , 4128.20512821 , 4126.66666667 , 4117.43589744 , 4171.79487179 , 4126.66666667 , 4136.41025641 , 4186.15384615 , 4910.25641026 , 4134.35897436 , 4140.0 , 2041.0 , 2036.0 , 325.382 , 0.0 , 0.0 , 0.0 , 0.0 , 

13.0 , 4132.82051282 , 4130.25641026 , 4127.17948718 , 4133.84615385 , 4126.66666667 , 4125.64102564 , 4117.94871795 , 4188.71794872 , 4135.38461538 , 4136.41025641 , 4190.25641026 , 4908.20512821 , 4142.56410256 , 4138.46153846 , 2040.0 , 2035.0 , 325.382 , 0.0 , 0.0 , 0.0 , 0.0 , 

14.0 , 4134.35897436 , 4123.07692308 , 4135.8974359 , 4125.64102564 , 4126.66666667 , 4123.58974359 , 4112.30769231 , 4178.97435897 , 4126.66666667 , 4134.87179487 , 4187.69230769 , 4909.23076923 , 4131.79487179 , 4140.51282051 , 2040.0 , 2036.0 , 325.382 , 0.0 , 0.0 , 0.0 , 0.0 , 

15.0 , 4128.71794872 , 4127.69230769 , 4131.79487179 , 4134.87179487 , 4130.25641026 , 4131.79487179 , 4126.66666667 , 4195.8974359 , 4148.71794872 , 4141.53846154 , 4193.33333333 , 4904.1025641 , 4144.61538462 , 4137.94871795 , 2041.0 , 2035.0 , 325.382 , 0.0 , 0.0 , 0.0 , 0.0 , 

16.0 , 4130.25641026 , 4118.46153846 , 4136.92307692 , 4127.17948718 , 4130.76923077 , 4121.02564103 , 4115.38461538 , 4185.12820513 , 4143.58974359 , 4140.51282051 , 4188.71794872 , 4908.71794872 , 4130.76923077 , 4138.97435897 , 2040.0 , 2035.0 , 325.396 , 0.0 , 0.0 , 0.0 , 0.0 , 

17.0 , 4128.71794872 , 4127.69230769 , 4129.23076923 , 4133.33333333 , 4129.23076923 , 4128.71794872 , 4126.15384615 , 4195.8974359 , 4147.17948718 , 4139.48717949 , 4193.84615385 , 4905.64102564 , 4136.92307692 , 4138.97435897 , 2041.0 , 2034.0 , 325.396 , 0.0 , 0.0 , 0.0 , 0.0 , 

18.0 , 4132.30769231 , 4128.71794872 , 4135.38461538 , 4127.69230769 , 4129.74358974 , 4129.23076923 , 4128.20512821 , 4192.82051282 , 4144.61538462 , 4137.94871795 , 4188.20512821 , 4911.79487179 , 4130.76923077 , 4139.48717949 , 2043.0 , 2033.0 , 325.405 , 0.0 , 0.0 , 0.0 , 0.0 , 

19.0 , 4134.87179487 , 4133.33333333 , 4130.25641026 , 4134.87179487 , 4133.33333333 , 4135.38461538 , 4136.41025641 , 4207.17948718 , 4156.92307692 , 4143.07692308 , 4190.25641026 , 4908.20512821 , 4137.43589744 , 4135.8974359 , 2043.0 , 2034.0 , 325.411 , 0.0 , 0.0 , 0.0 , 0.0 , 

20.0 , 4131.28205128 , 4123.07692308 , 4135.38461538 , 4126.66666667 , 4133.84615385 , 4128.71794872 , 4121.02564103 , 4192.30769231 , 4141.02564103 , 4141.53846154 , 4188.20512821 , 4910.25641026 , 4129.23076923 , 4138.97435897 , 2042.0 , 2034.0 , 325.423 , 0.0 , 0.0 , 0.0 , 0.0 , 

21.0 , 4130.25641026 , 4130.76923077 , 4133.84615385 , 4132.82051282 , 4133.33333333 , 4132.82051282 , 4127.69230769 , 4188.20512821 , 4133.84615385 , 4140.51282051 , 4189.74358974 , 4909.23076923 , 4135.38461538 , 4141.02564103 , 2042.0 , 2033.0 , 325.427 , 0.0 , 0.0 , 0.0 , 0.0 , 

22.0 , 4135.38461538 , 4131.28205128 , 4134.35897436 , 4133.33333333 , 4130.76923077 , 4127.69230769 , 4123.07692308 , 4182.05128205 , 4131.79487179 , 4138.46153846 , 4183.07692308 , 4915.8974359 , 4129.23076923 , 4140.51282051 , 2043.0 , 2034.0 , 325.434 , 0.0 , 0.0 , 0.0 , 0.0 , 

23.0 , 4136.92307692 , 4133.33333333 , 4132.30769231 , 4133.84615385 , 4131.28205128 , 4126.66666667 , 4121.53846154 , 4178.97435897 , 4127.69230769 , 4138.97435897 , 4185.12820513 , 4916.92307692 , 4127.17948718 , 4139.48717949 , 2043.0 , 2033.0 , 325.442 , 0.0 , 0.0 , 0.0 , 0.0 , 

24.0 , 4127.69230769 , 4131.79487179 , 4131.79487179 , 4134.35897436 , 4130.76923077 , 4126.66666667 , 4120.51282051 , 4175.38461538 , 4124.1025641 , 4137.43589744 , 4186.66666667 , 4912.30769231 , 4137.43589744 , 4138.97435897 , 2043.0 , 2034.0 , 325.463 , 0.0 , 0.0 , 0.0 , 0.0 , 

25.0 , 4130.25641026 , 4133.84615385 , 4128.71794872 , 4137.43589744 , 4130.76923077 , 4126.66666667 , 4121.53846154 , 4174.35897436 , 4125.64102564 , 4138.46153846 , 4187.17948718 , 4907.17948718 , 4143.07692308 , 4140.0 , 2042.0 , 2034.0 , 325.463 , 0.0 , 0.0 , 0.0 , 0.0 , 

26.0 , 4131.79487179 , 4130.76923077 , 4126.15384615 , 4134.35897436 , 4128.71794872 , 4127.17948718 , 4122.05128205 , 4182.56410256 , 4136.41025641 , 4139.48717949 , 4190.76923077 , 4908.71794872 , 4143.07692308 , 4139.48717949 , 2042.0 , 2036.0 , 325.465 , 0.0 , 0.0 , 0.0 , 0.0 , 

27.0 , 4131.28205128 , 4124.61538462 , 4129.23076923 , 4129.23076923 , 4129.74358974 , 4125.12820513 , 4119.48717949 , 4182.56410256 , 4129.74358974 , 4135.8974359 , 4192.30769231 , 4911.28205128 , 4136.41025641 , 4138.97435897 , 2042.0 , 2035.0 , 325.473 , 0.0 , 0.0 , 0.0 , 0.0 , 

28.0 , 4128.20512821 , 4126.15384615 , 4124.1025641 , 4135.8974359 , 4131.79487179 , 4128.71794872 , 4126.66666667 , 4197.43589744 , 4146.15384615 , 4137.43589744 , 4193.33333333 , 4903.07692308 , 4147.17948718 , 4137.43589744 , 2043.0 , 2035.0 , 325.492 , 0.0 , 0.0 , 0.0 , 0.0 , 

29.0 , 4133.33333333 , 4125.12820513 , 4130.76923077 , 4127.69230769 , 4132.82051282 , 4126.15384615 , 4122.05128205 , 4185.64102564 , 4145.12820513 , 4139.48717949 , 4186.15384615 , 4904.61538462 , 4134.35897436 , 4141.02564103 , 2043.0 , 2037.0 , 325.492 , 0.0 , 0.0 , 0.0 , 0.0 , 

30.0 , 4128.20512821 , 4131.28205128 , 4130.76923077 , 4129.74358974 , 4130.76923077 , 4134.35897436 , 4133.84615385 , 4201.02564103 , 4148.71794872 , 4142.56410256 , 4189.74358974 , 4908.71794872 , 4136.92307692 , 4138.97435897 , 2042.0 , 2037.0 , 325.497 , 0.0 , 0.0 , 0.0 , 0.0 , 

31.0 , 4129.23076923 , 4126.66666667 , 4136.41025641 , 4125.64102564 , 4131.79487179 , 4125.12820513 , 4128.20512821 , 4194.35897436 , 4130.25641026 , 4140.0 , 4185.12820513 , 4914.35897436 , 4123.07692308 , 4138.97435897 , 2041.0 , 2037.0 , 325.504 , 0.0 , 0.0 , 0.0 , 0.0 , 

32.0 , 4130.76923077 , 4133.84615385 , 4129.23076923 , 4131.28205128 , 4132.82051282 , 4126.66666667 , 4133.84615385 , 4203.07692308 , 4141.53846154 , 4141.02564103 , 4188.71794872 , 4908.71794872 , 4133.33333333 , 4136.92307692 , 2043.0 , 2039.0 , 325.523 , 0.0 , 0.0 , 0.0 , 0.0 , 

33.0 , 4133.84615385 , 4130.25641026 , 4135.8974359 , 4121.53846154 , 4132.30769231 , 4127.69230769 , 4120.51282051 , 4183.58974359 , 4131.79487179 , 4134.87179487 , 4183.07692308 , 4914.35897436 , 4124.61538462 , 4140.51282051 , 2042.0 , 2039.0 , 325.523 , 0.0 , 0.0 , 0.0 , 0.0 , 

34.0 , 4127.69230769 , 4135.8974359 , 4131.79487179 , 4134.87179487 , 4130.76923077 , 4138.97435897 , 4133.33333333 , 4197.94871795 , 4145.12820513 , 4136.41025641 , 4188.20512821 , 4908.20512821 , 4134.87179487 , 4138.97435897 , 2043.0 , 2040.0 , 325.528 , 0.0 , 0.0 , 0.0 , 0.0 , 

35.0 , 4129.74358974 , 4132.30769231 , 4136.92307692 , 4133.33333333 , 4131.28205128 , 4130.25641026 , 4127.69230769 , 4182.05128205 , 4135.38461538 , 4139.48717949 , 4185.64102564 , 4910.25641026 , 4126.15384615 , 4139.48717949 , 2043.0 , 2039.0 , 325.535 , 0.0 , 0.0 , 0.0 , 0.0 , 

36.0 , 4130.76923077 , 4138.46153846 , 4128.20512821 , 4140.0 , 4132.82051282 , 4133.84615385 , 4135.38461538 , 4180.0 , 4137.43589744 , 4143.07692308 , 4192.82051282 , 4910.25641026 , 4142.05128205 , 4138.46153846 , 2042.0 , 2037.0 , 325.548 , 0.0 , 0.0 , 0.0 , 0.0 , 

37.0 , 4130.76923077 , 4128.20512821 , 4130.76923077 , 4133.84615385 , 4131.28205128 , 4125.64102564 , 4122.56410256 , 4168.20512821 , 4131.28205128 , 4136.92307692 , 4187.69230769 , 4913.84615385 , 4138.46153846 , 4140.0 , 2044.0 , 2037.0 , 325.553 , 0.0 , 0.0 , 0.0 , 0.0 , 

38.0 , 4131.79487179 , 4131.79487179 , 4126.66666667 , 4141.02564103 , 4130.25641026 , 4130.25641026 , 4126.15384615 , 4183.58974359 , 4137.43589744 , 4136.41025641 , 4190.25641026 , 4905.12820513 , 4142.05128205 , 4138.46153846 , 2043.0 , 2037.0 , 325.559 , 0.0 , 0.0 , 0.0 , 0.0 , 

39.0 , 4131.79487179 , 4125.64102564 , 4131.28205128 , 4131.79487179 , 4130.25641026 , 4127.69230769 , 4120.0 , 4177.94871795 , 4128.20512821 , 4138.46153846 , 4189.74358974 , 4907.17948718 , 4137.94871795 , 4136.92307692 , 2044.0 , 2038.0 , 325.567 , 0.0 , 0.0 , 0.0 , 0.0 , 

40.0 , 4131.28205128 , 4125.12820513 , 4128.20512821 , 4131.79487179 , 4132.82051282 , 4125.64102564 , 4123.07692308 , 4183.58974359 , 4137.43589744 , 4140.51282051 , 4193.33333333 , 4904.61538462 , 4144.61538462 , 4135.8974359 , 2044.0 , 2037.0 , 325.586 , 0.0 , 0.0 , 0.0 , 0.0 , 

41.0 , 4130.76923077 , 4122.56410256 , 4131.28205128 , 4128.20512821 , 4130.25641026 , 4116.41025641 , 4114.87179487 , 4190.25641026 , 4147.69230769 , 4136.92307692 , 4190.76923077 , 4906.66666667 , 4136.41025641 , 4138.97435897 , 2046.0 , 2033.0 , 325.586 , 0.0 , 0.0 , 0.0 , 0.0 , 

42.0 , 4131.79487179 , 4129.23076923 , 4133.33333333 , 4128.20512821 , 4131.79487179 , 4122.56410256 , 4120.0 , 4194.35897436 , 4143.58974359 , 4136.92307692 , 4191.79487179 , 4908.20512821 , 4132.82051282 , 4141.53846154 , 2046.0 , 2032.0 , 325.591 , 0.0 , 0.0 , 0.0 , 0.0 , 

43.0 , 4126.15384615 , 4124.61538462 , 4134.35897436 , 4126.15384615 , 4132.30769231 , 4127.17948718 , 4128.71794872 , 4193.84615385 , 4143.07692308 , 4138.46153846 , 4189.23076923 , 4906.66666667 , 4138.97435897 , 4138.97435897 , 2046.0 , 2031.0 , 325.598 , 0.0 , 0.0 , 0.0 , 0.0 , 

44.0 , 4128.71794872 , 4125.12820513 , 4134.35897436 , 4127.69230769 , 4131.28205128 , 4126.66666667 , 4129.23076923 , 4190.25641026 , 4146.15384615 , 4140.51282051 , 4189.74358974 , 4904.1025641 , 4133.33333333 , 4137.43589744 , 2044.0 , 2031.0 , 325.612 , 0.0 , 0.0 , 0.0 , 0.0 , 

45.0 , 4127.69230769 , 4134.35897436 , 4130.25641026 , 4132.30769231 , 4129.23076923 , 4131.28205128 , 4130.76923077 , 4199.48717949 , 4152.30769231 , 4142.05128205 , 4195.8974359 , 4905.12820513 , 4132.30769231 , 4137.94871795 , 2044.0 , 2032.0 , 325.617 , 0.0 , 0.0 , 0.0 , 0.0 , 

46.0 , 4130.25641026 , 4133.33333333 , 4133.84615385 , 4128.71794872 , 4132.82051282 , 4131.79487179 , 4130.25641026 , 4192.30769231 , 4137.94871795 , 4139.48717949 , 4190.76923077 , 4912.30769231 , 4126.15384615 , 4139.48717949 , 2043.0 , 2036.0 , 325.622 , 0.0 , 0.0 , 0.0 , 0.0 , 

47.0 , 4129.74358974 , 4135.38461538 , 4129.74358974 , 4137.43589744 , 4132.82051282 , 4135.8974359 , 4137.94871795 , 4197.43589744 , 4144.61538462 , 4137.94871795 , 4190.25641026 , 4911.79487179 , 4139.48717949 , 4136.92307692 , 2043.0 , 2038.0 , 325.63 , 0.0 , 0.0 , 0.0 , 0.0 , 

48.0 , 4135.38461538 , 4135.8974359 , 4135.8974359 , 4134.87179487 , 4130.25641026 , 4130.25641026 , 4126.66666667 , 4174.87179487 , 4130.76923077 , 4136.92307692 , 4187.69230769 , 4915.38461538 , 4133.33333333 , 4139.48717949 , 2042.0 , 2040.0 , 325.648 , 0.0 , 0.0 , 0.0 , 0.0 , 

49.0 , 4130.76923077 , 4137.43589744 , 4130.76923077 , 4138.97435897 , 4130.76923077 , 4132.82051282 , 4130.25641026 , 4178.97435897 , 4130.25641026 , 4137.43589744 , 4190.25641026 , 4912.30769231 , 4141.53846154 , 4139.48717949 , 2040.0 , 2040.0 , 325.648 , 0.0 , 0.0 , 0.0 , 0.0 , 

50.0 , 4129.74358974 , 4126.15384615 , 4133.84615385 , 4130.25641026 , 4132.30769231 , 4121.53846154 , 4116.92307692 , 4169.23076923 , 4121.53846154 , 4132.30769231 , 4185.64102564 , 4915.8974359 , 4128.71794872 , 4141.02564103 , 2041.0 , 2037.0 , 325.653 , 0.0 , 0.0 , 0.0 , 0.0 , 

51.0 , 4128.20512821 , 4131.28205128 , 4128.20512821 , 4135.8974359 , 4131.28205128 , 4125.64102564 , 4122.05128205 , 4185.12820513 , 4140.0 , 4137.94871795 , 4193.84615385 , 4908.71794872 , 4142.56410256 , 4137.43589744 , 2042.0 , 2035.0 , 325.662 , 0.0 , 0.0 , 0.0 , 0.0 , 

52.0 , 4133.33333333 , 4123.07692308 , 4136.41025641 , 4122.56410256 , 4130.25641026 , 4121.53846154 , 4115.8974359 , 4175.38461538 , 4128.71794872 , 4138.97435897 , 4188.20512821 , 4909.23076923 , 4137.94871795 , 4137.94871795 , 2043.0 , 2035.0 , 325.681 , 0.0 , 0.0 , 0.0 , 0.0 , 

53.0 , 4132.82051282 , 4128.20512821 , 4127.17948718 , 4130.25641026 , 4129.23076923 , 4128.20512821 , 4127.17948718 , 4190.76923077 , 4141.02564103 , 4140.0 , 4192.30769231 , 4906.15384615 , 4147.69230769 , 4136.92307692 , 2041.0 , 2035.0 , 325.686 , 0.0 , 0.0 , 0.0 , 0.0 , 

54.0 , 4131.79487179 , 4125.12820513 , 4129.74358974 , 4128.71794872 , 4129.23076923 , 4119.48717949 , 4117.43589744 , 4181.53846154 , 4142.05128205 , 4136.41025641 , 4189.74358974 , 4911.28205128 , 4132.30769231 , 4140.0 , 2041.0 , 2033.0 , 325.687 , 0.0 , 0.0 , 0.0 , 0.0 , 

55.0 , 4127.69230769 , 4130.76923077 , 4126.15384615 , 4133.84615385 , 4130.76923077 , 4127.17948718 , 4129.74358974 , 4197.94871795 , 4151.28205128 , 4138.97435897 , 4194.35897436 , 4904.61538462 , 4140.51282051 , 4137.43589744 , 2041.0 , 2031.0 , 325.693 , 0.0 , 0.0 , 0.0 , 0.0 , 

56.0 , 4126.66666667 , 4123.58974359 , 4133.33333333 , 4122.56410256 , 4130.25641026 , 4127.17948718 , 4128.20512821 , 4194.87179487 , 4142.56410256 , 4136.41025641 , 4188.71794872 , 4906.66666667 , 4133.84615385 , 4136.41025641 , 2040.0 , 2030.0 , 325.706 , 0.0 , 0.0 , 0.0 , 0.0 , 

57.0 , 4129.74358974 , 4132.30769231 , 4132.82051282 , 4128.20512821 , 4131.28205128 , 4132.82051282 , 4135.38461538 , 4201.53846154 , 4147.17948718 , 4138.46153846 , 4189.74358974 , 4905.64102564 , 4133.33333333 , 4136.92307692 , 2043.0 , 2029.0 , 325.714 , 0.0 , 0.0 , 0.0 , 0.0 , 

58.0 , 4133.33333333 , 4130.76923077 , 4138.46153846 , 4123.58974359 , 4131.28205128 , 4129.74358974 , 4128.71794872 , 4193.33333333 , 4137.43589744 , 4138.97435897 , 4184.1025641 , 4913.84615385 , 4124.61538462 , 4139.48717949 , 2043.0 , 2029.0 , 325.719 , 0.0 , 0.0 , 0.0 , 0.0 , 

59.0 , 4135.38461538 , 4131.79487179 , 4135.38461538 , 4127.69230769 , 4133.33333333 , 4134.35897436 , 4132.82051282 , 4193.84615385 , 4137.94871795 , 4138.97435897 , 4185.64102564 , 4914.87179487 , 4132.30769231 , 4138.46153846 , 2043.0 , 2027.0 , 325.726 , 0.0 , 0.0 , 0.0 , 0.0 , 

60.0 , 4133.33333333 , 4126.15384615 , 4135.38461538 , 4131.79487179 , 4131.28205128 , 4130.25641026 , 4125.64102564 , 4192.82051282 , 4141.53846154 , 4137.43589744 , 4186.66666667 , 4914.35897436 , 4131.79487179 , 4138.46153846 , 2044.0 , 2027.0 , 325.743 , 0.0 , 0.0 , 0.0 , 0.0 , 

61.0 , 4134.35897436 , 4130.25641026 , 4133.84615385 , 4133.33333333 , 4131.79487179 , 4127.17948718 , 4128.71794872 , 4187.17948718 , 4131.79487179 , 4137.43589744 , 4188.71794872 , 4911.28205128 , 4130.25641026 , 4141.02564103 , 2044.0 , 2027.0 , 325.748 , 0.0 , 0.0 , 0.0 , 0.0 , 

62.0 , 4131.28205128 , 4131.79487179 , 4130.25641026 , 4133.33333333 , 4130.76923077 , 4127.69230769 , 4132.30769231 , 4178.46153846 , 4129.74358974 , 4139.48717949 , 4188.20512821 , 4910.25641026 , 4140.0 , 4140.51282051 , 2044.0 , 2030.0 , 325.75 , 0.0 , 0.0 , 0.0 , 0.0 , 

63.0 , 4133.33333333 , 4129.23076923 , 4132.30769231 , 4136.41025641 , 4132.82051282 , 4130.25641026 , 4123.58974359 , 4170.25641026 , 4129.23076923 , 4138.46153846 , 4186.66666667 , 4909.74358974 , 4137.94871795 , 4140.51282051 , 2045.0 , 2030.0 , 325.755 , 0.0 , 0.0 , 0.0 , 0.0 , 

64.0 , 4129.74358974 , 4133.84615385 , 4128.20512821 , 4141.02564103 , 4131.79487179 , 4135.38461538 , 4123.07692308 , 4181.02564103 , 4140.0 , 4135.8974359 , 4191.79487179 , 4909.23076923 , 4142.56410256 , 4139.48717949 , 2045.0 , 2029.0 , 325.768 , 0.0 , 0.0 , 0.0 , 0.0 , 

65.0 , 4131.79487179 , 4134.87179487 , 4129.74358974 , 4133.33333333 , 4132.82051282 , 4128.20512821 , 4122.56410256 , 4174.35897436 , 4131.28205128 , 4137.43589744 , 4190.25641026 , 4913.33333333 , 4135.8974359 , 4138.97435897 , 2045.0 , 2028.0 , 325.775 , 0.0 , 0.0 , 0.0 , 0.0 , 

66.0 , 4131.28205128 , 4129.74358974 , 4125.64102564 , 4135.38461538 , 4134.35897436 , 4127.69230769 , 4129.23076923 , 4194.87179487 , 4146.15384615 , 4141.53846154 , 4191.79487179 , 4906.15384615 , 4142.05128205 , 4135.38461538 , 2044.0 , 2030.0 , 325.78 , 0.0 , 0.0 , 0.0 , 0.0 , 

67.0 , 4136.41025641 , 4118.97435897 , 4135.38461538 , 4124.61538462 , 4134.35897436 , 4124.1025641 , 4120.51282051 , 4189.23076923 , 4140.0 , 4136.92307692 , 4186.66666667 , 4908.20512821 , 4130.76923077 , 4141.02564103 , 2044.0 , 2029.0 , 325.787 , 0.0 , 0.0 , 0.0 , 0.0 , 

68.0 , 4130.25641026 , 4126.66666667 , 4133.84615385 , 4127.17948718 , 4130.25641026 , 4129.74358974 , 4130.25641026 , 4198.97435897 , 4150.25641026 , 4139.48717949 , 4192.30769231 , 4909.23076923 , 4142.56410256 , 4141.02564103 , 2043.0 , 2030.0 , 325.802 , 0.0 , 0.0 , 0.0 , 0.0 , 

69.0 , 4131.79487179 , 4122.05128205 , 4139.48717949 , 4119.48717949 , 4129.74358974 , 4120.51282051 , 4118.46153846 , 4187.69230769 , 4140.51282051 , 4140.51282051 , 4188.20512821 , 4911.79487179 , 4126.15384615 , 4137.43589744 , 2044.0 , 2031.0 , 325.804 , 0.0 , 0.0 , 0.0 , 0.0 , 

70.0 , 4131.79487179 , 4127.69230769 , 4132.82051282 , 4128.71794872 , 4131.28205128 , 4130.76923077 , 4130.76923077 , 4204.61538462 , 4150.76923077 , 4142.05128205 , 4192.82051282 , 4906.15384615 , 4130.25641026 , 4136.41025641 , 2044.0 , 2032.0 , 325.812 , 0.0 , 0.0 , 0.0 , 0.0 , 

71.0 , 4132.82051282 , 4127.17948718 , 4137.94871795 , 4122.56410256 , 4129.74358974 , 4131.28205128 , 4131.79487179 , 4187.69230769 , 4140.0 , 4137.94871795 , 4186.15384615 , 4913.84615385 , 4124.61538462 , 4143.07692308 , 2043.0 , 2030.0 , 325.819 , 0.0 , 0.0 , 0.0 , 0.0 , 

72.0 , 4129.23076923 , 4137.94871795 , 4128.71794872 , 4132.82051282 , 4130.76923077 , 4136.41025641 , 4138.46153846 , 4194.87179487 , 4150.25641026 , 4141.53846154 , 4187.17948718 , 4909.23076923 , 4138.97435897 , 4141.02564103 , 2042.0 , 2030.0 , 325.837 , 0.0 , 0.0 , 0.0 , 0.0 , 

73.0 , 4132.82051282 , 4132.82051282 , 4133.84615385 , 4129.74358974 , 4131.79487179 , 4127.17948718 , 4121.53846154 , 4184.1025641 , 4139.48717949 , 4139.48717949 , 4184.1025641 , 4910.76923077 , 4127.69230769 , 4140.51282051 , 2042.0 , 2030.0 , 325.839 , 0.0 , 0.0 , 0.0 , 0.0 , 

74.0 , 4134.35897436 , 4137.94871795 , 4130.25641026 , 4140.51282051 , 4130.76923077 , 4131.28205128 , 4133.84615385 , 4187.17948718 , 4140.51282051 , 4140.0 , 4191.28205128 , 4908.20512821 , 4138.46153846 , 4140.0 , 2044.0 , 2031.0 , 325.843 , 0.0 , 0.0 , 0.0 , 0.0 , 

75.0 , 4132.82051282 , 4128.71794872 , 4129.74358974 , 4133.33333333 , 4129.23076923 , 4125.64102564 , 4129.74358974 , 4170.76923077 , 4132.30769231 , 4140.0 , 4188.20512821 , 4912.30769231 , 4136.41025641 , 4141.53846154 , 2044.0 , 2030.0 , 325.85 , 0.0 , 0.0 , 0.0 , 0.0 , 

76.0 , 4132.82051282 , 4131.28205128 , 4126.15384615 , 4135.8974359 , 4132.82051282 , 4133.33333333 , 4130.25641026 , 4172.82051282 , 4134.87179487 , 4140.51282051 , 4190.76923077 , 4907.69230769 , 4140.51282051 , 4140.0 , 2044.0 , 2031.0 , 325.863 , 0.0 , 0.0 , 0.0 , 0.0 , 

77.0 , 4133.84615385 , 4127.69230769 , 4133.84615385 , 4129.74358974 , 4133.33333333 , 4128.20512821 , 4121.02564103 , 4171.28205128 , 4126.66666667 , 4134.87179487 , 4188.20512821 , 4909.74358974 , 4135.38461538 , 4141.02564103 , 2044.0 , 2031.0 , 325.869 , 0.0 , 0.0 , 0.0 , 0.0 , 

78.0 , 4133.84615385 , 4128.71794872 , 4131.79487179 , 4131.28205128 , 4130.76923077 , 4121.53846154 , 4121.53846154 , 4180.0 , 4129.74358974 , 4135.8974359 , 4188.71794872 , 4910.25641026 , 4137.43589744 , 4143.07692308 , 2043.0 , 2030.0 , 325.874 , 0.0 , 0.0 , 0.0 , 0.0 , 

79.0 , 4130.76923077 , 4122.56410256 , 4131.79487179 , 4131.28205128 , 4127.69230769 , 4120.0 , 4117.94871795 , 4186.66666667 , 4143.07692308 , 4140.51282051 , 4189.23076923 , 4909.74358974 , 4133.84615385 , 4143.07692308 , 2043.0 , 2031.0 , 325.882 , 0.0 , 0.0 , 0.0 , 0.0 , 

80.0 , 4132.82051282 , 4124.61538462 , 4134.87179487 , 4130.25641026 , 4130.25641026 , 4125.12820513 , 4121.53846154 , 4191.79487179 , 4147.69230769 , 4138.97435897 , 4194.35897436 , 4906.66666667 , 4131.79487179 , 4140.0 , 2043.0 , 2031.0 , 325.901 , 0.0 , 0.0 , 0.0 , 0.0 , 

81.0 , 4128.71794872 , 4128.20512821 , 4129.74358974 , 4130.76923077 , 4130.25641026 , 4124.61538462 , 4127.17948718 , 4200.51282051 , 4148.71794872 , 4136.41025641 , 4193.84615385 , 4907.17948718 , 4142.56410256 , 4139.48717949 , 2042.0 , 2030.0 , 325.906 , 0.0 , 0.0 , 0.0 , 0.0 , 

82.0 , 4130.76923077 , 4125.64102564 , 4130.25641026 , 4128.71794872 , 4131.79487179 , 4124.1025641 , 4125.64102564 , 4192.30769231 , 4136.41025641 , 4138.97435897 , 4187.17948718 , 4910.25641026 , 4135.8974359 , 4144.1025641 , 2043.0 , 2032.0 , 325.906 , 0.0 , 0.0 , 0.0 , 0.0 , 

83.0 , 4129.23076923 , 4126.66666667 , 4131.28205128 , 4133.33333333 , 4131.28205128 , 4134.35897436 , 4133.33333333 , 4198.97435897 , 4145.12820513 , 4141.02564103 , 4191.28205128 , 4903.58974359 , 4135.8974359 , 4140.0 , 2043.0 , 2033.0 , 325.914 , 0.0 , 0.0 , 0.0 , 0.0 , 

84.0 , 4132.82051282 , 4128.20512821 , 4135.38461538 , 4130.25641026 , 4131.28205128 , 4130.76923077 , 4127.69230769 , 4191.28205128 , 4140.51282051 , 4138.46153846 , 4189.23076923 , 4905.12820513 , 4128.71794872 , 4138.97435897 , 2044.0 , 2033.0 , 325.932 , 0.0 , 0.0 , 0.0 , 0.0 , 

85.0 , 4131.79487179 , 4137.43589744 , 4129.74358974 , 4138.46153846 , 4131.28205128 , 4132.30769231 , 4132.82051282 , 4202.56410256 , 4147.17948718 , 4140.0 , 4189.23076923 , 4910.25641026 , 4140.51282051 , 4140.0 , 2041.0 , 2035.0 , 325.932 , 0.0 , 0.0 , 0.0 , 0.0 , 

86.0 , 4133.84615385 , 4132.82051282 , 4140.0 , 4130.76923077 , 4130.76923077 , 4125.64102564 , 4125.64102564 , 4177.94871795 , 4125.12820513 , 4137.43589744 , 4185.12820513 , 4917.94871795 , 4126.15384615 , 4141.53846154 , 2041.0 , 2036.0 , 325.937 , 0.0 , 0.0 , 0.0 , 0.0 , 

87.0 , 4130.25641026 , 4132.30769231 , 4133.33333333 , 4136.41025641 , 4128.20512821 , 4128.71794872 , 4131.79487179 , 4182.56410256 , 4131.79487179 , 4137.43589744 , 4190.76923077 , 4909.74358974 , 4137.94871795 , 4137.94871795 , 2041.0 , 2035.0 , 325.946 , 0.0 , 0.0 , 0.0 , 0.0 , 

88.0 , 4133.84615385 , 4123.07692308 , 4133.84615385 , 4131.28205128 , 4128.20512821 , 4121.53846154 , 4116.41025641 , 4173.84615385 , 4125.12820513 , 4135.8974359 , 4184.61538462 , 4912.82051282 , 4135.8974359 , 4142.05128205 , 2040.0 , 2034.0 , 325.964 , 0.0 , 0.0 , 0.0 , 0.0 , 

89.0 , 4132.30769231 , 4130.25641026 , 4127.69230769 , 4138.46153846 , 4129.23076923 , 4130.76923077 , 4127.17948718 , 4184.1025641 , 4136.41025641 , 4138.46153846 , 4188.20512821 , 4910.76923077 , 4146.66666667 , 4141.02564103 , 2040.0 , 2032.0 , 325.964 , 0.0 , 0.0 , 0.0 , 0.0 , 

90.0 , 4132.82051282 , 4125.64102564 , 4135.38461538 , 4129.74358974 , 4127.17948718 , 4124.1025641 , 4123.58974359 , 4166.66666667 , 4125.64102564 , 4136.92307692 , 4185.12820513 , 4913.33333333 , 4132.82051282 , 4138.46153846 , 2041.0 , 2032.0 , 325.969 , 0.0 , 0.0 , 0.0 , 0.0 , 

91.0 , 4132.82051282 , 4132.30769231 , 4127.69230769 , 4138.97435897 , 4127.69230769 , 4129.23076923 , 4130.76923077 , 4185.12820513 , 4139.48717949 , 4140.51282051 , 4193.33333333 , 4906.15384615 , 4143.58974359 , 4135.8974359 , 2040.0 , 2031.0 , 325.978 , 0.0 , 0.0 , 0.0 , 0.0 , 

92.0 , 4133.84615385 , 4127.17948718 , 4135.38461538 , 4129.23076923 , 4129.74358974 , 4124.61538462 , 4120.0 , 4184.61538462 , 4137.94871795 , 4138.97435897 , 4191.79487179 , 4908.20512821 , 4136.41025641 , 4139.48717949 , 2040.0 , 2031.0 , 326.0 , 0.0 , 0.0 , 0.0 , 0.0 , 

93.0 , 4131.28205128 , 4134.35897436 , 4131.28205128 , 4133.84615385 , 4129.23076923 , 4128.20512821 , 4129.23076923 , 4196.92307692 , 4146.66666667 , 4140.0 , 4194.35897436 , 4906.15384615 , 4143.58974359 , 4140.0 , 2040.0 , 2031.0 , 326.0 , 0.0 , 0.0 , 0.0 , 0.0 , 

94.0 , 4130.25641026 , 4128.71794872 , 4130.76923077 , 4132.30769231 , 4125.64102564 , 4122.56410256 , 4123.07692308 , 4191.28205128 , 4142.56410256 , 4138.97435897 , 4188.71794872 , 4911.28205128 , 4135.8974359 , 4141.02564103 , 2041.0 , 2031.0 , 326.002 , 0.0 , 0.0 , 0.0 , 0.0 , 

95.0 , 4132.30769231 , 4131.28205128 , 4129.74358974 , 4131.79487179 , 4129.74358974 , 4128.71794872 , 4128.20512821 , 4196.92307692 , 4144.1025641 , 4142.05128205 , 4191.28205128 , 4909.23076923 , 4133.33333333 , 4138.97435897 , 2040.0 , 2031.0 , 326.008 , 0.0 , 0.0 , 0.0 , 0.0 , 

96.0 , 4130.76923077 , 4124.61538462 , 4137.94871795 , 4119.48717949 , 4132.82051282 , 4127.69230769 , 4124.61538462 , 4196.41025641 , 4141.02564103 , 4140.0 , 4186.66666667 , 4911.28205128 , 4127.69230769 , 4137.43589744 , 2040.0 , 2032.0 , 326.027 , 0.0 , 0.0 , 0.0 , 0.0 , 

97.0 , 4132.30769231 , 4127.17948718 , 4138.46153846 , 4125.12820513 , 4133.33333333 , 4129.23076923 , 4127.69230769 , 4196.41025641 , 4140.0 , 4135.38461538 , 4185.64102564 , 4910.76923077 , 4128.20512821 , 4135.38461538 , 2042.0 , 2032.0 , 326.027 , 0.0 , 0.0 , 0.0 , 0.0 , 

98.0 , 4130.76923077 , 4130.25641026 , 4136.92307692 , 4131.28205128 , 4129.74358974 , 4130.25641026 , 4127.69230769 , 4191.79487179 , 4141.02564103 , 4134.35897436 , 4186.66666667 , 4909.23076923 , 4129.23076923 , 4135.38461538 , 2040.0 , 2032.0 , 326.032 , 0.0 , 0.0 , 0.0 , 0.0 , 

99.0 , 4133.33333333 , 4134.35897436 , 4135.8974359 , 4132.82051282 , 4130.76923077 , 4130.76923077 , 4128.71794872 , 4184.1025641 , 4132.82051282 , 4140.51282051 , 4186.15384615 , 4911.28205128 , 4130.76923077 , 4140.51282051 , 2041.0 , 2033.0 , 326.039 , 0.0 , 0.0 , 0.0 , 0.0 , 

100.0 , 4131.28205128 , 4134.87179487 , 4129.74358974 , 4139.48717949 , 4130.25641026 , 4132.82051282 , 4133.84615385 , 4186.15384615 , 4137.94871795 , 4141.53846154 , 4187.69230769 , 4914.35897436 , 4142.05128205 , 4140.51282051 , 2041.0 , 2033.0 , 326.054 , 0.0 , 0.0 , 0.0 , 0.0 , 

101.0 , 4137.43589744 , 4130.76923077 , 4131.79487179 , 4137.94871795 , 4129.74358974 , 4132.82051282 , 4130.76923077 , 4172.82051282 , 4131.28205128 , 4135.38461538 , 4189.23076923 , 4913.33333333 , 4136.41025641 , 4137.43589744 , 2040.0 , 2031.0 , 326.058 , 0.0 , 0.0 , 0.0 , 0.0 , 

102.0 , 4134.87179487 , 4131.79487179 , 4127.17948718 , 4136.41025641 , 4128.20512821 , 4134.87179487 , 4134.35897436 , 4180.0 , 4140.51282051 , 4136.92307692 , 4194.87179487 , 4905.12820513 , 4144.1025641 , 4134.87179487 , 2040.0 , 2031.0 , 326.064 , 0.0 , 0.0 , 0.0 , 0.0 , 

103.0 , 4134.35897436 , 4126.15384615 , 4130.76923077 , 4129.23076923 , 4129.74358974 , 4124.1025641 , 4123.07692308 , 4173.84615385 , 4132.82051282 , 4138.97435897 , 4189.74358974 , 4907.17948718 , 4134.35897436 , 4139.48717949 , 2039.0 , 2033.0 , 326.071 , 0.0 , 0.0 , 0.0 , 0.0 , 

104.0 , 4132.82051282 , 4130.76923077 , 4126.15384615 , 4137.43589744 , 4128.71794872 , 4123.58974359 , 4122.56410256 , 4191.79487179 , 4145.64102564 , 4138.97435897 , 4191.79487179 , 4905.12820513 , 4139.48717949 , 4138.97435897 , 2038.0 , 2034.0 , 326.086 , 0.0 , 0.0 , 0.0 , 0.0 , 

105.0 , 4135.38461538 , 4124.1025641 , 4134.35897436 , 4127.69230769 , 4130.25641026 , 4116.92307692 , 4112.30769231 , 4183.58974359 , 4134.87179487 , 4135.38461538 , 4188.71794872 , 4911.79487179 , 4128.71794872 , 4142.05128205 , 2039.0 , 2034.0 , 326.09 , 0.0 , 0.0 , 0.0 , 0.0 , 

106.0 , 4127.69230769 , 4123.07692308 , 4129.23076923 , 4129.74358974 , 4134.35897436 , 4124.61538462 , 4126.66666667 , 4200.51282051 , 4148.71794872 , 4140.0 , 4195.38461538 , 4908.20512821 , 4141.53846154 , 4137.94871795 , 2041.0 , 2034.0 , 326.095 , 0.0 , 0.0 , 0.0 , 0.0 , 

107.0 , 4129.23076923 , 4117.43589744 , 4134.87179487 , 4121.53846154 , 4134.87179487 , 4121.02564103 , 4120.51282051 , 4189.74358974 , 4141.02564103 , 4139.48717949 , 4188.71794872 , 4910.76923077 , 4128.71794872 , 4137.43589744 , 2041.0 , 2032.0 , 326.102 , 0.0 , 0.0 , 0.0 , 0.0 , 

108.0 , 4131.28205128 , 4130.25641026 , 4131.28205128 , 4134.35897436 , 4131.79487179 , 4129.23076923 , 4130.76923077 , 4203.07692308 , 4148.71794872 , 4140.51282051 , 4191.28205128 , 4906.66666667 , 4137.94871795 , 4140.0 , 2040.0 , 2034.0 , 326.117 , 0.0 , 0.0 , 0.0 , 0.0 , 

109.0 , 4132.30769231 , 4125.64102564 , 4138.97435897 , 4127.17948718 , 4132.82051282 , 4127.17948718 , 4125.12820513 , 4190.25641026 , 4138.46153846 , 4140.0 , 4185.64102564 , 4913.84615385 , 4127.69230769 , 4142.56410256 , 2041.0 , 2033.0 , 326.121 , 0.0 , 0.0 , 0.0 , 0.0 , 

110.0 , 4128.20512821 , 4133.84615385 , 4131.79487179 , 4131.28205128 , 4133.84615385 , 4138.97435897 , 4138.46153846 , 4202.05128205 , 4148.20512821 , 4144.61538462 , 4191.28205128 , 4909.23076923 , 4137.43589744 , 4137.43589744 , 2041.0 , 2033.0 , 326.127 , 0.0 , 0.0 , 0.0 , 0.0 , 

111.0 , 4129.74358974 , 4136.41025641 , 4135.38461538 , 4129.74358974 , 4131.28205128 , 4135.8974359 , 4130.76923077 , 4187.69230769 , 4136.92307692 , 4141.53846154 , 4186.66666667 , 4913.33333333 , 4130.25641026 , 4140.0 , 2042.0 , 2033.0 , 326.135 , 0.0 , 0.0 , 0.0 , 0.0 , 

112.0 , 4132.82051282 , 4143.07692308 , 4130.76923077 , 4141.53846154 , 4132.30769231 , 4137.43589744 , 4136.41025641 , 4186.66666667 , 4134.35897436 , 4140.51282051 , 4188.71794872 , 4912.82051282 , 4138.46153846 , 4140.51282051 , 2041.0 , 2033.0 , 326.149 , 0.0 , 0.0 , 0.0 , 0.0 , 

113.0 , 4133.33333333 , 4131.79487179 , 4132.30769231 , 4136.41025641 , 4130.25641026 , 4127.17948718 , 4125.12820513 , 4176.92307692 , 4126.15384615 , 4138.46153846 , 4185.64102564 , 4913.33333333 , 4135.38461538 , 4138.46153846 , 2042.0 , 2035.0 , 326.154 , 0.0 , 0.0 , 0.0 , 0.0 , 

114.0 , 4133.33333333 , 4132.30769231 , 4129.23076923 , 4138.46153846 , 4129.74358974 , 4127.17948718 , 4123.58974359 , 4176.92307692 , 4126.15384615 , 4136.41025641 , 4187.17948718 , 4909.23076923 , 4140.0 , 4137.43589744 , 2044.0 , 2035.0 , 326.159 , 0.0 , 0.0 , 0.0 , 0.0 , 

115.0 , 4129.74358974 , 4129.23076923 , 4133.84615385 , 4132.30769231 , 4129.23076923 , 4126.66666667 , 4119.48717949 , 4172.82051282 , 4127.69230769 , 4133.33333333 , 4185.12820513 , 4913.33333333 , 4139.48717949 , 4139.48717949 , 2045.0 , 2036.0 , 326.166 , 0.0 , 0.0 , 0.0 , 0.0 , 

116.0 , 4132.30769231 , 4128.71794872 , 4133.33333333 , 4131.28205128 , 4128.71794872 , 4125.64102564 , 4121.53846154 , 4176.41025641 , 4131.28205128 , 4135.8974359 , 4189.23076923 , 4912.30769231 , 4138.46153846 , 4139.48717949 , 2047.0 , 2034.0 , 326.18 , 0.0 , 0.0 , 0.0 , 0.0 , 

117.0 , 4131.79487179 , 4128.71794872 , 4131.28205128 , 4134.35897436 , 4128.71794872 , 4122.56410256 , 4122.05128205 , 4183.58974359 , 4136.41025641 , 4136.41025641 , 4192.82051282 , 4908.20512821 , 4134.87179487 , 4138.46153846 , 2046.0 , 2031.0 , 326.185 , 0.0 , 0.0 , 0.0 , 0.0 , 

118.0 , 4132.30769231 , 4127.69230769 , 4132.82051282 , 4130.76923077 , 4133.84615385 , 4124.61538462 , 4122.56410256 , 4184.1025641 , 4135.8974359 , 4137.43589744 , 4190.76923077 , 4907.69230769 , 4130.25641026 , 4140.0 , 2047.0 , 2030.0 , 326.19 , 0.0 , 0.0 , 0.0 , 0.0 , 

119.0 , 4127.17948718 , 4126.15384615 , 4129.23076923 , 4128.20512821 , 4132.82051282 , 4128.71794872 , 4129.23076923 , 4198.46153846 , 4151.79487179 , 4141.53846154 , 4191.28205128 , 4906.66666667 , 4144.1025641 , 4137.94871795 , 2047.0 , 2029.0 , 326.198 , 0.0 , 0.0 , 0.0 , 0.0 , 

120.0 , 4131.79487179 , 4127.17948718 , 4132.30769231 , 4126.15384615 , 4131.28205128 , 4126.15384615 , 4128.71794872 , 4194.87179487 , 4143.58974359 , 4141.02564103 , 4190.25641026 , 4906.66666667 , 4136.41025641 , 4138.46153846 , 2045.0 , 2028.0 , 326.217 , 0.0 , 0.0 , 0.0 , 0.0 , 

121.0 , 4130.76923077 , 4130.25641026 , 4130.76923077 , 4134.87179487 , 4130.76923077 , 4132.82051282 , 4140.0 , 4205.12820513 , 4146.66666667 , 4141.02564103 , 4193.84615385 , 4905.64102564 , 4136.41025641 , 4138.97435897 , 2044.0 , 2031.0 , 326.217 , 0.0 , 0.0 , 0.0 , 0.0 , 

122.0 , 4131.79487179 , 4120.51282051 , 4137.43589744 , 4130.25641026 , 4131.79487179 , 4128.71794872 , 4132.30769231 , 4192.30769231 , 4135.8974359 , 4138.46153846 , 4187.17948718 , 4914.87179487 , 4123.58974359 , 4142.05128205 , 2044.0 , 2034.0 , 326.222 , 0.0 , 0.0 , 0.0 , 0.0 , 

123.0 , 4128.71794872 , 4129.23076923 , 4131.79487179 , 4137.94871795 , 4131.79487179 , 4133.84615385 , 4133.33333333 , 4201.53846154 , 4144.1025641 , 4139.48717949 , 4188.71794872 , 4913.84615385 , 4134.35897436 , 4138.97435897 , 2042.0 , 2037.0 , 326.229 , 0.0 , 0.0 , 0.0 , 0.0 , 

124.0 , 4132.30769231 , 4132.82051282 , 4137.43589744 , 4129.23076923 , 4132.82051282 , 4127.17948718 , 4124.1025641 , 4182.56410256 , 4128.20512821 , 4136.92307692 , 4184.61538462 , 4917.94871795 , 4124.1025641 , 4141.02564103 , 2043.0 , 2039.0 , 326.246 , 0.0 , 0.0 , 0.0 , 0.0 , 

125.0 , 4132.82051282 , 4134.87179487 , 4131.28205128 , 4135.8974359 , 4132.30769231 , 4131.28205128 , 4133.84615385 , 4185.64102564 , 4139.48717949 , 4141.53846154 , 4189.74358974 , 4914.35897436 , 4136.92307692 , 4140.51282051 , 2042.0 , 2039.0 , 326.246 , 0.0 , 0.0 , 0.0 , 0.0 , 

126.0 , 4133.84615385 , 4124.61538462 , 4136.41025641 , 4131.28205128 , 4131.28205128 , 4126.15384615 , 4120.0 , 4168.20512821 , 4130.25641026 , 4138.97435897 , 4185.12820513 , 4917.94871795 , 4129.74358974 , 4142.05128205 , 2041.0 , 2039.0 , 326.252 , 0.0 , 0.0 , 0.0 , 0.0 , 

127.0 , 4131.28205128 , 4135.8974359 , 4127.69230769 , 4141.53846154 , 4133.33333333 , 4135.8974359 , 4129.74358974 , 4183.07692308 , 4135.38461538 , 4136.41025641 , 4191.28205128 , 4910.25641026 , 4144.1025641 , 4138.97435897 , 2041.0 , 2038.0 , 326.262 , 0.0 , 0.0 , 0.0 , 0.0 , 

128.0 , 4134.35897436 , 4131.28205128 , 4130.76923077 , 4132.82051282 , 4130.76923077 , 4127.69230769 , 4124.1025641 , 4173.33333333 , 4129.74358974 , 4133.84615385 , 4188.71794872 , 4913.33333333 , 4140.51282051 , 4138.46153846 , 2042.0 , 2037.0 , 326.279 , 0.0 , 0.0 , 0.0 , 0.0 , 

0.0 , 4132.82051282 , 4134.87179487 , 4123.58974359 , 4136.92307692 , 4128.20512821 , 4129.74358974 , 4128.71794872 , 4187.17948718 , 4144.61538462 , 4140.51282051 , 4195.38461538 , 4908.20512821 , 4146.66666667 , 4138.46153846 , 2040.0 , 2037.0 , 326.279 , 0.0 , 0.0 , 0.0 , 0.0 , 

1.0 , 4131.28205128 , 4126.15384615 , 4130.25641026 , 4131.79487179 , 4129.23076923 , 4125.12820513 , 4115.8974359 , 4187.17948718 , 4133.33333333 , 4138.97435897 , 4190.76923077 , 4909.74358974 , 4135.8974359 , 4141.53846154 , 2041.0 , 2034.0 , 326.282 , 0.0 , 0.0 , 0.0 , 0.0 , 

2.0 , 4131.79487179 , 4127.17948718 , 4129.74358974 , 4137.43589744 , 4131.28205128 , 4128.71794872 , 4126.15384615 , 4197.43589744 , 4134.35897436 , 4137.94871795 , 4191.28205128 , 4909.23076923 , 4141.53846154 , 4139.48717949 , 2041.0 , 2031.0 , 326.291 , 0.0 , 0.0 , 0.0 , 0.0 , 

3.0 , 4131.28205128 , 4123.58974359 , 4133.84615385 , 4131.28205128 , 4129.23076923 , 4123.58974359 , 4127.17948718 , 4191.79487179 , 4141.02564103 , 4138.46153846 , 4187.17948718 , 4913.33333333 , 4131.28205128 , 4140.51282051 , 2041.0 , 2030.0 , 326.305 , 0.0 , 0.0 , 0.0 , 0.0 , 

4.0 , 4131.79487179 , 4126.66666667 , 4133.33333333 , 4126.66666667 , 4131.28205128 , 4126.15384615 , 4130.25641026 , 4198.46153846 , 4146.66666667 , 4142.05128205 , 4189.23076923 , 4908.20512821 , 4122.05128205 , 4141.02564103 , 2040.0 , 2029.0 , 326.309 , 0.0 , 0.0 , 0.0 , 0.0 , 

5.0 , 4128.71794872 , 4120.0 , 4134.87179487 , 4118.97435897 , 4130.76923077 , 4126.15384615 , 4125.64102564 , 4197.43589744 , 4140.51282051 , 4140.0 , 4186.15384615 , 4909.74358974 , 4123.58974359 , 4138.46153846 , 2041.0 , 2031.0 , 326.316 , 0.0 , 0.0 , 0.0 , 0.0 , 

6.0 , 4130.76923077 , 4125.12820513 , 4136.92307692 , 4125.12820513 , 4131.79487179 , 4129.74358974 , 4128.71794872 , 4188.71794872 , 4138.46153846 , 4140.51282051 , 4185.64102564 , 4910.76923077 , 4131.79487179 , 4138.46153846 , 2042.0 , 2032.0 , 326.323 , 0.0 , 0.0 , 0.0 , 0.0 , 

7.0 , 4130.76923077 , 4134.35897436 , 4135.38461538 , 4133.84615385 , 4131.28205128 , 4133.33333333 , 4132.82051282 , 4192.30769231 , 4149.23076923 , 4144.1025641 , 4190.76923077 , 4911.79487179 , 4131.28205128 , 4138.97435897 , 2044.0 , 2032.0 , 326.336 , 0.0 , 0.0 , 0.0 , 0.0 , 

8.0 , 4132.82051282 , 4136.41025641 , 4135.8974359 , 4131.28205128 , 4130.25641026 , 4134.87179487 , 4129.74358974 , 4185.64102564 , 4138.97435897 , 4142.05128205 , 4189.74358974 , 4914.87179487 , 4124.61538462 , 4139.48717949 , 2043.0 , 2031.0 , 326.343 , 0.0 , 0.0 , 0.0 , 0.0 , 

9.0 , 4128.71794872 , 4135.38461538 , 4129.23076923 , 4134.87179487 , 4127.17948718 , 4135.38461538 , 4130.76923077 , 4183.07692308 , 4137.94871795 , 4140.0 , 4188.71794872 , 4912.30769231 , 4140.0 , 4137.94871795 , 2045.0 , 2032.0 , 326.347 , 0.0 , 0.0 , 0.0 , 0.0 , 

10.0 , 4134.35897436 , 4132.82051282 , 4131.79487179 , 4136.92307692 , 4129.74358974 , 4126.15384615 , 4123.58974359 , 4172.30769231 , 4130.76923077 , 4138.97435897 , 4187.69230769 , 4911.28205128 , 4135.38461538 , 4138.46153846 , 2046.0 , 2034.0 , 326.355 , 0.0 , 0.0 , 0.0 , 0.0 , 

11.0 , 4133.33333333 , 4133.33333333 , 4127.69230769 , 4144.1025641 , 4132.30769231 , 4128.71794872 , 4130.76923077 , 4187.17948718 , 4139.48717949 , 4139.48717949 , 4192.30769231 , 4910.25641026 , 4143.58974359 , 4136.41025641 , 2046.0 , 2036.0 , 326.374 , 0.0 , 0.0 , 0.0 , 0.0 , 

12.0 , 4135.8974359 , 4124.1025641 , 4131.28205128 , 4133.84615385 , 4133.33333333 , 4121.53846154 , 4119.48717949 , 4172.30769231 , 4120.51282051 , 4137.43589744 , 4187.17948718 , 4918.46153846 , 4132.82051282 , 4141.53846154 , 2047.0 , 2036.0 , 326.374 , 0.0 , 0.0 , 0.0 , 0.0 , 

13.0 , 4132.30769231 , 4129.74358974 , 4126.66666667 , 4137.43589744 , 4131.28205128 , 4123.58974359 , 4121.53846154 , 4188.20512821 , 4132.30769231 , 4141.02564103 , 4192.30769231 , 4912.82051282 , 4136.92307692 , 4140.51282051 , 2046.0 , 2035.0 , 326.38 , 0.0 , 0.0 , 0.0 , 0.0 , 

14.0 , 4134.35897436 , 4121.02564103 , 4135.8974359 , 4128.71794872 , 4129.74358974 , 4118.46153846 , 4114.87179487 , 4183.58974359 , 4133.33333333 , 4138.46153846 , 4189.23076923 , 4910.25641026 , 4127.69230769 , 4139.48717949 , 2044.0 , 2036.0 , 326.386 , 0.0 , 0.0 , 0.0 , 0.0 , 

15.0 , 4130.25641026 , 4120.51282051 , 4129.23076923 , 4135.38461538 , 4128.20512821 , 4126.66666667 , 4128.20512821 , 4196.92307692 , 4149.74358974 , 4140.51282051 , 4193.33333333 , 4904.1025641 , 4148.71794872 , 4137.43589744 , 2045.0 , 2036.0 , 326.401 , 0.0 , 0.0 , 0.0 , 0.0 , 

16.0 , 4130.76923077 , 4117.94871795 , 4133.33333333 , 4125.12820513 , 4129.23076923 , 4120.51282051 , 4118.97435897 , 4184.61538462 , 4141.53846154 , 4140.0 , 4188.71794872 , 4913.33333333 , 4133.84615385 , 4140.51282051 , 2045.0 , 2034.0 , 326.405 , 0.0 , 0.0 , 0.0 , 0.0 , 

17.0 , 4129.74358974 , 4130.76923077 , 4128.20512821 , 4133.33333333 , 4130.76923077 , 4132.30769231 , 4131.79487179 , 4200.0 , 4149.74358974 , 4141.02564103 , 4192.82051282 , 4910.25641026 , 4136.41025641 , 4138.46153846 , 2043.0 , 2034.0 , 326.41 , 0.0 , 0.0 , 0.0 , 0.0 , 

18.0 , 4129.74358974 , 4123.58974359 , 4133.84615385 , 4127.69230769 , 4129.23076923 , 4130.76923077 , 4126.66666667 , 4190.25641026 , 4137.94871795 , 4137.94871795 , 4188.20512821 , 4911.28205128 , 4130.76923077 , 4138.97435897 , 2044.0 , 2034.0 , 326.417 , 0.0 , 0.0 , 0.0 , 0.0 , 

19.0 , 4127.69230769 , 4132.30769231 , 4129.74358974 , 4132.30769231 , 4131.28205128 , 4134.35897436 , 4133.84615385 , 4201.53846154 , 4143.07692308 , 4140.51282051 , 4194.35897436 , 4907.17948718 , 4137.94871795 , 4137.94871795 , 2042.0 , 2032.0 , 326.431 , 0.0 , 0.0 , 0.0 , 0.0 , 

20.0 , 4131.79487179 , 4132.82051282 , 4136.92307692 , 4127.17948718 , 4133.33333333 , 4132.82051282 , 4126.66666667 , 4190.76923077 , 4133.33333333 , 4137.43589744 , 4190.25641026 , 4911.79487179 , 4126.66666667 , 4138.97435897 , 2042.0 , 2033.0 , 326.437 , 0.0 , 0.0 , 0.0 , 0.0 , 

21.0 , 4136.41025641 , 4135.38461538 , 4134.87179487 , 4133.33333333 , 4131.79487179 , 4138.97435897 , 4132.82051282 , 4184.1025641 , 4133.33333333 , 4137.94871795 , 4189.74358974 , 4912.82051282 , 4129.74358974 , 4138.97435897 , 2042.0 , 2032.0 , 326.442 , 0.0 , 0.0 , 0.0 , 0.0 , 

22.0 , 4132.82051282 , 4128.20512821 , 4134.35897436 , 4133.33333333 , 4127.69230769 , 4127.17948718 , 4124.61538462 , 4176.92307692 , 4132.82051282 , 4139.48717949 , 4185.64102564 , 4915.38461538 , 4129.74358974 , 4140.51282051 , 2043.0 , 2032.0 , 326.45 , 0.0 , 0.0 , 0.0 , 0.0 , 

23.0 , 4133.84615385 , 4132.30769231 , 4130.76923077 , 4136.92307692 , 4133.33333333 , 4123.07692308 , 4121.02564103 , 4178.46153846 , 4127.17948718 , 4139.48717949 , 4187.17948718 , 4911.28205128 , 4134.35897436 , 4141.02564103 , 2042.0 , 2035.0 , 326.468 , 0.0 , 0.0 , 0.0 , 0.0 , 

24.0 , 4134.35897436 , 4129.74358974 , 4130.76923077 , 4132.82051282 , 4135.8974359 , 4127.69230769 , 4120.0 , 4171.79487179 , 4124.61538462 , 4135.8974359 , 4187.17948718 , 4912.30769231 , 4137.94871795 , 4139.48717949 , 2042.0 , 2033.0 , 326.468 , 0.0 , 0.0 , 0.0 , 0.0 , 

25.0 , 4136.41025641 , 4130.76923077 , 4131.79487179 , 4132.30769231 , 4131.79487179 , 4128.71794872 , 4121.53846154 , 4167.69230769 , 4130.25641026 , 4137.43589744 , 4187.69230769 , 4912.82051282 , 4136.92307692 , 4138.97435897 , 2044.0 , 2035.0 , 326.473 , 0.0 , 0.0 , 0.0 , 0.0 , 

26.0 , 4131.28205128 , 4134.35897436 , 4126.15384615 , 4138.97435897 , 4126.66666667 , 4126.15384615 , 4122.56410256 , 4180.51282051 , 4138.97435897 , 4138.46153846 , 4191.28205128 , 4908.20512821 , 4145.64102564 , 4138.46153846 , 2044.0 , 2033.0 , 326.481 , 0.0 , 0.0 , 0.0 , 0.0 , 

27.0 , 4132.82051282 , 4130.25641026 , 4128.20512821 , 4136.41025641 , 4129.74358974 , 4124.1025641 , 4119.48717949 , 4183.07692308 , 4130.25641026 , 4136.92307692 , 4191.79487179 , 4907.17948718 , 4143.58974359 , 4141.02564103 , 2044.0 , 2034.0 , 326.496 , 0.0 , 0.0 , 0.0 , 0.0 , 

28.0 , 4130.25641026 , 4126.15384615 , 4128.20512821 , 4135.8974359 , 4132.30769231 , 4127.69230769 , 4126.66666667 , 4197.94871795 , 4147.69230769 , 4141.53846154 , 4193.84615385 , 4902.05128205 , 4147.17948718 , 4139.48717949 , 2042.0 , 2033.0 , 326.5 , 0.0 , 0.0 , 0.0 , 0.0 , 

29.0 , 4133.33333333 , 4122.56410256 , 4134.35897436 , 4130.25641026 , 4131.79487179 , 4123.07692308 , 4121.02564103 , 4191.28205128 , 4146.15384615 , 4143.07692308 , 4187.69230769 , 4903.58974359 , 4131.79487179 , 4140.0 , 2042.0 , 2032.0 , 326.505 , 0.0 , 0.0 , 0.0 , 0.0 , 

30.0 , 4128.71794872 , 4127.69230769 , 4130.25641026 , 4135.38461538 , 4129.23076923 , 4131.79487179 , 4132.82051282 , 4204.1025641 , 4150.25641026 , 4142.56410256 , 4191.28205128 , 4905.64102564 , 4134.87179487 , 4136.41025641 , 2041.0 , 2034.0 , 326.513 , 0.0 , 0.0 , 0.0 , 0.0 , 

31.0 , 4132.30769231 , 4121.53846154 , 4138.46153846 , 4124.61538462 , 4129.74358974 , 4128.20512821 , 4129.23076923 , 4191.28205128 , 4137.94871795 , 4138.46153846 , 4185.64102564 , 4912.82051282 , 4120.0 , 4138.46153846 , 2041.0 , 2032.0 , 326.529 , 0.0 , 0.0 , 0.0 , 0.0 , 

32.0 , 4132.82051282 , 4128.71794872 , 4131.79487179 , 4129.74358974 , 4131.79487179 , 4134.35897436 , 4132.82051282 , 4205.64102564 , 4149.23076923 , 4141.53846154 , 4185.64102564 , 4910.25641026 , 4130.25641026 , 4137.94871795 , 2041.0 , 2031.0 , 326.532 , 0.0 , 0.0 , 0.0 , 0.0 , 

33.0 , 4132.30769231 , 4127.69230769 , 4137.43589744 , 4122.56410256 , 4133.84615385 , 4129.74358974 , 4120.51282051 , 4191.28205128 , 4133.84615385 , 4139.48717949 , 4180.51282051 , 4917.94871795 , 4123.07692308 , 4138.46153846 , 2041.0 , 2032.0 , 326.536 , 0.0 , 0.0 , 0.0 , 0.0 , 

34.0 , 4128.20512821 , 4135.38461538 , 4132.30769231 , 4133.84615385 , 4131.79487179 , 4134.35897436 , 4133.84615385 , 4196.92307692 , 4142.56410256 , 4142.05128205 , 4189.74358974 , 4912.82051282 , 4136.92307692 , 4136.92307692 , 2041.0 , 2031.0 , 326.544 , 0.0 , 0.0 , 0.0 , 0.0 , 

35.0 , 4133.33333333 , 4129.74358974 , 4135.38461538 , 4131.28205128 , 4130.76923077 , 4126.66666667 , 4122.56410256 , 4175.38461538 , 4131.28205128 , 4138.97435897 , 4187.69230769 , 4910.76923077 , 4129.23076923 , 4140.51282051 , 2038.0 , 2029.0 , 326.559 , 0.0 , 0.0 , 0.0 , 0.0 , 

36.0 , 4134.35897436 , 4136.41025641 , 4126.66666667 , 4140.51282051 , 4133.33333333 , 4137.43589744 , 4130.76923077 , 4178.46153846 , 4136.41025641 , 4137.43589744 , 4191.79487179 , 4907.17948718 , 4140.0 , 4137.94871795 , 2040.0 , 2030.0 , 326.565 , 0.0 , 0.0 , 0.0 , 0.0 , 

37.0 , 4134.35897436 , 4130.76923077 , 4132.30769231 , 4131.28205128 , 4130.76923077 , 4131.28205128 , 4124.1025641 , 4169.23076923 , 4131.79487179 , 4135.38461538 , 4188.71794872 , 4914.87179487 , 4133.33333333 , 4138.97435897 , 2039.0 , 2031.0 , 326.567 , 0.0 , 0.0 , 0.0 , 0.0 , 

38.0 , 4132.82051282 , 4134.35897436 , 4128.71794872 , 4138.46153846 , 4128.20512821 , 4129.23076923 , 4126.66666667 , 4183.07692308 , 4140.51282051 , 4140.0 , 4191.79487179 , 4906.15384615 , 4142.56410256 , 4139.48717949 , 2039.0 , 2031.0 , 326.576 , 0.0 , 0.0 , 0.0 , 0.0 , 

39.0 , 4130.76923077 , 4126.66666667 , 4133.84615385 , 4133.84615385 , 4127.69230769 , 4124.1025641 , 4115.38461538 , 4180.51282051 , 4133.84615385 , 4138.97435897 , 4187.69230769 , 4904.61538462 , 4134.87179487 , 4140.51282051 , 2040.0 , 2034.0 , 326.595 , 0.0 , 0.0 , 0.0 , 0.0 , 

40.0 , 4131.79487179 , 4127.69230769 , 4130.76923077 , 4131.28205128 , 4129.74358974 , 4127.17948718 , 4121.02564103 , 4190.76923077 , 4138.97435897 , 4137.43589744 , 4191.79487179 , 4907.17948718 , 4132.82051282 , 4140.0 , 2040.0 , 2033.0 , 326.595 , 0.0 , 0.0 , 0.0 , 0.0 , 

41.0 , 4132.30769231 , 4120.51282051 , 4131.79487179 , 4123.58974359 , 4126.66666667 , 4121.02564103 , 4116.92307692 , 4195.8974359 , 4144.61538462 , 4136.41025641 , 4189.74358974 , 4911.79487179 , 4130.76923077 , 4141.53846154 , 2041.0 , 2032.0 , 326.6 , 0.0 , 0.0 , 0.0 , 0.0 , 

42.0 , 4133.33333333 , 4121.53846154 , 4133.84615385 , 4124.61538462 , 4128.71794872 , 4122.56410256 , 4121.53846154 , 4197.43589744 , 4145.64102564 , 4140.51282051 , 4190.76923077 , 4909.23076923 , 4132.82051282 , 4140.0 , 2041.0 , 2033.0 , 326.606 , 0.0 , 0.0 , 0.0 , 0.0 , 

43.0 , 4129.23076923 , 4124.1025641 , 4135.38461538 , 4124.61538462 , 4130.76923077 , 4127.69230769 , 4129.74358974 , 4197.43589744 , 4148.71794872 , 4141.53846154 , 4191.79487179 , 4910.25641026 , 4129.74358974 , 4136.92307692 , 2041.0 , 2033.0 , 326.62 , 0.0 , 0.0 , 0.0 , 0.0 , 

44.0 , 4130.76923077 , 4129.23076923 , 4136.41025641 , 4124.61538462 , 4133.33333333 , 4128.71794872 , 4131.28205128 , 4192.82051282 , 4144.61538462 , 4141.53846154 , 4189.23076923 , 4911.28205128 , 4121.02564103 , 4137.43589744 , 2042.0 , 2031.0 , 326.627 , 0.0 , 0.0 , 0.0 , 0.0 , 

45.0 , 4129.23076923 , 4132.30769231 , 4132.30769231 , 4129.23076923 , 4133.33333333 , 4132.30769231 , 4130.76923077 , 4197.94871795 , 4147.17948718 , 4141.53846154 , 4190.25641026 , 4907.69230769 , 4130.25641026 , 4137.43589744 , 2042.0 , 2030.0 , 326.632 , 0.0 , 0.0 , 0.0 , 0.0 , 

46.0 , 4133.84615385 , 4130.25641026 , 4134.35897436 , 4129.23076923 , 4134.35897436 , 4133.84615385 , 4128.71794872 , 4188.20512821 , 4134.35897436 , 4136.41025641 , 4188.20512821 , 4912.30769231 , 4129.23076923 , 4138.97435897 , 2041.0 , 2031.0 , 326.638 , 0.0 , 0.0 , 0.0 , 0.0 , 

47.0 , 4132.30769231 , 4134.35897436 , 4130.25641026 , 4138.97435897 , 4132.30769231 , 4136.41025641 , 4134.87179487 , 4193.84615385 , 4142.05128205 , 4137.43589744 , 4190.76923077 , 4912.30769231 , 4137.43589744 , 4137.94871795 , 2041.0 , 2031.0 , 326.652 , 0.0 , 0.0 , 0.0 , 0.0 , 

48.0 , 4132.82051282 , 4133.33333333 , 4134.35897436 , 4135.38461538 , 4130.76923077 , 4126.15384615 , 4120.0 , 4172.82051282 , 4126.15384615 , 4138.97435897 , 4188.20512821 , 4913.33333333 , 4127.17948718 , 4140.0 , 2042.0 , 2031.0 , 326.657 , 0.0 , 0.0 , 0.0 , 0.0 , 

49.0 , 4131.79487179 , 4135.38461538 , 4126.66666667 , 4138.46153846 , 4129.74358974 , 4129.74358974 , 4125.64102564 , 4176.41025641 , 4127.69230769 , 4140.51282051 , 4193.33333333 , 4909.74358974 , 4142.56410256 , 4138.46153846 , 2041.0 , 2032.0 , 326.663 , 0.0 , 0.0 , 0.0 , 0.0 , 

50.0 , 4136.41025641 , 4127.17948718 , 4131.28205128 , 4130.76923077 , 4130.25641026 , 4124.61538462 , 4119.48717949 , 4167.17948718 , 4120.0 , 4137.94871795 , 4184.1025641 , 4914.35897436 , 4134.87179487 , 4138.46153846 , 2041.0 , 2031.0 , 326.67 , 0.0 , 0.0 , 0.0 , 0.0 , 

51.0 , 4131.79487179 , 4133.84615385 , 4126.15384615 , 4137.94871795 , 4130.76923077 , 4129.23076923 , 4126.15384615 , 4185.64102564 , 4138.97435897 , 4140.0 , 4189.74358974 , 4908.20512821 , 4143.07692308 , 4135.38461538 , 2042.0 , 2031.0 , 326.684 , 0.0 , 0.0 , 0.0 , 0.0 , 

52.0 , 4130.76923077 , 4124.61538462 , 4134.35897436 , 4128.20512821 , 4130.25641026 , 4121.53846154 , 4111.79487179 , 4176.92307692 , 4129.23076923 , 4134.87179487 , 4191.28205128 , 4911.28205128 , 4133.84615385 , 4140.0 , 2042.0 , 2034.0 , 326.689 , 0.0 , 0.0 , 0.0 , 0.0 , 

53.0 , 4128.20512821 , 4125.64102564 , 4128.20512821 , 4138.46153846 , 4130.25641026 , 4128.20512821 , 4123.58974359 , 4193.84615385 , 4141.53846154 , 4137.94871795 , 4194.35897436 , 4909.23076923 , 4146.15384615 , 4140.51282051 , 2042.0 , 2035.0 , 326.695 , 0.0 , 0.0 , 0.0 , 0.0 , 

54.0 , 4127.69230769 , 4118.46153846 , 4132.82051282 , 4130.25641026 , 4129.74358974 , 4122.56410256 , 4120.0 , 4187.17948718 , 4141.02564103 , 4142.05128205 , 4185.12820513 , 4911.28205128 , 4129.23076923 , 4140.0 , 2042.0 , 2035.0 , 326.701 , 0.0 , 0.0 , 0.0 , 0.0 , 

55.0 , 4128.20512821 , 4127.69230769 , 4129.23076923 , 4132.82051282 , 4130.25641026 , 4127.69230769 , 4129.74358974 , 4203.07692308 , 4151.79487179 , 4145.12820513 , 4193.84615385 , 4903.58974359 , 4134.35897436 , 4137.43589744 , 2041.0 , 2037.0 , 326.717 , 0.0 , 0.0 , 0.0 , 0.0 , 

56.0 , 4133.84615385 , 4127.17948718 , 4137.43589744 , 4129.23076923 , 4130.76923077 , 4126.15384615 , 4121.53846154 , 4193.33333333 , 4142.05128205 , 4138.97435897 , 4191.79487179 , 4910.76923077 , 4132.30769231 , 4139.48717949 , 2041.0 , 2035.0 , 326.721 , 0.0 , 0.0 , 0.0 , 0.0 , 

57.0 , 4133.33333333 , 4136.41025641 , 4134.87179487 , 4137.94871795 , 4133.84615385 , 4135.8974359 , 4130.76923077 , 4195.8974359 , 4142.56410256 , 4138.46153846 , 4193.33333333 , 4912.82051282 , 4136.41025641 , 4137.94871795 , 2042.0 , 2035.0 , 326.726 , 0.0 , 0.0 , 0.0 , 0.0 , 

58.0 , 4130.25641026 , 4130.76923077 , 4136.41025641 , 4127.69230769 , 4132.82051282 , 4129.74358974 , 4126.66666667 , 4191.28205128 , 4136.41025641 , 4137.43589744 , 4191.28205128 , 4913.33333333 , 4126.15384615 , 4138.97435897 , 2041.0 , 2034.0 , 326.734 , 0.0 , 0.0 , 0.0 , 0.0 , 

59.0 , 4135.38461538 , 4133.33333333 , 4133.33333333 , 4126.66666667 , 4132.30769231 , 4129.74358974 , 4129.74358974 , 4192.82051282 , 4135.8974359 , 4138.97435897 , 4190.76923077 , 4908.71794872 , 4129.23076923 , 4140.51282051 , 2040.0 , 2034.0 , 326.751 , 0.0 , 0.0 , 0.0 , 0.0 , 

60.0 , 4134.35897436 , 4133.33333333 , 4134.35897436 , 4130.25641026 , 4130.76923077 , 4132.82051282 , 4127.69230769 , 4183.07692308 , 4129.74358974 , 4137.94871795 , 4184.61538462 , 4914.35897436 , 4130.76923077 , 4140.51282051 , 2045.0 , 2032.0 , 326.751 , 0.0 , 0.0 , 0.0 , 0.0 , 

61.0 , 4132.30769231 , 4134.87179487 , 4133.33333333 , 4133.33333333 , 4132.30769231 , 4136.92307692 , 4131.28205128 , 4175.8974359 , 4124.61538462 , 4136.41025641 , 4187.69230769 , 4916.92307692 , 4130.25641026 , 4137.94871795 , 2044.0 , 2031.0 , 326.757 , 0.0 , 0.0 , 0.0 , 0.0 , 

62.0 , 4128.71794872 , 4130.76923077 , 4128.71794872 , 4132.82051282 , 4131.28205128 , 4129.23076923 , 4126.15384615 , 4174.87179487 , 4134.35897436 , 4137.43589744 , 4193.33333333 , 4913.84615385 , 4138.97435897 , 4135.8974359 , 2044.0 , 2032.0 , 326.765 , 0.0 , 0.0 , 0.0 , 0.0 , 

63.0 , 4132.82051282 , 4129.23076923 , 4127.69230769 , 4133.84615385 , 4130.76923077 , 4119.48717949 , 4116.92307692 , 4169.23076923 , 4132.82051282 , 4138.97435897 , 4192.30769231 , 4910.25641026 , 4141.02564103 , 4138.46153846 , 2046.0 , 2033.0 , 326.779 , 0.0 , 0.0 , 0.0 , 0.0 , 

64.0 , 4131.79487179 , 4130.25641026 , 4125.12820513 , 4136.41025641 , 4129.23076923 , 4126.15384615 , 4124.1025641 , 4182.56410256 , 4140.0 , 4140.0 , 4194.87179487 , 4905.64102564 , 4142.56410256 , 4136.92307692 , 2047.0 , 2033.0 , 326.783 , 0.0 , 0.0 , 0.0 , 0.0 , 

65.0 , 4135.38461538 , 4126.15384615 , 4130.76923077 , 4128.20512821 , 4132.82051282 , 4127.69230769 , 4124.1025641 , 4181.53846154 , 4139.48717949 , 4139.48717949 , 4192.30769231 , 4906.66666667 , 4130.76923077 , 4135.8974359 , 2048.0 , 2031.0 , 326.788 , 0.0 , 0.0 , 0.0 , 0.0 , 

66.0 , 4131.28205128 , 4131.79487179 , 4128.20512821 , 4135.8974359 , 4133.33333333 , 4126.15384615 , 4128.20512821 , 4201.53846154 , 4155.38461538 , 4140.51282051 , 4191.79487179 , 4905.64102564 , 4142.05128205 , 4135.8974359 , 2048.0 , 2031.0 , 326.797 , 0.0 , 0.0 , 0.0 , 0.0 , 

67.0 , 4132.30769231 , 4128.20512821 , 4135.38461538 , 4129.23076923 , 4132.82051282 , 4120.51282051 , 4119.48717949 , 4193.84615385 , 4141.53846154 , 4136.92307692 , 4188.20512821 , 4910.76923077 , 4129.74358974 , 4140.51282051 , 2048.0 , 2030.0 , 326.814 , 0.0 , 0.0 , 0.0 , 0.0 , 

68.0 , 4130.25641026 , 4125.64102564 , 4130.25641026 , 4125.12820513 , 4131.28205128 , 4133.84615385 , 4133.84615385 , 4203.07692308 , 4147.69230769 , 4140.0 , 4193.84615385 , 4906.66666667 , 4133.84615385 , 4138.46153846 , 2046.0 , 2031.0 , 326.814 , 0.0 , 0.0 , 0.0 , 0.0 , 

69.0 , 4132.30769231 , 4121.02564103 , 4138.97435897 , 4114.35897436 , 4132.30769231 , 4126.15384615 , 4127.69230769 , 4187.17948718 , 4136.92307692 , 4141.02564103 , 4185.12820513 , 4912.82051282 , 4125.12820513 , 4139.48717949 , 2046.0 , 2031.0 , 326.82 , 0.0 , 0.0 , 0.0 , 0.0 , 

70.0 , 4131.79487179 , 4135.38461538 , 4134.35897436 , 4129.74358974 , 4132.30769231 , 4131.79487179 , 4134.35897436 , 4200.51282051 , 4146.66666667 , 4141.53846154 , 4188.20512821 , 4911.28205128 , 4135.8974359 , 4137.43589744 , 2045.0 , 2033.0 , 326.828 , 0.0 , 0.0 , 0.0 , 0.0 , 

71.0 , 4135.8974359 , 4131.28205128 , 4139.48717949 , 4125.64102564 , 4131.79487179 , 4131.79487179 , 4125.12820513 , 4186.66666667 , 4132.82051282 , 4135.8974359 , 4187.69230769 , 4914.87179487 , 4121.02564103 , 4136.92307692 , 2043.0 , 2033.0 , 326.848 , 0.0 , 0.0 , 0.0 , 0.0 , 

72.0 , 4131.79487179 , 4135.38461538 , 4131.28205128 , 4135.38461538 , 4131.28205128 , 4135.38461538 , 4135.8974359 , 4196.41025641 , 4142.05128205 , 4140.0 , 4191.79487179 , 4909.74358974 , 4132.82051282 , 4135.8974359 , 2041.0 , 2035.0 , 326.848 , 0.0 , 0.0 , 0.0 , 0.0 , 

73.0 , 4132.82051282 , 4131.28205128 , 4134.35897436 , 4131.79487179 , 4129.23076923 , 4125.64102564 , 4127.69230769 , 4182.05128205 , 4135.38461538 , 4141.53846154 , 4187.17948718 , 4913.33333333 , 4128.71794872 , 4141.53846154 , 2040.0 , 2036.0 , 326.853 , 0.0 , 0.0 , 0.0 , 0.0 , 

74.0 , 4135.38461538 , 4136.92307692 , 4126.15384615 , 4141.02564103 , 4131.28205128 , 4134.35897436 , 4135.8974359 , 4185.64102564 , 4140.0 , 4140.51282051 , 4194.35897436 , 4909.23076923 , 4142.56410256 , 4138.97435897 , 2042.0 , 2036.0 , 326.859 , 0.0 , 0.0 , 0.0 , 0.0 , 

75.0 , 4134.35897436 , 4127.69230769 , 4128.71794872 , 4136.92307692 , 4130.76923077 , 4126.66666667 , 4124.1025641 , 4173.84615385 , 4131.28205128 , 4135.38461538 , 4189.23076923 , 4912.30769231 , 4140.51282051 , 4136.92307692 , 2041.0 , 2034.0 , 326.879 , 0.0 , 0.0 , 0.0 , 0.0 , 

76.0 , 4129.74358974 , 4130.25641026 , 4129.23076923 , 4140.0 , 4130.25641026 , 4125.12820513 , 4125.12820513 , 4181.53846154 , 4135.38461538 , 4138.97435897 , 4191.79487179 , 4909.23076923 , 4143.07692308 , 4140.0 , 2038.0 , 2033.0 , 326.879 , 0.0 , 0.0 , 0.0 , 0.0 , 

77.0 , 4128.71794872 , 4124.61538462 , 4135.38461538 , 4128.20512821 , 4129.74358974 , 4122.05128205 , 4118.97435897 , 4182.56410256 , 4133.84615385 , 4139.48717949 , 4192.30769231 , 4911.28205128 , 4134.87179487 , 4144.1025641 , 2038.0 , 2032.0 , 326.884 , 0.0 , 0.0 , 0.0 , 0.0 , 

78.0 , 4129.74358974 , 4123.58974359 , 4132.82051282 , 4125.64102564 , 4130.76923077 , 4121.53846154 , 4122.05128205 , 4190.25641026 , 4138.46153846 , 4137.94871795 , 4193.84615385 , 4909.23076923 , 4137.43589744 , 4140.0 , 2038.0 , 2031.0 , 326.89 , 0.0 , 0.0 , 0.0 , 0.0 , 

79.0 , 4126.66666667 , 4119.48717949 , 4132.30769231 , 4128.20512821 , 4128.20512821 , 4118.97435897 , 4121.02564103 , 4192.30769231 , 4146.15384615 , 4139.48717949 , 4190.25641026 , 4909.74358974 , 4135.8974359 , 4137.94871795 , 2036.0 , 2029.0 , 326.905 , 0.0 , 0.0 , 0.0 , 0.0 , 

80.0 , 4131.79487179 , 4123.07692308 , 4133.33333333 , 4127.69230769 , 4129.23076923 , 4126.15384615 , 4125.64102564 , 4194.35897436 , 4143.58974359 , 4140.51282051 , 4189.23076923 , 4909.23076923 , 4132.30769231 , 4141.02564103 , 2035.0 , 2029.0 , 326.909 , 0.0 , 0.0 , 0.0 , 0.0 , 

81.0 , 4130.25641026 , 4124.61538462 , 4133.84615385 , 4123.07692308 , 4130.25641026 , 4128.71794872 , 4131.28205128 , 4202.56410256 , 4147.69230769 , 4137.43589744 , 4191.28205128 , 4910.76923077 , 4137.43589744 , 4138.46153846 , 2037.0 , 2030.0 , 326.915 , 0.0 , 0.0 , 0.0 , 0.0 , 

82.0 , 4129.74358974 , 4126.66666667 , 4137.94871795 , 4123.58974359 , 4131.79487179 , 4127.69230769 , 4129.74358974 , 4197.43589744 , 4144.61538462 , 4137.94871795 , 4190.76923077 , 4912.30769231 , 4130.25641026 , 4138.46153846 , 2038.0 , 2029.0 , 326.922 , 0.0 , 0.0 , 0.0 , 0.0 , 

83.0 , 4129.74358974 , 4134.87179487 , 4133.33333333 , 4132.82051282 , 4132.30769231 , 4138.46153846 , 4135.8974359 , 4200.0 , 4148.71794872 , 4143.07692308 , 4191.28205128 , 4910.25641026 , 4134.87179487 , 4140.51282051 , 2041.0 , 2028.0 , 326.937 , 0.0 , 0.0 , 0.0 , 0.0 , 

84.0 , 4134.87179487 , 4132.82051282 , 4135.8974359 , 4127.17948718 , 4134.87179487 , 4134.35897436 , 4129.74358974 , 4184.61538462 , 4131.28205128 , 4137.43589744 , 4185.64102564 , 4912.30769231 , 4127.69230769 , 4143.58974359 , 2042.0 , 2030.0 , 326.941 , 0.0 , 0.0 , 0.0 , 0.0 , 

85.0 , 4131.28205128 , 4132.82051282 , 4131.79487179 , 4133.33333333 , 4132.82051282 , 4130.76923077 , 4132.30769231 , 4197.94871795 , 4141.53846154 , 4136.41025641 , 4189.74358974 , 4908.20512821 , 4136.92307692 , 4138.97435897 , 2043.0 , 2031.0 , 326.946 , 0.0 , 0.0 , 0.0 , 0.0 , 

86.0 , 4133.33333333 , 4127.17948718 , 4136.92307692 , 4130.76923077 , 4130.76923077 , 4127.17948718 , 4124.1025641 , 4179.48717949 , 4131.28205128 , 4141.02564103 , 4185.12820513 , 4915.38461538 , 4128.20512821 , 4139.48717949 , 2044.0 , 2031.0 , 326.953 , 0.0 , 0.0 , 0.0 , 0.0 , 

87.0 , 4130.25641026 , 4133.84615385 , 4125.64102564 , 4136.92307692 , 4128.71794872 , 4134.35897436 , 4129.74358974 , 4180.51282051 , 4134.35897436 , 4143.07692308 , 4189.23076923 , 4914.35897436 , 4144.61538462 , 4139.48717949 , 2044.0 , 2031.0 , 326.968 , 0.0 , 0.0 , 0.0 , 0.0 , 

88.0 , 4133.84615385 , 4129.74358974 , 4129.23076923 , 4128.71794872 , 4127.17948718 , 4120.51282051 , 4110.25641026 , 4168.71794872 , 4122.05128205 , 4132.30769231 , 4187.17948718 , 4914.87179487 , 4136.41025641 , 4142.05128205 , 2046.0 , 2032.0 , 326.973 , 0.0 , 0.0 , 0.0 , 0.0 , 

89.0 , 4134.87179487 , 4135.38461538 , 4125.64102564 , 4136.92307692 , 4128.71794872 , 4123.58974359 , 4119.48717949 , 4185.64102564 , 4138.97435897 , 4133.84615385 , 4194.87179487 , 4906.15384615 , 4146.66666667 , 4137.43589744 , 2047.0 , 2032.0 , 326.979 , 0.0 , 0.0 , 0.0 , 0.0 , 

90.0 , 4133.84615385 , 4125.64102564 , 4132.82051282 , 4128.20512821 , 4129.23076923 , 4120.51282051 , 4117.43589744 , 4170.76923077 , 4132.82051282 , 4136.92307692 , 4190.25641026 , 4909.74358974 , 4136.41025641 , 4137.43589744 , 2048.0 , 2033.0 , 326.986 , 0.0 , 0.0 , 0.0 , 0.0 , 

91.0 , 4129.23076923 , 4131.28205128 , 4125.12820513 , 4135.8974359 , 4129.23076923 , 4127.69230769 , 4127.69230769 , 4188.71794872 , 4147.17948718 , 4139.48717949 , 4195.38461538 , 4906.66666667 , 4146.66666667 , 4138.97435897 , 2046.0 , 2033.0 , 327.0 , 0.0 , 0.0 , 0.0 , 0.0 , 

92.0 , 4130.25641026 , 4124.1025641 , 4130.76923077 , 4129.74358974 , 4129.74358974 , 4120.51282051 , 4118.97435897 , 4190.25641026 , 4147.17948718 , 4136.41025641 , 4189.74358974 , 4909.74358974 , 4135.38461538 , 4141.53846154 , 2047.0 , 2035.0 , 327.004 , 0.0 , 0.0 , 0.0 , 0.0 , 

93.0 , 4129.74358974 , 4127.69230769 , 4130.25641026 , 4132.30769231 , 4131.79487179 , 4127.69230769 , 4132.30769231 , 4203.07692308 , 4154.87179487 , 4141.53846154 , 4193.33333333 , 4905.64102564 , 4138.46153846 , 4137.43589744 , 2047.0 , 2034.0 , 327.009 , 0.0 , 0.0 , 0.0 , 0.0 , 

94.0 , 4130.76923077 , 4125.64102564 , 4134.87179487 , 4123.07692308 , 4129.23076923 , 4127.69230769 , 4129.74358974 , 4194.87179487 , 4145.12820513 , 4144.1025641 , 4186.66666667 , 4911.79487179 , 4131.28205128 , 4137.43589744 , 2047.0 , 2034.0 , 327.017 , 0.0 , 0.0 , 0.0 , 0.0 , 

95.0 , 4133.84615385 , 4132.82051282 , 4134.35897436 , 4128.71794872 , 4130.76923077 , 4135.38461538 , 4134.87179487 , 4197.43589744 , 4143.58974359 , 4143.58974359 , 4186.66666667 , 4912.30769231 , 4130.76923077 , 4140.51282051 , 2046.0 , 2034.0 , 327.031 , 0.0 , 0.0 , 0.0 , 0.0 , 

96.0 , 4132.82051282 , 4126.66666667 , 4141.53846154 , 4125.12820513 , 4132.30769231 , 4133.33333333 , 4127.17948718 , 4193.33333333 , 4136.92307692 , 4137.43589744 , 4186.66666667 , 4912.82051282 , 4122.05128205 , 4144.1025641 , 2046.0 , 2033.0 , 327.035 , 0.0 , 0.0 , 0.0 , 0.0 , 

97.0 , 4133.33333333 , 4128.20512821 , 4139.48717949 , 4127.17948718 , 4133.33333333 , 4133.84615385 , 4127.17948718 , 4192.82051282 , 4133.84615385 , 4136.41025641 , 4189.23076923 , 4911.28205128 , 4125.12820513 , 4142.56410256 , 2047.0 , 2032.0 , 327.041 , 0.0 , 0.0 , 0.0 , 0.0 , 

98.0 , 4131.28205128 , 4130.25641026 , 4132.82051282 , 4133.33333333 , 4131.79487179 , 4128.20512821 , 4127.17948718 , 4189.23076923 , 4137.94871795 , 4138.46153846 , 4188.71794872 , 4912.82051282 , 4132.82051282 , 4139.48717949 , 2046.0 , 2032.0 , 327.049 , 0.0 , 0.0 , 0.0 , 0.0 , 

99.0 , 4133.84615385 , 4130.76923077 , 4131.28205128 , 4137.43589744 , 4130.76923077 , 4126.15384615 , 4128.20512821 , 4176.92307692 , 4134.35897436 , 4138.97435897 , 4188.20512821 , 4912.82051282 , 4132.82051282 , 4140.51282051 , 2046.0 , 2033.0 , 327.064 , 0.0 , 0.0 , 0.0 , 0.0 , 

100.0 , 4133.33333333 , 4130.25641026 , 4131.28205128 , 4137.94871795 , 4128.71794872 , 4132.30769231 , 4130.25641026 , 4178.46153846 , 4136.41025641 , 4137.94871795 , 4190.25641026 , 4909.74358974 , 4141.02564103 , 4140.51282051 , 2045.0 , 2034.0 , 327.067 , 0.0 , 0.0 , 0.0 , 0.0 , 

101.0 , 4136.41025641 , 4132.82051282 , 4131.79487179 , 4133.84615385 , 4131.28205128 , 4128.71794872 , 4122.05128205 , 4174.87179487 , 4129.23076923 , 4136.92307692 , 4188.20512821 , 4908.20512821 , 4138.46153846 , 4139.48717949 , 2046.0 , 2034.0 , 327.072 , 0.0 , 0.0 , 0.0 , 0.0 , 

102.0 , 4130.76923077 , 4137.94871795 , 4123.58974359 , 4138.46153846 , 4131.28205128 , 4126.66666667 , 4122.56410256 , 4185.12820513 , 4140.0 , 4138.46153846 , 4191.28205128 , 4904.1025641 , 4144.1025641 , 4136.92307692 , 2046.0 , 2034.0 , 327.08 , 0.0 , 0.0 , 0.0 , 0.0 , 

103.0 , 4132.30769231 , 4127.69230769 , 4130.76923077 , 4132.82051282 , 4131.28205128 , 4123.07692308 , 4117.43589744 , 4176.41025641 , 4131.79487179 , 4137.43589744 , 4189.74358974 , 4906.66666667 , 4132.82051282 , 4141.53846154 , 2048.0 , 2034.0 , 327.096 , 0.0 , 0.0 , 0.0 , 0.0 , 

104.0 , 4129.23076923 , 4122.05128205 , 4131.79487179 , 4136.41025641 , 4129.74358974 , 4128.20512821 , 4125.64102564 , 4197.94871795 , 4146.15384615 , 4141.53846154 , 4192.82051282 , 4906.15384615 , 4141.02564103 , 4140.51282051 , 2044.0 , 2034.0 , 327.099 , 0.0 , 0.0 , 0.0 , 0.0 , 

105.0 , 4132.30769231 , 4114.87179487 , 4138.97435897 , 4122.56410256 , 4129.74358974 , 4118.97435897 , 4115.8974359 , 4191.79487179 , 4138.46153846 , 4140.51282051 , 4187.17948718 , 4913.33333333 , 4127.17948718 , 4139.48717949 , 2044.0 , 2035.0 , 327.104 , 0.0 , 0.0 , 0.0 , 0.0 , 

106.0 , 4129.23076923 , 4123.07692308 , 4130.76923077 , 4126.15384615 , 4129.74358974 , 4126.66666667 , 4127.69230769 , 4204.61538462 , 4149.74358974 , 4140.0 , 4189.74358974 , 4908.71794872 , 4134.35897436 , 4137.43589744 , 2044.0 , 2034.0 , 327.112 , 0.0 , 0.0 , 0.0 , 0.0 , 

107.0 , 4130.76923077 , 4118.97435897 , 4137.94871795 , 4121.53846154 , 4130.76923077 , 4124.61538462 , 4120.51282051 , 4194.35897436 , 4141.02564103 , 4137.94871795 , 4183.07692308 , 4909.74358974 , 4122.56410256 , 4142.05128205 , 2044.0 , 2035.0 , 327.13 , 0.0 , 0.0 , 0.0 , 0.0 , 

108.0 , 4130.76923077 , 4129.23076923 , 4132.82051282 , 4131.79487179 , 4132.30769231 , 4133.33333333 , 4133.33333333 , 4206.66666667 , 4148.20512821 , 4140.0 , 4188.20512821 , 4907.17948718 , 4133.84615385 , 4140.0 , 2042.0 , 2035.0 , 327.13 , 0.0 , 0.0 , 0.0 , 0.0 , 

109.0 , 4134.87179487 , 4130.76923077 , 4138.97435897 , 4126.66666667 , 4132.82051282 , 4131.28205128 , 4131.28205128 , 4186.66666667 , 4134.35897436 , 4136.41025641 , 4184.1025641 , 4914.35897436 , 4125.12820513 , 4141.53846154 , 2042.0 , 2033.0 , 327.136 , 0.0 , 0.0 , 0.0 , 0.0 , 

110.0 , 4134.87179487 , 4136.92307692 , 4132.30769231 , 4136.92307692 , 4131.79487179 , 4136.92307692 , 4141.53846154 , 4196.92307692 , 4143.58974359 , 4138.46153846 , 4187.17948718 , 4909.74358974 , 4135.38461538 , 4139.48717949 , 2040.0 , 2034.0 , 327.143 , 0.0 , 0.0 , 0.0 , 0.0 , 

111.0 , 4134.35897436 , 4130.25641026 , 4133.33333333 , 4133.33333333 , 4130.76923077 , 4129.23076923 , 4125.12820513 , 4185.64102564 , 4135.8974359 , 4137.43589744 , 4182.05128205 , 4914.35897436 , 4131.79487179 , 4139.48717949 , 2042.0 , 2035.0 , 327.158 , 0.0 , 0.0 , 0.0 , 0.0 , 

112.0 , 4135.8974359 , 4137.94871795 , 4127.17948718 , 4142.05128205 , 4132.82051282 , 4133.33333333 , 4131.79487179 , 4182.56410256 , 4132.30769231 , 4138.46153846 , 4190.76923077 , 4911.28205128 , 4143.58974359 , 4139.48717949 , 2041.0 , 2035.0 , 327.162 , 0.0 , 0.0 , 0.0 , 0.0 , 

113.0 , 4133.84615385 , 4128.20512821 , 4131.28205128 , 4134.35897436 , 4130.25641026 , 4125.12820513 , 4125.64102564 , 4173.33333333 , 4126.15384615 , 4137.43589744 , 4189.23076923 , 4912.30769231 , 4137.94871795 , 4141.02564103 , 2042.0 , 2035.0 , 327.167 , 0.0 , 0.0 , 0.0 , 0.0 , 

114.0 , 4131.28205128 , 4125.64102564 , 4128.20512821 , 4134.35897436 , 4129.74358974 , 4124.61538462 , 4120.51282051 , 4181.53846154 , 4132.30769231 , 4137.94871795 , 4189.74358974 , 4908.71794872 , 4138.46153846 , 4138.46153846 , 2041.0 , 2035.0 , 327.175 , 0.0 , 0.0 , 0.0 , 0.0 , 

115.0 , 4130.76923077 , 4123.07692308 , 4127.17948718 , 4130.76923077 , 4128.20512821 , 4124.61538462 , 4111.79487179 , 4181.02564103 , 4131.79487179 , 4136.41025641 , 4189.74358974 , 4907.69230769 , 4139.48717949 , 4137.43589744 , 2041.0 , 2035.0 , 327.194 , 0.0 , 0.0 , 0.0 , 0.0 , 

116.0 , 4133.84615385 , 4124.61538462 , 4127.17948718 , 4131.79487179 , 4128.71794872 , 4126.66666667 , 4116.92307692 , 4182.05128205 , 4129.74358974 , 4137.94871795 , 4188.71794872 , 4905.12820513 , 4140.51282051 , 4137.94871795 , 2042.0 , 2035.0 , 327.194 , 0.0 , 0.0 , 0.0 , 0.0 , 

117.0 , 4128.71794872 , 4121.53846154 , 4128.71794872 , 4131.28205128 , 4128.71794872 , 4123.07692308 , 4116.92307692 , 4188.20512821 , 4140.51282051 , 4137.94871795 , 4188.20512821 , 4906.66666667 , 4136.41025641 , 4140.0 , 2042.0 , 2033.0 , 327.199 , 0.0 , 0.0 , 0.0 , 0.0 , 

118.0 , 4129.74358974 , 4124.61538462 , 4130.25641026 , 4127.69230769 , 4131.28205128 , 4123.07692308 , 4116.92307692 , 4189.23076923 , 4142.05128205 , 4138.97435897 , 4188.71794872 , 4908.20512821 , 4132.82051282 , 4142.05128205 , 2042.0 , 2036.0 , 327.206 , 0.0 , 0.0 , 0.0 , 0.0 , 

119.0 , 4129.23076923 , 4126.15384615 , 4127.69230769 , 4129.74358974 , 4128.71794872 , 4128.71794872 , 4127.17948718 , 4203.58974359 , 4148.20512821 , 4142.05128205 , 4189.74358974 , 4906.15384615 , 4143.58974359 , 4137.94871795 , 2043.0 , 2035.0 , 327.221 , 0.0 , 0.0 , 0.0 , 0.0 , 

120.0 , 4132.30769231 , 4125.12820513 , 4134.35897436 , 4127.17948718 , 4128.20512821 , 4127.69230769 , 4127.69230769 , 4193.33333333 , 4138.97435897 , 4140.0 , 4187.69230769 , 4908.71794872 , 4131.79487179 , 4137.43589744 , 2043.0 , 2036.0 , 327.224 , 0.0 , 0.0 , 0.0 , 0.0 , 

121.0 , 4129.74358974 , 4134.35897436 , 4131.28205128 , 4132.30769231 , 4130.76923077 , 4135.38461538 , 4133.33333333 , 4197.94871795 , 4145.64102564 , 4140.51282051 , 4194.35897436 , 4907.17948718 , 4134.35897436 , 4139.48717949 , 2044.0 , 2036.0 , 327.231 , 0.0 , 0.0 , 0.0 , 0.0 , 

122.0 , 4132.30769231 , 4130.25641026 , 4134.35897436 , 4126.15384615 , 4133.33333333 , 4132.82051282 , 4125.64102564 , 4189.74358974 , 4133.33333333 , 4138.46153846 , 4186.15384615 , 4912.82051282 , 4127.69230769 , 4141.02564103 , 2044.0 , 2036.0 , 327.238 , 0.0 , 0.0 , 0.0 , 0.0 , 

123.0 , 4131.28205128 , 4132.82051282 , 4129.23076923 , 4134.87179487 , 4131.28205128 , 4133.84615385 , 4131.79487179 , 4201.02564103 , 4143.58974359 , 4140.0 , 4185.12820513 , 4912.82051282 , 4136.41025641 , 4136.92307692 , 2044.0 , 2036.0 , 327.252 , 0.0 , 0.0 , 0.0 , 0.0 , 

124.0 , 4134.87179487 , 4132.30769231 , 4137.43589744 , 4130.25641026 , 4131.79487179 , 4125.12820513 , 4122.56410256 , 4175.8974359 , 4128.71794872 , 4138.46153846 , 4184.1025641 , 4920.0 , 4125.12820513 , 4140.0 , 2044.0 , 2037.0 , 327.256 , 0.0 , 0.0 , 0.0 , 0.0 , 

125.0 , 4132.30769231 , 4137.43589744 , 4128.20512821 , 4141.02564103 , 4132.30769231 , 4130.76923077 , 4132.30769231 , 4183.07692308 , 4133.33333333 , 4139.48717949 , 4191.28205128 , 4913.84615385 , 4144.61538462 , 4140.0 , 2044.0 , 2037.0 , 327.259 , 0.0 , 0.0 , 0.0 , 0.0 , 

126.0 , 4133.33333333 , 4127.17948718 , 4131.79487179 , 4136.92307692 , 4129.74358974 , 4121.53846154 , 4118.97435897 , 4170.76923077 , 4123.58974359 , 4135.8974359 , 4185.64102564 , 4913.84615385 , 4136.41025641 , 4142.05128205 , 2043.0 , 2036.0 , 327.268 , 0.0 , 0.0 , 0.0 , 0.0 , 

127.0 , 4128.20512821 , 4133.84615385 , 4126.15384615 , 4142.56410256 , 4128.20512821 , 4124.61538462 , 4124.61538462 , 4181.53846154 , 4137.94871795 , 4138.97435897 , 4191.79487179 , 4907.17948718 , 4144.61538462 , 4137.94871795 , 2043.0 , 2037.0 , 327.283 , 0.0 , 0.0 , 0.0 , 0.0 , 

128.0 , 4126.66666667 , 4125.64102564 , 4131.28205128 , 4131.28205128 , 4128.20512821 , 4118.97435897 , 4115.38461538 , 4171.79487179 , 4131.79487179 , 4137.94871795 , 4188.71794872 , 4908.20512821 , 4141.53846154 , 4137.94871795 , 2044.0 , 2037.0 , 327.287 , 0.0 , 0.0 , 0.0 , 0.0 , 

0.0 , 4129.74358974 , 4129.23076923 , 4123.58974359 , 4138.46153846 , 4128.20512821 , 4125.12820513 , 4126.15384615 , 4187.69230769 , 4141.53846154 , 4139.48717949 , 4195.38461538 , 4902.56410256 , 4151.28205128 , 4138.97435897 , 2044.0 , 2038.0 , 327.292 , 0.0 , 0.0 , 0.0 , 0.0 , 

1.0 , 4131.28205128 , 4125.64102564 , 4129.23076923 , 4134.35897436 , 4128.71794872 , 4120.51282051 , 4121.53846154 , 4183.58974359 , 4137.43589744 , 4137.94871795 , 4191.79487179 , 4906.66666667 , 4137.94871795 , 4139.48717949 , 2043.0 , 2038.0 , 327.301 , 0.0 , 0.0 , 0.0 , 0.0 , 

2.0 , 4127.69230769 , 4127.69230769 , 4130.25641026 , 4135.38461538 , 4131.79487179 , 4127.69230769 , 4129.74358974 , 4196.92307692 , 4144.61538462 , 4139.48717949 , 4192.82051282 , 4905.12820513 , 4143.58974359 , 4136.41025641 , 2042.0 , 2037.0 , 327.316 , 0.0 , 0.0 , 0.0 , 0.0 , 

3.0 , 4128.20512821 , 4118.97435897 , 4134.87179487 , 4123.58974359 , 4127.69230769 , 4126.15384615 , 4125.12820513 , 4195.38461538 , 4140.51282051 , 4139.48717949 , 4187.69230769 , 4911.28205128 , 4135.8974359 , 4140.0 , 2044.0 , 2039.0 , 327.319 , 0.0 , 0.0 , 0.0 , 0.0 , 

4.0 , 4135.8974359 , 4126.15384615 , 4136.41025641 , 4125.12820513 , 4128.20512821 , 4130.25641026 , 4130.76923077 , 4196.41025641 , 4137.94871795 , 4143.07692308 , 4185.12820513 , 4910.76923077 , 4127.17948718 , 4142.05128205 , 2042.0 , 2038.0 , 327.325 , 0.0 , 0.0 , 0.0 , 0.0 , 

5.0 , 4133.33333333 , 4130.25641026 , 4140.51282051 , 4127.17948718 , 4131.28205128 , 4131.79487179 , 4130.25641026 , 4194.35897436 , 4134.87179487 , 4141.53846154 , 4181.02564103 , 4911.28205128 , 4126.66666667 , 4135.8974359 , 2042.0 , 2038.0 , 327.332 , 0.0 , 0.0 , 0.0 , 0.0 , 

6.0 , 4134.35897436 , 4135.38461538 , 4138.97435897 , 4129.74358974 , 4134.35897436 , 4134.87179487 , 4132.82051282 , 4190.25641026 , 4135.38461538 , 4139.48717949 , 4184.61538462 , 4914.35897436 , 4132.30769231 , 4134.87179487 , 2042.0 , 2037.0 , 327.35 , 0.0 , 0.0 , 0.0 , 0.0 , 

7.0 , 4133.84615385 , 4135.38461538 , 4132.30769231 , 4134.35897436 , 4131.79487179 , 4132.30769231 , 4132.82051282 , 4193.84615385 , 4144.61538462 , 4138.46153846 , 4186.15384615 , 4916.92307692 , 4134.35897436 , 4139.48717949 , 2042.0 , 2036.0 , 327.35 , 0.0 , 0.0 , 0.0 , 0.0 , 

8.0 , 4134.35897436 , 4133.33333333 , 4131.79487179 , 4134.87179487 , 4131.79487179 , 4128.20512821 , 4131.28205128 , 4185.12820513 , 4134.87179487 , 4138.97435897 , 4184.1025641 , 4914.87179487 , 4128.20512821 , 4139.48717949 , 2042.0 , 2036.0 , 327.355 , 0.0 , 0.0 , 0.0 , 0.0 , 

9.0 , 4131.28205128 , 4134.87179487 , 4129.23076923 , 4136.92307692 , 4131.79487179 , 4132.82051282 , 4133.84615385 , 4182.05128205 , 4138.97435897 , 4141.02564103 , 4189.23076923 , 4910.76923077 , 4141.02564103 , 4136.92307692 , 2042.0 , 2037.0 , 327.364 , 0.0 , 0.0 , 0.0 , 0.0 , 

10.0 , 4136.41025641 , 4131.28205128 , 4132.30769231 , 4133.33333333 , 4131.28205128 , 4130.25641026 , 4121.53846154 , 4170.25641026 , 4132.30769231 , 4136.92307692 , 4188.71794872 , 4910.76923077 , 4137.94871795 , 4139.48717949 , 2043.0 , 2037.0 , 327.382 , 0.0 , 0.0 , 0.0 , 0.0 , 

11.0 , 4132.82051282 , 4131.28205128 , 4124.1025641 , 4138.97435897 , 4129.74358974 , 4131.79487179 , 4125.12820513 , 4185.64102564 , 4138.46153846 , 4135.38461538 , 4190.25641026 , 4906.66666667 , 4146.15384615 , 4139.48717949 , 2044.0 , 2036.0 , 327.385 , 0.0 , 0.0 , 0.0 , 0.0 , 

12.0 , 4131.79487179 , 4124.61538462 , 4128.20512821 , 4128.71794872 , 4132.30769231 , 4120.51282051 , 4118.97435897 , 4175.38461538 , 4123.07692308 , 4137.43589744 , 4184.61538462 , 4910.25641026 , 4135.8974359 , 4143.07692308 , 2045.0 , 2034.0 , 327.387 , 0.0 , 0.0 , 0.0 , 0.0 , 

13.0 , 4129.74358974 , 4125.12820513 , 4128.20512821 , 4132.82051282 , 4130.25641026 , 4123.07692308 , 4121.53846154 , 4192.30769231 , 4142.05128205 , 4141.02564103 , 4190.76923077 , 4904.1025641 , 4142.05128205 , 4140.51282051 , 2046.0 , 2032.0 , 327.395 , 0.0 , 0.0 , 0.0 , 0.0 , 

14.0 , 4132.30769231 , 4115.8974359 , 4136.92307692 , 4124.1025641 , 4127.69230769 , 4118.97435897 , 4109.23076923 , 4187.69230769 , 4140.0 , 4137.43589744 , 4187.17948718 , 4908.71794872 , 4125.64102564 , 4138.46153846 , 2047.0 , 2032.0 , 327.413 , 0.0 , 0.0 , 0.0 , 0.0 , 

15.0 , 4128.20512821 , 4123.07692308 , 4129.23076923 , 4128.71794872 , 4131.28205128 , 4129.74358974 , 4129.23076923 , 4203.07692308 , 4149.23076923 , 4142.56410256 , 4190.25641026 , 4908.71794872 , 4138.46153846 , 4134.87179487 , 2045.0 , 2033.0 , 327.413 , 0.0 , 0.0 , 0.0 , 0.0 , 

16.0 , 4130.25641026 , 4120.51282051 , 4137.43589744 , 4120.51282051 , 4132.82051282 , 4127.17948718 , 4124.61538462 , 4190.76923077 , 4137.94871795 , 4141.53846154 , 4186.15384615 , 4911.28205128 , 4130.25641026 , 4137.94871795 , 2045.0 , 2035.0 , 327.418 , 0.0 , 0.0 , 0.0 , 0.0 , 

17.0 , 4130.76923077 , 4131.28205128 , 4132.82051282 , 4131.79487179 , 4130.76923077 , 4136.92307692 , 4129.74358974 , 4203.07692308 , 4147.17948718 , 4139.48717949 , 4196.41025641 , 4904.1025641 , 4135.8974359 , 4135.38461538 , 2045.0 , 2036.0 , 327.427 , 0.0 , 0.0 , 0.0 , 0.0 , 

18.0 , 4133.33333333 , 4130.76923077 , 4136.92307692 , 4126.66666667 , 4130.25641026 , 4131.79487179 , 4125.12820513 , 4190.25641026 , 4137.94871795 , 4137.43589744 , 4190.76923077 , 4908.71794872 , 4125.64102564 , 4137.43589744 , 2044.0 , 2038.0 , 327.446 , 0.0 , 0.0 , 0.0 , 0.0 , 

19.0 , 4131.28205128 , 4135.8974359 , 4131.79487179 , 4134.87179487 , 4132.30769231 , 4137.94871795 , 4137.43589744 , 4195.8974359 , 4146.15384615 , 4141.02564103 , 4186.66666667 , 4906.66666667 , 4134.87179487 , 4138.46153846 , 2042.0 , 2038.0 , 327.446 , 0.0 , 0.0 , 0.0 , 0.0 , 

20.0 , 4132.30769231 , 4131.28205128 , 4135.38461538 , 4133.33333333 , 4128.71794872 , 4134.87179487 , 4127.17948718 , 4181.53846154 , 4138.46153846 , 4138.46153846 , 4181.53846154 , 4913.33333333 , 4129.23076923 , 4137.94871795 , 2043.0 , 2040.0 , 327.451 , 0.0 , 0.0 , 0.0 , 0.0 , 

21.0 , 4136.92307692 , 4140.0 , 4130.76923077 , 4140.0 , 4130.76923077 , 4136.41025641 , 4131.28205128 , 4176.41025641 , 4130.25641026 , 4138.46153846 , 4189.74358974 , 4911.79487179 , 4139.48717949 , 4137.43589744 , 2042.0 , 2040.0 , 327.457 , 0.0 , 0.0 , 0.0 , 0.0 , 

22.0 , 4135.38461538 , 4133.84615385 , 4131.79487179 , 4134.87179487 , 4132.30769231 , 4126.66666667 , 4125.64102564 , 4168.71794872 , 4121.53846154 , 4135.8974359 , 4187.69230769 , 4910.25641026 , 4137.94871795 , 4140.51282051 , 2042.0 , 2040.0 , 327.477 , 0.0 , 0.0 , 0.0 , 0.0 , 

23.0 , 4131.79487179 , 4130.25641026 , 4129.23076923 , 4135.8974359 , 4133.33333333 , 4126.15384615 , 4123.07692308 , 4172.82051282 , 4125.12820513 , 4133.84615385 , 4186.15384615 , 4910.76923077 , 4134.35897436 , 4141.02564103 , 2042.0 , 2039.0 , 327.477 , 0.0 , 0.0 , 0.0 , 0.0 , 

24.0 , 4129.74358974 , 4128.20512821 , 4127.17948718 , 4133.33333333 , 4130.25641026 , 4125.64102564 , 4121.02564103 , 4175.8974359 , 4132.82051282 , 4135.38461538 , 4186.66666667 , 4914.35897436 , 4136.92307692 , 4139.48717949 , 2039.0 , 2038.0 , 327.483 , 0.0 , 0.0 , 0.0 , 0.0 , 

25.0 , 4133.84615385 , 4131.28205128 , 4127.17948718 , 4130.76923077 , 4129.74358974 , 4123.58974359 , 4122.56410256 , 4177.94871795 , 4134.87179487 , 4137.43589744 , 4190.25641026 , 4910.25641026 , 4138.97435897 , 4140.0 , 2040.0 , 2038.0 , 327.49 , 0.0 , 0.0 , 0.0 , 0.0 , 

26.0 , 4131.79487179 , 4127.69230769 , 4128.20512821 , 4130.76923077 , 4129.23076923 , 4123.58974359 , 4121.53846154 , 4189.23076923 , 4143.58974359 , 4138.46153846 , 4194.35897436 , 4906.15384615 , 4140.51282051 , 4139.48717949 , 2041.0 , 2036.0 , 327.503 , 0.0 , 0.0 , 0.0 , 0.0 , 

27.0 , 4132.30769231 , 4123.58974359 , 4132.30769231 , 4126.66666667 , 4132.30769231 , 4122.05128205 , 4120.0 , 4190.25641026 , 4138.97435897 , 4136.92307692 , 4190.76923077 , 4908.20512821 , 4134.35897436 , 4139.48717949 , 2040.0 , 2037.0 , 327.507 , 0.0 , 0.0 , 0.0 , 0.0 , 

28.0 , 4128.71794872 , 4127.69230769 , 4129.23076923 , 4129.23076923 , 4130.76923077 , 4127.69230769 , 4131.79487179 , 4203.07692308 , 4149.74358974 , 4138.46153846 , 4188.71794872 , 4906.15384615 , 4144.1025641 , 4137.94871795 , 2040.0 , 2033.0 , 327.513 , 0.0 , 0.0 , 0.0 , 0.0 , 

29.0 , 4132.82051282 , 4124.1025641 , 4135.8974359 , 4123.07692308 , 4131.79487179 , 4125.64102564 , 4127.17948718 , 4192.30769231 , 4140.51282051 , 4140.0 , 4184.61538462 , 4907.69230769 , 4130.76923077 , 4140.0 , 2040.0 , 2034.0 , 327.521 , 0.0 , 0.0 , 0.0 , 0.0 , 

30.0 , 4131.79487179 , 4128.20512821 , 4130.76923077 , 4128.20512821 , 4134.87179487 , 4130.76923077 , 4132.82051282 , 4201.53846154 , 4143.58974359 , 4143.07692308 , 4191.79487179 , 4907.17948718 , 4134.87179487 , 4138.97435897 , 2041.0 , 2032.0 , 327.538 , 0.0 , 0.0 , 0.0 , 0.0 , 

