['COUNTER', 'AF3', 'F7', 'F3', 'FC5', 'T7', 'P7', 'O1', 'O2', 'P8', 'T8', 'FC6', 'F4', 'F8', 'AF4', 'GYROX', 'GYROY', 'TIMESTAMP', 'FUNC_ID', 'FUNC_VALUE', 'MARKER', 'SYNC_SIGNAL']
42.0 , 4133.33333333 , 4127.69230769 , 4133.33333333 , 4128.71794872 , 4131.28205128 , 4126.15384615 , 4126.66666667 , 4193.33333333 , 4137.94871795 , 4143.58974359 , 4189.23076923 , 4909.23076923 , 4133.84615385 , 4136.41025641 , 2043.0 , 2031.0 , 302.212 , 0.0 , 0.0 , 0.0 , 0.0 , 

43.0 , 4132.82051282 , 4135.38461538 , 4129.74358974 , 4132.30769231 , 4131.28205128 , 4137.94871795 , 4129.74358974 , 4197.94871795 , 4143.58974359 , 4142.05128205 , 4186.66666667 , 4910.25641026 , 4134.87179487 , 4137.43589744 , 2043.0 , 2031.0 , 302.218 , 0.0 , 0.0 , 0.0 , 0.0 , 

44.0 , 4136.41025641 , 4135.38461538 , 4132.82051282 , 4129.23076923 , 4132.30769231 , 4135.8974359 , 4129.23076923 , 4186.15384615 , 4136.41025641 , 4139.48717949 , 4185.12820513 , 4914.35897436 , 4128.71794872 , 4138.97435897 , 2043.0 , 2032.0 , 302.231 , 0.0 , 0.0 , 0.0 , 0.0 , 

45.0 , 4132.82051282 , 4137.43589744 , 4129.23076923 , 4140.51282051 , 4129.23076923 , 4131.28205128 , 4133.84615385 , 4192.30769231 , 4145.12820513 , 4140.51282051 , 4192.30769231 , 4912.30769231 , 4143.58974359 , 4135.8974359 , 2044.0 , 2033.0 , 302.235 , 0.0 , 0.0 , 0.0 , 0.0 , 

46.0 , 4135.8974359 , 4133.33333333 , 4132.82051282 , 4137.43589744 , 4129.74358974 , 4126.66666667 , 4124.1025641 , 4173.33333333 , 4125.12820513 , 4134.35897436 , 4187.69230769 , 4912.82051282 , 4135.38461538 , 4139.48717949 , 2043.0 , 2033.0 , 302.244 , 0.0 , 0.0 , 0.0 , 0.0 , 

47.0 , 4130.25641026 , 4132.30769231 , 4126.66666667 , 4133.84615385 , 4130.25641026 , 4133.33333333 , 4129.23076923 , 4178.46153846 , 4129.23076923 , 4134.87179487 , 4189.23076923 , 4906.66666667 , 4142.56410256 , 4139.48717949 , 2043.0 , 2035.0 , 302.249 , 0.0 , 0.0 , 0.0 , 0.0 , 

48.0 , 4129.23076923 , 4121.02564103 , 4132.82051282 , 4122.56410256 , 4127.69230769 , 4118.97435897 , 4113.84615385 , 4169.74358974 , 4127.69230769 , 4137.43589744 , 4187.17948718 , 4910.25641026 , 4133.33333333 , 4139.48717949 , 2042.0 , 2035.0 , 302.262 , 0.0 , 0.0 , 0.0 , 0.0 , 

49.0 , 4129.74358974 , 4130.25641026 , 4126.66666667 , 4136.92307692 , 4127.17948718 , 4121.53846154 , 4120.0 , 4186.66666667 , 4142.56410256 , 4141.02564103 , 4192.82051282 , 4907.17948718 , 4140.51282051 , 4136.41025641 , 2041.0 , 2034.0 , 302.267 , 0.0 , 0.0 , 0.0 , 0.0 , 

50.0 , 4133.84615385 , 4126.66666667 , 4133.33333333 , 4129.74358974 , 4130.25641026 , 4121.02564103 , 4114.35897436 , 4174.35897436 , 4128.71794872 , 4137.43589744 , 4184.61538462 , 4909.23076923 , 4124.61538462 , 4138.97435897 , 2042.0 , 2035.0 , 302.274 , 0.0 , 0.0 , 0.0 , 0.0 , 

51.0 , 4130.76923077 , 4126.66666667 , 4128.71794872 , 4134.87179487 , 4128.20512821 , 4128.71794872 , 4126.66666667 , 4193.33333333 , 4142.05128205 , 4141.53846154 , 4190.76923077 , 4904.1025641 , 4138.97435897 , 4138.97435897 , 2041.0 , 2034.0 , 302.281 , 0.0 , 0.0 , 0.0 , 0.0 , 

52.0 , 4130.25641026 , 4118.97435897 , 4133.33333333 , 4129.23076923 , 4126.66666667 , 4121.02564103 , 4117.94871795 , 4188.71794872 , 4141.53846154 , 4139.48717949 , 4191.28205128 , 4908.71794872 , 4129.23076923 , 4139.48717949 , 2043.0 , 2032.0 , 302.293 , 0.0 , 0.0 , 0.0 , 0.0 , 

53.0 , 4127.69230769 , 4129.23076923 , 4127.69230769 , 4135.8974359 , 4132.82051282 , 4130.25641026 , 4131.79487179 , 4203.07692308 , 4152.82051282 , 4138.97435897 , 4195.8974359 , 4904.1025641 , 4135.38461538 , 4136.92307692 , 2044.0 , 2033.0 , 302.299 , 0.0 , 0.0 , 0.0 , 0.0 , 

54.0 , 4128.71794872 , 4125.64102564 , 4133.33333333 , 4125.64102564 , 4131.28205128 , 4127.69230769 , 4129.74358974 , 4193.33333333 , 4142.56410256 , 4137.43589744 , 4187.17948718 , 4908.20512821 , 4128.71794872 , 4140.51282051 , 2042.0 , 2031.0 , 302.306 , 0.0 , 0.0 , 0.0 , 0.0 , 

55.0 , 4134.35897436 , 4134.35897436 , 4132.30769231 , 4132.30769231 , 4127.69230769 , 4132.82051282 , 4136.92307692 , 4197.94871795 , 4141.02564103 , 4140.51282051 , 4187.69230769 , 4909.23076923 , 4134.87179487 , 4141.02564103 , 2043.0 , 2031.0 , 302.312 , 0.0 , 0.0 , 0.0 , 0.0 , 

56.0 , 4133.33333333 , 4132.30769231 , 4137.94871795 , 4129.74358974 , 4129.74358974 , 4130.76923077 , 4129.23076923 , 4190.25641026 , 4134.87179487 , 4138.46153846 , 4184.1025641 , 4913.33333333 , 4129.23076923 , 4138.46153846 , 2042.0 , 2032.0 , 302.324 , 0.0 , 0.0 , 0.0 , 0.0 , 

57.0 , 4130.25641026 , 4133.84615385 , 4132.82051282 , 4136.92307692 , 4133.33333333 , 4133.33333333 , 4129.23076923 , 4184.61538462 , 4132.82051282 , 4138.97435897 , 4185.64102564 , 4912.82051282 , 4132.30769231 , 4138.97435897 , 2043.0 , 2031.0 , 302.329 , 0.0 , 0.0 , 0.0 , 0.0 , 

58.0 , 4131.28205128 , 4131.28205128 , 4131.79487179 , 4140.0 , 4129.23076923 , 4130.76923077 , 4124.61538462 , 4175.8974359 , 4126.15384615 , 4135.8974359 , 4185.12820513 , 4918.97435897 , 4133.84615385 , 4142.05128205 , 2042.0 , 2032.0 , 302.337 , 0.0 , 0.0 , 0.0 , 0.0 , 

59.0 , 4134.35897436 , 4136.92307692 , 4131.79487179 , 4138.97435897 , 4128.71794872 , 4130.76923077 , 4127.69230769 , 4175.38461538 , 4125.12820513 , 4135.8974359 , 4185.12820513 , 4917.94871795 , 4136.41025641 , 4138.97435897 , 2040.0 , 2032.0 , 302.343 , 0.0 , 0.0 , 0.0 , 0.0 , 

60.0 , 4128.71794872 , 4131.79487179 , 4128.71794872 , 4136.92307692 , 4129.23076923 , 4126.15384615 , 4122.56410256 , 4177.43589744 , 4134.35897436 , 4138.97435897 , 4188.71794872 , 4910.76923077 , 4145.12820513 , 4135.8974359 , 2041.0 , 2033.0 , 302.356 , 0.0 , 0.0 , 0.0 , 0.0 , 

61.0 , 4130.76923077 , 4124.1025641 , 4129.23076923 , 4135.8974359 , 4131.28205128 , 4122.05128205 , 4112.82051282 , 4171.28205128 , 4131.79487179 , 4138.46153846 , 4191.28205128 , 4908.20512821 , 4138.97435897 , 4140.51282051 , 2041.0 , 2033.0 , 302.361 , 0.0 , 0.0 , 0.0 , 0.0 , 

62.0 , 4131.79487179 , 4128.20512821 , 4128.71794872 , 4137.94871795 , 4130.76923077 , 4126.66666667 , 4121.02564103 , 4183.07692308 , 4141.02564103 , 4137.94871795 , 4192.30769231 , 4907.69230769 , 4142.05128205 , 4138.97435897 , 2041.0 , 2034.0 , 302.368 , 0.0 , 0.0 , 0.0 , 0.0 , 

63.0 , 4133.84615385 , 4129.23076923 , 4133.84615385 , 4130.76923077 , 4130.76923077 , 4124.1025641 , 4121.02564103 , 4180.0 , 4133.33333333 , 4138.46153846 , 4188.71794872 , 4907.17948718 , 4136.41025641 , 4139.48717949 , 2042.0 , 2033.0 , 302.375 , 0.0 , 0.0 , 0.0 , 0.0 , 

64.0 , 4129.74358974 , 4130.76923077 , 4125.12820513 , 4134.87179487 , 4129.74358974 , 4125.64102564 , 4125.64102564 , 4198.46153846 , 4145.64102564 , 4141.02564103 , 4194.35897436 , 4903.58974359 , 4143.58974359 , 4141.02564103 , 2040.0 , 2034.0 , 302.388 , 0.0 , 0.0 , 0.0 , 0.0 , 

65.0 , 4134.87179487 , 4127.17948718 , 4132.82051282 , 4126.66666667 , 4130.25641026 , 4119.48717949 , 4118.97435897 , 4193.33333333 , 4141.02564103 , 4137.94871795 , 4190.76923077 , 4911.79487179 , 4124.61538462 , 4142.56410256 , 2040.0 , 2035.0 , 302.392 , 0.0 , 0.0 , 0.0 , 0.0 , 

66.0 , 4133.33333333 , 4132.30769231 , 4134.87179487 , 4131.28205128 , 4128.20512821 , 4126.66666667 , 4130.76923077 , 4204.61538462 , 4148.20512821 , 4139.48717949 , 4189.74358974 , 4913.33333333 , 4129.23076923 , 4139.48717949 , 2041.0 , 2034.0 , 302.401 , 0.0 , 0.0 , 0.0 , 0.0 , 

67.0 , 4133.33333333 , 4124.1025641 , 4143.58974359 , 4125.64102564 , 4128.71794872 , 4124.61538462 , 4123.07692308 , 4190.25641026 , 4127.17948718 , 4136.92307692 , 4182.05128205 , 4916.92307692 , 4121.53846154 , 4141.53846154 , 2040.0 , 2035.0 , 302.406 , 0.0 , 0.0 , 0.0 , 0.0 , 

68.0 , 4131.28205128 , 4132.30769231 , 4133.33333333 , 4134.35897436 , 4133.33333333 , 4132.82051282 , 4133.33333333 , 4203.58974359 , 4138.97435897 , 4137.43589744 , 4186.66666667 , 4909.23076923 , 4134.35897436 , 4137.94871795 , 2040.0 , 2033.0 , 302.418 , 0.0 , 0.0 , 0.0 , 0.0 , 

69.0 , 4135.8974359 , 4131.28205128 , 4135.8974359 , 4127.17948718 , 4132.82051282 , 4128.71794872 , 4123.58974359 , 4186.66666667 , 4134.87179487 , 4135.8974359 , 4182.56410256 , 4912.82051282 , 4124.61538462 , 4136.92307692 , 2041.0 , 2032.0 , 302.423 , 0.0 , 0.0 , 0.0 , 0.0 , 

70.0 , 4132.82051282 , 4138.97435897 , 4128.71794872 , 4137.43589744 , 4128.20512821 , 4134.35897436 , 4133.84615385 , 4195.38461538 , 4141.02564103 , 4141.02564103 , 4190.25641026 , 4909.23076923 , 4142.56410256 , 4135.8974359 , 2040.0 , 2032.0 , 302.432 , 0.0 , 0.0 , 0.0 , 0.0 , 

71.0 , 4132.82051282 , 4131.79487179 , 4130.25641026 , 4132.30769231 , 4128.20512821 , 4124.61538462 , 4125.12820513 , 4179.48717949 , 4127.17948718 , 4139.48717949 , 4187.69230769 , 4913.33333333 , 4136.41025641 , 4138.97435897 , 2040.0 , 2032.0 , 302.438 , 0.0 , 0.0 , 0.0 , 0.0 , 

72.0 , 4133.33333333 , 4135.38461538 , 4124.61538462 , 4138.97435897 , 4132.82051282 , 4130.25641026 , 4130.76923077 , 4181.02564103 , 4135.8974359 , 4140.0 , 4190.76923077 , 4907.17948718 , 4142.05128205 , 4138.46153846 , 2041.0 , 2032.0 , 302.451 , 0.0 , 0.0 , 0.0 , 0.0 , 

73.0 , 4132.30769231 , 4126.66666667 , 4130.76923077 , 4131.79487179 , 4131.28205128 , 4126.15384615 , 4121.02564103 , 4170.76923077 , 4134.35897436 , 4140.0 , 4185.64102564 , 4907.17948718 , 4136.92307692 , 4138.97435897 , 2041.0 , 2031.0 , 302.456 , 0.0 , 0.0 , 0.0 , 0.0 , 

74.0 , 4131.28205128 , 4130.76923077 , 4128.20512821 , 4135.38461538 , 4130.25641026 , 4127.69230769 , 4126.66666667 , 4185.12820513 , 4140.0 , 4141.02564103 , 4189.74358974 , 4906.15384615 , 4137.94871795 , 4136.92307692 , 2040.0 , 2033.0 , 302.464 , 0.0 , 0.0 , 0.0 , 0.0 , 

75.0 , 4132.30769231 , 4125.12820513 , 4133.84615385 , 4127.17948718 , 4129.74358974 , 4123.07692308 , 4118.97435897 , 4188.71794872 , 4137.43589744 , 4138.46153846 , 4188.71794872 , 4911.28205128 , 4124.61538462 , 4139.48717949 , 2043.0 , 2032.0 , 302.469 , 0.0 , 0.0 , 0.0 , 0.0 , 

76.0 , 4132.82051282 , 4122.05128205 , 4135.8974359 , 4125.64102564 , 4131.28205128 , 4125.12820513 , 4118.97435897 , 4194.35897436 , 4137.43589744 , 4142.05128205 , 4191.28205128 , 4908.20512821 , 4128.71794872 , 4141.02564103 , 2044.0 , 2032.0 , 302.483 , 0.0 , 0.0 , 0.0 , 0.0 , 

77.0 , 4130.25641026 , 4119.48717949 , 4135.8974359 , 4123.58974359 , 4128.71794872 , 4122.56410256 , 4119.48717949 , 4192.30769231 , 4142.56410256 , 4142.05128205 , 4190.25641026 , 4907.17948718 , 4135.38461538 , 4138.46153846 , 2043.0 , 2035.0 , 302.488 , 0.0 , 0.0 , 0.0 , 0.0 , 

78.0 , 4134.35897436 , 4127.69230769 , 4133.84615385 , 4125.64102564 , 4130.25641026 , 4125.12820513 , 4123.07692308 , 4187.69230769 , 4141.02564103 , 4137.94871795 , 4190.25641026 , 4909.23076923 , 4133.33333333 , 4138.46153846 , 2043.0 , 2034.0 , 302.497 , 0.0 , 0.0 , 0.0 , 0.0 , 

79.0 , 4129.74358974 , 4129.74358974 , 4134.87179487 , 4129.23076923 , 4130.25641026 , 4130.25641026 , 4129.74358974 , 4197.43589744 , 4142.56410256 , 4137.94871795 , 4190.76923077 , 4911.79487179 , 4134.87179487 , 4136.92307692 , 2042.0 , 2035.0 , 302.502 , 0.0 , 0.0 , 0.0 , 0.0 , 

80.0 , 4129.23076923 , 4128.20512821 , 4136.41025641 , 4129.74358974 , 4131.79487179 , 4130.25641026 , 4131.28205128 , 4196.92307692 , 4135.8974359 , 4139.48717949 , 4187.17948718 , 4911.79487179 , 4128.71794872 , 4137.43589744 , 2043.0 , 2036.0 , 302.514 , 0.0 , 0.0 , 0.0 , 0.0 , 

81.0 , 4130.76923077 , 4133.84615385 , 4126.66666667 , 4134.35897436 , 4131.79487179 , 4134.87179487 , 4133.84615385 , 4199.48717949 , 4146.15384615 , 4138.97435897 , 4191.28205128 , 4905.64102564 , 4136.92307692 , 4138.97435897 , 2042.0 , 2035.0 , 302.519 , 0.0 , 0.0 , 0.0 , 0.0 , 

82.0 , 4135.38461538 , 4135.8974359 , 4131.79487179 , 4131.28205128 , 4131.79487179 , 4131.28205128 , 4125.12820513 , 4184.1025641 , 4133.33333333 , 4137.43589744 , 4189.74358974 , 4911.28205128 , 4132.82051282 , 4142.56410256 , 2044.0 , 2035.0 , 302.527 , 0.0 , 0.0 , 0.0 , 0.0 , 

83.0 , 4130.25641026 , 4138.97435897 , 4131.79487179 , 4139.48717949 , 4130.76923077 , 4134.35897436 , 4133.84615385 , 4198.46153846 , 4135.8974359 , 4142.05128205 , 4189.74358974 , 4913.33333333 , 4139.48717949 , 4137.94871795 , 2042.0 , 2034.0 , 302.533 , 0.0 , 0.0 , 0.0 , 0.0 , 

84.0 , 4134.87179487 , 4130.25641026 , 4135.8974359 , 4133.33333333 , 4131.28205128 , 4125.12820513 , 4122.05128205 , 4177.94871795 , 4122.56410256 , 4138.97435897 , 4184.61538462 , 4916.41025641 , 4125.64102564 , 4137.94871795 , 2042.0 , 2034.0 , 302.544 , 0.0 , 0.0 , 0.0 , 0.0 , 

85.0 , 4131.79487179 , 4130.25641026 , 4128.20512821 , 4135.38461538 , 4127.69230769 , 4126.66666667 , 4121.02564103 , 4178.97435897 , 4132.30769231 , 4135.8974359 , 4193.33333333 , 4910.25641026 , 4144.1025641 , 4139.48717949 , 2042.0 , 2034.0 , 302.55 , 0.0 , 0.0 , 0.0 , 0.0 , 

86.0 , 4129.74358974 , 4123.58974359 , 4134.87179487 , 4126.66666667 , 4125.12820513 , 4118.46153846 , 4110.25641026 , 4171.79487179 , 4123.58974359 , 4130.76923077 , 4189.23076923 , 4913.84615385 , 4137.94871795 , 4142.56410256 , 2044.0 , 2033.0 , 302.557 , 0.0 , 0.0 , 0.0 , 0.0 , 

87.0 , 4128.20512821 , 4130.25641026 , 4127.17948718 , 4135.8974359 , 4128.71794872 , 4123.58974359 , 4123.58974359 , 4190.25641026 , 4141.53846154 , 4135.38461538 , 4192.82051282 , 4906.66666667 , 4141.02564103 , 4137.94871795 , 2042.0 , 2033.0 , 302.565 , 0.0 , 0.0 , 0.0 , 0.0 , 

88.0 , 4129.74358974 , 4119.48717949 , 4135.38461538 , 4128.20512821 , 4130.25641026 , 4117.43589744 , 4115.38461538 , 4175.8974359 , 4137.43589744 , 4137.94871795 , 4189.74358974 , 4908.71794872 , 4128.71794872 , 4138.46153846 , 2043.0 , 2033.0 , 302.576 , 0.0 , 0.0 , 0.0 , 0.0 , 

89.0 , 4127.17948718 , 4126.66666667 , 4132.30769231 , 4135.8974359 , 4128.71794872 , 4126.15384615 , 4124.1025641 , 4192.82051282 , 4147.69230769 , 4141.53846154 , 4195.38461538 , 4905.64102564 , 4145.64102564 , 4137.94871795 , 2041.0 , 2035.0 , 302.581 , 0.0 , 0.0 , 0.0 , 0.0 , 

90.0 , 4130.25641026 , 4126.66666667 , 4133.84615385 , 4128.20512821 , 4129.23076923 , 4125.12820513 , 4118.46153846 , 4191.79487179 , 4144.1025641 , 4139.48717949 , 4187.69230769 , 4910.76923077 , 4133.84615385 , 4138.46153846 , 2041.0 , 2036.0 , 302.59 , 0.0 , 0.0 , 0.0 , 0.0 , 

91.0 , 4130.76923077 , 4131.28205128 , 4128.71794872 , 4131.28205128 , 4129.23076923 , 4133.33333333 , 4135.8974359 , 4204.61538462 , 4151.28205128 , 4143.07692308 , 4189.23076923 , 4907.69230769 , 4132.30769231 , 4136.92307692 , 2042.0 , 2035.0 , 302.596 , 0.0 , 0.0 , 0.0 , 0.0 , 

92.0 , 4129.74358974 , 4123.58974359 , 4136.92307692 , 4125.12820513 , 4127.69230769 , 4131.28205128 , 4135.38461538 , 4196.41025641 , 4142.56410256 , 4140.51282051 , 4186.66666667 , 4912.30769231 , 4129.74358974 , 4141.02564103 , 2042.0 , 2036.0 , 302.608 , 0.0 , 0.0 , 0.0 , 0.0 , 

93.0 , 4131.79487179 , 4134.35897436 , 4135.8974359 , 4130.25641026 , 4131.79487179 , 4136.92307692 , 4136.92307692 , 4197.94871795 , 4143.07692308 , 4137.94871795 , 4187.69230769 , 4912.30769231 , 4135.8974359 , 4140.51282051 , 2041.0 , 2035.0 , 302.613 , 0.0 , 0.0 , 0.0 , 0.0 , 

94.0 , 4133.84615385 , 4134.35897436 , 4137.43589744 , 4125.12820513 , 4130.76923077 , 4131.79487179 , 4127.17948718 , 4192.30769231 , 4137.43589744 , 4137.43589744 , 4182.05128205 , 4915.38461538 , 4125.64102564 , 4135.38461538 , 2042.0 , 2035.0 , 302.62 , 0.0 , 0.0 , 0.0 , 0.0 , 

95.0 , 4135.8974359 , 4133.33333333 , 4134.87179487 , 4128.20512821 , 4131.28205128 , 4129.74358974 , 4128.20512821 , 4188.71794872 , 4131.79487179 , 4141.53846154 , 4185.64102564 , 4913.33333333 , 4129.74358974 , 4135.8974359 , 2043.0 , 2036.0 , 302.627 , 0.0 , 0.0 , 0.0 , 0.0 , 

96.0 , 4132.30769231 , 4131.28205128 , 4131.28205128 , 4134.35897436 , 4130.25641026 , 4126.66666667 , 4122.56410256 , 4182.05128205 , 4133.33333333 , 4141.02564103 , 4190.25641026 , 4912.30769231 , 4141.02564103 , 4140.0 , 2043.0 , 2034.0 , 302.638 , 0.0 , 0.0 , 0.0 , 0.0 , 

97.0 , 4134.35897436 , 4131.28205128 , 4131.28205128 , 4135.8974359 , 4130.76923077 , 4127.69230769 , 4122.05128205 , 4171.79487179 , 4131.79487179 , 4138.97435897 , 4186.66666667 , 4910.76923077 , 4137.43589744 , 4140.0 , 2044.0 , 2033.0 , 302.643 , 0.0 , 0.0 , 0.0 , 0.0 , 

98.0 , 4131.79487179 , 4130.25641026 , 4128.71794872 , 4135.38461538 , 4128.71794872 , 4128.20512821 , 4129.23076923 , 4174.35897436 , 4138.46153846 , 4140.0 , 4187.69230769 , 4907.69230769 , 4142.56410256 , 4136.41025641 , 2044.0 , 2034.0 , 302.652 , 0.0 , 0.0 , 0.0 , 0.0 , 

99.0 , 4131.79487179 , 4130.76923077 , 4129.23076923 , 4132.30769231 , 4130.76923077 , 4123.07692308 , 4122.56410256 , 4173.84615385 , 4135.38461538 , 4139.48717949 , 4192.30769231 , 4906.66666667 , 4141.53846154 , 4136.92307692 , 2044.0 , 2034.0 , 302.658 , 0.0 , 0.0 , 0.0 , 0.0 , 

100.0 , 4128.20512821 , 4132.30769231 , 4127.17948718 , 4135.8974359 , 4130.76923077 , 4128.71794872 , 4124.1025641 , 4193.33333333 , 4147.17948718 , 4141.02564103 , 4196.92307692 , 4903.58974359 , 4143.07692308 , 4137.94871795 , 2045.0 , 2034.0 , 302.671 , 0.0 , 0.0 , 0.0 , 0.0 , 

101.0 , 4133.33333333 , 4121.53846154 , 4136.92307692 , 4124.61538462 , 4130.25641026 , 4125.64102564 , 4122.05128205 , 4183.58974359 , 4140.0 , 4141.02564103 , 4190.76923077 , 4908.20512821 , 4126.66666667 , 4141.53846154 , 2046.0 , 2034.0 , 302.676 , 0.0 , 0.0 , 0.0 , 0.0 , 

102.0 , 4129.23076923 , 4123.07692308 , 4129.74358974 , 4127.17948718 , 4129.23076923 , 4126.15384615 , 4131.79487179 , 4197.43589744 , 4152.82051282 , 4143.07692308 , 4192.82051282 , 4907.69230769 , 4138.46153846 , 4138.46153846 , 2047.0 , 2033.0 , 302.684 , 0.0 , 0.0 , 0.0 , 0.0 , 

103.0 , 4130.25641026 , 4123.58974359 , 4133.33333333 , 4121.02564103 , 4130.25641026 , 4119.48717949 , 4118.46153846 , 4190.76923077 , 4140.0 , 4138.97435897 , 4186.15384615 , 4913.33333333 , 4128.20512821 , 4137.94871795 , 2047.0 , 2032.0 , 302.69 , 0.0 , 0.0 , 0.0 , 0.0 , 

104.0 , 4129.23076923 , 4129.23076923 , 4133.84615385 , 4125.12820513 , 4131.28205128 , 4130.25641026 , 4130.76923077 , 4206.15384615 , 4147.17948718 , 4138.97435897 , 4192.30769231 , 4910.76923077 , 4134.35897436 , 4138.97435897 , 2047.0 , 2031.0 , 302.703 , 0.0 , 0.0 , 0.0 , 0.0 , 

105.0 , 4132.82051282 , 4120.51282051 , 4143.07692308 , 4118.97435897 , 4129.74358974 , 4126.15384615 , 4128.71794872 , 4190.25641026 , 4134.87179487 , 4138.46153846 , 4188.20512821 , 4913.33333333 , 4124.61538462 , 4143.07692308 , 2046.0 , 2035.0 , 302.709 , 0.0 , 0.0 , 0.0 , 0.0 , 

106.0 , 4132.30769231 , 4133.33333333 , 4131.28205128 , 4133.33333333 , 4130.76923077 , 4133.33333333 , 4135.38461538 , 4200.0 , 4146.15384615 , 4141.53846154 , 4188.20512821 , 4907.17948718 , 4138.46153846 , 4138.46153846 , 2045.0 , 2037.0 , 302.716 , 0.0 , 0.0 , 0.0 , 0.0 , 

107.0 , 4135.38461538 , 4133.84615385 , 4135.38461538 , 4129.74358974 , 4132.30769231 , 4130.25641026 , 4122.05128205 , 4186.15384615 , 4136.41025641 , 4136.92307692 , 4182.05128205 , 4915.38461538 , 4128.71794872 , 4137.94871795 , 2044.0 , 2038.0 , 302.722 , 0.0 , 0.0 , 0.0 , 0.0 , 

108.0 , 4134.35897436 , 4136.92307692 , 4130.76923077 , 4140.0 , 4130.76923077 , 4132.82051282 , 4134.35897436 , 4193.84615385 , 4142.56410256 , 4140.0 , 4191.28205128 , 4914.35897436 , 4138.97435897 , 4137.94871795 , 2044.0 , 2038.0 , 302.735 , 0.0 , 0.0 , 0.0 , 0.0 , 

109.0 , 4133.84615385 , 4130.76923077 , 4131.28205128 , 4136.41025641 , 4127.17948718 , 4125.64102564 , 4124.1025641 , 4177.43589744 , 4131.28205128 , 4138.97435897 , 4186.66666667 , 4912.30769231 , 4134.87179487 , 4138.46153846 , 2043.0 , 2038.0 , 302.74 , 0.0 , 0.0 , 0.0 , 0.0 , 

110.0 , 4132.30769231 , 4138.97435897 , 4126.15384615 , 4140.0 , 4129.74358974 , 4133.33333333 , 4126.15384615 , 4180.0 , 4132.30769231 , 4138.97435897 , 4188.20512821 , 4902.56410256 , 4145.12820513 , 4136.41025641 , 2041.0 , 2037.0 , 302.75 , 0.0 , 0.0 , 0.0 , 0.0 , 

111.0 , 4129.23076923 , 4127.69230769 , 4131.28205128 , 4130.25641026 , 4130.25641026 , 4125.12820513 , 4121.53846154 , 4176.41025641 , 4129.74358974 , 4137.94871795 , 4187.17948718 , 4907.69230769 , 4138.97435897 , 4135.38461538 , 2041.0 , 2038.0 , 302.753 , 0.0 , 0.0 , 0.0 , 0.0 , 

112.0 , 4128.71794872 , 4124.61538462 , 4127.69230769 , 4131.28205128 , 4129.23076923 , 4118.46153846 , 4124.1025641 , 4184.61538462 , 4136.41025641 , 4137.43589744 , 4191.79487179 , 4908.20512821 , 4138.46153846 , 4136.41025641 , 2041.0 , 2036.0 , 302.766 , 0.0 , 0.0 , 0.0 , 0.0 , 

113.0 , 4129.23076923 , 4123.07692308 , 4131.28205128 , 4129.23076923 , 4125.64102564 , 4116.41025641 , 4114.87179487 , 4182.56410256 , 4133.33333333 , 4132.30769231 , 4189.23076923 , 4907.17948718 , 4133.84615385 , 4138.97435897 , 2040.0 , 2034.0 , 302.771 , 0.0 , 0.0 , 0.0 , 0.0 , 

114.0 , 4131.28205128 , 4126.66666667 , 4132.30769231 , 4131.79487179 , 4126.66666667 , 4123.58974359 , 4120.0 , 4185.12820513 , 4129.74358974 , 4134.87179487 , 4189.23076923 , 4906.66666667 , 4137.94871795 , 4139.48717949 , 2037.0 , 2033.0 , 302.78 , 0.0 , 0.0 , 0.0 , 0.0 , 

115.0 , 4126.15384615 , 4121.53846154 , 4129.74358974 , 4129.23076923 , 4128.20512821 , 4123.07692308 , 4124.61538462 , 4195.38461538 , 4143.58974359 , 4141.53846154 , 4189.74358974 , 4909.23076923 , 4139.48717949 , 4138.97435897 , 2037.0 , 2034.0 , 302.784 , 0.0 , 0.0 , 0.0 , 0.0 , 

116.0 , 4126.66666667 , 4119.48717949 , 4132.30769231 , 4123.58974359 , 4129.74358974 , 4122.56410256 , 4124.1025641 , 4196.92307692 , 4147.69230769 , 4142.05128205 , 4191.28205128 , 4907.17948718 , 4127.17948718 , 4141.02564103 , 2037.0 , 2032.0 , 302.797 , 0.0 , 0.0 , 0.0 , 0.0 , 

117.0 , 4127.69230769 , 4126.15384615 , 4132.82051282 , 4128.20512821 , 4127.69230769 , 4133.84615385 , 4133.33333333 , 4201.53846154 , 4148.71794872 , 4140.0 , 4191.28205128 , 4906.66666667 , 4131.79487179 , 4138.46153846 , 2037.0 , 2030.0 , 302.802 , 0.0 , 0.0 , 0.0 , 0.0 , 

118.0 , 4134.35897436 , 4130.76923077 , 4136.41025641 , 4130.25641026 , 4132.30769231 , 4135.8974359 , 4134.35897436 , 4190.76923077 , 4134.35897436 , 4137.94871795 , 4185.64102564 , 4913.84615385 , 4129.23076923 , 4137.43589744 , 2038.0 , 2031.0 , 302.81 , 0.0 , 0.0 , 0.0 , 0.0 , 

119.0 , 4133.33333333 , 4135.8974359 , 4128.71794872 , 4135.38461538 , 4136.92307692 , 4135.38461538 , 4133.84615385 , 4201.53846154 , 4143.58974359 , 4141.02564103 , 4191.28205128 , 4909.23076923 , 4136.92307692 , 4137.43589744 , 2039.0 , 2030.0 , 302.817 , 0.0 , 0.0 , 0.0 , 0.0 , 

120.0 , 4137.43589744 , 4132.30769231 , 4131.79487179 , 4125.12820513 , 4134.35897436 , 4126.66666667 , 4121.02564103 , 4182.56410256 , 4127.69230769 , 4140.0 , 4189.23076923 , 4908.71794872 , 4126.15384615 , 4140.0 , 2041.0 , 2029.0 , 302.828 , 0.0 , 0.0 , 0.0 , 0.0 , 

121.0 , 4134.87179487 , 4134.87179487 , 4127.17948718 , 4134.35897436 , 4128.20512821 , 4131.28205128 , 4129.74358974 , 4185.64102564 , 4134.87179487 , 4139.48717949 , 4191.28205128 , 4911.28205128 , 4139.48717949 , 4137.94871795 , 2042.0 , 2032.0 , 302.832 , 0.0 , 0.0 , 0.0 , 0.0 , 

122.0 , 4135.38461538 , 4126.66666667 , 4135.8974359 , 4133.84615385 , 4128.71794872 , 4123.07692308 , 4117.94871795 , 4173.33333333 , 4128.71794872 , 4135.8974359 , 4186.66666667 , 4917.43589744 , 4130.25641026 , 4140.51282051 , 2042.0 , 2032.0 , 302.841 , 0.0 , 0.0 , 0.0 , 0.0 , 

123.0 , 4131.28205128 , 4133.33333333 , 4130.25641026 , 4141.53846154 , 4131.28205128 , 4128.20512821 , 4124.61538462 , 4185.12820513 , 4139.48717949 , 4140.0 , 4190.25641026 , 4908.20512821 , 4139.48717949 , 4138.46153846 , 2042.0 , 2031.0 , 302.848 , 0.0 , 0.0 , 0.0 , 0.0 , 

124.0 , 4130.76923077 , 4127.69230769 , 4133.33333333 , 4127.69230769 , 4129.23076923 , 4122.05128205 , 4117.43589744 , 4170.76923077 , 4126.66666667 , 4137.43589744 , 4186.15384615 , 4911.79487179 , 4133.33333333 , 4138.97435897 , 2045.0 , 2031.0 , 302.86 , 0.0 , 0.0 , 0.0 , 0.0 , 

125.0 , 4129.74358974 , 4132.82051282 , 4126.15384615 , 4136.41025641 , 4127.69230769 , 4128.71794872 , 4126.15384615 , 4188.71794872 , 4139.48717949 , 4138.46153846 , 4195.38461538 , 4911.28205128 , 4149.23076923 , 4136.92307692 , 2046.0 , 2032.0 , 302.865 , 0.0 , 0.0 , 0.0 , 0.0 , 

126.0 , 4133.84615385 , 4127.69230769 , 4133.84615385 , 4134.87179487 , 4128.71794872 , 4124.1025641 , 4114.87179487 , 4181.53846154 , 4132.82051282 , 4138.46153846 , 4189.23076923 , 4912.82051282 , 4138.46153846 , 4139.48717949 , 2047.0 , 2032.0 , 302.873 , 0.0 , 0.0 , 0.0 , 0.0 , 

127.0 , 4131.79487179 , 4131.28205128 , 4128.20512821 , 4137.43589744 , 4129.23076923 , 4128.71794872 , 4128.20512821 , 4195.8974359 , 4142.05128205 , 4142.05128205 , 4190.76923077 , 4902.56410256 , 4141.02564103 , 4139.48717949 , 2047.0 , 2032.0 , 302.88 , 0.0 , 0.0 , 0.0 , 0.0 , 

128.0 , 4130.76923077 , 4123.58974359 , 4131.79487179 , 4126.15384615 , 4129.74358974 , 4123.07692308 , 4123.58974359 , 4189.23076923 , 4142.56410256 , 4138.46153846 , 4190.76923077 , 4905.12820513 , 4129.74358974 , 4139.48717949 , 2048.0 , 2034.0 , 302.891 , 0.0 , 0.0 , 0.0 , 0.0 , 

0.0 , 4133.33333333 , 4131.79487179 , 4133.33333333 , 4132.30769231 , 4133.84615385 , 4129.23076923 , 4129.23076923 , 4193.84615385 , 4146.15384615 , 4136.92307692 , 4193.84615385 , 4906.66666667 , 4135.38461538 , 4140.51282051 , 2048.0 , 2033.0 , 302.897 , 0.0 , 0.0 , 0.0 , 0.0 , 

1.0 , 4132.30769231 , 4128.71794872 , 4138.97435897 , 4124.1025641 , 4131.28205128 , 4127.69230769 , 4125.64102564 , 4189.23076923 , 4133.33333333 , 4135.8974359 , 4183.07692308 , 4912.30769231 , 4129.23076923 , 4142.56410256 , 2048.0 , 2033.0 , 302.904 , 0.0 , 0.0 , 0.0 , 0.0 , 

2.0 , 4132.82051282 , 4132.30769231 , 4134.35897436 , 4123.07692308 , 4128.71794872 , 4133.33333333 , 4131.79487179 , 4195.8974359 , 4134.35897436 , 4139.48717949 , 4182.56410256 , 4911.28205128 , 4127.17948718 , 4141.02564103 , 2048.0 , 2033.0 , 302.91 , 0.0 , 0.0 , 0.0 , 0.0 , 

3.0 , 4131.79487179 , 4133.33333333 , 4135.38461538 , 4126.66666667 , 4129.74358974 , 4131.79487179 , 4127.17948718 , 4194.35897436 , 4138.46153846 , 4138.46153846 , 4183.58974359 , 4911.28205128 , 4127.17948718 , 4140.51282051 , 2048.0 , 2033.0 , 302.923 , 0.0 , 0.0 , 0.0 , 0.0 , 

4.0 , 4131.28205128 , 4133.84615385 , 4137.43589744 , 4131.79487179 , 4132.30769231 , 4128.71794872 , 4127.69230769 , 4186.66666667 , 4135.8974359 , 4136.92307692 , 4186.66666667 , 4911.28205128 , 4131.79487179 , 4140.0 , 2048.0 , 2032.0 , 302.927 , 0.0 , 0.0 , 0.0 , 0.0 , 

5.0 , 4129.74358974 , 4130.76923077 , 4132.82051282 , 4131.28205128 , 4129.23076923 , 4128.71794872 , 4127.17948718 , 4182.56410256 , 4142.05128205 , 4136.92307692 , 4188.71794872 , 4913.84615385 , 4136.92307692 , 4136.92307692 , 2048.0 , 2032.0 , 302.936 , 0.0 , 0.0 , 0.0 , 0.0 , 

6.0 , 4134.35897436 , 4133.84615385 , 4132.30769231 , 4134.35897436 , 4130.25641026 , 4131.79487179 , 4125.64102564 , 4171.28205128 , 4135.8974359 , 4136.41025641 , 4185.64102564 , 4912.82051282 , 4130.76923077 , 4138.97435897 , 2048.0 , 2032.0 , 302.943 , 0.0 , 0.0 , 0.0 , 0.0 , 

7.0 , 4129.74358974 , 4133.33333333 , 4128.20512821 , 4142.05128205 , 4128.71794872 , 4131.79487179 , 4130.76923077 , 4179.48717949 , 4140.0 , 4135.38461538 , 4189.74358974 , 4904.61538462 , 4142.56410256 , 4140.0 , 2047.0 , 2033.0 , 303.038 , 0.0 , 0.0 , 0.0 , 0.0 , 

8.0 , 4132.30769231 , 4123.58974359 , 4129.23076923 , 4132.30769231 , 4128.71794872 , 4121.53846154 , 4120.51282051 , 4173.84615385 , 4133.33333333 , 4134.35897436 , 4191.79487179 , 4904.61538462 , 4141.53846154 , 4138.46153846 , 2046.0 , 2033.0 , 303.043 , 0.0 , 0.0 , 0.0 , 0.0 , 

9.0 , 4133.33333333 , 4130.25641026 , 4125.12820513 , 4135.8974359 , 4129.74358974 , 4126.15384615 , 4123.07692308 , 4189.23076923 , 4144.61538462 , 4138.46153846 , 4194.87179487 , 4904.61538462 , 4147.69230769 , 4135.8974359 , 2045.0 , 2033.0 , 303.043 , 0.0 , 0.0 , 0.0 , 0.0 , 

10.0 , 4133.33333333 , 4131.28205128 , 4135.8974359 , 4129.74358974 , 4130.25641026 , 4123.07692308 , 4120.0 , 4181.53846154 , 4132.30769231 , 4136.92307692 , 4191.28205128 , 4910.25641026 , 4129.74358974 , 4141.53846154 , 2045.0 , 2033.0 , 303.043 , 0.0 , 0.0 , 0.0 , 0.0 , 

11.0 , 4125.64102564 , 4127.17948718 , 4132.82051282 , 4131.28205128 , 4128.71794872 , 4125.12820513 , 4127.17948718 , 4199.48717949 , 4145.64102564 , 4137.94871795 , 4198.97435897 , 4905.12820513 , 4137.94871795 , 4138.46153846 , 2046.0 , 2032.0 , 303.043 , 0.0 , 0.0 , 0.0 , 0.0 , 

12.0 , 4128.71794872 , 4113.84615385 , 4136.41025641 , 4118.97435897 , 4129.23076923 , 4117.43589744 , 4114.35897436 , 4191.28205128 , 4139.48717949 , 4136.92307692 , 4189.23076923 , 4908.71794872 , 4128.20512821 , 4137.43589744 , 2045.0 , 2031.0 , 303.043 , 0.0 , 0.0 , 0.0 , 0.0 , 

13.0 , 4129.74358974 , 4124.61538462 , 4130.25641026 , 4126.15384615 , 4129.74358974 , 4129.23076923 , 4131.28205128 , 4204.61538462 , 4149.74358974 , 4141.02564103 , 4190.25641026 , 4907.69230769 , 4137.43589744 , 4137.43589744 , 2044.0 , 2031.0 , 303.043 , 0.0 , 0.0 , 0.0 , 0.0 , 

14.0 , 4132.82051282 , 4123.07692308 , 4139.48717949 , 4121.02564103 , 4130.25641026 , 4128.20512821 , 4126.66666667 , 4188.71794872 , 4137.94871795 , 4140.0 , 4186.15384615 , 4915.8974359 , 4124.1025641 , 4141.53846154 , 2044.0 , 2032.0 , 303.043 , 0.0 , 0.0 , 0.0 , 0.0 , 

15.0 , 4131.79487179 , 4132.82051282 , 4132.30769231 , 4134.35897436 , 4132.30769231 , 4135.38461538 , 4133.84615385 , 4202.05128205 , 4145.64102564 , 4142.05128205 , 4189.74358974 , 4910.25641026 , 4136.41025641 , 4138.46153846 , 2046.0 , 2031.0 , 303.043 , 0.0 , 0.0 , 0.0 , 0.0 , 

16.0 , 4133.84615385 , 4134.35897436 , 4134.87179487 , 4130.25641026 , 4131.79487179 , 4128.20512821 , 4126.66666667 , 4191.28205128 , 4130.25641026 , 4138.46153846 , 4184.1025641 , 4912.82051282 , 4129.74358974 , 4137.43589744 , 2046.0 , 2033.0 , 303.043 , 0.0 , 0.0 , 0.0 , 0.0 , 

17.0 , 4132.82051282 , 4140.0 , 4128.71794872 , 4136.92307692 , 4130.76923077 , 4131.28205128 , 4134.87179487 , 4192.82051282 , 4134.87179487 , 4142.05128205 , 4191.28205128 , 4912.30769231 , 4137.43589744 , 4136.92307692 , 2048.0 , 2032.0 , 303.043 , 0.0 , 0.0 , 0.0 , 0.0 , 

18.0 , 4132.82051282 , 4130.76923077 , 4130.25641026 , 4134.87179487 , 4127.69230769 , 4124.61538462 , 4118.97435897 , 4175.38461538 , 4130.25641026 , 4141.02564103 , 4187.69230769 , 4915.8974359 , 4135.38461538 , 4140.51282051 , 2047.0 , 2033.0 , 303.043 , 0.0 , 0.0 , 0.0 , 0.0 , 

19.0 , 4134.87179487 , 4138.46153846 , 4128.20512821 , 4141.53846154 , 4129.23076923 , 4132.30769231 , 4124.1025641 , 4177.94871795 , 4128.71794872 , 4135.8974359 , 4188.71794872 , 4909.74358974 , 4145.12820513 , 4140.51282051 , 2048.0 , 2032.0 , 303.059 , 0.0 , 0.0 , 0.0 , 0.0 , 

20.0 , 4132.30769231 , 4133.33333333 , 4133.84615385 , 4133.33333333 , 4130.25641026 , 4129.23076923 , 4124.61538462 , 4175.8974359 , 4123.58974359 , 4132.30769231 , 4185.64102564 , 4910.76923077 , 4137.43589744 , 4138.97435897 , 2048.0 , 2033.0 , 303.059 , 0.0 , 0.0 , 0.0 , 0.0 , 

21.0 , 4131.28205128 , 4128.20512821 , 4131.28205128 , 4134.35897436 , 4129.74358974 , 4120.51282051 , 4120.51282051 , 4183.58974359 , 4129.74358974 , 4136.41025641 , 4189.74358974 , 4909.23076923 , 4132.82051282 , 4137.94871795 , 2046.0 , 2031.0 , 303.065 , 0.0 , 0.0 , 0.0 , 0.0 , 

22.0 , 4129.23076923 , 4124.1025641 , 4131.79487179 , 4132.30769231 , 4126.66666667 , 4116.41025641 , 4110.76923077 , 4189.74358974 , 4137.43589744 , 4135.8974359 , 4194.87179487 , 4908.71794872 , 4133.33333333 , 4138.46153846 , 2043.0 , 2031.0 , 303.07 , 0.0 , 0.0 , 0.0 , 0.0 , 

23.0 , 4129.23076923 , 4123.07692308 , 4133.33333333 , 4126.15384615 , 4128.20512821 , 4123.58974359 , 4117.94871795 , 4190.25641026 , 4141.53846154 , 4137.43589744 , 4193.84615385 , 4908.20512821 , 4133.84615385 , 4137.94871795 , 2043.0 , 2029.0 , 303.085 , 0.0 , 0.0 , 0.0 , 0.0 , 

24.0 , 4124.61538462 , 4119.48717949 , 4128.71794872 , 4123.58974359 , 4126.66666667 , 4126.66666667 , 4127.69230769 , 4197.94871795 , 4150.25641026 , 4142.56410256 , 4189.74358974 , 4908.20512821 , 4137.43589744 , 4136.92307692 , 2043.0 , 2031.0 , 303.085 , 0.0 , 0.0 , 0.0 , 0.0 , 

25.0 , 4128.20512821 , 4124.61538462 , 4132.30769231 , 4123.07692308 , 4128.20512821 , 4125.12820513 , 4123.07692308 , 4195.8974359 , 4139.48717949 , 4142.56410256 , 4191.28205128 , 4910.25641026 , 4127.69230769 , 4138.46153846 , 2041.0 , 2030.0 , 303.094 , 0.0 , 0.0 , 0.0 , 0.0 , 

26.0 , 4127.69230769 , 4132.82051282 , 4132.30769231 , 4128.71794872 , 4130.25641026 , 4132.82051282 , 4132.82051282 , 4202.56410256 , 4146.15384615 , 4141.02564103 , 4195.8974359 , 4907.17948718 , 4133.33333333 , 4136.92307692 , 2041.0 , 2031.0 , 303.1 , 0.0 , 0.0 , 0.0 , 0.0 , 

27.0 , 4132.82051282 , 4128.71794872 , 4136.92307692 , 4124.1025641 , 4131.79487179 , 4127.69230769 , 4134.87179487 , 4190.25641026 , 4140.51282051 , 4138.97435897 , 4187.69230769 , 4909.74358974 , 4128.20512821 , 4139.48717949 , 2039.0 , 2032.0 , 303.114 , 0.0 , 0.0 , 0.0 , 0.0 , 

28.0 , 4132.82051282 , 4135.8974359 , 4132.30769231 , 4134.35897436 , 4132.82051282 , 4131.28205128 , 4137.43589744 , 4201.53846154 , 4144.61538462 , 4138.97435897 , 4187.69230769 , 4911.79487179 , 4137.43589744 , 4138.97435897 , 2037.0 , 2032.0 , 303.116 , 0.0 , 0.0 , 0.0 , 0.0 , 

29.0 , 4137.94871795 , 4135.38461538 , 4138.46153846 , 4131.79487179 , 4133.33333333 , 4129.74358974 , 4123.58974359 , 4177.94871795 , 4121.02564103 , 4135.8974359 , 4184.1025641 , 4918.97435897 , 4122.05128205 , 4139.48717949 , 2037.0 , 2033.0 , 303.124 , 0.0 , 0.0 , 0.0 , 0.0 , 

30.0 , 4132.82051282 , 4135.8974359 , 4129.74358974 , 4137.43589744 , 4129.74358974 , 4132.82051282 , 4130.25641026 , 4183.07692308 , 4131.28205128 , 4136.92307692 , 4188.71794872 , 4913.33333333 , 4135.38461538 , 4137.43589744 , 2036.0 , 2032.0 , 303.132 , 0.0 , 0.0 , 0.0 , 0.0 , 

31.0 , 4134.35897436 , 4127.69230769 , 4132.82051282 , 4130.76923077 , 4128.20512821 , 4120.51282051 , 4117.43589744 , 4174.35897436 , 4126.15384615 , 4135.38461538 , 4184.1025641 , 4915.8974359 , 4133.33333333 , 4140.0 , 2037.0 , 2033.0 , 303.15 , 0.0 , 0.0 , 0.0 , 0.0 , 

32.0 , 4133.84615385 , 4136.92307692 , 4125.12820513 , 4142.56410256 , 4128.71794872 , 4129.74358974 , 4128.20512821 , 4184.1025641 , 4135.38461538 , 4138.46153846 , 4191.28205128 , 4909.23076923 , 4147.17948718 , 4137.94871795 , 2037.0 , 2033.0 , 303.152 , 0.0 , 0.0 , 0.0 , 0.0 , 

33.0 , 4132.82051282 , 4129.23076923 , 4128.20512821 , 4133.84615385 , 4126.66666667 , 4125.12820513 , 4120.51282051 , 4166.66666667 , 4127.69230769 , 4135.38461538 , 4188.71794872 , 4908.71794872 , 4134.87179487 , 4140.0 , 2038.0 , 2034.0 , 303.157 , 0.0 , 0.0 , 0.0 , 0.0 , 

34.0 , 4129.23076923 , 4131.79487179 , 4120.51282051 , 4138.46153846 , 4128.20512821 , 4126.66666667 , 4125.64102564 , 4187.69230769 , 4144.1025641 , 4135.8974359 , 4194.87179487 , 4901.53846154 , 4144.61538462 , 4137.94871795 , 2038.0 , 2033.0 , 303.164 , 0.0 , 0.0 , 0.0 , 0.0 , 

35.0 , 4130.76923077 , 4128.20512821 , 4128.71794872 , 4130.76923077 , 4130.25641026 , 4118.97435897 , 4115.8974359 , 4185.64102564 , 4137.94871795 , 4133.84615385 , 4189.23076923 , 4907.17948718 , 4134.87179487 , 4138.46153846 , 2038.0 , 2034.0 , 303.183 , 0.0 , 0.0 , 0.0 , 0.0 , 

36.0 , 4131.79487179 , 4133.84615385 , 4126.66666667 , 4134.35897436 , 4129.23076923 , 4123.07692308 , 4126.66666667 , 4194.35897436 , 4140.51282051 , 4139.48717949 , 4191.79487179 , 4905.12820513 , 4140.0 , 4140.51282051 , 2038.0 , 2032.0 , 303.183 , 0.0 , 0.0 , 0.0 , 0.0 , 

37.0 , 4132.30769231 , 4126.15384615 , 4131.28205128 , 4127.69230769 , 4129.23076923 , 4121.53846154 , 4120.51282051 , 4189.74358974 , 4138.46153846 , 4139.48717949 , 4188.20512821 , 4908.71794872 , 4128.71794872 , 4142.56410256 , 2038.0 , 2034.0 , 303.188 , 0.0 , 0.0 , 0.0 , 0.0 , 

38.0 , 4134.87179487 , 4130.76923077 , 4134.35897436 , 4128.20512821 , 4135.38461538 , 4133.33333333 , 4128.71794872 , 4197.43589744 , 4143.07692308 , 4139.48717949 , 4190.76923077 , 4908.20512821 , 4124.61538462 , 4140.51282051 , 2039.0 , 2033.0 , 303.194 , 0.0 , 0.0 , 0.0 , 0.0 , 

39.0 , 4132.82051282 , 4130.76923077 , 4140.51282051 , 4121.02564103 , 4133.33333333 , 4133.33333333 , 4128.71794872 , 4194.87179487 , 4138.97435897 , 4138.46153846 , 4188.20512821 , 4913.84615385 , 4120.0 , 4140.51282051 , 2039.0 , 2032.0 , 303.208 , 0.0 , 0.0 , 0.0 , 0.0 , 

40.0 , 4133.33333333 , 4134.35897436 , 4136.92307692 , 4129.74358974 , 4131.28205128 , 4131.79487179 , 4130.25641026 , 4192.82051282 , 4135.8974359 , 4138.97435897 , 4186.15384615 , 4913.84615385 , 4127.69230769 , 4140.0 , 2041.0 , 2031.0 , 303.213 , 0.0 , 0.0 , 0.0 , 0.0 , 

41.0 , 4133.84615385 , 4132.82051282 , 4136.41025641 , 4135.38461538 , 4131.79487179 , 4132.82051282 , 4131.28205128 , 4191.28205128 , 4136.41025641 , 4137.43589744 , 4184.1025641 , 4912.82051282 , 4129.23076923 , 4140.0 , 2040.0 , 2033.0 , 303.219 , 0.0 , 0.0 , 0.0 , 0.0 , 

42.0 , 4134.35897436 , 4135.8974359 , 4135.38461538 , 4129.74358974 , 4133.33333333 , 4131.79487179 , 4131.28205128 , 4185.64102564 , 4128.71794872 , 4137.94871795 , 4186.66666667 , 4911.79487179 , 4127.69230769 , 4141.53846154 , 2041.0 , 2032.0 , 303.227 , 0.0 , 0.0 , 0.0 , 0.0 , 

43.0 , 4130.76923077 , 4137.94871795 , 4125.64102564 , 4135.8974359 , 4130.76923077 , 4126.15384615 , 4127.69230769 , 4186.15384615 , 4131.79487179 , 4137.94871795 , 4191.79487179 , 4910.25641026 , 4143.58974359 , 4140.0 , 2040.0 , 2031.0 , 303.241 , 0.0 , 0.0 , 0.0 , 0.0 , 

44.0 , 4135.38461538 , 4134.87179487 , 4127.69230769 , 4142.56410256 , 4133.33333333 , 4125.64102564 , 4122.56410256 , 4172.30769231 , 4125.64102564 , 4132.30769231 , 4188.71794872 , 4911.28205128 , 4137.94871795 , 4139.48717949 , 2040.0 , 2031.0 , 303.245 , 0.0 , 0.0 , 0.0 , 0.0 , 

45.0 , 4129.74358974 , 4130.76923077 , 4124.61538462 , 4141.53846154 , 4132.30769231 , 4130.76923077 , 4129.23076923 , 4182.05128205 , 4135.8974359 , 4133.33333333 , 4192.82051282 , 4907.17948718 , 4142.56410256 , 4136.92307692 , 2042.0 , 2030.0 , 303.25 , 0.0 , 0.0 , 0.0 , 0.0 , 

46.0 , 4127.69230769 , 4124.61538462 , 4125.64102564 , 4125.64102564 , 4128.20512821 , 4117.94871795 , 4116.92307692 , 4176.41025641 , 4128.71794872 , 4138.97435897 , 4191.28205128 , 4907.69230769 , 4138.97435897 , 4140.0 , 2041.0 , 2030.0 , 303.258 , 0.0 , 0.0 , 0.0 , 0.0 , 

47.0 , 4126.66666667 , 4132.82051282 , 4124.1025641 , 4131.28205128 , 4128.71794872 , 4122.05128205 , 4120.51282051 , 4194.35897436 , 4142.56410256 , 4143.07692308 , 4191.79487179 , 4905.12820513 , 4144.1025641 , 4138.97435897 , 2042.0 , 2030.0 , 303.274 , 0.0 , 0.0 , 0.0 , 0.0 , 

48.0 , 4133.84615385 , 4125.12820513 , 4141.02564103 , 4122.56410256 , 4132.30769231 , 4124.1025641 , 4117.94871795 , 4186.66666667 , 4133.84615385 , 4138.46153846 , 4185.64102564 , 4910.25641026 , 4122.56410256 , 4140.0 , 2040.0 , 2028.0 , 303.278 , 0.0 , 0.0 , 0.0 , 0.0 , 

49.0 , 4129.23076923 , 4122.56410256 , 4135.38461538 , 4126.66666667 , 4129.23076923 , 4127.69230769 , 4129.74358974 , 4201.02564103 , 4149.23076923 , 4141.53846154 , 4192.30769231 , 4905.64102564 , 4135.8974359 , 4137.94871795 , 2040.0 , 2029.0 , 303.283 , 0.0 , 0.0 , 0.0 , 0.0 , 

50.0 , 4129.23076923 , 4117.94871795 , 4134.87179487 , 4121.02564103 , 4130.25641026 , 4116.41025641 , 4116.92307692 , 4186.15384615 , 4139.48717949 , 4142.05128205 , 4187.69230769 , 4908.71794872 , 4127.69230769 , 4139.48717949 , 2040.0 , 2031.0 , 303.289 , 0.0 , 0.0 , 0.0 , 0.0 , 

51.0 , 4129.23076923 , 4129.23076923 , 4129.74358974 , 4129.23076923 , 4135.38461538 , 4131.28205128 , 4130.76923077 , 4198.46153846 , 4143.07692308 , 4142.56410256 , 4192.30769231 , 4904.61538462 , 4133.84615385 , 4137.43589744 , 2041.0 , 2033.0 , 303.307 , 0.0 , 0.0 , 0.0 , 0.0 , 

52.0 , 4131.79487179 , 4122.05128205 , 4138.97435897 , 4120.0 , 4132.82051282 , 4132.30769231 , 4129.23076923 , 4190.25641026 , 4133.84615385 , 4136.92307692 , 4187.17948718 , 4910.25641026 , 4123.07692308 , 4138.97435897 , 2042.0 , 2033.0 , 303.309 , 0.0 , 0.0 , 0.0 , 0.0 , 

53.0 , 4131.79487179 , 4130.76923077 , 4129.74358974 , 4133.84615385 , 4129.74358974 , 4134.35897436 , 4137.43589744 , 4201.02564103 , 4145.64102564 , 4138.97435897 , 4191.28205128 , 4910.25641026 , 4133.84615385 , 4137.43589744 , 2041.0 , 2031.0 , 303.314 , 0.0 , 0.0 , 0.0 , 0.0 , 

54.0 , 4133.84615385 , 4134.35897436 , 4132.30769231 , 4134.35897436 , 4132.30769231 , 4126.66666667 , 4126.66666667 , 4185.64102564 , 4131.79487179 , 4137.94871795 , 4186.15384615 , 4915.8974359 , 4126.66666667 , 4140.0 , 2040.0 , 2027.0 , 303.321 , 0.0 , 0.0 , 0.0 , 0.0 , 

55.0 , 4134.87179487 , 4140.51282051 , 4129.74358974 , 4137.94871795 , 4132.30769231 , 4131.79487179 , 4133.33333333 , 4189.74358974 , 4133.33333333 , 4138.46153846 , 4189.74358974 , 4908.20512821 , 4139.48717949 , 4140.51282051 , 2039.0 , 2028.0 , 303.334 , 0.0 , 0.0 , 0.0 , 0.0 , 

56.0 , 4131.79487179 , 4128.20512821 , 4131.28205128 , 4131.79487179 , 4127.17948718 , 4125.12820513 , 4122.05128205 , 4180.0 , 4131.79487179 , 4136.41025641 , 4185.64102564 , 4908.71794872 , 4137.43589744 , 4138.46153846 , 2038.0 , 2029.0 , 303.339 , 0.0 , 0.0 , 0.0 , 0.0 , 

57.0 , 4131.28205128 , 4128.20512821 , 4127.69230769 , 4136.92307692 , 4129.74358974 , 4128.20512821 , 4119.48717949 , 4176.92307692 , 4128.20512821 , 4138.97435897 , 4187.69230769 , 4910.25641026 , 4137.94871795 , 4135.8974359 , 2038.0 , 2032.0 , 303.345 , 0.0 , 0.0 , 0.0 , 0.0 , 

58.0 , 4131.79487179 , 4123.07692308 , 4130.76923077 , 4129.74358974 , 4127.69230769 , 4126.15384615 , 4115.38461538 , 4176.41025641 , 4127.69230769 , 4136.41025641 , 4189.23076923 , 4911.79487179 , 4135.38461538 , 4137.94871795 , 2037.0 , 2033.0 , 303.353 , 0.0 , 0.0 , 0.0 , 0.0 , 

59.0 , 4132.82051282 , 4123.58974359 , 4129.23076923 , 4128.20512821 , 4126.66666667 , 4120.51282051 , 4114.35897436 , 4183.58974359 , 4136.41025641 , 4134.87179487 , 4194.35897436 , 4906.15384615 , 4136.41025641 , 4137.94871795 , 2038.0 , 2037.0 , 303.37 , 0.0 , 0.0 , 0.0 , 0.0 , 

60.0 , 4127.69230769 , 4123.07692308 , 4126.15384615 , 4131.28205128 , 4128.20512821 , 4117.43589744 , 4113.33333333 , 4187.17948718 , 4142.05128205 , 4137.94871795 , 4194.87179487 , 4905.64102564 , 4136.41025641 , 4137.43589744 , 2037.0 , 2036.0 , 303.372 , 0.0 , 0.0 , 0.0 , 0.0 , 

61.0 , 4128.71794872 , 4123.07692308 , 4131.79487179 , 4129.23076923 , 4130.25641026 , 4121.02564103 , 4116.41025641 , 4184.61538462 , 4135.38461538 , 4137.94871795 , 4191.79487179 , 4908.20512821 , 4132.30769231 , 4140.0 , 2037.0 , 2037.0 , 303.376 , 0.0 , 0.0 , 0.0 , 0.0 , 

62.0 , 4126.66666667 , 4124.61538462 , 4132.30769231 , 4130.25641026 , 4127.69230769 , 4128.20512821 , 4122.56410256 , 4200.0 , 4147.69230769 , 4137.94871795 , 4192.82051282 , 4907.69230769 , 4142.56410256 , 4137.94871795 , 2039.0 , 2038.0 , 303.384 , 0.0 , 0.0 , 0.0 , 0.0 , 

63.0 , 4129.74358974 , 4126.66666667 , 4133.84615385 , 4126.15384615 , 4128.71794872 , 4125.12820513 , 4120.51282051 , 4197.94871795 , 4141.53846154 , 4139.48717949 , 4189.23076923 , 4909.23076923 , 4132.30769231 , 4140.0 , 2039.0 , 2037.0 , 303.4 , 0.0 , 0.0 , 0.0 , 0.0 , 

64.0 , 4128.20512821 , 4131.28205128 , 4129.23076923 , 4129.23076923 , 4128.20512821 , 4130.76923077 , 4132.82051282 , 4208.20512821 , 4146.66666667 , 4142.05128205 , 4189.74358974 , 4907.69230769 , 4135.8974359 , 4139.48717949 , 2040.0 , 2037.0 , 303.402 , 0.0 , 0.0 , 0.0 , 0.0 , 

65.0 , 4134.35897436 , 4122.56410256 , 4138.46153846 , 4121.02564103 , 4130.25641026 , 4128.20512821 , 4128.71794872 , 4193.33333333 , 4134.87179487 , 4138.97435897 , 4186.66666667 , 4915.38461538 , 4125.12820513 , 4138.97435897 , 2038.0 , 2036.0 , 303.408 , 0.0 , 0.0 , 0.0 , 0.0 , 

66.0 , 4131.79487179 , 4131.28205128 , 4133.33333333 , 4128.71794872 , 4130.76923077 , 4133.33333333 , 4133.33333333 , 4205.64102564 , 4141.02564103 , 4138.97435897 , 4191.79487179 , 4916.41025641 , 4131.79487179 , 4135.8974359 , 2038.0 , 2036.0 , 303.417 , 0.0 , 0.0 , 0.0 , 0.0 , 

67.0 , 4133.33333333 , 4134.35897436 , 4137.43589744 , 4124.1025641 , 4128.71794872 , 4128.20512821 , 4122.05128205 , 4187.69230769 , 4120.51282051 , 4135.38461538 , 4183.07692308 , 4918.97435897 , 4120.0 , 4141.02564103 , 2038.0 , 2035.0 , 303.435 , 0.0 , 0.0 , 0.0 , 0.0 , 

68.0 , 4133.33333333 , 4138.46153846 , 4129.23076923 , 4135.8974359 , 4128.71794872 , 4132.30769231 , 4130.76923077 , 4186.15384615 , 4127.69230769 , 4137.94871795 , 4186.15384615 , 4910.76923077 , 4142.05128205 , 4139.48717949 , 2039.0 , 2034.0 , 303.435 , 0.0 , 0.0 , 0.0 , 0.0 , 

69.0 , 4135.8974359 , 4127.69230769 , 4132.82051282 , 4131.79487179 , 4132.82051282 , 4121.53846154 , 4116.92307692 , 4167.17948718 , 4122.05128205 , 4135.8974359 , 4186.15384615 , 4913.84615385 , 4135.38461538 , 4137.43589744 , 2041.0 , 2035.0 , 303.44 , 0.0 , 0.0 , 0.0 , 0.0 , 

70.0 , 4131.79487179 , 4135.8974359 , 4124.61538462 , 4139.48717949 , 4133.33333333 , 4129.23076923 , 4126.15384615 , 4182.05128205 , 4135.38461538 , 4134.35897436 , 4194.35897436 , 4909.23076923 , 4139.48717949 , 4136.41025641 , 2041.0 , 2033.0 , 303.447 , 0.0 , 0.0 , 0.0 , 0.0 , 

71.0 , 4131.79487179 , 4129.23076923 , 4128.20512821 , 4131.79487179 , 4128.20512821 , 4126.15384615 , 4116.41025641 , 4172.30769231 , 4125.12820513 , 4132.30769231 , 4188.71794872 , 4912.30769231 , 4135.8974359 , 4140.51282051 , 2042.0 , 2032.0 , 303.467 , 0.0 , 0.0 , 0.0 , 0.0 , 

72.0 , 4131.79487179 , 4130.76923077 , 4123.07692308 , 4137.43589744 , 4127.69230769 , 4126.66666667 , 4123.07692308 , 4187.17948718 , 4137.43589744 , 4138.46153846 , 4192.82051282 , 4905.64102564 , 4149.74358974 , 4138.46153846 , 2042.0 , 2032.0 , 303.467 , 0.0 , 0.0 , 0.0 , 0.0 , 

73.0 , 4131.28205128 , 4124.1025641 , 4132.30769231 , 4128.20512821 , 4130.25641026 , 4118.97435897 , 4116.92307692 , 4185.12820513 , 4140.0 , 4137.94871795 , 4191.28205128 , 4906.66666667 , 4134.35897436 , 4138.46153846 , 2044.0 , 2033.0 , 303.472 , 0.0 , 0.0 , 0.0 , 0.0 , 

74.0 , 4130.25641026 , 4128.20512821 , 4130.76923077 , 4127.69230769 , 4132.82051282 , 4129.23076923 , 4127.69230769 , 4194.35897436 , 4148.20512821 , 4139.48717949 , 4194.35897436 , 4907.17948718 , 4132.82051282 , 4140.51282051 , 2044.0 , 2034.0 , 303.479 , 0.0 , 0.0 , 0.0 , 0.0 , 

75.0 , 4129.74358974 , 4119.48717949 , 4134.35897436 , 4119.48717949 , 4129.23076923 , 4126.15384615 , 4126.15384615 , 4190.76923077 , 4143.07692308 , 4140.0 , 4188.71794872 , 4913.84615385 , 4127.17948718 , 4141.53846154 , 2044.0 , 2034.0 , 303.493 , 0.0 , 0.0 , 0.0 , 0.0 , 

76.0 , 4131.79487179 , 4122.56410256 , 4138.97435897 , 4123.58974359 , 4130.76923077 , 4126.66666667 , 4132.82051282 , 4195.38461538 , 4142.05128205 , 4141.53846154 , 4188.71794872 , 4911.79487179 , 4125.64102564 , 4138.97435897 , 2044.0 , 2033.0 , 303.497 , 0.0 , 0.0 , 0.0 , 0.0 , 

77.0 , 4130.25641026 , 4126.15384615 , 4143.58974359 , 4123.07692308 , 4131.28205128 , 4130.76923077 , 4130.25641026 , 4195.8974359 , 4141.53846154 , 4140.0 , 4187.69230769 , 4909.23076923 , 4124.61538462 , 4137.43589744 , 2045.0 , 2034.0 , 303.502 , 0.0 , 0.0 , 0.0 , 0.0 , 

78.0 , 4132.82051282 , 4131.28205128 , 4137.43589744 , 4128.20512821 , 4132.82051282 , 4135.38461538 , 4129.23076923 , 4194.87179487 , 4137.43589744 , 4139.48717949 , 4188.20512821 , 4908.20512821 , 4128.71794872 , 4137.94871795 , 2044.0 , 2037.0 , 303.51 , 0.0 , 0.0 , 0.0 , 0.0 , 

79.0 , 4132.82051282 , 4132.30769231 , 4131.79487179 , 4136.41025641 , 4131.79487179 , 4133.84615385 , 4132.82051282 , 4192.82051282 , 4136.92307692 , 4138.46153846 , 4189.23076923 , 4913.84615385 , 4132.30769231 , 4139.48717949 , 2043.0 , 2038.0 , 303.525 , 0.0 , 0.0 , 0.0 , 0.0 , 

80.0 , 4134.35897436 , 4133.84615385 , 4135.38461538 , 4135.38461538 , 4130.76923077 , 4128.71794872 , 4131.28205128 , 4177.94871795 , 4126.66666667 , 4137.43589744 , 4186.66666667 , 4916.41025641 , 4128.20512821 , 4142.56410256 , 2042.0 , 2036.0 , 303.528 , 0.0 , 0.0 , 0.0 , 0.0 , 

81.0 , 4130.25641026 , 4133.84615385 , 4126.66666667 , 4136.92307692 , 4128.20512821 , 4128.20512821 , 4128.71794872 , 4181.02564103 , 4134.35897436 , 4138.97435897 , 4189.23076923 , 4909.23076923 , 4144.61538462 , 4137.94871795 , 2043.0 , 2036.0 , 303.534 , 0.0 , 0.0 , 0.0 , 0.0 , 

82.0 , 4133.33333333 , 4127.69230769 , 4126.15384615 , 4135.38461538 , 4128.71794872 , 4128.20512821 , 4118.97435897 , 4171.28205128 , 4126.15384615 , 4137.94871795 , 4189.23076923 , 4910.76923077 , 4140.51282051 , 4136.41025641 , 2044.0 , 2036.0 , 303.542 , 0.0 , 0.0 , 0.0 , 0.0 , 

83.0 , 4129.23076923 , 4131.28205128 , 4125.12820513 , 4140.51282051 , 4128.71794872 , 4136.41025641 , 4124.1025641 , 4186.66666667 , 4134.35897436 , 4138.46153846 , 4191.79487179 , 4909.74358974 , 4141.53846154 , 4136.92307692 , 2044.0 , 2036.0 , 303.56 , 0.0 , 0.0 , 0.0 , 0.0 , 

84.0 , 4131.28205128 , 4128.20512821 , 4133.33333333 , 4128.71794872 , 4128.20512821 , 4123.07692308 , 4112.82051282 , 4178.46153846 , 4125.12820513 , 4136.41025641 , 4186.15384615 , 4911.28205128 , 4129.74358974 , 4140.0 , 2043.0 , 2035.0 , 303.56 , 0.0 , 0.0 , 0.0 , 0.0 , 

85.0 , 4128.20512821 , 4129.23076923 , 4127.17948718 , 4134.35897436 , 4126.15384615 , 4122.05128205 , 4116.92307692 , 4191.79487179 , 4143.58974359 , 4137.43589744 , 4194.35897436 , 4905.64102564 , 4143.58974359 , 4136.41025641 , 2044.0 , 2033.0 , 303.565 , 0.0 , 0.0 , 0.0 , 0.0 , 

86.0 , 4129.74358974 , 4118.97435897 , 4137.43589744 , 4124.1025641 , 4127.17948718 , 4118.46153846 , 4107.69230769 , 4182.05128205 , 4137.43589744 , 4135.8974359 , 4190.76923077 , 4909.23076923 , 4129.74358974 , 4140.0 , 2043.0 , 2033.0 , 303.573 , 0.0 , 0.0 , 0.0 , 0.0 , 

87.0 , 4127.17948718 , 4122.05128205 , 4132.82051282 , 4128.20512821 , 4129.74358974 , 4125.64102564 , 4124.61538462 , 4202.05128205 , 4149.23076923 , 4139.48717949 , 4192.30769231 , 4906.66666667 , 4138.97435897 , 4137.43589744 , 2044.0 , 2033.0 , 303.587 , 0.0 , 0.0 , 0.0 , 0.0 , 

88.0 , 4129.74358974 , 4112.82051282 , 4137.43589744 , 4119.48717949 , 4129.74358974 , 4117.94871795 , 4121.53846154 , 4191.79487179 , 4142.05128205 , 4137.94871795 , 4186.66666667 , 4912.82051282 , 4128.20512821 , 4137.43589744 , 2044.0 , 2034.0 , 303.592 , 0.0 , 0.0 , 0.0 , 0.0 , 

89.0 , 4129.23076923 , 4124.1025641 , 4131.79487179 , 4127.17948718 , 4129.74358974 , 4129.23076923 , 4131.28205128 , 4198.97435897 , 4149.23076923 , 4142.05128205 , 4193.84615385 , 4907.17948718 , 4133.84615385 , 4138.97435897 , 2044.0 , 2035.0 , 303.598 , 0.0 , 0.0 , 0.0 , 0.0 , 

90.0 , 4132.30769231 , 4128.71794872 , 4136.41025641 , 4122.56410256 , 4130.76923077 , 4131.28205128 , 4124.1025641 , 4188.20512821 , 4135.38461538 , 4141.02564103 , 4189.23076923 , 4910.76923077 , 4126.15384615 , 4142.56410256 , 2043.0 , 2036.0 , 303.604 , 0.0 , 0.0 , 0.0 , 0.0 , 

91.0 , 4134.35897436 , 4138.46153846 , 4132.30769231 , 4137.43589744 , 4133.84615385 , 4138.97435897 , 4137.94871795 , 4201.53846154 , 4142.56410256 , 4140.51282051 , 4189.74358974 , 4909.74358974 , 4138.46153846 , 4137.94871795 , 2043.0 , 2034.0 , 303.618 , 0.0 , 0.0 , 0.0 , 0.0 , 

92.0 , 4132.82051282 , 4129.74358974 , 4137.43589744 , 4134.87179487 , 4131.28205128 , 4130.25641026 , 4131.28205128 , 4187.17948718 , 4135.8974359 , 4135.8974359 , 4184.61538462 , 4913.33333333 , 4127.17948718 , 4137.43589744 , 2043.0 , 2036.0 , 303.625 , 0.0 , 0.0 , 0.0 , 0.0 , 

93.0 , 4133.84615385 , 4133.33333333 , 4131.79487179 , 4135.8974359 , 4128.71794872 , 4128.71794872 , 4131.79487179 , 4179.48717949 , 4127.17948718 , 4138.46153846 , 4188.20512821 , 4911.79487179 , 4130.25641026 , 4139.48717949 , 2043.0 , 2034.0 , 303.629 , 0.0 , 0.0 , 0.0 , 0.0 , 

94.0 , 4133.84615385 , 4128.71794872 , 4131.79487179 , 4130.76923077 , 4127.69230769 , 4123.07692308 , 4121.53846154 , 4174.35897436 , 4120.51282051 , 4138.46153846 , 4185.64102564 , 4915.38461538 , 4135.8974359 , 4140.51282051 , 2043.0 , 2035.0 , 303.636 , 0.0 , 0.0 , 0.0 , 0.0 , 

95.0 , 4131.28205128 , 4130.76923077 , 4130.25641026 , 4134.35897436 , 4130.25641026 , 4122.56410256 , 4120.51282051 , 4178.46153846 , 4126.15384615 , 4134.35897436 , 4188.20512821 , 4911.28205128 , 4140.51282051 , 4138.97435897 , 2044.0 , 2034.0 , 303.649 , 0.0 , 0.0 , 0.0 , 0.0 , 

96.0 , 4124.61538462 , 4126.66666667 , 4129.23076923 , 4131.79487179 , 4128.20512821 , 4117.94871795 , 4117.43589744 , 4175.38461538 , 4128.20512821 , 4130.76923077 , 4189.74358974 , 4908.71794872 , 4139.48717949 , 4138.97435897 , 2044.0 , 2034.0 , 303.653 , 0.0 , 0.0 , 0.0 , 0.0 , 

97.0 , 4127.69230769 , 4123.58974359 , 4129.23076923 , 4132.30769231 , 4129.23076923 , 4117.43589744 , 4117.94871795 , 4177.43589744 , 4126.66666667 , 4135.38461538 , 4188.71794872 , 4909.23076923 , 4138.97435897 , 4139.48717949 , 2043.0 , 2034.0 , 303.659 , 0.0 , 0.0 , 0.0 , 0.0 , 

98.0 , 4129.23076923 , 4124.61538462 , 4126.66666667 , 4135.38461538 , 4130.25641026 , 4121.02564103 , 4120.51282051 , 4195.38461538 , 4141.53846154 , 4142.05128205 , 4190.76923077 , 4907.69230769 , 4141.02564103 , 4138.97435897 , 2042.0 , 2035.0 , 303.667 , 0.0 , 0.0 , 0.0 , 0.0 , 

99.0 , 4131.79487179 , 4126.15384615 , 4128.20512821 , 4129.23076923 , 4129.74358974 , 4124.61538462 , 4117.94871795 , 4192.82051282 , 4141.53846154 , 4143.58974359 , 4191.79487179 , 4908.20512821 , 4132.30769231 , 4142.05128205 , 2043.0 , 2033.0 , 303.681 , 0.0 , 0.0 , 0.0 , 0.0 , 

100.0 , 4128.71794872 , 4128.71794872 , 4126.66666667 , 4128.20512821 , 4127.69230769 , 4132.82051282 , 4126.66666667 , 4201.02564103 , 4150.76923077 , 4144.1025641 , 4193.33333333 , 4909.23076923 , 4138.46153846 , 4141.02564103 , 2042.0 , 2034.0 , 303.686 , 0.0 , 0.0 , 0.0 , 0.0 , 

101.0 , 4132.30769231 , 4126.15384615 , 4135.38461538 , 4123.07692308 , 4131.28205128 , 4128.20512821 , 4123.07692308 , 4191.79487179 , 4141.53846154 , 4140.0 , 4187.69230769 , 4911.79487179 , 4124.61538462 , 4140.51282051 , 2042.0 , 2036.0 , 303.692 , 0.0 , 0.0 , 0.0 , 0.0 , 

102.0 , 4130.25641026 , 4130.25641026 , 4131.79487179 , 4130.25641026 , 4131.28205128 , 4135.8974359 , 4133.84615385 , 4204.61538462 , 4146.66666667 , 4140.51282051 , 4193.33333333 , 4907.17948718 , 4131.28205128 , 4138.46153846 , 2042.0 , 2034.0 , 303.699 , 0.0 , 0.0 , 0.0 , 0.0 , 

103.0 , 4132.82051282 , 4125.12820513 , 4138.97435897 , 4122.05128205 , 4128.20512821 , 4135.8974359 , 4128.71794872 , 4189.74358974 , 4130.76923077 , 4138.46153846 , 4185.64102564 , 4913.33333333 , 4123.07692308 , 4138.46153846 , 2041.0 , 2034.0 , 303.713 , 0.0 , 0.0 , 0.0 , 0.0 , 

104.0 , 4130.25641026 , 4134.35897436 , 4134.35897436 , 4132.82051282 , 4128.20512821 , 4137.43589744 , 4134.87179487 , 4197.43589744 , 4142.05128205 , 4140.51282051 , 4185.12820513 , 4914.35897436 , 4133.84615385 , 4136.41025641 , 2041.0 , 2034.0 , 303.718 , 0.0 , 0.0 , 0.0 , 0.0 , 

105.0 , 4134.87179487 , 4131.28205128 , 4139.48717949 , 4127.17948718 , 4131.28205128 , 4123.07692308 , 4121.53846154 , 4176.92307692 , 4128.20512821 , 4140.0 , 4184.1025641 , 4918.97435897 , 4123.58974359 , 4139.48717949 , 2042.0 , 2035.0 , 303.722 , 0.0 , 0.0 , 0.0 , 0.0 , 

106.0 , 4134.35897436 , 4135.38461538 , 4128.71794872 , 4134.87179487 , 4129.23076923 , 4129.74358974 , 4132.82051282 , 4182.56410256 , 4135.8974359 , 4142.56410256 , 4192.30769231 , 4911.79487179 , 4140.51282051 , 4137.43589744 , 2042.0 , 2035.0 , 303.732 , 0.0 , 0.0 , 0.0 , 0.0 , 

107.0 , 4132.30769231 , 4130.25641026 , 4131.28205128 , 4131.79487179 , 4127.69230769 , 4127.17948718 , 4123.58974359 , 4167.69230769 , 4128.71794872 , 4136.41025641 , 4185.64102564 , 4912.82051282 , 4133.33333333 , 4137.94871795 , 2042.0 , 2036.0 , 303.749 , 0.0 , 0.0 , 0.0 , 0.0 , 

108.0 , 4127.17948718 , 4137.43589744 , 4125.64102564 , 4141.02564103 , 4132.30769231 , 4134.87179487 , 4128.20512821 , 4180.51282051 , 4139.48717949 , 4137.94871795 , 4192.30769231 , 4908.20512821 , 4141.02564103 , 4136.41025641 , 2042.0 , 2036.0 , 303.749 , 0.0 , 0.0 , 0.0 , 0.0 , 

109.0 , 4129.23076923 , 4128.71794872 , 4130.25641026 , 4130.76923077 , 4131.79487179 , 4126.15384615 , 4117.94871795 , 4174.35897436 , 4129.74358974 , 4136.41025641 , 4191.79487179 , 4910.76923077 , 4132.82051282 , 4136.92307692 , 2042.0 , 2037.0 , 303.755 , 0.0 , 0.0 , 0.0 , 0.0 , 

110.0 , 4132.82051282 , 4130.25641026 , 4124.61538462 , 4135.8974359 , 4128.20512821 , 4124.1025641 , 4123.07692308 , 4187.69230769 , 4138.46153846 , 4136.41025641 , 4196.41025641 , 4901.53846154 , 4141.02564103 , 4137.43589744 , 2043.0 , 2035.0 , 303.763 , 0.0 , 0.0 , 0.0 , 0.0 , 

111.0 , 4132.82051282 , 4124.1025641 , 4130.76923077 , 4130.25641026 , 4126.15384615 , 4120.51282051 , 4115.38461538 , 4187.17948718 , 4142.05128205 , 4135.8974359 , 4192.30769231 , 4903.07692308 , 4132.30769231 , 4140.51282051 , 2043.0 , 2036.0 , 303.777 , 0.0 , 0.0 , 0.0 , 0.0 , 

112.0 , 4130.76923077 , 4125.12820513 , 4132.82051282 , 4128.71794872 , 4129.23076923 , 4127.17948718 , 4125.64102564 , 4194.35897436 , 4145.12820513 , 4138.46153846 , 4193.84615385 , 4905.12820513 , 4132.82051282 , 4139.48717949 , 2043.0 , 2037.0 , 303.782 , 0.0 , 0.0 , 0.0 , 0.0 , 

113.0 , 4129.23076923 , 4119.48717949 , 4134.87179487 , 4122.56410256 , 4128.20512821 , 4122.05128205 , 4124.61538462 , 4192.82051282 , 4138.97435897 , 4137.43589744 , 4187.69230769 , 4909.74358974 , 4130.76923077 , 4136.92307692 , 2042.0 , 2036.0 , 303.787 , 0.0 , 0.0 , 0.0 , 0.0 , 

114.0 , 4133.33333333 , 4126.15384615 , 4133.84615385 , 4125.64102564 , 4130.25641026 , 4127.17948718 , 4127.69230769 , 4195.38461538 , 4138.97435897 , 4138.46153846 , 4185.64102564 , 4910.25641026 , 4127.69230769 , 4137.94871795 , 2043.0 , 2037.0 , 303.793 , 0.0 , 0.0 , 0.0 , 0.0 , 

115.0 , 4130.25641026 , 4129.23076923 , 4138.46153846 , 4125.12820513 , 4131.79487179 , 4133.84615385 , 4130.76923077 , 4196.92307692 , 4144.61538462 , 4140.0 , 4186.66666667 , 4911.79487179 , 4125.64102564 , 4140.51282051 , 2045.0 , 2037.0 , 303.812 , 0.0 , 0.0 , 0.0 , 0.0 , 

116.0 , 4130.76923077 , 4128.71794872 , 4140.0 , 4125.64102564 , 4132.82051282 , 4131.28205128 , 4128.20512821 , 4189.23076923 , 4137.94871795 , 4142.05128205 , 4187.17948718 , 4910.76923077 , 4126.66666667 , 4140.0 , 2044.0 , 2037.0 , 303.812 , 0.0 , 0.0 , 0.0 , 0.0 , 

117.0 , 4133.33333333 , 4132.30769231 , 4131.28205128 , 4133.84615385 , 4130.76923077 , 4131.28205128 , 4130.25641026 , 4191.79487179 , 4142.56410256 , 4143.58974359 , 4188.20512821 , 4909.23076923 , 4135.8974359 , 4135.8974359 , 2045.0 , 2037.0 , 303.818 , 0.0 , 0.0 , 0.0 , 0.0 , 

118.0 , 4138.46153846 , 4136.41025641 , 4133.84615385 , 4133.33333333 , 4131.79487179 , 4131.28205128 , 4131.79487179 , 4178.46153846 , 4134.87179487 , 4140.0 , 4188.20512821 , 4913.33333333 , 4132.30769231 , 4139.48717949 , 2044.0 , 2036.0 , 303.825 , 0.0 , 0.0 , 0.0 , 0.0 , 

119.0 , 4128.71794872 , 4135.8974359 , 4129.74358974 , 4138.97435897 , 4130.76923077 , 4131.79487179 , 4131.79487179 , 4183.07692308 , 4140.0 , 4139.48717949 , 4192.30769231 , 4909.74358974 , 4146.15384615 , 4139.48717949 , 2046.0 , 2036.0 , 303.843 , 0.0 , 0.0 , 0.0 , 0.0 , 

120.0 , 4129.23076923 , 4126.15384615 , 4131.28205128 , 4133.84615385 , 4130.76923077 , 4123.58974359 , 4111.79487179 , 4170.76923077 , 4125.64102564 , 4139.48717949 , 4185.64102564 , 4910.76923077 , 4137.43589744 , 4138.97435897 , 2044.0 , 2037.0 , 303.843 , 0.0 , 0.0 , 0.0 , 0.0 , 

121.0 , 4128.71794872 , 4128.71794872 , 4127.69230769 , 4135.8974359 , 4130.76923077 , 4125.12820513 , 4119.48717949 , 4185.64102564 , 4135.8974359 , 4140.51282051 , 4191.79487179 , 4907.17948718 , 4143.58974359 , 4136.92307692 , 2046.0 , 2039.0 , 303.849 , 0.0 , 0.0 , 0.0 , 0.0 , 

122.0 , 4129.74358974 , 4120.51282051 , 4135.38461538 , 4121.53846154 , 4129.23076923 , 4114.35897436 , 4116.41025641 , 4178.97435897 , 4130.25641026 , 4137.43589744 , 4190.76923077 , 4909.74358974 , 4131.79487179 , 4138.97435897 , 2045.0 , 2040.0 , 303.861 , 0.0 , 0.0 , 0.0 , 0.0 , 

123.0 , 4126.15384615 , 4123.07692308 , 4127.17948718 , 4128.71794872 , 4128.20512821 , 4121.53846154 , 4121.02564103 , 4196.41025641 , 4145.64102564 , 4140.51282051 , 4192.30769231 , 4904.1025641 , 4138.97435897 , 4135.38461538 , 2045.0 , 2040.0 , 303.882 , 0.0 , 0.0 , 0.0 , 0.0 , 

124.0 , 4130.76923077 , 4116.92307692 , 4135.8974359 , 4124.61538462 , 4129.74358974 , 4121.02564103 , 4110.25641026 , 4185.64102564 , 4135.8974359 , 4138.97435897 , 4187.17948718 , 4908.71794872 , 4125.64102564 , 4138.97435897 , 2044.0 , 2039.0 , 303.882 , 0.0 , 0.0 , 0.0 , 0.0 , 

125.0 , 4128.71794872 , 4123.07692308 , 4129.74358974 , 4133.33333333 , 4129.23076923 , 4127.69230769 , 4130.25641026 , 4204.1025641 , 4146.66666667 , 4143.58974359 , 4195.38461538 , 4904.61538462 , 4141.53846154 , 4138.97435897 , 2043.0 , 2039.0 , 303.883 , 0.0 , 0.0 , 0.0 , 0.0 , 

126.0 , 4128.71794872 , 4119.48717949 , 4130.25641026 , 4125.12820513 , 4129.23076923 , 4122.56410256 , 4127.17948718 , 4191.79487179 , 4139.48717949 , 4140.51282051 , 4189.74358974 , 4909.23076923 , 4130.76923077 , 4138.97435897 , 2043.0 , 2037.0 , 303.888 , 0.0 , 0.0 , 0.0 , 0.0 , 

127.0 , 4129.23076923 , 4133.33333333 , 4128.20512821 , 4131.28205128 , 4131.79487179 , 4134.35897436 , 4133.33333333 , 4195.38461538 , 4146.15384615 , 4138.46153846 , 4192.30769231 , 4906.66666667 , 4133.33333333 , 4138.97435897 , 2043.0 , 2036.0 , 303.907 , 0.0 , 0.0 , 0.0 , 0.0 , 

128.0 , 4131.79487179 , 4130.25641026 , 4142.05128205 , 4127.17948718 , 4130.25641026 , 4130.25641026 , 4127.69230769 , 4184.61538462 , 4136.92307692 , 4137.43589744 , 4187.17948718 , 4911.28205128 , 4127.69230769 , 4142.05128205 , 2043.0 , 2035.0 , 303.907 , 0.0 , 0.0 , 0.0 , 0.0 , 

0.0 , 4132.82051282 , 4132.82051282 , 4134.87179487 , 4136.41025641 , 4130.76923077 , 4134.87179487 , 4138.46153846 , 4194.35897436 , 4142.05128205 , 4142.05128205 , 4189.23076923 , 4909.23076923 , 4137.43589744 , 4138.97435897 , 2044.0 , 2036.0 , 303.912 , 0.0 , 0.0 , 0.0 , 0.0 , 

1.0 , 4131.28205128 , 4131.28205128 , 4130.76923077 , 4132.82051282 , 4132.82051282 , 4130.25641026 , 4126.15384615 , 4182.56410256 , 4131.28205128 , 4136.92307692 , 4186.15384615 , 4913.84615385 , 4129.23076923 , 4137.43589744 , 2044.0 , 2036.0 , 303.921 , 0.0 , 0.0 , 0.0 , 0.0 , 

2.0 , 4132.82051282 , 4140.0 , 4130.25641026 , 4136.41025641 , 4133.33333333 , 4129.23076923 , 4126.66666667 , 4177.43589744 , 4123.07692308 , 4134.87179487 , 4188.20512821 , 4913.33333333 , 4135.8974359 , 4138.97435897 , 2047.0 , 2035.0 , 303.934 , 0.0 , 0.0 , 0.0 , 0.0 , 

3.0 , 4134.35897436 , 4130.25641026 , 4133.33333333 , 4136.41025641 , 4128.20512821 , 4123.07692308 , 4125.12820513 , 4174.87179487 , 4125.64102564 , 4136.92307692 , 4185.64102564 , 4915.38461538 , 4141.02564103 , 4141.02564103 , 2046.0 , 2034.0 , 303.937 , 0.0 , 0.0 , 0.0 , 0.0 , 

4.0 , 4133.33333333 , 4125.64102564 , 4130.76923077 , 4136.92307692 , 4129.74358974 , 4124.61538462 , 4123.58974359 , 4175.8974359 , 4132.82051282 , 4136.92307692 , 4189.23076923 , 4913.33333333 , 4135.8974359 , 4138.97435897 , 2047.0 , 2032.0 , 303.944 , 0.0 , 0.0 , 0.0 , 0.0 , 

5.0 , 4127.17948718 , 4127.17948718 , 4127.17948718 , 4133.84615385 , 4130.25641026 , 4125.64102564 , 4119.48717949 , 4179.48717949 , 4133.33333333 , 4133.33333333 , 4194.35897436 , 4909.23076923 , 4140.0 , 4137.43589744 , 2047.0 , 2032.0 , 303.952 , 0.0 , 0.0 , 0.0 , 0.0 , 

6.0 , 4131.28205128 , 4126.66666667 , 4128.20512821 , 4129.74358974 , 4130.76923077 , 4122.05128205 , 4116.92307692 , 4181.53846154 , 4127.69230769 , 4135.38461538 , 4191.79487179 , 4907.69230769 , 4142.56410256 , 4139.48717949 , 2048.0 , 2035.0 , 303.968 , 0.0 , 0.0 , 0.0 , 0.0 , 

7.0 , 4129.23076923 , 4124.61538462 , 4125.12820513 , 4133.33333333 , 4128.71794872 , 4124.61538462 , 4124.1025641 , 4197.94871795 , 4150.25641026 , 4143.07692308 , 4190.76923077 , 4904.61538462 , 4140.51282051 , 4138.97435897 , 2047.0 , 2036.0 , 303.968 , 0.0 , 0.0 , 0.0 , 0.0 , 

8.0 , 4128.71794872 , 4120.51282051 , 4132.82051282 , 4128.71794872 , 4128.71794872 , 4123.07692308 , 4124.1025641 , 4192.30769231 , 4150.76923077 , 4141.53846154 , 4188.71794872 , 4902.56410256 , 4125.64102564 , 4139.48717949 , 2046.0 , 2039.0 , 303.976 , 0.0 , 0.0 , 0.0 , 0.0 , 

9.0 , 4126.66666667 , 4122.05128205 , 4130.25641026 , 4129.23076923 , 4128.71794872 , 4129.23076923 , 4134.35897436 , 4205.64102564 , 4153.84615385 , 4140.0 , 4193.84615385 , 4902.05128205 , 4139.48717949 , 4138.97435897 , 2045.0 , 2041.0 , 303.984 , 0.0 , 0.0 , 0.0 , 0.0 , 

10.0 , 4131.28205128 , 4123.07692308 , 4135.8974359 , 4121.53846154 , 4132.30769231 , 4125.64102564 , 4126.15384615 , 4196.41025641 , 4138.46153846 , 4141.02564103 , 4188.20512821 , 4912.30769231 , 4127.17948718 , 4141.53846154 , 2045.0 , 2042.0 , 303.999 , 0.0 , 0.0 , 0.0 , 0.0 , 

11.0 , 4129.74358974 , 4134.35897436 , 4134.87179487 , 4128.71794872 , 4133.33333333 , 4134.35897436 , 4135.38461538 , 4205.12820513 , 4147.17948718 , 4144.61538462 , 4188.20512821 , 4911.79487179 , 4124.1025641 , 4139.48717949 , 2045.0 , 2044.0 , 304.003 , 0.0 , 0.0 , 0.0 , 0.0 , 

12.0 , 4133.84615385 , 4127.69230769 , 4144.61538462 , 4122.05128205 , 4132.30769231 , 4130.76923077 , 4129.23076923 , 4185.64102564 , 4130.76923077 , 4138.46153846 , 4182.05128205 , 4914.87179487 , 4114.35897436 , 4141.02564103 , 2045.0 , 2045.0 , 304.007 , 0.0 , 0.0 , 0.0 , 0.0 , 

13.0 , 4132.30769231 , 4133.33333333 , 4134.35897436 , 4134.87179487 , 4132.82051282 , 4134.35897436 , 4136.41025641 , 4196.92307692 , 4138.46153846 , 4140.0 , 4189.74358974 , 4911.79487179 , 4134.35897436 , 4136.92307692 , 2045.0 , 2044.0 , 304.016 , 0.0 , 0.0 , 0.0 , 0.0 , 

14.0 , 4132.30769231 , 4133.84615385 , 4135.8974359 , 4132.30769231 , 4132.82051282 , 4126.66666667 , 4124.1025641 , 4181.02564103 , 4129.23076923 , 4140.0 , 4186.66666667 , 4916.92307692 , 4127.17948718 , 4138.46153846 , 2045.0 , 2042.0 , 304.035 , 0.0 , 0.0 , 0.0 , 0.0 , 

15.0 , 4131.28205128 , 4140.51282051 , 4128.20512821 , 4137.94871795 , 4131.28205128 , 4132.82051282 , 4132.82051282 , 4185.64102564 , 4136.92307692 , 4137.94871795 , 4190.76923077 , 4911.28205128 , 4144.1025641 , 4137.43589744 , 2044.0 , 2040.0 , 304.039 , 0.0 , 0.0 , 0.0 , 0.0 , 

16.0 , 4132.30769231 , 4128.20512821 , 4132.30769231 , 4130.25641026 , 4129.74358974 , 4121.53846154 , 4122.05128205 , 4172.82051282 , 4126.66666667 , 4132.30769231 , 4186.15384615 , 4912.82051282 , 4140.51282051 , 4136.92307692 , 2043.0 , 2038.0 , 304.039 , 0.0 , 0.0 , 0.0 , 0.0 , 

17.0 , 4129.23076923 , 4132.82051282 , 4124.1025641 , 4139.48717949 , 4131.28205128 , 4123.58974359 , 4126.15384615 , 4187.69230769 , 4138.46153846 , 4137.94871795 , 4193.84615385 , 4907.17948718 , 4147.17948718 , 4135.38461538 , 2042.0 , 2035.0 , 304.045 , 0.0 , 0.0 , 0.0 , 0.0 , 

18.0 , 4130.25641026 , 4126.66666667 , 4128.71794872 , 4130.25641026 , 4129.74358974 , 4122.05128205 , 4116.92307692 , 4179.48717949 , 4135.8974359 , 4141.53846154 , 4190.76923077 , 4911.79487179 , 4137.43589744 , 4138.46153846 , 2041.0 , 2032.0 , 304.06 , 0.0 , 0.0 , 0.0 , 0.0 , 

19.0 , 4131.79487179 , 4125.64102564 , 4125.64102564 , 4133.33333333 , 4129.23076923 , 4126.15384615 , 4123.58974359 , 4188.20512821 , 4141.53846154 , 4142.05128205 , 4190.76923077 , 4907.69230769 , 4142.05128205 , 4136.92307692 , 2042.0 , 2031.0 , 304.066 , 0.0 , 0.0 , 0.0 , 0.0 , 

20.0 , 4128.20512821 , 4118.46153846 , 4133.33333333 , 4129.74358974 , 4128.71794872 , 4119.48717949 , 4118.97435897 , 4192.82051282 , 4143.07692308 , 4137.43589744 , 4187.69230769 , 4907.69230769 , 4131.28205128 , 4137.94871795 , 2043.0 , 2032.0 , 304.07 , 0.0 , 0.0 , 0.0 , 0.0 , 

21.0 , 4125.12820513 , 4125.64102564 , 4136.41025641 , 4125.12820513 , 4129.74358974 , 4126.15384615 , 4126.15384615 , 4199.48717949 , 4145.64102564 , 4139.48717949 , 4192.30769231 , 4907.69230769 , 4125.64102564 , 4138.97435897 , 2045.0 , 2031.0 , 304.077 , 0.0 , 0.0 , 0.0 , 0.0 , 

22.0 , 4125.64102564 , 4123.58974359 , 4136.41025641 , 4118.97435897 , 4128.71794872 , 4130.25641026 , 4127.69230769 , 4197.94871795 , 4142.56410256 , 4142.05128205 , 4190.25641026 , 4911.79487179 , 4126.15384615 , 4137.94871795 , 2045.0 , 2031.0 , 304.095 , 0.0 , 0.0 , 0.0 , 0.0 , 

23.0 , 4134.35897436 , 4126.15384615 , 4134.87179487 , 4126.66666667 , 4131.28205128 , 4129.74358974 , 4129.74358974 , 4195.38461538 , 4139.48717949 , 4141.53846154 , 4186.66666667 , 4910.25641026 , 4125.64102564 , 4135.38461538 , 2044.0 , 2031.0 , 304.097 , 0.0 , 0.0 , 0.0 , 0.0 , 

24.0 , 4132.82051282 , 4130.25641026 , 4136.41025641 , 4132.82051282 , 4130.76923077 , 4130.25641026 , 4131.28205128 , 4195.38461538 , 4145.12820513 , 4140.0 , 4186.15384615 , 4907.69230769 , 4127.17948718 , 4133.84615385 , 2046.0 , 2032.0 , 304.102 , 0.0 , 0.0 , 0.0 , 0.0 , 

25.0 , 4131.28205128 , 4130.25641026 , 4139.48717949 , 4131.28205128 , 4131.28205128 , 4130.25641026 , 4131.28205128 , 4188.71794872 , 4138.46153846 , 4138.97435897 , 4187.17948718 , 4910.76923077 , 4126.15384615 , 4137.94871795 , 2047.0 , 2033.0 , 304.108 , 0.0 , 0.0 , 0.0 , 0.0 , 

26.0 , 4129.74358974 , 4133.84615385 , 4130.25641026 , 4139.48717949 , 4130.76923077 , 4133.84615385 , 4134.35897436 , 4196.92307692 , 4140.0 , 4141.02564103 , 4190.76923077 , 4910.25641026 , 4142.05128205 , 4140.51282051 , 2048.0 , 2032.0 , 304.124 , 0.0 , 0.0 , 0.0 , 0.0 , 

27.0 , 4134.87179487 , 4132.82051282 , 4132.30769231 , 4137.94871795 , 4130.76923077 , 4131.28205128 , 4125.64102564 , 4177.94871795 , 4122.05128205 , 4140.51282051 , 4185.64102564 , 4910.25641026 , 4139.48717949 , 4138.97435897 , 2047.0 , 2034.0 , 304.127 , 0.0 , 0.0 , 0.0 , 0.0 , 

28.0 , 4130.25641026 , 4134.35897436 , 4128.20512821 , 4140.0 , 4128.71794872 , 4133.33333333 , 4130.25641026 , 4182.05128205 , 4130.25641026 , 4138.97435897 , 4189.23076923 , 4908.20512821 , 4146.15384615 , 4133.33333333 , 2046.0 , 2033.0 , 304.134 , 0.0 , 0.0 , 0.0 , 0.0 , 

29.0 , 4129.23076923 , 4127.69230769 , 4131.28205128 , 4132.30769231 , 4129.74358974 , 4119.48717949 , 4117.43589744 , 4174.35897436 , 4125.64102564 , 4135.8974359 , 4187.17948718 , 4914.35897436 , 4134.35897436 , 4137.94871795 , 2044.0 , 2033.0 , 304.141 , 0.0 , 0.0 , 0.0 , 0.0 , 

30.0 , 4126.66666667 , 4129.74358974 , 4125.12820513 , 4138.46153846 , 4130.25641026 , 4122.05128205 , 4120.51282051 , 4190.76923077 , 4139.48717949 , 4139.48717949 , 4194.87179487 , 4907.17948718 , 4143.07692308 , 4138.97435897 , 2045.0 , 2032.0 , 304.157 , 0.0 , 0.0 , 0.0 , 0.0 , 

31.0 , 4132.82051282 , 4118.97435897 , 4132.82051282 , 4126.15384615 , 4129.23076923 , 4118.97435897 , 4111.28205128 , 4177.43589744 , 4129.23076923 , 4135.38461538 , 4190.25641026 , 4909.23076923 , 4127.69230769 , 4137.94871795 , 2044.0 , 2033.0 , 304.158 , 0.0 , 0.0 , 0.0 , 0.0 , 

32.0 , 4131.79487179 , 4125.12820513 , 4125.64102564 , 4130.76923077 , 4129.74358974 , 4126.15384615 , 4122.05128205 , 4195.38461538 , 4145.64102564 , 4136.92307692 , 4191.28205128 , 4907.69230769 , 4137.43589744 , 4134.87179487 , 2044.0 , 2031.0 , 304.165 , 0.0 , 0.0 , 0.0 , 0.0 , 

33.0 , 4129.23076923 , 4121.02564103 , 4133.33333333 , 4125.12820513 , 4128.71794872 , 4119.48717949 , 4113.84615385 , 4188.20512821 , 4140.0 , 4139.48717949 , 4186.15384615 , 4911.79487179 , 4129.23076923 , 4140.0 , 2044.0 , 2032.0 , 304.171 , 0.0 , 0.0 , 0.0 , 0.0 , 

34.0 , 4126.15384615 , 4126.15384615 , 4131.28205128 , 4133.33333333 , 4128.20512821 , 4130.25641026 , 4131.28205128 , 4202.05128205 , 4147.69230769 , 4142.56410256 , 4195.8974359 , 4907.69230769 , 4138.97435897 , 4139.48717949 , 2044.0 , 2032.0 , 304.185 , 0.0 , 0.0 , 0.0 , 0.0 , 

35.0 , 4132.30769231 , 4121.53846154 , 4135.8974359 , 4124.61538462 , 4129.74358974 , 4127.69230769 , 4127.17948718 , 4193.33333333 , 4138.97435897 , 4136.92307692 , 4189.23076923 , 4913.84615385 , 4126.15384615 , 4137.94871795 , 2044.0 , 2032.0 , 304.192 , 0.0 , 0.0 , 0.0 , 0.0 , 

36.0 , 4133.33333333 , 4132.30769231 , 4129.74358974 , 4134.35897436 , 4131.79487179 , 4132.82051282 , 4132.30769231 , 4201.02564103 , 4146.15384615 , 4139.48717949 , 4187.69230769 , 4909.74358974 , 4132.30769231 , 4136.92307692 , 2044.0 , 2032.0 , 304.197 , 0.0 , 0.0 , 0.0 , 0.0 , 

37.0 , 4132.82051282 , 4131.79487179 , 4135.38461538 , 4132.82051282 , 4132.30769231 , 4133.33333333 , 4126.66666667 , 4185.64102564 , 4133.84615385 , 4138.97435897 , 4184.61538462 , 4910.76923077 , 4128.20512821 , 4140.0 , 2044.0 , 2032.0 , 304.203 , 0.0 , 0.0 , 0.0 , 0.0 , 

38.0 , 4134.35897436 , 4138.97435897 , 4133.33333333 , 4137.43589744 , 4132.82051282 , 4139.48717949 , 4132.82051282 , 4185.64102564 , 4128.71794872 , 4137.43589744 , 4188.71794872 , 4911.79487179 , 4134.87179487 , 4137.94871795 , 2043.0 , 2032.0 , 304.218 , 0.0 , 0.0 , 0.0 , 0.0 , 

39.0 , 4133.33333333 , 4132.30769231 , 4133.33333333 , 4132.82051282 , 4130.25641026 , 4129.23076923 , 4122.56410256 , 4180.0 , 4124.1025641 , 4134.87179487 , 4183.07692308 , 4918.46153846 , 4131.79487179 , 4137.43589744 , 2043.0 , 2032.0 , 304.223 , 0.0 , 0.0 , 0.0 , 0.0 , 

40.0 , 4135.38461538 , 4130.76923077 , 4130.25641026 , 4134.87179487 , 4132.82051282 , 4126.15384615 , 4122.56410256 , 4173.84615385 , 4123.58974359 , 4134.87179487 , 4187.17948718 , 4914.87179487 , 4132.30769231 , 4140.0 , 2044.0 , 2031.0 , 304.228 , 0.0 , 0.0 , 0.0 , 0.0 , 

41.0 , 4131.28205128 , 4127.69230769 , 4131.28205128 , 4137.43589744 , 4132.82051282 , 4125.64102564 , 4119.48717949 , 4172.82051282 , 4127.69230769 , 4134.35897436 , 4190.76923077 , 4911.79487179 , 4138.46153846 , 4139.48717949 , 2043.0 , 2033.0 , 304.236 , 0.0 , 0.0 , 0.0 , 0.0 , 

42.0 , 4129.74358974 , 4129.23076923 , 4131.79487179 , 4141.02564103 , 4130.76923077 , 4121.53846154 , 4114.35897436 , 4178.46153846 , 4130.25641026 , 4135.38461538 , 4188.71794872 , 4909.74358974 , 4141.53846154 , 4138.46153846 , 2043.0 , 2032.0 , 304.254 , 0.0 , 0.0 , 0.0 , 0.0 , 

43.0 , 4130.25641026 , 4128.20512821 , 4126.15384615 , 4138.46153846 , 4127.17948718 , 4120.51282051 , 4118.97435897 , 4187.17948718 , 4136.92307692 , 4136.92307692 , 4190.76923077 , 4906.66666667 , 4145.12820513 , 4137.43589744 , 2045.0 , 2032.0 , 304.254 , 0.0 , 0.0 , 0.0 , 0.0 , 

44.0 , 4134.87179487 , 4123.07692308 , 4126.15384615 , 4130.25641026 , 4129.74358974 , 4122.05128205 , 4119.48717949 , 4180.51282051 , 4130.76923077 , 4137.43589744 , 4193.33333333 , 4908.20512821 , 4136.92307692 , 4140.0 , 2044.0 , 2033.0 , 304.259 , 0.0 , 0.0 , 0.0 , 0.0 , 

45.0 , 4127.69230769 , 4126.66666667 , 4124.61538462 , 4134.87179487 , 4130.25641026 , 4125.64102564 , 4123.58974359 , 4198.97435897 , 4150.25641026 , 4140.51282051 , 4195.8974359 , 4906.66666667 , 4141.02564103 , 4137.94871795 , 2044.0 , 2032.0 , 304.267 , 0.0 , 0.0 , 0.0 , 0.0 , 

46.0 , 4130.25641026 , 4126.66666667 , 4133.84615385 , 4127.69230769 , 4128.71794872 , 4122.05128205 , 4121.02564103 , 4192.82051282 , 4145.12820513 , 4140.0 , 4186.66666667 , 4909.74358974 , 4125.12820513 , 4138.97435897 , 2044.0 , 2032.0 , 304.283 , 0.0 , 0.0 , 0.0 , 0.0 , 

47.0 , 4131.28205128 , 4129.74358974 , 4130.76923077 , 4129.23076923 , 4129.23076923 , 4133.33333333 , 4133.84615385 , 4199.48717949 , 4146.66666667 , 4140.51282051 , 4187.69230769 , 4908.71794872 , 4130.25641026 , 4141.53846154 , 2044.0 , 2030.0 , 304.285 , 0.0 , 0.0 , 0.0 , 0.0 , 

48.0 , 4133.84615385 , 4123.58974359 , 4137.43589744 , 4123.58974359 , 4133.33333333 , 4128.71794872 , 4126.15384615 , 4188.20512821 , 4130.25641026 , 4136.92307692 , 4183.58974359 , 4915.8974359 , 4118.46153846 , 4142.56410256 , 2042.0 , 2030.0 , 304.291 , 0.0 , 0.0 , 0.0 , 0.0 , 

49.0 , 4130.76923077 , 4133.33333333 , 4133.33333333 , 4132.82051282 , 4132.82051282 , 4131.79487179 , 4133.84615385 , 4204.61538462 , 4141.53846154 , 4138.97435897 , 4188.71794872 , 4913.33333333 , 4128.20512821 , 4137.43589744 , 2040.0 , 2030.0 , 304.298 , 0.0 , 0.0 , 0.0 , 0.0 , 

50.0 , 4133.84615385 , 4128.71794872 , 4140.51282051 , 4123.58974359 , 4130.25641026 , 4127.17948718 , 4123.58974359 , 4185.64102564 , 4129.74358974 , 4137.94871795 , 4182.56410256 , 4917.94871795 , 4118.97435897 , 4140.51282051 , 2042.0 , 2033.0 , 304.312 , 0.0 , 0.0 , 0.0 , 0.0 , 

51.0 , 4131.79487179 , 4133.33333333 , 4130.25641026 , 4131.79487179 , 4131.28205128 , 4133.33333333 , 4130.76923077 , 4191.28205128 , 4141.02564103 , 4141.02564103 , 4188.20512821 , 4910.76923077 , 4134.35897436 , 4138.97435897 , 2040.0 , 2032.0 , 304.318 , 0.0 , 0.0 , 0.0 , 0.0 , 

52.0 , 4134.87179487 , 4130.76923077 , 4133.84615385 , 4130.76923077 , 4130.76923077 , 4125.64102564 , 4116.41025641 , 4174.35897436 , 4130.76923077 , 4136.92307692 , 4185.64102564 , 4913.33333333 , 4128.71794872 , 4138.97435897 , 2041.0 , 2033.0 , 304.321 , 0.0 , 0.0 , 0.0 , 0.0 , 

53.0 , 4133.33333333 , 4137.94871795 , 4129.23076923 , 4142.56410256 , 4129.74358974 , 4134.87179487 , 4124.1025641 , 4181.02564103 , 4134.87179487 , 4138.97435897 , 4191.28205128 , 4910.25641026 , 4142.56410256 , 4138.46153846 , 2040.0 , 2032.0 , 304.33 , 0.0 , 0.0 , 0.0 , 0.0 , 

54.0 , 4129.74358974 , 4126.15384615 , 4132.82051282 , 4134.35897436 , 4129.74358974 , 4127.17948718 , 4118.46153846 , 4171.28205128 , 4130.25641026 , 4138.46153846 , 4188.71794872 , 4913.33333333 , 4135.8974359 , 4139.48717949 , 2041.0 , 2031.0 , 304.344 , 0.0 , 0.0 , 0.0 , 0.0 , 

55.0 , 4131.79487179 , 4130.76923077 , 4125.12820513 , 4138.46153846 , 4130.25641026 , 4126.15384615 , 4125.12820513 , 4186.15384615 , 4140.0 , 4137.94871795 , 4194.35897436 , 4907.17948718 , 4141.53846154 , 4136.41025641 , 2040.0 , 2031.0 , 304.349 , 0.0 , 0.0 , 0.0 , 0.0 , 

56.0 , 4133.84615385 , 4125.12820513 , 4133.33333333 , 4129.23076923 , 4128.20512821 , 4124.61538462 , 4116.92307692 , 4182.56410256 , 4131.79487179 , 4136.92307692 , 4191.28205128 , 4909.23076923 , 4132.82051282 , 4136.92307692 , 2039.0 , 2031.0 , 304.354 , 0.0 , 0.0 , 0.0 , 0.0 , 

57.0 , 4131.28205128 , 4122.05128205 , 4135.38461538 , 4127.69230769 , 4130.25641026 , 4128.71794872 , 4125.12820513 , 4190.76923077 , 4136.41025641 , 4143.07692308 , 4191.79487179 , 4908.20512821 , 4131.79487179 , 4136.92307692 , 2040.0 , 2032.0 , 304.36 , 0.0 , 0.0 , 0.0 , 0.0 , 

58.0 , 4128.20512821 , 4117.94871795 , 4134.35897436 , 4124.61538462 , 4130.25641026 , 4120.0 , 4120.51282051 , 4193.84615385 , 4144.61538462 , 4141.53846154 , 4187.17948718 , 4911.28205128 , 4127.69230769 , 4138.46153846 , 2040.0 , 2033.0 , 304.374 , 0.0 , 0.0 , 0.0 , 0.0 , 

59.0 , 4131.79487179 , 4124.61538462 , 4134.35897436 , 4125.64102564 , 4130.76923077 , 4126.15384615 , 4120.51282051 , 4193.84615385 , 4145.64102564 , 4138.46153846 , 4188.20512821 , 4908.71794872 , 4129.74358974 , 4140.0 , 2041.0 , 2032.0 , 304.379 , 0.0 , 0.0 , 0.0 , 0.0 , 

60.0 , 4130.76923077 , 4123.07692308 , 4139.48717949 , 4122.05128205 , 4129.74358974 , 4136.41025641 , 4126.15384615 , 4195.38461538 , 4144.1025641 , 4139.48717949 , 4188.71794872 , 4908.20512821 , 4127.69230769 , 4137.94871795 , 2040.0 , 2033.0 , 304.385 , 0.0 , 0.0 , 0.0 , 0.0 , 

61.0 , 4133.33333333 , 4127.69230769 , 4138.97435897 , 4125.12820513 , 4131.28205128 , 4133.84615385 , 4129.23076923 , 4194.87179487 , 4137.43589744 , 4141.02564103 , 4188.20512821 , 4910.76923077 , 4121.02564103 , 4138.46153846 , 2040.0 , 2033.0 , 304.392 , 0.0 , 0.0 , 0.0 , 0.0 , 

62.0 , 4131.28205128 , 4136.92307692 , 4133.33333333 , 4135.38461538 , 4132.82051282 , 4133.84615385 , 4130.25641026 , 4200.0 , 4141.02564103 , 4137.94871795 , 4189.23076923 , 4911.28205128 , 4130.76923077 , 4139.48717949 , 2042.0 , 2035.0 , 304.406 , 0.0 , 0.0 , 0.0 , 0.0 , 

63.0 , 4135.38461538 , 4134.35897436 , 4137.94871795 , 4130.25641026 , 4133.33333333 , 4136.41025641 , 4125.64102564 , 4183.58974359 , 4131.28205128 , 4135.8974359 , 4187.17948718 , 4912.30769231 , 4127.69230769 , 4142.05128205 , 2041.0 , 2034.0 , 304.411 , 0.0 , 0.0 , 0.0 , 0.0 , 

64.0 , 4134.35897436 , 4136.41025641 , 4127.69230769 , 4135.38461538 , 4128.20512821 , 4134.35897436 , 4129.23076923 , 4186.15384615 , 4138.97435897 , 4139.48717949 , 4191.79487179 , 4909.23076923 , 4138.46153846 , 4138.97435897 , 2040.0 , 2033.0 , 304.418 , 0.0 , 0.0 , 0.0 , 0.0 , 

65.0 , 4136.41025641 , 4135.8974359 , 4126.66666667 , 4135.38461538 , 4129.23076923 , 4121.53846154 , 4116.41025641 , 4173.33333333 , 4123.07692308 , 4139.48717949 , 4188.71794872 , 4911.28205128 , 4135.38461538 , 4138.46153846 , 2040.0 , 2033.0 , 304.423 , 0.0 , 0.0 , 0.0 , 0.0 , 

66.0 , 4130.76923077 , 4136.41025641 , 4125.64102564 , 4136.41025641 , 4133.33333333 , 4129.74358974 , 4126.66666667 , 4184.61538462 , 4129.74358974 , 4139.48717949 , 4190.25641026 , 4908.20512821 , 4144.1025641 , 4137.94871795 , 2042.0 , 2033.0 , 304.442 , 0.0 , 0.0 , 0.0 , 0.0 , 

67.0 , 4132.82051282 , 4125.12820513 , 4136.41025641 , 4122.05128205 , 4132.30769231 , 4124.1025641 , 4121.02564103 , 4170.76923077 , 4122.05128205 , 4132.82051282 , 4183.58974359 , 4912.82051282 , 4126.15384615 , 4140.51282051 , 2041.0 , 2036.0 , 304.445 , 0.0 , 0.0 , 0.0 , 0.0 , 

68.0 , 4129.74358974 , 4131.28205128 , 4127.17948718 , 4133.33333333 , 4128.20512821 , 4125.64102564 , 4121.53846154 , 4186.66666667 , 4135.38461538 , 4134.87179487 , 4191.79487179 , 4905.64102564 , 4137.43589744 , 4136.41025641 , 2040.0 , 2036.0 , 304.449 , 0.0 , 0.0 , 0.0 , 0.0 , 

69.0 , 4131.79487179 , 4127.17948718 , 4133.33333333 , 4129.23076923 , 4128.20512821 , 4122.05128205 , 4110.76923077 , 4180.0 , 4129.23076923 , 4137.43589744 , 4186.66666667 , 4908.71794872 , 4129.74358974 , 4136.92307692 , 2040.0 , 2036.0 , 304.456 , 0.0 , 0.0 , 0.0 , 0.0 , 

70.0 , 4130.76923077 , 4132.30769231 , 4128.20512821 , 4135.38461538 , 4129.74358974 , 4130.25641026 , 4132.30769231 , 4198.46153846 , 4146.66666667 , 4141.53846154 , 4191.79487179 , 4908.71794872 , 4140.0 , 4137.43589744 , 2040.0 , 2038.0 , 304.469 , 0.0 , 0.0 , 0.0 , 0.0 , 

71.0 , 4131.28205128 , 4124.61538462 , 4130.76923077 , 4127.69230769 , 4129.74358974 , 4121.53846154 , 4123.07692308 , 4187.17948718 , 4135.8974359 , 4138.46153846 , 4190.76923077 , 4912.30769231 , 4129.74358974 , 4141.02564103 , 2040.0 , 2037.0 , 304.474 , 0.0 , 0.0 , 0.0 , 0.0 , 

72.0 , 4129.74358974 , 4128.20512821 , 4124.61538462 , 4133.84615385 , 4130.76923077 , 4130.25641026 , 4126.66666667 , 4197.43589744 , 4142.56410256 , 4139.48717949 , 4195.8974359 , 4903.07692308 , 4137.94871795 , 4136.92307692 , 2041.0 , 2038.0 , 304.48 , 0.0 , 0.0 , 0.0 , 0.0 , 

73.0 , 4131.28205128 , 4121.02564103 , 4133.84615385 , 4125.64102564 , 4129.23076923 , 4130.25641026 , 4125.12820513 , 4189.74358974 , 4140.0 , 4137.43589744 , 4188.20512821 , 4908.71794872 , 4131.28205128 , 4134.87179487 , 2041.0 , 2039.0 , 304.487 , 0.0 , 0.0 , 0.0 , 0.0 , 

74.0 , 4132.82051282 , 4130.25641026 , 4133.33333333 , 4135.8974359 , 4131.28205128 , 4134.87179487 , 4135.38461538 , 4201.02564103 , 4142.05128205 , 4138.97435897 , 4187.69230769 , 4910.25641026 , 4136.92307692 , 4136.92307692 , 2042.0 , 2036.0 , 304.5 , 0.0 , 0.0 , 0.0 , 0.0 , 

75.0 , 4134.87179487 , 4131.28205128 , 4137.94871795 , 4133.33333333 , 4131.28205128 , 4128.20512821 , 4123.58974359 , 4192.30769231 , 4130.25641026 , 4136.41025641 , 4184.1025641 , 4912.82051282 , 4125.64102564 , 4140.0 , 2041.0 , 2036.0 , 304.506 , 0.0 , 0.0 , 0.0 , 0.0 , 

76.0 , 4137.43589744 , 4135.38461538 , 4131.79487179 , 4133.84615385 , 4130.25641026 , 4129.23076923 , 4128.20512821 , 4182.05128205 , 4130.76923077 , 4137.43589744 , 4188.20512821 , 4912.30769231 , 4127.17948718 , 4137.94871795 , 2042.0 , 2035.0 , 304.511 , 0.0 , 0.0 , 0.0 , 0.0 , 

77.0 , 4134.87179487 , 4130.76923077 , 4130.25641026 , 4132.82051282 , 4127.17948718 , 4124.61538462 , 4124.1025641 , 4172.82051282 , 4132.82051282 , 4138.46153846 , 4188.71794872 , 4913.33333333 , 4131.79487179 , 4136.92307692 , 2042.0 , 2036.0 , 304.519 , 0.0 , 0.0 , 0.0 , 0.0 , 

78.0 , 4133.84615385 , 4132.82051282 , 4131.28205128 , 4135.8974359 , 4128.71794872 , 4125.64102564 , 4118.46153846 , 4175.8974359 , 4129.23076923 , 4137.94871795 , 4188.71794872 , 4908.20512821 , 4133.84615385 , 4139.48717949 , 2043.0 , 2035.0 , 304.533 , 0.0 , 0.0 , 0.0 , 0.0 , 

79.0 , 4132.30769231 , 4128.20512821 , 4129.23076923 , 4135.38461538 , 4129.23076923 , 4128.20512821 , 4118.46153846 , 4177.43589744 , 4132.30769231 , 4133.33333333 , 4190.25641026 , 4907.69230769 , 4139.48717949 , 4137.94871795 , 2044.0 , 2035.0 , 304.536 , 0.0 , 0.0 , 0.0 , 0.0 , 

80.0 , 4136.41025641 , 4125.64102564 , 4127.69230769 , 4132.30769231 , 4131.79487179 , 4126.15384615 , 4118.97435897 , 4167.17948718 , 4128.20512821 , 4135.8974359 , 4189.74358974 , 4910.25641026 , 4137.43589744 , 4136.92307692 , 2044.0 , 2035.0 , 304.542 , 0.0 , 0.0 , 0.0 , 0.0 , 

81.0 , 4130.76923077 , 4130.25641026 , 4124.61538462 , 4134.87179487 , 4130.25641026 , 4125.64102564 , 4121.53846154 , 4184.1025641 , 4139.48717949 , 4142.05128205 , 4192.82051282 , 4903.58974359 , 4142.56410256 , 4138.97435897 , 2046.0 , 2036.0 , 304.551 , 0.0 , 0.0 , 0.0 , 0.0 , 

82.0 , 4130.25641026 , 4127.69230769 , 4129.74358974 , 4128.71794872 , 4129.74358974 , 4123.07692308 , 4115.8974359 , 4189.74358974 , 4137.94871795 , 4137.94871795 , 4190.76923077 , 4902.56410256 , 4134.87179487 , 4144.1025641 , 2046.0 , 2035.0 , 304.566 , 0.0 , 0.0 , 0.0 , 0.0 , 

83.0 , 4127.69230769 , 4127.17948718 , 4126.66666667 , 4132.82051282 , 4127.69230769 , 4131.28205128 , 4129.23076923 , 4206.15384615 , 4152.30769231 , 4135.8974359 , 4191.79487179 , 4906.66666667 , 4140.0 , 4140.51282051 , 2046.0 , 2032.0 , 304.569 , 0.0 , 0.0 , 0.0 , 0.0 , 

84.0 , 4132.82051282 , 4124.61538462 , 4137.94871795 , 4124.61538462 , 4130.76923077 , 4127.17948718 , 4127.17948718 , 4191.79487179 , 4140.51282051 , 4137.94871795 , 4186.66666667 , 4913.84615385 , 4120.0 , 4138.46153846 , 2047.0 , 2032.0 , 304.573 , 0.0 , 0.0 , 0.0 , 0.0 , 

85.0 , 4131.28205128 , 4130.25641026 , 4135.8974359 , 4128.20512821 , 4133.33333333 , 4133.84615385 , 4136.92307692 , 4201.53846154 , 4145.64102564 , 4142.56410256 , 4191.28205128 , 4909.74358974 , 4127.17948718 , 4134.87179487 , 2045.0 , 2035.0 , 304.582 , 0.0 , 0.0 , 0.0 , 0.0 , 

86.0 , 4132.82051282 , 4121.53846154 , 4140.51282051 , 4121.53846154 , 4131.28205128 , 4128.20512821 , 4125.64102564 , 4187.69230769 , 4133.84615385 , 4137.94871795 , 4183.58974359 , 4917.43589744 , 4122.05128205 , 4138.46153846 , 2046.0 , 2035.0 , 304.601 , 0.0 , 0.0 , 0.0 , 0.0 , 

87.0 , 4130.25641026 , 4131.79487179 , 4134.87179487 , 4133.33333333 , 4130.25641026 , 4136.92307692 , 4132.30769231 , 4200.0 , 4145.12820513 , 4138.97435897 , 4185.64102564 , 4912.30769231 , 4131.79487179 , 4137.94871795 , 2045.0 , 2037.0 , 304.602 , 0.0 , 0.0 , 0.0 , 0.0 , 

88.0 , 4132.82051282 , 4131.28205128 , 4140.0 , 4128.20512821 , 4131.79487179 , 4131.79487179 , 4121.02564103 , 4182.05128205 , 4130.25641026 , 4139.48717949 , 4181.02564103 , 4911.79487179 , 4121.53846154 , 4140.0 , 2047.0 , 2039.0 , 304.605 , 0.0 , 0.0 , 0.0 , 0.0 , 

89.0 , 4131.28205128 , 4134.87179487 , 4128.20512821 , 4135.8974359 , 4130.25641026 , 4133.33333333 , 4128.71794872 , 4187.69230769 , 4137.94871795 , 4144.1025641 , 4188.71794872 , 4908.71794872 , 4142.56410256 , 4138.46153846 , 2047.0 , 2040.0 , 304.614 , 0.0 , 0.0 , 0.0 , 0.0 , 

90.0 , 4132.82051282 , 4126.66666667 , 4129.74358974 , 4131.28205128 , 4127.69230769 , 4126.66666667 , 4121.02564103 , 4176.41025641 , 4133.33333333 , 4141.53846154 , 4186.66666667 , 4913.33333333 , 4134.35897436 , 4140.0 , 2047.0 , 2039.0 , 304.629 , 0.0 , 0.0 , 0.0 , 0.0 , 

91.0 , 4132.82051282 , 4132.82051282 , 4127.17948718 , 4140.0 , 4129.23076923 , 4135.8974359 , 4132.30769231 , 4188.20512821 , 4140.0 , 4141.02564103 , 4193.33333333 , 4902.56410256 , 4137.94871795 , 4136.92307692 , 2048.0 , 2039.0 , 304.633 , 0.0 , 0.0 , 0.0 , 0.0 , 

92.0 , 4131.28205128 , 4124.61538462 , 4133.33333333 , 4130.76923077 , 4129.23076923 , 4126.66666667 , 4123.07692308 , 4176.41025641 , 4127.69230769 , 4138.97435897 , 4190.25641026 , 4906.66666667 , 4134.35897436 , 4137.43589744 , 2046.0 , 2037.0 , 304.637 , 0.0 , 0.0 , 0.0 , 0.0 , 

93.0 , 4131.28205128 , 4126.66666667 , 4130.76923077 , 4131.79487179 , 4128.20512821 , 4125.12820513 , 4126.15384615 , 4185.64102564 , 4132.30769231 , 4140.51282051 , 4192.30769231 , 4910.76923077 , 4139.48717949 , 4138.46153846 , 2047.0 , 2036.0 , 304.644 , 0.0 , 0.0 , 0.0 , 0.0 , 

94.0 , 4132.82051282 , 4123.07692308 , 4135.8974359 , 4125.64102564 , 4128.20512821 , 4126.66666667 , 4121.02564103 , 4192.30769231 , 4137.43589744 , 4137.94871795 , 4190.25641026 , 4910.76923077 , 4126.66666667 , 4138.97435897 , 2047.0 , 2034.0 , 304.659 , 0.0 , 0.0 , 0.0 , 0.0 , 

95.0 , 4132.30769231 , 4123.07692308 , 4135.8974359 , 4125.64102564 , 4131.28205128 , 4129.23076923 , 4127.17948718 , 4197.94871795 , 4142.05128205 , 4137.43589744 , 4192.30769231 , 4906.66666667 , 4128.71794872 , 4139.48717949 , 2045.0 , 2031.0 , 304.663 , 0.0 , 0.0 , 0.0 , 0.0 , 

96.0 , 4127.69230769 , 4118.46153846 , 4137.94871795 , 4123.58974359 , 4130.76923077 , 4121.53846154 , 4122.56410256 , 4194.35897436 , 4143.58974359 , 4136.41025641 , 4188.71794872 , 4912.82051282 , 4134.35897436 , 4140.0 , 2045.0 , 2029.0 , 304.669 , 0.0 , 0.0 , 0.0 , 0.0 , 

97.0 , 4130.25641026 , 4124.61538462 , 4137.94871795 , 4126.15384615 , 4129.74358974 , 4124.1025641 , 4122.05128205 , 4193.84615385 , 4140.0 , 4136.41025641 , 4187.17948718 , 4911.28205128 , 4129.23076923 , 4139.48717949 , 2044.0 , 2029.0 , 304.675 , 0.0 , 0.0 , 0.0 , 0.0 , 

98.0 , 4129.23076923 , 4128.20512821 , 4135.38461538 , 4126.15384615 , 4127.69230769 , 4132.82051282 , 4131.79487179 , 4198.97435897 , 4144.1025641 , 4137.43589744 , 4188.20512821 , 4908.71794872 , 4130.25641026 , 4136.41025641 , 2044.0 , 2028.0 , 304.69 , 0.0 , 0.0 , 0.0 , 0.0 , 

99.0 , 4133.33333333 , 4127.69230769 , 4136.92307692 , 4124.1025641 , 4132.82051282 , 4134.35897436 , 4135.8974359 , 4194.35897436 , 4137.94871795 , 4138.97435897 , 4185.64102564 , 4913.84615385 , 4130.25641026 , 4138.97435897 , 2043.0 , 2026.0 , 304.695 , 0.0 , 0.0 , 0.0 , 0.0 , 

100.0 , 4132.82051282 , 4134.35897436 , 4131.28205128 , 4133.33333333 , 4131.79487179 , 4135.8974359 , 4133.33333333 , 4201.53846154 , 4142.56410256 , 4138.97435897 , 4187.69230769 , 4913.84615385 , 4140.0 , 4140.0 , 2043.0 , 2027.0 , 304.7 , 0.0 , 0.0 , 0.0 , 0.0 , 

101.0 , 4134.87179487 , 4134.87179487 , 4133.84615385 , 4130.76923077 , 4129.23076923 , 4130.76923077 , 4123.58974359 , 4183.07692308 , 4126.15384615 , 4135.38461538 , 4186.15384615 , 4912.30769231 , 4131.28205128 , 4140.51282051 , 2043.0 , 2030.0 , 304.707 , 0.0 , 0.0 , 0.0 , 0.0 , 

102.0 , 4130.25641026 , 4134.87179487 , 4126.66666667 , 4136.41025641 , 4130.76923077 , 4133.84615385 , 4131.28205128 , 4187.69230769 , 4133.33333333 , 4138.46153846 , 4191.28205128 , 4907.17948718 , 4144.1025641 , 4137.43589744 , 2043.0 , 2030.0 , 304.726 , 0.0 , 0.0 , 0.0 , 0.0 , 

103.0 , 4134.87179487 , 4126.66666667 , 4132.30769231 , 4129.74358974 , 4134.35897436 , 4125.12820513 , 4114.87179487 , 4172.82051282 , 4124.61538462 , 4138.97435897 , 4186.15384615 , 4912.30769231 , 4134.35897436 , 4141.02564103 , 2041.0 , 2030.0 , 304.726 , 0.0 , 0.0 , 0.0 , 0.0 , 

104.0 , 4132.82051282 , 4129.74358974 , 4131.28205128 , 4134.35897436 , 4130.76923077 , 4128.20512821 , 4118.46153846 , 4183.58974359 , 4132.30769231 , 4137.94871795 , 4191.28205128 , 4909.74358974 , 4139.48717949 , 4140.0 , 2042.0 , 2030.0 , 304.733 , 0.0 , 0.0 , 0.0 , 0.0 , 

105.0 , 4131.79487179 , 4120.0 , 4138.97435897 , 4123.07692308 , 4126.66666667 , 4121.53846154 , 4114.35897436 , 4174.35897436 , 4122.56410256 , 4134.87179487 , 4186.66666667 , 4912.82051282 , 4127.17948718 , 4138.46153846 , 2042.0 , 2030.0 , 304.74 , 0.0 , 0.0 , 0.0 , 0.0 , 

106.0 , 4127.17948718 , 4125.64102564 , 4129.23076923 , 4131.28205128 , 4129.23076923 , 4125.12820513 , 4126.66666667 , 4192.30769231 , 4141.53846154 , 4141.02564103 , 4192.30769231 , 4906.66666667 , 4140.51282051 , 4135.38461538 , 2040.0 , 2030.0 , 304.754 , 0.0 , 0.0 , 0.0 , 0.0 , 

107.0 , 4131.28205128 , 4122.56410256 , 4136.41025641 , 4125.12820513 , 4129.23076923 , 4117.94871795 , 4114.87179487 , 4181.53846154 , 4133.84615385 , 4139.48717949 , 4188.71794872 , 4912.30769231 , 4129.23076923 , 4139.48717949 , 2041.0 , 2031.0 , 304.758 , 0.0 , 0.0 , 0.0 , 0.0 , 

108.0 , 4132.82051282 , 4129.23076923 , 4132.30769231 , 4131.79487179 , 4129.23076923 , 4132.30769231 , 4129.74358974 , 4198.46153846 , 4142.56410256 , 4140.0 , 4192.82051282 , 4907.69230769 , 4142.56410256 , 4139.48717949 , 2041.0 , 2030.0 , 304.763 , 0.0 , 0.0 , 0.0 , 0.0 , 

109.0 , 4131.28205128 , 4122.56410256 , 4134.35897436 , 4124.61538462 , 4130.76923077 , 4129.74358974 , 4129.74358974 , 4191.28205128 , 4140.51282051 , 4138.97435897 , 4185.12820513 , 4908.71794872 , 4135.38461538 , 4141.02564103 , 2040.0 , 2031.0 , 304.771 , 0.0 , 0.0 , 0.0 , 0.0 , 

110.0 , 4130.76923077 , 4133.33333333 , 4129.23076923 , 4131.79487179 , 4131.79487179 , 4133.33333333 , 4137.43589744 , 4199.48717949 , 4145.64102564 , 4140.51282051 , 4190.25641026 , 4905.12820513 , 4137.43589744 , 4138.46153846 , 2040.0 , 2032.0 , 304.791 , 0.0 , 0.0 , 0.0 , 0.0 , 

111.0 , 4134.35897436 , 4131.28205128 , 4133.84615385 , 4127.69230769 , 4130.76923077 , 4132.82051282 , 4128.71794872 , 4191.28205128 , 4128.71794872 , 4135.8974359 , 4189.23076923 , 4911.28205128 , 4126.66666667 , 4138.97435897 , 2041.0 , 2029.0 , 304.791 , 0.0 , 0.0 , 0.0 , 0.0 , 

112.0 , 4135.8974359 , 4133.84615385 , 4130.76923077 , 4134.87179487 , 4132.82051282 , 4135.38461538 , 4134.35897436 , 4193.33333333 , 4132.82051282 , 4135.38461538 , 4186.66666667 , 4910.76923077 , 4130.76923077 , 4138.97435897 , 2041.0 , 2030.0 , 304.795 , 0.0 , 0.0 , 0.0 , 0.0 , 

113.0 , 4132.30769231 , 4129.23076923 , 4136.41025641 , 4132.30769231 , 4131.28205128 , 4124.61538462 , 4126.66666667 , 4185.12820513 , 4135.38461538 , 4134.87179487 , 4180.51282051 , 4912.30769231 , 4126.66666667 , 4138.97435897 , 2040.0 , 2029.0 , 304.803 , 0.0 , 0.0 , 0.0 , 0.0 , 

114.0 , 4133.33333333 , 4131.28205128 , 4135.8974359 , 4134.35897436 , 4130.25641026 , 4124.61538462 , 4126.15384615 , 4180.0 , 4127.69230769 , 4135.38461538 , 4187.17948718 , 4909.74358974 , 4133.84615385 , 4138.46153846 , 2041.0 , 2029.0 , 304.822 , 0.0 , 0.0 , 0.0 , 0.0 , 

115.0 , 4130.25641026 , 4126.15384615 , 4128.71794872 , 4134.35897436 , 4129.74358974 , 4124.61538462 , 4124.1025641 , 4174.35897436 , 4126.66666667 , 4133.84615385 , 4189.74358974 , 4912.82051282 , 4142.05128205 , 4139.48717949 , 2041.0 , 2031.0 , 304.822 , 0.0 , 0.0 , 0.0 , 0.0 , 

116.0 , 4130.25641026 , 4126.66666667 , 4129.23076923 , 4133.84615385 , 4131.79487179 , 4126.15384615 , 4123.07692308 , 4171.28205128 , 4128.71794872 , 4134.87179487 , 4187.17948718 , 4912.82051282 , 4135.8974359 , 4140.0 , 2041.0 , 2032.0 , 304.826 , 0.0 , 0.0 , 0.0 , 0.0 , 

117.0 , 4128.20512821 , 4130.76923077 , 4132.30769231 , 4133.33333333 , 4130.76923077 , 4131.79487179 , 4127.69230769 , 4179.48717949 , 4137.43589744 , 4138.46153846 , 4191.28205128 , 4908.20512821 , 4138.97435897 , 4137.43589744 , 2041.0 , 2033.0 , 304.834 , 0.0 , 0.0 , 0.0 , 0.0 , 

118.0 , 4133.33333333 , 4131.28205128 , 4133.84615385 , 4131.28205128 , 4131.28205128 , 4128.20512821 , 4125.64102564 , 4176.92307692 , 4134.35897436 , 4138.97435897 , 4191.28205128 , 4911.28205128 , 4135.38461538 , 4138.97435897 , 2040.0 , 2032.0 , 304.853 , 0.0 , 0.0 , 0.0 , 0.0 , 

119.0 , 4131.28205128 , 4130.76923077 , 4125.64102564 , 4137.43589744 , 4128.71794872 , 4125.12820513 , 4127.17948718 , 4195.8974359 , 4149.23076923 , 4138.97435897 , 4191.28205128 , 4911.28205128 , 4141.02564103 , 4137.43589744 , 2040.0 , 2033.0 , 304.855 , 0.0 , 0.0 , 0.0 , 0.0 , 

120.0 , 4131.79487179 , 4126.66666667 , 4131.79487179 , 4128.20512821 , 4129.74358974 , 4123.58974359 , 4121.02564103 , 4191.28205128 , 4139.48717949 , 4135.8974359 , 4187.69230769 , 4910.25641026 , 4130.25641026 , 4139.48717949 , 2039.0 , 2031.0 , 304.857 , 0.0 , 0.0 , 0.0 , 0.0 , 

121.0 , 4127.69230769 , 4130.25641026 , 4131.28205128 , 4128.71794872 , 4129.74358974 , 4133.84615385 , 4134.87179487 , 4202.05128205 , 4146.15384615 , 4138.46153846 , 4193.84615385 , 4906.66666667 , 4141.02564103 , 4139.48717949 , 2040.0 , 2030.0 , 304.866 , 0.0 , 0.0 , 0.0 , 0.0 , 

122.0 , 4132.82051282 , 4124.61538462 , 4139.48717949 , 4121.53846154 , 4131.28205128 , 4126.15384615 , 4124.61538462 , 4185.64102564 , 4134.87179487 , 4140.0 , 4186.15384615 , 4913.84615385 , 4126.15384615 , 4142.05128205 , 2038.0 , 2031.0 , 304.882 , 0.0 , 0.0 , 0.0 , 0.0 , 

123.0 , 4132.82051282 , 4133.84615385 , 4132.82051282 , 4131.79487179 , 4134.35897436 , 4129.74358974 , 4131.79487179 , 4196.41025641 , 4142.05128205 , 4140.51282051 , 4189.23076923 , 4909.74358974 , 4130.25641026 , 4137.43589744 , 2039.0 , 2031.0 , 304.886 , 0.0 , 0.0 , 0.0 , 0.0 , 

124.0 , 4132.82051282 , 4130.25641026 , 4137.94871795 , 4126.66666667 , 4134.35897436 , 4127.69230769 , 4123.07692308 , 4183.58974359 , 4128.71794872 , 4133.84615385 , 4185.12820513 , 4916.92307692 , 4122.56410256 , 4138.97435897 , 2039.0 , 2030.0 , 304.89 , 0.0 , 0.0 , 0.0 , 0.0 , 

125.0 , 4129.74358974 , 4133.33333333 , 4129.74358974 , 4138.46153846 , 4131.28205128 , 4135.8974359 , 4130.76923077 , 4195.38461538 , 4144.1025641 , 4138.46153846 , 4190.76923077 , 4915.38461538 , 4140.0 , 4138.97435897 , 2038.0 , 2031.0 , 304.896 , 0.0 , 0.0 , 0.0 , 0.0 , 

126.0 , 4132.82051282 , 4127.69230769 , 4135.38461538 , 4132.30769231 , 4131.28205128 , 4125.12820513 , 4120.0 , 4175.8974359 , 4134.35897436 , 4138.97435897 , 4184.1025641 , 4914.35897436 , 4128.20512821 , 4139.48717949 , 2039.0 , 2031.0 , 304.911 , 0.0 , 0.0 , 0.0 , 0.0 , 

127.0 , 4131.79487179 , 4135.8974359 , 4128.71794872 , 4137.94871795 , 4131.79487179 , 4129.74358974 , 4132.30769231 , 4181.02564103 , 4134.87179487 , 4137.94871795 , 4188.20512821 , 4907.69230769 , 4138.46153846 , 4137.43589744 , 2040.0 , 2031.0 , 304.917 , 0.0 , 0.0 , 0.0 , 0.0 , 

128.0 , 4129.74358974 , 4128.20512821 , 4130.76923077 , 4132.82051282 , 4130.25641026 , 4126.15384615 , 4123.58974359 , 4172.82051282 , 4127.17948718 , 4134.87179487 , 4187.17948718 , 4915.8974359 , 4137.43589744 , 4140.51282051 , 2040.0 , 2031.0 , 304.922 , 0.0 , 0.0 , 0.0 , 0.0 , 

0.0 , 4129.74358974 , 4132.30769231 , 4124.61538462 , 4140.51282051 , 4132.30769231 , 4132.82051282 , 4127.69230769 , 4184.61538462 , 4135.8974359 , 4137.94871795 , 4192.82051282 , 4909.23076923 , 4142.05128205 , 4140.51282051 , 2039.0 , 2034.0 , 304.928 , 0.0 , 0.0 , 0.0 , 0.0 , 

1.0 , 4129.74358974 , 4125.12820513 , 4128.71794872 , 4129.23076923 , 4129.74358974 , 4127.17948718 , 4120.51282051 , 4181.53846154 , 4131.79487179 , 4134.87179487 , 4189.23076923 , 4906.15384615 , 4132.30769231 , 4141.53846154 , 2040.0 , 2033.0 , 304.942 , 0.0 , 0.0 , 0.0 , 0.0 , 

2.0 , 4131.28205128 , 4125.64102564 , 4130.25641026 , 4127.69230769 , 4127.69230769 , 4124.61538462 , 4123.58974359 , 4191.28205128 , 4137.94871795 , 4136.92307692 , 4190.25641026 , 4907.17948718 , 4138.46153846 , 4141.02564103 , 2040.0 , 2034.0 , 304.948 , 0.0 , 0.0 , 0.0 , 0.0 , 

3.0 , 4132.82051282 , 4122.56410256 , 4137.43589744 , 4126.15384615 , 4128.71794872 , 4120.0 , 4117.43589744 , 4191.79487179 , 4139.48717949 , 4138.97435897 , 4188.71794872 , 4913.84615385 , 4131.28205128 , 4139.48717949 , 2041.0 , 2034.0 , 304.953 , 0.0 , 0.0 , 0.0 , 0.0 , 

4.0 , 4133.84615385 , 4124.61538462 , 4138.97435897 , 4130.76923077 , 4129.74358974 , 4126.66666667 , 4124.1025641 , 4192.82051282 , 4137.94871795 , 4140.0 , 4189.23076923 , 4911.28205128 , 4129.23076923 , 4139.48717949 , 2040.0 , 2034.0 , 304.959 , 0.0 , 0.0 , 0.0 , 0.0 , 

5.0 , 4129.74358974 , 4121.02564103 , 4134.87179487 , 4127.69230769 , 4128.20512821 , 4129.23076923 , 4126.66666667 , 4196.41025641 , 4144.1025641 , 4139.48717949 , 4188.71794872 , 4909.74358974 , 4135.8974359 , 4140.0 , 2041.0 , 2037.0 , 304.974 , 0.0 , 0.0 , 0.0 , 0.0 , 

6.0 , 4132.82051282 , 4125.12820513 , 4133.84615385 , 4127.17948718 , 4132.82051282 , 4127.69230769 , 4123.07692308 , 4191.28205128 , 4138.97435897 , 4139.48717949 , 4189.23076923 , 4909.74358974 , 4130.76923077 , 4140.0 , 2041.0 , 2036.0 , 304.977 , 0.0 , 0.0 , 0.0 , 0.0 , 

7.0 , 4130.76923077 , 4130.25641026 , 4130.25641026 , 4134.35897436 , 4132.82051282 , 4133.33333333 , 4130.76923077 , 4195.8974359 , 4138.97435897 , 4138.97435897 , 4193.84615385 , 4908.20512821 , 4133.33333333 , 4136.92307692 , 2041.0 , 2034.0 , 304.984 , 0.0 , 0.0 , 0.0 , 0.0 , 

8.0 , 4133.33333333 , 4129.74358974 , 4134.87179487 , 4131.79487179 , 4130.76923077 , 4133.84615385 , 4130.76923077 , 4189.23076923 , 4132.82051282 , 4137.43589744 , 4190.76923077 , 4911.79487179 , 4128.20512821 , 4138.46153846 , 2042.0 , 2034.0 , 304.992 , 0.0 , 0.0 , 0.0 , 0.0 , 

9.0 , 4130.76923077 , 4136.92307692 , 4131.79487179 , 4136.41025641 , 4130.25641026 , 4132.30769231 , 4131.28205128 , 4197.43589744 , 4144.1025641 , 4140.51282051 , 4190.25641026 , 4910.25641026 , 4136.41025641 , 4138.97435897 , 2042.0 , 2035.0 , 305.009 , 0.0 , 0.0 , 0.0 , 0.0 , 

10.0 , 4132.30769231 , 4132.30769231 , 4134.87179487 , 4130.76923077 , 4133.33333333 , 4123.58974359 , 4118.97435897 , 4176.41025641 , 4123.58974359 , 4137.94871795 , 4186.15384615 , 4911.28205128 , 4130.25641026 , 4140.51282051 , 2044.0 , 2036.0 , 305.011 , 0.0 , 0.0 , 0.0 , 0.0 , 

11.0 , 4129.23076923 , 4127.69230769 , 4127.69230769 , 4132.82051282 , 4131.28205128 , 4131.79487179 , 4128.20512821 , 4182.56410256 , 4128.71794872 , 4137.43589744 , 4190.76923077 , 4907.69230769 , 4146.15384615 , 4137.94871795 , 2042.0 , 2038.0 , 305.015 , 0.0 , 0.0 , 0.0 , 0.0 , 

12.0 , 4133.33333333 , 4118.46153846 , 4134.35897436 , 4125.12820513 , 4129.74358974 , 4121.02564103 , 4116.92307692 , 4169.74358974 , 4125.64102564 , 4135.8974359 , 4186.15384615 , 4913.33333333 , 4136.41025641 , 4141.53846154 , 2042.0 , 2038.0 , 305.022 , 0.0 , 0.0 , 0.0 , 0.0 , 

13.0 , 4129.23076923 , 4130.25641026 , 4128.71794872 , 4137.94871795 , 4129.23076923 , 4122.56410256 , 4123.07692308 , 4183.07692308 , 4136.92307692 , 4138.97435897 , 4191.79487179 , 4908.20512821 , 4143.07692308 , 4140.51282051 , 2044.0 , 2039.0 , 305.036 , 0.0 , 0.0 , 0.0 , 0.0 , 

14.0 , 4131.28205128 , 4126.66666667 , 4132.30769231 , 4128.20512821 , 4128.71794872 , 4122.56410256 , 4117.94871795 , 4175.8974359 , 4123.07692308 , 4135.38461538 , 4184.61538462 , 4911.79487179 , 4126.15384615 , 4140.0 , 2042.0 , 2037.0 , 305.042 , 0.0 , 0.0 , 0.0 , 0.0 , 

15.0 , 4130.76923077 , 4129.74358974 , 4122.56410256 , 4134.35897436 , 4129.23076923 , 4129.23076923 , 4129.74358974 , 4198.97435897 , 4140.0 , 4137.94871795 , 4189.23076923 , 4909.74358974 , 4138.46153846 , 4138.97435897 , 2043.0 , 2037.0 , 305.047 , 0.0 , 0.0 , 0.0 , 0.0 , 

16.0 , 4131.28205128 , 4125.12820513 , 4129.23076923 , 4132.30769231 , 4130.25641026 , 4118.46153846 , 4121.02564103 , 4189.74358974 , 4137.43589744 , 4137.94871795 , 4188.20512821 , 4912.30769231 , 4134.35897436 , 4141.02564103 , 2042.0 , 2037.0 , 305.054 , 0.0 , 0.0 , 0.0 , 0.0 , 

17.0 , 4131.28205128 , 4135.38461538 , 4127.69230769 , 4138.97435897 , 4131.79487179 , 4130.76923077 , 4133.84615385 , 4198.97435897 , 4144.61538462 , 4140.51282051 , 4193.84615385 , 4904.1025641 , 4144.1025641 , 4137.43589744 , 2043.0 , 2038.0 , 305.069 , 0.0 , 0.0 , 0.0 , 0.0 , 

18.0 , 4132.30769231 , 4127.69230769 , 4133.84615385 , 4128.20512821 , 4130.25641026 , 4128.71794872 , 4125.64102564 , 4191.28205128 , 4135.8974359 , 4138.46153846 , 4188.71794872 , 4910.76923077 , 4135.38461538 , 4139.48717949 , 2043.0 , 2039.0 , 305.072 , 0.0 , 0.0 , 0.0 , 0.0 , 

19.0 , 4131.28205128 , 4130.25641026 , 4130.25641026 , 4134.35897436 , 4130.25641026 , 4128.20512821 , 4129.23076923 , 4196.92307692 , 4136.41025641 , 4140.0 , 4194.87179487 , 4911.28205128 , 4137.43589744 , 4138.97435897 , 2042.0 , 2037.0 , 305.077 , 0.0 , 0.0 , 0.0 , 0.0 , 

20.0 , 4131.79487179 , 4129.74358974 , 4134.35897436 , 4128.20512821 , 4130.76923077 , 4125.12820513 , 4124.61538462 , 4188.20512821 , 4128.20512821 , 4136.92307692 , 4191.79487179 , 4911.28205128 , 4127.69230769 , 4138.46153846 , 2042.0 , 2039.0 , 305.086 , 0.0 , 0.0 , 0.0 , 0.0 , 

21.0 , 4134.35897436 , 4135.38461538 , 4132.30769231 , 4130.76923077 , 4130.76923077 , 4128.71794872 , 4129.74358974 , 4187.69230769 , 4130.76923077 , 4135.8974359 , 4188.20512821 , 4907.69230769 , 4132.30769231 , 4139.48717949 , 2044.0 , 2040.0 , 305.103 , 0.0 , 0.0 , 0.0 , 0.0 , 

22.0 , 4132.82051282 , 4128.71794872 , 4133.84615385 , 4131.28205128 , 4127.17948718 , 4124.1025641 , 4124.61538462 , 4182.05128205 , 4129.74358974 , 4134.87179487 , 4185.12820513 , 4912.30769231 , 4131.79487179 , 4140.51282051 , 2043.0 , 2040.0 , 305.103 , 0.0 , 0.0 , 0.0 , 0.0 , 

23.0 , 4132.82051282 , 4129.23076923 , 4133.33333333 , 4131.28205128 , 4129.74358974 , 4127.69230769 , 4127.69230769 , 4176.92307692 , 4126.66666667 , 4135.8974359 , 4187.17948718 , 4913.33333333 , 4126.66666667 , 4138.97435897 , 2040.0 , 2038.0 , 305.109 , 0.0 , 0.0 , 0.0 , 0.0 , 

24.0 , 4128.20512821 , 4128.71794872 , 4129.74358974 , 4132.82051282 , 4129.74358974 , 4130.25641026 , 4128.20512821 , 4175.38461538 , 4137.43589744 , 4136.41025641 , 4187.17948718 , 4912.82051282 , 4135.38461538 , 4137.43589744 , 2042.0 , 2038.0 , 305.118 , 0.0 , 0.0 , 0.0 , 0.0 , 

25.0 , 4133.33333333 , 4128.20512821 , 4130.25641026 , 4133.33333333 , 4128.71794872 , 4124.61538462 , 4121.53846154 , 4172.82051282 , 4135.38461538 , 4138.97435897 , 4188.20512821 , 4912.82051282 , 4138.97435897 , 4138.46153846 , 2042.0 , 2037.0 , 305.137 , 0.0 , 0.0 , 0.0 , 0.0 , 

26.0 , 4133.33333333 , 4131.79487179 , 4129.23076923 , 4134.35897436 , 4129.23076923 , 4127.69230769 , 4127.17948718 , 4189.23076923 , 4140.0 , 4141.02564103 , 4193.84615385 , 4907.17948718 , 4141.02564103 , 4137.94871795 , 2040.0 , 2037.0 , 305.141 , 0.0 , 0.0 , 0.0 , 0.0 , 

27.0 , 4131.79487179 , 4128.71794872 , 4135.38461538 , 4128.20512821 , 4132.82051282 , 4127.17948718 , 4125.12820513 , 4182.56410256 , 4134.87179487 , 4136.41025641 , 4189.23076923 , 4908.71794872 , 4131.28205128 , 4141.53846154 , 2041.0 , 2036.0 , 305.141 , 0.0 , 0.0 , 0.0 , 0.0 , 

28.0 , 4127.17948718 , 4129.74358974 , 4130.25641026 , 4134.87179487 , 4130.25641026 , 4128.71794872 , 4130.25641026 , 4196.92307692 , 4149.23076923 , 4135.38461538 , 4191.79487179 , 4907.17948718 , 4141.02564103 , 4138.97435897 , 2040.0 , 2037.0 , 305.149 , 0.0 , 0.0 , 0.0 , 0.0 , 

29.0 , 4133.33333333 , 4123.58974359 , 4135.8974359 , 4126.15384615 , 4128.20512821 , 4123.58974359 , 4121.02564103 , 4190.25641026 , 4138.46153846 , 4136.92307692 , 4188.71794872 , 4909.74358974 , 4127.69230769 , 4138.46153846 , 2040.0 , 2035.0 , 305.167 , 0.0 , 0.0 , 0.0 , 0.0 , 

30.0 , 4129.23076923 , 4124.1025641 , 4131.79487179 , 4131.28205128 , 4129.74358974 , 4129.74358974 , 4131.28205128 , 4201.02564103 , 4147.69230769 , 4139.48717949 , 4190.25641026 , 4909.23076923 , 4133.84615385 , 4140.0 , 2042.0 , 2033.0 , 305.169 , 0.0 , 0.0 , 0.0 , 0.0 , 

31.0 , 4131.28205128 , 4119.48717949 , 4140.51282051 , 4126.66666667 , 4133.33333333 , 4124.1025641 , 4123.58974359 , 4186.15384615 , 4132.30769231 , 4134.87179487 , 4182.05128205 , 4917.94871795 , 4121.02564103 , 4142.56410256 , 2043.0 , 2032.0 , 305.172 , 0.0 , 0.0 , 0.0 , 0.0 , 

32.0 , 4133.33333333 , 4135.38461538 , 4136.41025641 , 4135.8974359 , 4133.33333333 , 4132.30769231 , 4133.84615385 , 4202.05128205 , 4138.46153846 , 4137.94871795 , 4187.17948718 , 4912.82051282 , 4131.28205128 , 4136.92307692 , 2043.0 , 2029.0 , 305.18 , 0.0 , 0.0 , 0.0 , 0.0 , 

33.0 , 4134.87179487 , 4130.76923077 , 4141.53846154 , 4127.17948718 , 4129.74358974 , 4127.17948718 , 4124.1025641 , 4182.56410256 , 4130.25641026 , 4137.94871795 , 4183.58974359 , 4914.87179487 , 4122.56410256 , 4139.48717949 , 2044.0 , 2028.0 , 305.194 , 0.0 , 0.0 , 0.0 , 0.0 , 

34.0 , 4131.79487179 , 4132.30769231 , 4130.25641026 , 4134.35897436 , 4130.25641026 , 4132.30769231 , 4134.35897436 , 4185.64102564 , 4143.07692308 , 4143.58974359 , 4188.71794872 , 4913.33333333 , 4136.41025641 , 4141.02564103 , 2044.0 , 2029.0 , 305.199 , 0.0 , 0.0 , 0.0 , 0.0 , 

35.0 , 4133.84615385 , 4131.28205128 , 4132.30769231 , 4129.74358974 , 4132.30769231 , 4126.66666667 , 4127.17948718 , 4175.8974359 , 4132.30769231 , 4142.05128205 , 4185.64102564 , 4915.38461538 , 4129.23076923 , 4141.02564103 , 2044.0 , 2033.0 , 305.204 , 0.0 , 0.0 , 0.0 , 0.0 , 

36.0 , 4131.28205128 , 4139.48717949 , 4128.71794872 , 4141.02564103 , 4130.76923077 , 4132.82051282 , 4135.38461538 , 4185.12820513 , 4135.8974359 , 4141.02564103 , 4192.30769231 , 4905.64102564 , 4142.05128205 , 4137.43589744 , 2044.0 , 2034.0 , 305.212 , 0.0 , 0.0 , 0.0 , 0.0 , 

37.0 , 4128.71794872 , 4124.61538462 , 4135.38461538 , 4135.8974359 , 4128.71794872 , 4123.58974359 , 4125.12820513 , 4172.30769231 , 4126.66666667 , 4136.92307692 , 4188.20512821 , 4908.71794872 , 4138.97435897 , 4137.94871795 , 2044.0 , 2037.0 , 305.227 , 0.0 , 0.0 , 0.0 , 0.0 , 

38.0 , 4130.76923077 , 4126.66666667 , 4129.74358974 , 4136.92307692 , 4131.79487179 , 4125.64102564 , 4127.17948718 , 4179.48717949 , 4133.33333333 , 4140.0 , 4190.25641026 , 4905.64102564 , 4141.02564103 , 4138.46153846 , 2045.0 , 2037.0 , 305.233 , 0.0 , 0.0 , 0.0 , 0.0 , 

39.0 , 4133.84615385 , 4126.15384615 , 4131.28205128 , 4128.20512821 , 4129.74358974 , 4125.12820513 , 4120.0 , 4182.56410256 , 4134.87179487 , 4138.46153846 , 4189.23076923 , 4908.71794872 , 4129.74358974 , 4141.02564103 , 2045.0 , 2036.0 , 305.237 , 0.0 , 0.0 , 0.0 , 0.0 , 

40.0 , 4133.84615385 , 4126.66666667 , 4133.84615385 , 4129.23076923 , 4129.23076923 , 4126.66666667 , 4124.1025641 , 4191.79487179 , 4135.8974359 , 4136.92307692 , 4191.28205128 , 4909.74358974 , 4130.25641026 , 4140.0 , 2046.0 , 2037.0 , 305.244 , 0.0 , 0.0 , 0.0 , 0.0 , 

41.0 , 4127.17948718 , 4122.05128205 , 4136.92307692 , 4127.17948718 , 4128.71794872 , 4123.07692308 , 4120.0 , 4196.92307692 , 4143.07692308 , 4138.46153846 , 4189.23076923 , 4909.74358974 , 4131.28205128 , 4137.43589744 , 2046.0 , 2036.0 , 305.262 , 0.0 , 0.0 , 0.0 , 0.0 , 

42.0 , 4129.23076923 , 4125.12820513 , 4135.38461538 , 4124.61538462 , 4131.28205128 , 4123.58974359 , 4120.51282051 , 4198.97435897 , 4145.64102564 , 4141.53846154 , 4188.71794872 , 4906.66666667 , 4128.20512821 , 4138.46153846 , 2044.0 , 2034.0 , 305.264 , 0.0 , 0.0 , 0.0 , 0.0 , 

43.0 , 4129.74358974 , 4125.12820513 , 4132.82051282 , 4125.64102564 , 4128.71794872 , 4126.66666667 , 4129.74358974 , 4203.07692308 , 4147.69230769 , 4140.51282051 , 4189.74358974 , 4907.69230769 , 4135.38461538 , 4137.94871795 , 2044.0 , 2031.0 , 305.269 , 0.0 , 0.0 , 0.0 , 0.0 , 

44.0 , 4132.82051282 , 4126.66666667 , 4136.41025641 , 4126.66666667 , 4127.17948718 , 4126.66666667 , 4134.35897436 , 4194.87179487 , 4138.97435897 , 4137.94871795 , 4187.17948718 , 4911.28205128 , 4132.30769231 , 4137.43589744 , 2044.0 , 2029.0 , 305.274 , 0.0 , 0.0 , 0.0 , 0.0 , 

45.0 , 4129.74358974 , 4134.87179487 , 4131.28205128 , 4132.82051282 , 4128.71794872 , 4131.79487179 , 4135.38461538 , 4198.46153846 , 4144.61538462 , 4137.43589744 , 4189.23076923 , 4909.74358974 , 4134.87179487 , 4135.38461538 , 2045.0 , 2029.0 , 305.289 , 0.0 , 0.0 , 0.0 , 0.0 , 

46.0 , 4131.79487179 , 4133.84615385 , 4134.35897436 , 4131.79487179 , 4132.82051282 , 4128.71794872 , 4124.61538462 , 4183.07692308 , 4126.15384615 , 4135.8974359 , 4185.64102564 , 4913.33333333 , 4124.61538462 , 4140.51282051 , 2043.0 , 2027.0 , 305.293 , 0.0 , 0.0 , 0.0 , 0.0 , 

47.0 , 4128.71794872 , 4132.30769231 , 4129.74358974 , 4141.02564103 , 4128.71794872 , 4133.33333333 , 4131.79487179 , 4192.82051282 , 4134.35897436 , 4139.48717949 , 4188.71794872 , 4909.23076923 , 4137.94871795 , 4141.53846154 , 2043.0 , 2026.0 , 305.299 , 0.0 , 0.0 , 0.0 , 0.0 , 

48.0 , 4133.33333333 , 4124.61538462 , 4133.84615385 , 4133.33333333 , 4127.69230769 , 4125.64102564 , 4122.05128205 , 4173.84615385 , 4128.20512821 , 4135.8974359 , 4184.61538462 , 4911.28205128 , 4127.69230769 , 4142.05128205 , 2043.0 , 2026.0 , 305.306 , 0.0 , 0.0 , 0.0 , 0.0 , 

49.0 , 4131.79487179 , 4130.76923077 , 4127.17948718 , 4137.43589744 , 4130.76923077 , 4127.17948718 , 4129.23076923 , 4180.0 , 4133.84615385 , 4134.35897436 , 4190.76923077 , 4905.64102564 , 4138.97435897 , 4139.48717949 , 2044.0 , 2027.0 , 305.325 , 0.0 , 0.0 , 0.0 , 0.0 , 

50.0 , 4132.82051282 , 4125.12820513 , 4133.33333333 , 4127.69230769 , 4129.23076923 , 4120.0 , 4118.46153846 , 4169.74358974 , 4122.05128205 , 4133.84615385 , 4185.64102564 , 4909.74358974 , 4133.33333333 , 4141.02564103 , 2044.0 , 2028.0 , 305.325 , 0.0 , 0.0 , 0.0 , 0.0 , 

51.0 , 4131.79487179 , 4130.76923077 , 4127.69230769 , 4136.41025641 , 4127.17948718 , 4126.15384615 , 4124.61538462 , 4186.66666667 , 4139.48717949 , 4140.0 , 4192.30769231 , 4908.20512821 , 4144.61538462 , 4137.43589744 , 2044.0 , 2029.0 , 305.33 , 0.0 , 0.0 , 0.0 , 0.0 , 

52.0 , 4134.35897436 , 4124.1025641 , 4134.87179487 , 4129.23076923 , 4129.74358974 , 4120.0 , 4115.38461538 , 4177.94871795 , 4130.76923077 , 4138.46153846 , 4189.74358974 , 4911.28205128 , 4133.33333333 , 4140.51282051 , 2045.0 , 2030.0 , 305.338 , 0.0 , 0.0 , 0.0 , 0.0 , 

53.0 , 4129.74358974 , 4128.71794872 , 4128.20512821 , 4133.84615385 , 4130.25641026 , 4128.20512821 , 4128.20512821 , 4197.43589744 , 4143.58974359 , 4142.05128205 , 4194.35897436 , 4903.07692308 , 4145.64102564 , 4143.07692308 , 2044.0 , 2029.0 , 305.353 , 0.0 , 0.0 , 0.0 , 0.0 , 

54.0 , 4129.23076923 , 4122.05128205 , 4132.30769231 , 4126.66666667 , 4127.69230769 , 4123.07692308 , 4117.94871795 , 4189.74358974 , 4143.07692308 , 4140.51282051 , 4187.69230769 , 4907.69230769 , 4133.84615385 , 4141.53846154 , 2045.0 , 2031.0 , 305.357 , 0.0 , 0.0 , 0.0 , 0.0 , 

55.0 , 4131.79487179 , 4130.76923077 , 4127.69230769 , 4135.8974359 , 4130.25641026 , 4129.23076923 , 4126.66666667 , 4198.46153846 , 4146.66666667 , 4138.97435897 , 4192.30769231 , 4906.15384615 , 4134.87179487 , 4135.38461538 , 2044.0 , 2030.0 , 305.362 , 0.0 , 0.0 , 0.0 , 0.0 , 

56.0 , 4132.30769231 , 4126.66666667 , 4133.84615385 , 4129.74358974 , 4131.28205128 , 4129.74358974 , 4126.66666667 , 4193.33333333 , 4134.35897436 , 4136.41025641 , 4189.23076923 , 4910.76923077 , 4127.17948718 , 4139.48717949 , 2044.0 , 2033.0 , 305.37 , 0.0 , 0.0 , 0.0 , 0.0 , 

57.0 , 4131.79487179 , 4130.25641026 , 4132.30769231 , 4132.82051282 , 4131.79487179 , 4136.41025641 , 4129.74358974 , 4196.41025641 , 4137.43589744 , 4141.02564103 , 4185.64102564 , 4909.74358974 , 4133.33333333 , 4142.05128205 , 2043.0 , 2033.0 , 305.388 , 0.0 , 0.0 , 0.0 , 0.0 , 

58.0 , 4131.28205128 , 4128.71794872 , 4135.38461538 , 4128.20512821 , 4128.71794872 , 4128.71794872 , 4120.0 , 4187.17948718 , 4133.84615385 , 4138.46153846 , 4181.02564103 , 4913.33333333 , 4127.17948718 , 4138.97435897 , 2042.0 , 2036.0 , 305.388 , 0.0 , 0.0 , 0.0 , 0.0 , 

59.0 , 4134.35897436 , 4133.84615385 , 4133.33333333 , 4130.76923077 , 4129.23076923 , 4126.15384615 , 4125.12820513 , 4183.07692308 , 4129.74358974 , 4134.87179487 , 4186.66666667 , 4913.84615385 , 4127.17948718 , 4137.94871795 , 2040.0 , 2037.0 , 305.394 , 0.0 , 0.0 , 0.0 , 0.0 , 

60.0 , 4132.82051282 , 4130.25641026 , 4130.25641026 , 4136.92307692 , 4129.23076923 , 4126.66666667 , 4123.07692308 , 4178.97435897 , 4133.84615385 , 4137.43589744 , 4189.23076923 , 4913.33333333 , 4133.84615385 , 4141.02564103 , 2040.0 , 2036.0 , 305.402 , 0.0 , 0.0 , 0.0 , 0.0 , 

61.0 , 4133.84615385 , 4127.69230769 , 4130.76923077 , 4138.97435897 , 4129.23076923 , 4129.74358974 , 4118.97435897 , 4174.35897436 , 4130.76923077 , 4141.02564103 , 4187.17948718 , 4909.74358974 , 4134.87179487 , 4140.51282051 , 2040.0 , 2038.0 , 305.416 , 0.0 , 0.0 , 0.0 , 0.0 , 

62.0 , 4130.76923077 , 4128.20512821 , 4128.71794872 , 4137.94871795 , 4127.69230769 , 4130.76923077 , 4125.12820513 , 4179.48717949 , 4133.33333333 , 4138.97435897 , 4190.76923077 , 4909.23076923 , 4141.02564103 , 4137.43589744 , 2040.0 , 2038.0 , 305.419 , 0.0 , 0.0 , 0.0 , 0.0 , 

63.0 , 4133.84615385 , 4128.71794872 , 4130.25641026 , 4133.84615385 , 4129.74358974 , 4124.1025641 , 4124.1025641 , 4172.82051282 , 4127.17948718 , 4137.94871795 , 4191.79487179 , 4910.76923077 , 4136.92307692 , 4137.94871795 , 2039.0 , 2036.0 , 305.424 , 0.0 , 0.0 , 0.0 , 0.0 , 

64.0 , 4129.23076923 , 4132.30769231 , 4124.61538462 , 4137.94871795 , 4128.71794872 , 4129.23076923 , 4127.69230769 , 4190.76923077 , 4141.53846154 , 4140.0 , 4191.79487179 , 4903.58974359 , 4144.1025641 , 4136.41025641 , 2038.0 , 2036.0 , 305.433 , 0.0 , 0.0 , 0.0 , 0.0 , 

65.0 , 4129.23076923 , 4127.69230769 , 4130.25641026 , 4129.74358974 , 4128.20512821 , 4127.69230769 , 4120.51282051 , 4185.64102564 , 4136.41025641 , 4135.8974359 , 4187.17948718 , 4906.15384615 , 4131.28205128 , 4141.02564103 , 2039.0 , 2037.0 , 305.452 , 0.0 , 0.0 , 0.0 , 0.0 , 

66.0 , 4129.23076923 , 4128.71794872 , 4127.69230769 , 4132.82051282 , 4130.25641026 , 4128.20512821 , 4128.20512821 , 4196.92307692 , 4147.69230769 , 4138.97435897 , 4192.82051282 , 4908.20512821 , 4138.97435897 , 4141.02564103 , 2038.0 , 2037.0 , 305.453 , 0.0 , 0.0 , 0.0 , 0.0 , 

67.0 , 4135.8974359 , 4123.07692308 , 4138.46153846 , 4123.58974359 , 4131.28205128 , 4120.51282051 , 4118.97435897 , 4187.69230769 , 4135.8974359 , 4139.48717949 , 4188.20512821 , 4913.84615385 , 4124.61538462 , 4141.53846154 , 2039.0 , 2038.0 , 305.458 , 0.0 , 0.0 , 0.0 , 0.0 , 

68.0 , 4128.20512821 , 4129.74358974 , 4135.38461538 , 4130.76923077 , 4128.71794872 , 4132.30769231 , 4127.17948718 , 4205.64102564 , 4145.64102564 , 4139.48717949 , 4190.25641026 , 4906.66666667 , 4130.25641026 , 4138.97435897 , 2039.0 , 2038.0 , 305.465 , 0.0 , 0.0 , 0.0 , 0.0 , 

69.0 , 4130.76923077 , 4125.64102564 , 4139.48717949 , 4126.66666667 , 4128.71794872 , 4130.25641026 , 4120.0 , 4186.66666667 , 4132.30769231 , 4136.41025641 , 4183.07692308 , 4911.28205128 , 4121.53846154 , 4141.53846154 , 2039.0 , 2037.0 , 305.479 , 0.0 , 0.0 , 0.0 , 0.0 , 

70.0 , 4134.87179487 , 4135.38461538 , 4129.74358974 , 4133.33333333 , 4130.76923077 , 4135.8974359 , 4130.76923077 , 4195.8974359 , 4143.07692308 , 4139.48717949 , 4190.76923077 , 4909.74358974 , 4137.43589744 , 4138.97435897 , 2040.0 , 2038.0 , 305.483 , 0.0 , 0.0 , 0.0 , 0.0 , 

71.0 , 4132.82051282 , 4132.82051282 , 4136.41025641 , 4122.05128205 , 4129.23076923 , 4128.71794872 , 4120.51282051 , 4185.12820513 , 4134.87179487 , 4136.41025641 , 4187.69230769 , 4913.84615385 , 4127.69230769 , 4138.97435897 , 2041.0 , 2037.0 , 305.489 , 0.0 , 0.0 , 0.0 , 0.0 , 

72.0 , 4129.74358974 , 4138.46153846 , 4128.71794872 , 4132.30769231 , 4130.25641026 , 4133.33333333 , 4129.23076923 , 4190.76923077 , 4140.51282051 , 4139.48717949 , 4192.30769231 , 4908.20512821 , 4137.43589744 , 4136.92307692 , 2042.0 , 2036.0 , 305.495 , 0.0 , 0.0 , 0.0 , 0.0 , 

73.0 , 4133.33333333 , 4128.20512821 , 4130.25641026 , 4132.82051282 , 4130.25641026 , 4128.71794872 , 4120.0 , 4173.84615385 , 4131.79487179 , 4140.51282051 , 4187.69230769 , 4911.28205128 , 4132.82051282 , 4138.97435897 , 2043.0 , 2036.0 , 305.508 , 0.0 , 0.0 , 0.0 , 0.0 , 

74.0 , 4130.25641026 , 4130.76923077 , 4127.17948718 , 4140.0 , 4130.76923077 , 4134.35897436 , 4127.69230769 , 4180.0 , 4137.43589744 , 4140.51282051 , 4192.30769231 , 4908.20512821 , 4140.0 , 4138.97435897 , 2042.0 , 2033.0 , 305.514 , 0.0 , 0.0 , 0.0 , 0.0 , 

75.0 , 4128.71794872 , 4127.17948718 , 4132.82051282 , 4129.23076923 , 4130.76923077 , 4127.69230769 , 4120.0 , 4171.28205128 , 4128.20512821 , 4135.38461538 , 4189.74358974 , 4911.28205128 , 4133.84615385 , 4138.97435897 , 2043.0 , 2032.0 , 305.52 , 0.0 , 0.0 , 0.0 , 0.0 , 

76.0 , 4133.33333333 , 4132.30769231 , 4127.69230769 , 4131.28205128 , 4131.79487179 , 4126.66666667 , 4121.53846154 , 4176.41025641 , 4131.79487179 , 4136.92307692 , 4192.30769231 , 4908.20512821 , 4137.94871795 , 4137.43589744 , 2044.0 , 2030.0 , 305.528 , 0.0 , 0.0 , 0.0 , 0.0 , 

77.0 , 4128.71794872 , 4123.58974359 , 4131.28205128 , 4128.20512821 , 4129.23076923 , 4121.53846154 , 4117.94871795 , 4185.64102564 , 4139.48717949 , 4137.94871795 , 4190.76923077 , 4908.20512821 , 4133.33333333 , 4137.94871795 , 2045.0 , 2031.0 , 305.544 , 0.0 , 0.0 , 0.0 , 0.0 , 

78.0 , 4128.20512821 , 4123.07692308 , 4135.38461538 , 4125.64102564 , 4133.84615385 , 4125.64102564 , 4125.12820513 , 4194.35897436 , 4139.48717949 , 4137.94871795 , 4191.28205128 , 4907.69230769 , 4132.82051282 , 4140.0 , 2045.0 , 2029.0 , 305.544 , 0.0 , 0.0 , 0.0 , 0.0 , 

