['COUNTER', 'AF3', 'F7', 'F3', 'FC5', 'T7', 'P7', 'O1', 'O2', 'P8', 'T8', 'FC6', 'F4', 'F8', 'AF4', 'GYROX', 'GYROY', 'TIMESTAMP', 'FUNC_ID', 'FUNC_VALUE', 'MARKER', 'SYNC_SIGNAL']
76.0 , 4120.0 , 4120.0 , 4128.20512821 , 4121.02564103 , 4124.1025641 , 4126.15384615 , 4123.07692308 , 4140.0 , 4123.07692308 , 4135.38461538 , 4071.28205128 , 3386.66666667 , 4127.69230769 , 4141.02564103 , 2032.0 , 2035.0 , 128.808 , 0.0 , 0.0 , 0.0 , 0.0 , 

77.0 , 4121.02564103 , 4121.02564103 , 4125.12820513 , 4118.97435897 , 4124.61538462 , 4124.61538462 , 4124.1025641 , 4138.97435897 , 4123.07692308 , 4135.38461538 , 4069.74358974 , 3391.79487179 , 4129.74358974 , 4138.97435897 , 2032.0 , 2033.0 , 128.824 , 0.0 , 0.0 , 0.0 , 0.0 , 

78.0 , 4122.56410256 , 4119.48717949 , 4122.56410256 , 4122.56410256 , 4124.61538462 , 4122.56410256 , 4126.15384615 , 4135.8974359 , 4122.56410256 , 4135.38461538 , 4071.79487179 , 3393.84615385 , 4125.12820513 , 4136.92307692 , 2033.0 , 2033.0 , 128.824 , 0.0 , 0.0 , 0.0 , 0.0 , 

79.0 , 4118.46153846 , 4120.51282051 , 4124.1025641 , 4124.1025641 , 4122.56410256 , 4124.1025641 , 4124.1025641 , 4135.8974359 , 4123.07692308 , 4135.38461538 , 4071.79487179 , 3388.20512821 , 4130.76923077 , 4138.97435897 , 2033.0 , 2033.0 , 128.839 , 0.0 , 0.0 , 0.0 , 0.0 , 

80.0 , 4119.48717949 , 4122.05128205 , 4129.23076923 , 4122.05128205 , 4125.12820513 , 4125.64102564 , 4120.0 , 4131.79487179 , 4123.58974359 , 4135.38461538 , 4068.71794872 , 3389.23076923 , 4128.20512821 , 4138.46153846 , 2034.0 , 2033.0 , 128.839 , 0.0 , 0.0 , 0.0 , 0.0 , 

81.0 , 4122.05128205 , 4120.51282051 , 4124.61538462 , 4118.46153846 , 4126.66666667 , 4125.64102564 , 4121.02564103 , 4132.30769231 , 4122.56410256 , 4135.38461538 , 4071.28205128 , 3393.84615385 , 4134.35897436 , 4140.0 , 2034.0 , 2032.0 , 128.855 , 0.0 , 0.0 , 0.0 , 0.0 , 

82.0 , 4123.07692308 , 4120.0 , 4124.61538462 , 4118.97435897 , 4123.07692308 , 4124.61538462 , 4123.58974359 , 4131.28205128 , 4118.97435897 , 4135.38461538 , 4071.28205128 , 3393.33333333 , 4125.12820513 , 4136.41025641 , 2034.0 , 2034.0 , 128.855 , 0.0 , 0.0 , 0.0 , 0.0 , 

83.0 , 4118.46153846 , 4119.48717949 , 4125.64102564 , 4120.51282051 , 4122.05128205 , 4122.56410256 , 4120.0 , 4130.25641026 , 4121.02564103 , 4135.38461538 , 4067.69230769 , 3391.79487179 , 4129.23076923 , 4137.94871795 , 2034.0 , 2034.0 , 128.871 , 0.0 , 0.0 , 0.0 , 0.0 , 

84.0 , 4119.48717949 , 4120.51282051 , 4124.61538462 , 4122.56410256 , 4125.12820513 , 4122.56410256 , 4117.43589744 , 4121.02564103 , 4123.58974359 , 4135.38461538 , 4067.69230769 , 3392.82051282 , 4131.79487179 , 4140.0 , 2033.0 , 2033.0 , 128.871 , 0.0 , 0.0 , 0.0 , 0.0 , 

85.0 , 4120.0 , 4121.02564103 , 4120.51282051 , 4121.53846154 , 4125.12820513 , 4124.1025641 , 4118.46153846 , 4125.12820513 , 4126.66666667 , 4135.38461538 , 4068.20512821 , 3391.79487179 , 4137.94871795 , 4142.05128205 , 2033.0 , 2034.0 , 128.886 , 0.0 , 0.0 , 0.0 , 0.0 , 

86.0 , 4121.53846154 , 4121.53846154 , 4122.56410256 , 4120.51282051 , 4127.17948718 , 4125.64102564 , 4118.97435897 , 4123.58974359 , 4129.74358974 , 4135.8974359 , 4067.69230769 , 3390.76923077 , 4128.71794872 , 4140.51282051 , 2034.0 , 2032.0 , 128.886 , 0.0 , 0.0 , 0.0 , 0.0 , 

87.0 , 4122.56410256 , 4121.53846154 , 4124.61538462 , 4123.07692308 , 4127.69230769 , 4124.61538462 , 4118.46153846 , 4127.17948718 , 4129.23076923 , 4135.38461538 , 4071.79487179 , 3390.76923077 , 4131.79487179 , 4141.02564103 , 2034.0 , 2032.0 , 128.902 , 0.0 , 0.0 , 0.0 , 0.0 , 

88.0 , 4125.64102564 , 4122.05128205 , 4127.69230769 , 4126.66666667 , 4122.56410256 , 4124.1025641 , 4117.43589744 , 4131.79487179 , 4124.1025641 , 4134.87179487 , 4073.84615385 , 3392.30769231 , 4130.76923077 , 4141.53846154 , 2032.0 , 2031.0 , 128.902 , 0.0 , 0.0 , 0.0 , 0.0 , 

89.0 , 4124.1025641 , 4121.53846154 , 4126.15384615 , 4125.12820513 , 4121.53846154 , 4124.1025641 , 4117.43589744 , 4133.33333333 , 4123.58974359 , 4136.41025641 , 4073.33333333 , 3393.33333333 , 4129.74358974 , 4139.48717949 , 2034.0 , 2031.0 , 128.918 , 0.0 , 0.0 , 0.0 , 0.0 , 

90.0 , 4123.07692308 , 4123.58974359 , 4125.12820513 , 4122.56410256 , 4125.64102564 , 4124.61538462 , 4120.0 , 4125.12820513 , 4124.61538462 , 4134.35897436 , 4070.76923077 , 3394.35897436 , 4122.56410256 , 4138.97435897 , 2033.0 , 2031.0 , 128.933 , 0.0 , 0.0 , 0.0 , 0.0 , 

91.0 , 4122.56410256 , 4123.07692308 , 4125.64102564 , 4122.56410256 , 4123.58974359 , 4123.58974359 , 4120.51282051 , 4126.15384615 , 4123.07692308 , 4131.28205128 , 4069.74358974 , 3391.79487179 , 4126.66666667 , 4138.97435897 , 2035.0 , 2033.0 , 128.933 , 0.0 , 0.0 , 0.0 , 0.0 , 

92.0 , 4123.07692308 , 4120.51282051 , 4125.64102564 , 4122.05128205 , 4122.05128205 , 4123.07692308 , 4116.41025641 , 4129.74358974 , 4124.1025641 , 4132.82051282 , 4070.25641026 , 3393.33333333 , 4127.69230769 , 4139.48717949 , 2035.0 , 2033.0 , 128.949 , 0.0 , 0.0 , 0.0 , 0.0 , 

93.0 , 4123.58974359 , 4122.05128205 , 4123.58974359 , 4119.48717949 , 4125.12820513 , 4123.58974359 , 4116.92307692 , 4130.25641026 , 4127.17948718 , 4134.87179487 , 4071.28205128 , 3395.8974359 , 4120.0 , 4138.46153846 , 2033.0 , 2033.0 , 128.949 , 0.0 , 0.0 , 0.0 , 0.0 , 

94.0 , 4122.05128205 , 4125.12820513 , 4124.61538462 , 4119.48717949 , 4124.61538462 , 4123.58974359 , 4120.0 , 4125.12820513 , 4126.15384615 , 4134.35897436 , 4069.74358974 , 3393.33333333 , 4124.1025641 , 4141.02564103 , 2035.0 , 2033.0 , 128.949 , 0.0 , 0.0 , 0.0 , 0.0 , 

95.0 , 4121.53846154 , 4124.1025641 , 4126.66666667 , 4123.58974359 , 4123.58974359 , 4123.07692308 , 4119.48717949 , 4124.61538462 , 4126.15384615 , 4134.35897436 , 4069.23076923 , 3390.25641026 , 4127.17948718 , 4138.97435897 , 2034.0 , 2033.0 , 128.964 , 0.0 , 0.0 , 0.0 , 0.0 , 

96.0 , 4122.05128205 , 4122.05128205 , 4123.58974359 , 4122.05128205 , 4124.1025641 , 4123.07692308 , 4116.92307692 , 4127.17948718 , 4129.23076923 , 4134.87179487 , 4069.74358974 , 3390.76923077 , 4132.30769231 , 4139.48717949 , 2034.0 , 2034.0 , 128.98 , 0.0 , 0.0 , 0.0 , 0.0 , 

97.0 , 4124.1025641 , 4124.61538462 , 4123.07692308 , 4120.0 , 4122.05128205 , 4123.07692308 , 4116.92307692 , 4123.58974359 , 4130.25641026 , 4136.41025641 , 4068.71794872 , 3392.82051282 , 4128.20512821 , 4136.92307692 , 2034.0 , 2032.0 , 128.98 , 0.0 , 0.0 , 0.0 , 0.0 , 

98.0 , 4123.07692308 , 4123.58974359 , 4123.58974359 , 4123.07692308 , 4120.0 , 4123.58974359 , 4116.92307692 , 4124.1025641 , 4128.71794872 , 4135.8974359 , 4070.76923077 , 3393.33333333 , 4131.79487179 , 4137.43589744 , 2035.0 , 2034.0 , 128.996 , 0.0 , 0.0 , 0.0 , 0.0 , 

99.0 , 4125.64102564 , 4122.05128205 , 4127.17948718 , 4125.12820513 , 4123.58974359 , 4124.61538462 , 4118.97435897 , 4124.61538462 , 4127.69230769 , 4131.79487179 , 4071.79487179 , 3393.33333333 , 4125.12820513 , 4136.92307692 , 2035.0 , 2035.0 , 129.005 , 0.0 , 0.0 , 0.0 , 0.0 , 

100.0 , 4124.61538462 , 4123.07692308 , 4124.61538462 , 4122.05128205 , 4125.64102564 , 4121.53846154 , 4117.94871795 , 4130.25641026 , 4126.66666667 , 4131.79487179 , 4071.28205128 , 3392.30769231 , 4129.74358974 , 4138.97435897 , 2036.0 , 2034.0 , 129.012 , 0.0 , 0.0 , 0.0 , 0.0 , 

101.0 , 4124.61538462 , 4124.61538462 , 4124.61538462 , 4124.61538462 , 4122.56410256 , 4122.05128205 , 4117.43589744 , 4127.17948718 , 4125.64102564 , 4134.87179487 , 4070.76923077 , 3391.28205128 , 4124.1025641 , 4135.38461538 , 2035.0 , 2033.0 , 129.019 , 0.0 , 0.0 , 0.0 , 0.0 , 

102.0 , 4122.05128205 , 4122.05128205 , 4125.64102564 , 4126.15384615 , 4120.0 , 4124.1025641 , 4119.48717949 , 4126.15384615 , 4126.15384615 , 4134.35897436 , 4070.25641026 , 3389.74358974 , 4127.17948718 , 4134.35897436 , 2037.0 , 2034.0 , 129.021 , 0.0 , 0.0 , 0.0 , 0.0 , 

103.0 , 4122.56410256 , 4122.05128205 , 4126.15384615 , 4125.64102564 , 4122.56410256 , 4124.61538462 , 4120.0 , 4126.66666667 , 4128.71794872 , 4133.84615385 , 4069.23076923 , 3391.79487179 , 4122.56410256 , 4135.38461538 , 2039.0 , 2034.0 , 129.021 , 0.0 , 0.0 , 0.0 , 0.0 , 

104.0 , 4122.05128205 , 4123.58974359 , 4119.48717949 , 4126.66666667 , 4124.1025641 , 4122.56410256 , 4117.94871795 , 4131.79487179 , 4129.74358974 , 4135.38461538 , 4070.25641026 , 3392.82051282 , 4129.74358974 , 4138.97435897 , 2040.0 , 2033.0 , 129.036 , 0.0 , 0.0 , 0.0 , 0.0 , 

105.0 , 4123.58974359 , 4124.61538462 , 4120.51282051 , 4126.66666667 , 4121.53846154 , 4124.1025641 , 4121.02564103 , 4123.58974359 , 4128.20512821 , 4135.8974359 , 4067.17948718 , 3392.82051282 , 4126.66666667 , 4136.41025641 , 2044.0 , 2028.0 , 129.036 , 0.0 , 0.0 , 0.0 , 0.0 , 

106.0 , 4122.05128205 , 4123.58974359 , 4124.1025641 , 4121.53846154 , 4121.53846154 , 4126.15384615 , 4120.0 , 4124.61538462 , 4129.74358974 , 4135.38461538 , 4066.15384615 , 3394.35897436 , 4128.71794872 , 4134.35897436 , 2047.0 , 2027.0 , 129.052 , 0.0 , 0.0 , 0.0 , 0.0 , 

107.0 , 4123.58974359 , 4124.1025641 , 4123.58974359 , 4123.07692308 , 4124.61538462 , 4125.12820513 , 4114.87179487 , 4122.56410256 , 4128.20512821 , 4135.38461538 , 4067.17948718 , 3396.41025641 , 4124.1025641 , 4134.35897436 , 2048.0 , 2029.0 , 129.052 , 0.0 , 0.0 , 0.0 , 0.0 , 

108.0 , 4124.1025641 , 4124.61538462 , 4117.94871795 , 4127.69230769 , 4124.1025641 , 4122.56410256 , 4114.87179487 , 4119.48717949 , 4124.61538462 , 4135.38461538 , 4067.17948718 , 3392.82051282 , 4131.28205128 , 4135.38461538 , 2049.0 , 2028.0 , 129.067 , 0.0 , 0.0 , 0.0 , 0.0 , 

109.0 , 4122.05128205 , 4126.15384615 , 4117.94871795 , 4128.20512821 , 4122.56410256 , 4123.58974359 , 4116.41025641 , 4113.84615385 , 4126.66666667 , 4135.38461538 , 4065.64102564 , 3391.79487179 , 4135.8974359 , 4137.43589744 , 2048.0 , 2027.0 , 129.067 , 0.0 , 0.0 , 0.0 , 0.0 , 

110.0 , 4122.56410256 , 4129.23076923 , 4120.0 , 4126.66666667 , 4125.12820513 , 4123.07692308 , 4114.35897436 , 4114.35897436 , 4127.69230769 , 4135.38461538 , 4066.15384615 , 3396.41025641 , 4132.82051282 , 4142.56410256 , 2048.0 , 2031.0 , 129.083 , 0.0 , 0.0 , 0.0 , 0.0 , 

111.0 , 4125.64102564 , 4129.23076923 , 4117.94871795 , 4126.66666667 , 4125.64102564 , 4121.02564103 , 4112.82051282 , 4111.28205128 , 4127.69230769 , 4135.38461538 , 4065.12820513 , 3397.94871795 , 4134.87179487 , 4148.71794872 , 2049.0 , 2030.0 , 129.083 , 0.0 , 0.0 , 0.0 , 0.0 , 

112.0 , 4125.64102564 , 4127.69230769 , 4112.82051282 , 4128.71794872 , 4122.05128205 , 4120.0 , 4113.84615385 , 4112.82051282 , 4135.38461538 , 4135.8974359 , 4063.58974359 , 3395.38461538 , 4130.76923077 , 4146.15384615 , 2049.0 , 2032.0 , 129.099 , 0.0 , 0.0 , 0.0 , 0.0 , 

113.0 , 4125.12820513 , 4129.74358974 , 4114.35897436 , 4129.23076923 , 4123.07692308 , 4120.0 , 4115.8974359 , 4118.46153846 , 4138.46153846 , 4135.38461538 , 4064.1025641 , 3394.87179487 , 4130.25641026 , 4143.07692308 , 2049.0 , 2032.0 , 129.099 , 0.0 , 0.0 , 0.0 , 0.0 , 

114.0 , 4127.69230769 , 4129.23076923 , 4120.0 , 4126.66666667 , 4123.58974359 , 4121.53846154 , 4114.87179487 , 4118.46153846 , 4134.87179487 , 4134.87179487 , 4066.66666667 , 3395.38461538 , 4130.25641026 , 4141.53846154 , 2050.0 , 2032.0 , 129.114 , 0.0 , 0.0 , 0.0 , 0.0 , 

115.0 , 4125.64102564 , 4125.12820513 , 4120.51282051 , 4125.12820513 , 4121.02564103 , 4121.02564103 , 4112.30769231 , 4121.53846154 , 4133.33333333 , 4136.41025641 , 4067.17948718 , 3393.84615385 , 4134.87179487 , 4145.12820513 , 2050.0 , 2032.0 , 129.13 , 0.0 , 0.0 , 0.0 , 0.0 , 

116.0 , 4124.1025641 , 4125.64102564 , 4123.07692308 , 4126.66666667 , 4123.58974359 , 4121.53846154 , 4114.35897436 , 4121.53846154 , 4130.25641026 , 4134.87179487 , 4066.15384615 , 3393.84615385 , 4128.20512821 , 4140.0 , 2051.0 , 2032.0 , 129.13 , 0.0 , 0.0 , 0.0 , 0.0 , 

117.0 , 4124.1025641 , 4126.15384615 , 4123.07692308 , 4127.17948718 , 4127.17948718 , 4122.56410256 , 4114.87179487 , 4122.05128205 , 4126.66666667 , 4131.79487179 , 4065.12820513 , 3395.38461538 , 4130.25641026 , 4136.92307692 , 2049.0 , 2027.0 , 129.13 , 0.0 , 0.0 , 0.0 , 0.0 , 

118.0 , 4127.69230769 , 4124.1025641 , 4123.07692308 , 4126.66666667 , 4126.15384615 , 4123.58974359 , 4114.87179487 , 4121.02564103 , 4131.79487179 , 4132.30769231 , 4064.1025641 , 3396.41025641 , 4122.56410256 , 4138.46153846 , 2050.0 , 2026.0 , 129.146 , 0.0 , 0.0 , 0.0 , 0.0 , 

119.0 , 4126.15384615 , 4124.1025641 , 4121.02564103 , 4124.61538462 , 4124.61538462 , 4123.58974359 , 4117.43589744 , 4124.61538462 , 4134.35897436 , 4134.87179487 , 4063.07692308 , 3396.92307692 , 4131.28205128 , 4140.0 , 2048.0 , 2024.0 , 129.146 , 0.0 , 0.0 , 0.0 , 0.0 , 

120.0 , 4125.64102564 , 4130.76923077 , 4124.1025641 , 4124.1025641 , 4126.15384615 , 4123.58974359 , 4118.97435897 , 4121.53846154 , 4132.82051282 , 4134.87179487 , 4063.07692308 , 3396.41025641 , 4131.28205128 , 4135.8974359 , 2046.0 , 2023.0 , 129.161 , 0.0 , 0.0 , 0.0 , 0.0 , 

121.0 , 4123.07692308 , 4130.76923077 , 4122.05128205 , 4124.1025641 , 4127.69230769 , 4121.53846154 , 4115.8974359 , 4119.48717949 , 4134.87179487 , 4134.35897436 , 4065.12820513 , 3394.87179487 , 4131.79487179 , 4140.0 , 2045.0 , 2023.0 , 129.177 , 0.0 , 0.0 , 0.0 , 0.0 , 

122.0 , 4125.12820513 , 4127.17948718 , 4118.97435897 , 4126.66666667 , 4126.15384615 , 4121.02564103 , 4114.87179487 , 4111.28205128 , 4134.35897436 , 4133.84615385 , 4064.1025641 , 3396.41025641 , 4124.61538462 , 4142.05128205 , 2044.0 , 2024.0 , 129.177 , 0.0 , 0.0 , 0.0 , 0.0 , 

123.0 , 4126.66666667 , 4127.69230769 , 4117.43589744 , 4125.64102564 , 4124.1025641 , 4121.02564103 , 4117.43589744 , 4117.43589744 , 4132.82051282 , 4132.82051282 , 4066.15384615 , 3395.38461538 , 4136.41025641 , 4140.0 , 2044.0 , 2026.0 , 129.192 , 0.0 , 0.0 , 0.0 , 0.0 , 

124.0 , 4129.23076923 , 4130.25641026 , 4122.56410256 , 4125.64102564 , 4126.66666667 , 4122.56410256 , 4117.43589744 , 4116.92307692 , 4133.84615385 , 4132.82051282 , 4065.12820513 , 3393.33333333 , 4137.94871795 , 4140.0 , 2043.0 , 2027.0 , 129.192 , 0.0 , 0.0 , 0.0 , 0.0 , 

125.0 , 4128.71794872 , 4125.12820513 , 4121.02564103 , 4126.15384615 , 4125.64102564 , 4124.1025641 , 4117.43589744 , 4118.97435897 , 4136.41025641 , 4133.33333333 , 4062.56410256 , 3393.33333333 , 4136.41025641 , 4141.53846154 , 2042.0 , 2030.0 , 129.208 , 0.0 , 0.0 , 0.0 , 0.0 , 

126.0 , 4125.12820513 , 4122.56410256 , 4117.94871795 , 4126.66666667 , 4122.05128205 , 4124.61538462 , 4117.94871795 , 4119.48717949 , 4134.87179487 , 4132.82051282 , 4064.1025641 , 3395.38461538 , 4133.84615385 , 4141.02564103 , 2044.0 , 2030.0 , 129.208 , 0.0 , 0.0 , 0.0 , 0.0 , 

127.0 , 4124.1025641 , 4125.64102564 , 4118.46153846 , 4124.1025641 , 4122.05128205 , 4123.58974359 , 4117.43589744 , 4123.07692308 , 4128.71794872 , 4132.82051282 , 4066.66666667 , 3394.35897436 , 4140.0 , 4140.0 , 2044.0 , 2028.0 , 129.224 , 0.0 , 0.0 , 0.0 , 0.0 , 

128.0 , 4129.74358974 , 4126.15384615 , 4122.05128205 , 4123.07692308 , 4123.07692308 , 4124.1025641 , 4116.41025641 , 4124.61538462 , 4127.17948718 , 4132.82051282 , 4065.64102564 , 3392.82051282 , 4139.48717949 , 4141.02564103 , 2045.0 , 2029.0 , 129.224 , 0.0 , 0.0 , 0.0 , 0.0 , 

0.0 , 4128.71794872 , 4123.07692308 , 4120.51282051 , 4125.64102564 , 4123.58974359 , 4122.56410256 , 4117.43589744 , 4128.20512821 , 4129.74358974 , 4133.33333333 , 4064.61538462 , 3392.82051282 , 4134.87179487 , 4141.02564103 , 2045.0 , 2028.0 , 129.239 , 0.0 , 0.0 , 0.0 , 0.0 , 

1.0 , 4124.1025641 , 4122.05128205 , 4121.02564103 , 4126.15384615 , 4125.12820513 , 4120.0 , 4118.46153846 , 4129.23076923 , 4127.69230769 , 4132.82051282 , 4064.61538462 , 3392.82051282 , 4132.82051282 , 4142.05128205 , 2044.0 , 2028.0 , 129.239 , 0.0 , 0.0 , 0.0 , 0.0 , 

2.0 , 4124.1025641 , 4122.56410256 , 4127.17948718 , 4127.69230769 , 4123.07692308 , 4123.07692308 , 4118.46153846 , 4128.71794872 , 4125.64102564 , 4132.82051282 , 4066.15384615 , 3390.76923077 , 4128.71794872 , 4137.94871795 , 2043.0 , 2028.0 , 129.255 , 0.0 , 0.0 , 0.0 , 0.0 , 

3.0 , 4125.12820513 , 4123.07692308 , 4127.17948718 , 4126.66666667 , 4122.56410256 , 4125.64102564 , 4116.41025641 , 4126.15384615 , 4128.20512821 , 4134.87179487 , 4067.17948718 , 3392.30769231 , 4132.30769231 , 4136.92307692 , 2044.0 , 2028.0 , 129.255 , 0.0 , 0.0 , 0.0 , 0.0 , 

4.0 , 4125.64102564 , 4125.12820513 , 4122.05128205 , 4123.58974359 , 4128.20512821 , 4125.64102564 , 4117.43589744 , 4122.05128205 , 4129.23076923 , 4135.8974359 , 4064.1025641 , 3395.8974359 , 4131.28205128 , 4137.43589744 , 2044.0 , 2031.0 , 129.271 , 0.0 , 0.0 , 0.0 , 0.0 , 

5.0 , 4122.56410256 , 4125.12820513 , 4118.97435897 , 4121.02564103 , 4126.66666667 , 4124.1025641 , 4118.97435897 , 4123.58974359 , 4129.23076923 , 4133.84615385 , 4061.53846154 , 3394.35897436 , 4134.35897436 , 4142.56410256 , 2043.0 , 2030.0 , 129.271 , 0.0 , 0.0 , 0.0 , 0.0 , 

6.0 , 4125.12820513 , 4124.1025641 , 4124.61538462 , 4123.58974359 , 4123.58974359 , 4124.1025641 , 4120.0 , 4123.07692308 , 4130.25641026 , 4135.38461538 , 4064.1025641 , 3392.82051282 , 4130.25641026 , 4142.56410256 , 2043.0 , 2032.0 , 129.286 , 0.0 , 0.0 , 0.0 , 0.0 , 

7.0 , 4125.12820513 , 4123.58974359 , 4123.58974359 , 4123.58974359 , 4125.64102564 , 4124.1025641 , 4121.53846154 , 4124.1025641 , 4130.25641026 , 4136.41025641 , 4067.17948718 , 3393.84615385 , 4138.97435897 , 4140.51282051 , 2043.0 , 2031.0 , 129.286 , 0.0 , 0.0 , 0.0 , 0.0 , 

8.0 , 4125.12820513 , 4123.07692308 , 4124.1025641 , 4121.53846154 , 4125.12820513 , 4124.1025641 , 4122.05128205 , 4123.58974359 , 4128.71794872 , 4131.79487179 , 4063.58974359 , 3394.35897436 , 4129.23076923 , 4134.35897436 , 2042.0 , 2031.0 , 129.302 , 0.0 , 0.0 , 0.0 , 0.0 , 

9.0 , 4123.58974359 , 4122.05128205 , 4124.1025641 , 4121.53846154 , 4123.07692308 , 4124.1025641 , 4117.94871795 , 4130.25641026 , 4126.66666667 , 4130.76923077 , 4065.12820513 , 3394.35897436 , 4135.38461538 , 4136.92307692 , 2041.0 , 2029.0 , 129.302 , 0.0 , 0.0 , 0.0 , 0.0 , 

10.0 , 4125.64102564 , 4123.07692308 , 4124.61538462 , 4123.07692308 , 4124.61538462 , 4126.66666667 , 4116.41025641 , 4129.23076923 , 4125.12820513 , 4134.87179487 , 4070.25641026 , 3396.41025641 , 4136.41025641 , 4138.46153846 , 2040.0 , 2030.0 , 129.318 , 0.0 , 0.0 , 0.0 , 0.0 , 

11.0 , 4122.05128205 , 4122.56410256 , 4122.56410256 , 4121.02564103 , 4123.58974359 , 4126.15384615 , 4118.97435897 , 4134.35897436 , 4126.15384615 , 4135.38461538 , 4070.25641026 , 3394.87179487 , 4137.94871795 , 4135.8974359 , 2039.0 , 2030.0 , 129.318 , 0.0 , 0.0 , 0.0 , 0.0 , 

12.0 , 4122.56410256 , 4122.56410256 , 4126.15384615 , 4122.56410256 , 4121.53846154 , 4123.58974359 , 4120.0 , 4134.87179487 , 4126.15384615 , 4132.30769231 , 4066.15384615 , 3392.82051282 , 4131.28205128 , 4132.82051282 , 2039.0 , 2030.0 , 129.333 , 0.0 , 0.0 , 0.0 , 0.0 , 

13.0 , 4125.12820513 , 4122.05128205 , 4125.64102564 , 4123.58974359 , 4124.61538462 , 4124.61538462 , 4122.05128205 , 4135.38461538 , 4125.64102564 , 4132.82051282 , 4066.66666667 , 3392.82051282 , 4136.41025641 , 4134.87179487 , 2036.0 , 2031.0 , 129.333 , 0.0 , 0.0 , 0.0 , 0.0 , 

14.0 , 4124.61538462 , 4120.0 , 4123.58974359 , 4123.58974359 , 4127.17948718 , 4127.17948718 , 4125.12820513 , 4131.28205128 , 4127.17948718 , 4133.84615385 , 4067.17948718 , 3392.82051282 , 4131.79487179 , 4133.84615385 , 2035.0 , 2031.0 , 129.349 , 0.0 , 0.0 , 0.0 , 0.0 , 

15.0 , 4120.51282051 , 4116.92307692 , 4124.1025641 , 4122.56410256 , 4122.05128205 , 4122.56410256 , 4124.1025641 , 4136.92307692 , 4128.71794872 , 4133.84615385 , 4067.69230769 , 3392.82051282 , 4133.33333333 , 4132.30769231 , 2034.0 , 2031.0 , 129.349 , 0.0 , 0.0 , 0.0 , 0.0 , 

16.0 , 4123.58974359 , 4119.48717949 , 4128.71794872 , 4121.02564103 , 4121.02564103 , 4122.05128205 , 4122.05128205 , 4135.8974359 , 4128.20512821 , 4134.35897436 , 4069.74358974 , 3394.87179487 , 4130.25641026 , 4133.84615385 , 2035.0 , 2031.0 , 129.364 , 0.0 , 0.0 , 0.0 , 0.0 , 

17.0 , 4124.1025641 , 4121.53846154 , 4130.25641026 , 4120.0 , 4125.64102564 , 4126.66666667 , 4124.1025641 , 4133.84615385 , 4124.61538462 , 4133.84615385 , 4070.25641026 , 3393.33333333 , 4126.15384615 , 4133.33333333 , 2033.0 , 2031.0 , 129.364 , 0.0 , 0.0 , 0.0 , 0.0 , 

18.0 , 4122.56410256 , 4121.53846154 , 4130.76923077 , 4122.56410256 , 4124.61538462 , 4124.61538462 , 4123.58974359 , 4136.92307692 , 4121.53846154 , 4134.87179487 , 4069.23076923 , 3391.79487179 , 4128.20512821 , 4132.30769231 , 2030.0 , 2030.0 , 129.38 , 0.0 , 0.0 , 0.0 , 0.0 , 

19.0 , 4123.07692308 , 4122.56410256 , 4130.25641026 , 4122.56410256 , 4121.53846154 , 4121.53846154 , 4121.53846154 , 4141.02564103 , 4122.05128205 , 4135.8974359 , 4070.76923077 , 3392.82051282 , 4131.28205128 , 4131.28205128 , 2029.0 , 2031.0 , 129.38 , 0.0 , 0.0 , 0.0 , 0.0 , 

20.0 , 4122.56410256 , 4121.53846154 , 4127.17948718 , 4119.48717949 , 4122.05128205 , 4124.61538462 , 4121.53846154 , 4133.33333333 , 4121.02564103 , 4135.38461538 , 4069.74358974 , 3393.33333333 , 4131.28205128 , 4131.79487179 , 2027.0 , 2032.0 , 129.398 , 0.0 , 0.0 , 0.0 , 0.0 , 

21.0 , 4123.07692308 , 4119.48717949 , 4126.66666667 , 4120.51282051 , 4123.07692308 , 4126.15384615 , 4123.58974359 , 4134.87179487 , 4120.51282051 , 4135.38461538 , 4071.28205128 , 3392.82051282 , 4128.20512821 , 4127.17948718 , 2026.0 , 2031.0 , 129.406 , 0.0 , 0.0 , 0.0 , 0.0 , 

22.0 , 4121.53846154 , 4118.97435897 , 4127.17948718 , 4120.0 , 4125.12820513 , 4125.64102564 , 4125.64102564 , 4142.56410256 , 4120.51282051 , 4134.87179487 , 4076.41025641 , 3392.82051282 , 4140.51282051 , 4128.71794872 , 2026.0 , 2034.0 , 129.413 , 0.0 , 0.0 , 0.0 , 0.0 , 

23.0 , 4121.53846154 , 4117.94871795 , 4129.74358974 , 4118.46153846 , 4124.1025641 , 4126.66666667 , 4128.20512821 , 4140.0 , 4121.53846154 , 4134.87179487 , 4076.41025641 , 3394.35897436 , 4134.35897436 , 4126.15384615 , 2028.0 , 2035.0 , 129.421 , 0.0 , 0.0 , 0.0 , 0.0 , 

24.0 , 4123.07692308 , 4115.38461538 , 4130.76923077 , 4118.46153846 , 4121.02564103 , 4124.61538462 , 4128.20512821 , 4143.58974359 , 4121.02564103 , 4135.8974359 , 4073.33333333 , 3393.33333333 , 4128.20512821 , 4123.58974359 , 2031.0 , 2036.0 , 129.421 , 0.0 , 0.0 , 0.0 , 0.0 , 

25.0 , 4124.1025641 , 4114.87179487 , 4133.84615385 , 4117.94871795 , 4126.15384615 , 4124.61538462 , 4127.17948718 , 4148.20512821 , 4121.02564103 , 4133.84615385 , 4071.28205128 , 3390.76923077 , 4123.58974359 , 4121.02564103 , 2036.0 , 2040.0 , 129.436 , 0.0 , 0.0 , 0.0 , 0.0 , 

26.0 , 4119.48717949 , 4114.87179487 , 4131.28205128 , 4117.43589744 , 4127.17948718 , 4126.15384615 , 4126.15384615 , 4152.82051282 , 4119.48717949 , 4131.28205128 , 4073.33333333 , 3390.25641026 , 4131.79487179 , 4123.58974359 , 2038.0 , 2039.0 , 129.436 , 0.0 , 0.0 , 0.0 , 0.0 , 

27.0 , 4120.0 , 4116.41025641 , 4133.84615385 , 4120.0 , 4121.53846154 , 4125.12820513 , 4127.69230769 , 4147.17948718 , 4119.48717949 , 4133.33333333 , 4073.33333333 , 3391.79487179 , 4121.02564103 , 4123.07692308 , 2041.0 , 2036.0 , 129.452 , 0.0 , 0.0 , 0.0 , 0.0 , 

28.0 , 4120.51282051 , 4117.94871795 , 4133.33333333 , 4119.48717949 , 4121.02564103 , 4122.56410256 , 4125.64102564 , 4145.12820513 , 4120.51282051 , 4134.87179487 , 4073.84615385 , 3390.76923077 , 4123.07692308 , 4124.1025641 , 2042.0 , 2035.0 , 129.452 , 0.0 , 0.0 , 0.0 , 0.0 , 

29.0 , 4122.05128205 , 4118.97435897 , 4133.33333333 , 4118.46153846 , 4123.58974359 , 4123.58974359 , 4118.97435897 , 4138.97435897 , 4121.02564103 , 4133.84615385 , 4074.35897436 , 3391.79487179 , 4122.56410256 , 4123.58974359 , 2042.0 , 2035.0 , 129.467 , 0.0 , 0.0 , 0.0 , 0.0 , 

30.0 , 4117.94871795 , 4120.0 , 4129.23076923 , 4117.94871795 , 4122.05128205 , 4124.1025641 , 4119.48717949 , 4138.97435897 , 4123.07692308 , 4134.87179487 , 4073.33333333 , 3394.87179487 , 4125.12820513 , 4127.17948718 , 2043.0 , 2035.0 , 129.467 , 0.0 , 0.0 , 0.0 , 0.0 , 

31.0 , 4117.94871795 , 4121.53846154 , 4127.69230769 , 4120.51282051 , 4124.1025641 , 4125.64102564 , 4125.12820513 , 4129.23076923 , 4124.1025641 , 4135.8974359 , 4070.25641026 , 3395.38461538 , 4118.97435897 , 4129.23076923 , 2045.0 , 2035.0 , 129.483 , 0.0 , 0.0 , 0.0 , 0.0 , 

32.0 , 4120.0 , 4121.53846154 , 4121.53846154 , 4121.02564103 , 4123.58974359 , 4123.58974359 , 4122.56410256 , 4125.64102564 , 4121.02564103 , 4135.38461538 , 4072.30769231 , 3394.35897436 , 4124.1025641 , 4127.69230769 , 2046.0 , 2034.0 , 129.483 , 0.0 , 0.0 , 0.0 , 0.0 , 

33.0 , 4124.1025641 , 4124.61538462 , 4123.07692308 , 4122.05128205 , 4123.07692308 , 4121.53846154 , 4117.94871795 , 4121.53846154 , 4125.12820513 , 4135.38461538 , 4073.33333333 , 3394.35897436 , 4119.48717949 , 4125.64102564 , 2046.0 , 2034.0 , 129.499 , 0.0 , 0.0 , 0.0 , 0.0 , 

34.0 , 4123.58974359 , 4124.1025641 , 4128.20512821 , 4121.53846154 , 4126.15384615 , 4122.56410256 , 4120.0 , 4123.58974359 , 4136.92307692 , 4135.38461538 , 4071.79487179 , 3395.8974359 , 4121.02564103 , 4126.66666667 , 2047.0 , 2033.0 , 129.499 , 0.0 , 0.0 , 0.0 , 0.0 , 

35.0 , 4122.56410256 , 4122.56410256 , 4126.66666667 , 4121.53846154 , 4123.58974359 , 4124.1025641 , 4120.0 , 4120.51282051 , 4132.82051282 , 4135.38461538 , 4072.30769231 , 3396.92307692 , 4122.56410256 , 4127.69230769 , 2047.0 , 2033.0 , 129.514 , 0.0 , 0.0 , 0.0 , 0.0 , 

36.0 , 4123.58974359 , 4123.58974359 , 4124.1025641 , 4120.51282051 , 4121.02564103 , 4123.58974359 , 4118.97435897 , 4120.0 , 4122.05128205 , 4135.38461538 , 4071.79487179 , 3394.35897436 , 4123.58974359 , 4127.17948718 , 2049.0 , 2033.0 , 129.514 , 0.0 , 0.0 , 0.0 , 0.0 , 

37.0 , 4122.56410256 , 4124.61538462 , 4125.12820513 , 4118.46153846 , 4125.64102564 , 4126.15384615 , 4120.51282051 , 4121.02564103 , 4126.15384615 , 4135.38461538 , 4070.25641026 , 3391.79487179 , 4127.69230769 , 4127.69230769 , 2048.0 , 2033.0 , 129.53 , 0.0 , 0.0 , 0.0 , 0.0 , 

38.0 , 4122.05128205 , 4124.1025641 , 4126.15384615 , 4120.51282051 , 4126.66666667 , 4127.69230769 , 4121.02564103 , 4123.58974359 , 4131.79487179 , 4135.38461538 , 4070.25641026 , 3393.84615385 , 4126.15384615 , 4125.64102564 , 2049.0 , 2034.0 , 129.53 , 0.0 , 0.0 , 0.0 , 0.0 , 

39.0 , 4123.07692308 , 4124.61538462 , 4123.58974359 , 4126.15384615 , 4125.12820513 , 4126.66666667 , 4120.51282051 , 4122.05128205 , 4127.69230769 , 4135.38461538 , 4070.76923077 , 3394.35897436 , 4126.66666667 , 4128.71794872 , 2050.0 , 2034.0 , 129.546 , 0.0 , 0.0 , 0.0 , 0.0 , 

40.0 , 4125.12820513 , 4124.61538462 , 4124.61538462 , 4126.66666667 , 4125.64102564 , 4123.58974359 , 4120.51282051 , 4118.46153846 , 4124.1025641 , 4135.38461538 , 4071.79487179 , 3392.30769231 , 4123.07692308 , 4126.66666667 , 2049.0 , 2034.0 , 129.546 , 0.0 , 0.0 , 0.0 , 0.0 , 

41.0 , 4122.05128205 , 4122.56410256 , 4127.17948718 , 4121.53846154 , 4126.15384615 , 4121.53846154 , 4120.51282051 , 4123.58974359 , 4126.66666667 , 4135.38461538 , 4074.35897436 , 3392.82051282 , 4125.64102564 , 4125.12820513 , 2051.0 , 2034.0 , 129.561 , 0.0 , 0.0 , 0.0 , 0.0 , 

42.0 , 4121.53846154 , 4125.12820513 , 4128.20512821 , 4124.61538462 , 4126.66666667 , 4122.56410256 , 4119.48717949 , 4126.15384615 , 4127.69230769 , 4135.38461538 , 4072.82051282 , 3395.8974359 , 4117.43589744 , 4124.1025641 , 2053.0 , 2035.0 , 129.561 , 0.0 , 0.0 , 0.0 , 0.0 , 

43.0 , 4121.53846154 , 4127.17948718 , 4122.05128205 , 4126.66666667 , 4125.64102564 , 4122.56410256 , 4118.97435897 , 4123.58974359 , 4130.25641026 , 4135.38461538 , 4070.76923077 , 3394.87179487 , 4121.02564103 , 4129.74358974 , 2053.0 , 2032.0 , 129.577 , 0.0 , 0.0 , 0.0 , 0.0 , 

44.0 , 4124.61538462 , 4123.58974359 , 4122.05128205 , 4124.1025641 , 4126.66666667 , 4123.58974359 , 4118.97435897 , 4113.84615385 , 4132.82051282 , 4135.38461538 , 4067.17948718 , 3394.35897436 , 4118.97435897 , 4128.20512821 , 2054.0 , 2032.0 , 129.577 , 0.0 , 0.0 , 0.0 , 0.0 , 

45.0 , 4124.61538462 , 4120.0 , 4124.1025641 , 4120.51282051 , 4127.69230769 , 4124.1025641 , 4116.41025641 , 4115.38461538 , 4133.33333333 , 4135.38461538 , 4066.66666667 , 3392.30769231 , 4121.02564103 , 4128.20512821 , 2055.0 , 2029.0 , 129.592 , 0.0 , 0.0 , 0.0 , 0.0 , 

46.0 , 4125.64102564 , 4126.66666667 , 4124.61538462 , 4125.12820513 , 4124.61538462 , 4122.05128205 , 4114.35897436 , 4116.92307692 , 4133.33333333 , 4135.38461538 , 4067.69230769 , 3395.38461538 , 4114.87179487 , 4130.76923077 , 2056.0 , 2027.0 , 129.592 , 0.0 , 0.0 , 0.0 , 0.0 , 

47.0 , 4122.56410256 , 4130.76923077 , 4120.0 , 4126.66666667 , 4121.02564103 , 4118.97435897 , 4113.33333333 , 4114.87179487 , 4133.33333333 , 4135.38461538 , 4067.69230769 , 3399.48717949 , 4128.20512821 , 4134.35897436 , 2057.0 , 2025.0 , 129.608 , 0.0 , 0.0 , 0.0 , 0.0 , 

48.0 , 4123.58974359 , 4129.23076923 , 4118.46153846 , 4125.64102564 , 4125.64102564 , 4123.07692308 , 4115.8974359 , 4104.61538462 , 4132.30769231 , 4135.38461538 , 4066.15384615 , 3398.46153846 , 4127.69230769 , 4132.30769231 , 2056.0 , 2023.0 , 129.608 , 0.0 , 0.0 , 0.0 , 0.0 , 

49.0 , 4126.15384615 , 4128.20512821 , 4116.41025641 , 4126.66666667 , 4127.17948718 , 4125.12820513 , 4115.38461538 , 4107.69230769 , 4127.17948718 , 4135.38461538 , 4067.17948718 , 3395.8974359 , 4129.74358974 , 4133.84615385 , 2055.0 , 2023.0 , 129.624 , 0.0 , 0.0 , 0.0 , 0.0 , 

50.0 , 4127.17948718 , 4130.76923077 , 4121.53846154 , 4129.74358974 , 4122.05128205 , 4122.56410256 , 4113.84615385 , 4105.12820513 , 4131.28205128 , 4135.38461538 , 4066.15384615 , 3397.43589744 , 4131.28205128 , 4136.92307692 , 2054.0 , 2024.0 , 129.624 , 0.0 , 0.0 , 0.0 , 0.0 , 

51.0 , 4123.58974359 , 4129.74358974 , 4120.51282051 , 4128.20512821 , 4122.56410256 , 4122.56410256 , 4112.82051282 , 4106.66666667 , 4138.97435897 , 4135.38461538 , 4064.1025641 , 3396.41025641 , 4137.43589744 , 4138.46153846 , 2053.0 , 2025.0 , 129.639 , 0.0 , 0.0 , 0.0 , 0.0 , 

52.0 , 4125.64102564 , 4127.17948718 , 4117.94871795 , 4126.66666667 , 4126.66666667 , 4123.07692308 , 4114.35897436 , 4104.61538462 , 4136.92307692 , 4135.38461538 , 4064.1025641 , 3394.35897436 , 4130.76923077 , 4137.94871795 , 2053.0 , 2029.0 , 129.639 , 0.0 , 0.0 , 0.0 , 0.0 , 

53.0 , 4129.74358974 , 4127.69230769 , 4118.97435897 , 4128.71794872 , 4125.12820513 , 4121.53846154 , 4116.92307692 , 4105.64102564 , 4134.87179487 , 4135.38461538 , 4064.1025641 , 3394.87179487 , 4129.23076923 , 4136.41025641 , 2052.0 , 2028.0 , 129.655 , 0.0 , 0.0 , 0.0 , 0.0 , 

54.0 , 4129.74358974 , 4129.23076923 , 4122.05128205 , 4127.17948718 , 4124.61538462 , 4122.56410256 , 4115.38461538 , 4105.12820513 , 4138.46153846 , 4135.8974359 , 4062.56410256 , 3396.41025641 , 4129.74358974 , 4137.94871795 , 2054.0 , 2030.0 , 129.655 , 0.0 , 0.0 , 0.0 , 0.0 , 

55.0 , 4127.69230769 , 4128.71794872 , 4120.51282051 , 4126.15384615 , 4127.69230769 , 4123.58974359 , 4113.33333333 , 4107.17948718 , 4138.97435897 , 4134.87179487 , 4063.07692308 , 3395.38461538 , 4128.20512821 , 4137.94871795 , 2051.0 , 2033.0 , 129.671 , 0.0 , 0.0 , 0.0 , 0.0 , 

56.0 , 4129.74358974 , 4127.17948718 , 4118.46153846 , 4128.20512821 , 4127.69230769 , 4122.56410256 , 4113.33333333 , 4115.38461538 , 4136.41025641 , 4135.38461538 , 4063.07692308 , 3393.84615385 , 4128.71794872 , 4135.38461538 , 2052.0 , 2031.0 , 129.671 , 0.0 , 0.0 , 0.0 , 0.0 , 

57.0 , 4130.76923077 , 4126.15384615 , 4120.0 , 4129.23076923 , 4125.64102564 , 4122.05128205 , 4114.87179487 , 4118.46153846 , 4137.94871795 , 4136.41025641 , 4062.56410256 , 3392.82051282 , 4128.71794872 , 4131.79487179 , 2049.0 , 2032.0 , 129.686 , 0.0 , 0.0 , 0.0 , 0.0 , 

58.0 , 4126.66666667 , 4125.64102564 , 4120.51282051 , 4126.15384615 , 4125.64102564 , 4121.53846154 , 4116.41025641 , 4110.76923077 , 4137.43589744 , 4133.33333333 , 4063.58974359 , 3392.82051282 , 4132.30769231 , 4134.87179487 , 2050.0 , 2031.0 , 129.686 , 0.0 , 0.0 , 0.0 , 0.0 , 

59.0 , 4126.15384615 , 4126.15384615 , 4120.0 , 4124.61538462 , 4126.15384615 , 4121.53846154 , 4119.48717949 , 4113.33333333 , 4133.84615385 , 4131.28205128 , 4065.12820513 , 3395.38461538 , 4129.23076923 , 4132.82051282 , 2047.0 , 2031.0 , 129.702 , 0.0 , 0.0 , 0.0 , 0.0 , 

60.0 , 4125.64102564 , 4127.17948718 , 4118.97435897 , 4124.1025641 , 4124.1025641 , 4122.05128205 , 4118.46153846 , 4123.07692308 , 4132.82051282 , 4133.84615385 , 4066.66666667 , 3395.8974359 , 4133.84615385 , 4132.82051282 , 2044.0 , 2030.0 , 129.702 , 0.0 , 0.0 , 0.0 , 0.0 , 

61.0 , 4126.15384615 , 4126.15384615 , 4124.61538462 , 4124.61538462 , 4125.64102564 , 4123.07692308 , 4116.92307692 , 4116.41025641 , 4133.84615385 , 4134.87179487 , 4065.12820513 , 3395.8974359 , 4129.23076923 , 4133.33333333 , 2043.0 , 2029.0 , 129.717 , 0.0 , 0.0 , 0.0 , 0.0 , 

62.0 , 4125.64102564 , 4124.1025641 , 4125.12820513 , 4121.02564103 , 4126.66666667 , 4123.58974359 , 4115.8974359 , 4114.87179487 , 4132.82051282 , 4134.35897436 , 4064.61538462 , 3394.87179487 , 4139.48717949 , 4134.35897436 , 2042.0 , 2029.0 , 129.717 , 0.0 , 0.0 , 0.0 , 0.0 , 

63.0 , 4127.17948718 , 4123.58974359 , 4124.61538462 , 4120.0 , 4124.61538462 , 4124.61538462 , 4118.97435897 , 4118.46153846 , 4130.76923077 , 4134.35897436 , 4066.66666667 , 3395.38461538 , 4134.87179487 , 4129.74358974 , 2043.0 , 2029.0 , 129.733 , 0.0 , 0.0 , 0.0 , 0.0 , 

64.0 , 4123.07692308 , 4124.1025641 , 4120.51282051 , 4124.1025641 , 4123.58974359 , 4125.12820513 , 4120.51282051 , 4124.1025641 , 4130.25641026 , 4133.33333333 , 4069.23076923 , 3393.84615385 , 4140.0 , 4131.79487179 , 2043.0 , 2029.0 , 129.733 , 0.0 , 0.0 , 0.0 , 0.0 , 

65.0 , 4123.07692308 , 4125.64102564 , 4121.53846154 , 4127.17948718 , 4126.15384615 , 4123.58974359 , 4119.48717949 , 4122.56410256 , 4125.64102564 , 4132.82051282 , 4065.64102564 , 3392.82051282 , 4141.02564103 , 4135.8974359 , 2043.0 , 2031.0 , 129.749 , 0.0 , 0.0 , 0.0 , 0.0 , 

66.0 , 4124.61538462 , 4123.07692308 , 4123.58974359 , 4123.58974359 , 4126.15384615 , 4121.02564103 , 4117.94871795 , 4130.25641026 , 4125.12820513 , 4133.33333333 , 4066.15384615 , 3392.30769231 , 4146.66666667 , 4137.43589744 , 2042.0 , 2029.0 , 129.749 , 0.0 , 0.0 , 0.0 , 0.0 , 

67.0 , 4127.17948718 , 4123.58974359 , 4127.17948718 , 4122.05128205 , 4126.66666667 , 4122.56410256 , 4118.46153846 , 4130.25641026 , 4128.20512821 , 4132.82051282 , 4071.28205128 , 3392.82051282 , 4134.35897436 , 4133.33333333 , 2041.0 , 2031.0 , 129.764 , 0.0 , 0.0 , 0.0 , 0.0 , 

68.0 , 4125.12820513 , 4123.58974359 , 4125.64102564 , 4123.07692308 , 4128.20512821 , 4124.61538462 , 4121.02564103 , 4134.87179487 , 4127.69230769 , 4132.82051282 , 4072.82051282 , 3393.33333333 , 4138.46153846 , 4133.33333333 , 2040.0 , 2030.0 , 129.764 , 0.0 , 0.0 , 0.0 , 0.0 , 

69.0 , 4126.66666667 , 4122.05128205 , 4126.15384615 , 4124.1025641 , 4127.69230769 , 4123.07692308 , 4123.58974359 , 4132.30769231 , 4124.1025641 , 4133.33333333 , 4069.74358974 , 3394.35897436 , 4141.02564103 , 4133.33333333 , 2039.0 , 2029.0 , 129.78 , 0.0 , 0.0 , 0.0 , 0.0 , 

70.0 , 4125.64102564 , 4121.02564103 , 4131.28205128 , 4121.02564103 , 4126.15384615 , 4122.56410256 , 4122.05128205 , 4129.74358974 , 4123.07692308 , 4133.33333333 , 4070.25641026 , 3392.30769231 , 4135.38461538 , 4132.82051282 , 2037.0 , 2031.0 , 129.78 , 0.0 , 0.0 , 0.0 , 0.0 , 

71.0 , 4124.1025641 , 4120.0 , 4133.33333333 , 4122.05128205 , 4123.58974359 , 4125.12820513 , 4119.48717949 , 4127.69230769 , 4123.07692308 , 4133.33333333 , 4070.25641026 , 3393.33333333 , 4125.12820513 , 4133.33333333 , 2035.0 , 2029.0 , 129.8 , 0.0 , 0.0 , 0.0 , 0.0 , 

72.0 , 4123.58974359 , 4119.48717949 , 4127.17948718 , 4123.58974359 , 4121.02564103 , 4124.1025641 , 4118.97435897 , 4134.35897436 , 4126.15384615 , 4133.33333333 , 4069.23076923 , 3393.84615385 , 4130.25641026 , 4132.30769231 , 2034.0 , 2030.0 , 129.807 , 0.0 , 0.0 , 0.0 , 0.0 , 

73.0 , 4124.61538462 , 4121.02564103 , 4126.15384615 , 4121.53846154 , 4121.53846154 , 4120.51282051 , 4118.97435897 , 4132.30769231 , 4129.74358974 , 4133.33333333 , 4066.15384615 , 3391.28205128 , 4133.84615385 , 4131.79487179 , 2035.0 , 2032.0 , 129.815 , 0.0 , 0.0 , 0.0 , 0.0 , 

74.0 , 4124.1025641 , 4121.53846154 , 4129.74358974 , 4119.48717949 , 4124.61538462 , 4121.53846154 , 4122.56410256 , 4130.25641026 , 4127.17948718 , 4133.33333333 , 4065.64102564 , 3392.30769231 , 4128.71794872 , 4129.74358974 , 2036.0 , 2032.0 , 129.821 , 0.0 , 0.0 , 0.0 , 0.0 , 

75.0 , 4122.05128205 , 4121.02564103 , 4128.20512821 , 4121.53846154 , 4124.61538462 , 4124.61538462 , 4121.53846154 , 4132.82051282 , 4124.1025641 , 4133.33333333 , 4067.17948718 , 3395.8974359 , 4130.25641026 , 4130.76923077 , 2038.0 , 2035.0 , 129.821 , 0.0 , 0.0 , 0.0 , 0.0 , 

76.0 , 4121.53846154 , 4122.56410256 , 4125.64102564 , 4122.56410256 , 4122.56410256 , 4125.64102564 , 4120.51282051 , 4133.84615385 , 4125.64102564 , 4133.33333333 , 4068.20512821 , 3395.38461538 , 4130.25641026 , 4128.20512821 , 2039.0 , 2036.0 , 129.836 , 0.0 , 0.0 , 0.0 , 0.0 , 

77.0 , 4122.05128205 , 4122.05128205 , 4125.64102564 , 4120.51282051 , 4123.58974359 , 4123.58974359 , 4124.1025641 , 4130.76923077 , 4126.15384615 , 4133.33333333 , 4069.23076923 , 3392.82051282 , 4135.8974359 , 4130.25641026 , 2039.0 , 2037.0 , 129.836 , 0.0 , 0.0 , 0.0 , 0.0 , 

78.0 , 4125.12820513 , 4120.51282051 , 4126.66666667 , 4122.05128205 , 4126.66666667 , 4122.05128205 , 4124.1025641 , 4129.74358974 , 4124.61538462 , 4133.33333333 , 4070.25641026 , 3394.87179487 , 4133.84615385 , 4131.79487179 , 2041.0 , 2036.0 , 129.852 , 0.0 , 0.0 , 0.0 , 0.0 , 

79.0 , 4122.56410256 , 4120.51282051 , 4125.64102564 , 4124.1025641 , 4126.15384615 , 4123.07692308 , 4119.48717949 , 4134.87179487 , 4124.1025641 , 4133.33333333 , 4072.82051282 , 3393.84615385 , 4138.97435897 , 4132.82051282 , 2040.0 , 2035.0 , 129.852 , 0.0 , 0.0 , 0.0 , 0.0 , 

80.0 , 4124.1025641 , 4122.05128205 , 4130.25641026 , 4122.56410256 , 4123.07692308 , 4124.61538462 , 4121.02564103 , 4131.28205128 , 4126.15384615 , 4133.33333333 , 4073.33333333 , 3391.28205128 , 4130.76923077 , 4127.17948718 , 2039.0 , 2034.0 , 129.867 , 0.0 , 0.0 , 0.0 , 0.0 , 

81.0 , 4123.07692308 , 4123.07692308 , 4128.71794872 , 4119.48717949 , 4124.1025641 , 4123.58974359 , 4122.56410256 , 4134.87179487 , 4127.17948718 , 4133.33333333 , 4071.79487179 , 3389.23076923 , 4134.35897436 , 4128.20512821 , 2038.0 , 2034.0 , 129.867 , 0.0 , 0.0 , 0.0 , 0.0 , 

82.0 , 4122.56410256 , 4123.07692308 , 4124.61538462 , 4123.07692308 , 4125.64102564 , 4123.58974359 , 4120.0 , 4134.87179487 , 4125.12820513 , 4133.33333333 , 4071.79487179 , 3390.25641026 , 4129.74358974 , 4129.23076923 , 2039.0 , 2034.0 , 129.883 , 0.0 , 0.0 , 0.0 , 0.0 , 

83.0 , 4121.53846154 , 4120.51282051 , 4123.58974359 , 4124.61538462 , 4122.05128205 , 4124.61538462 , 4119.48717949 , 4134.87179487 , 4124.61538462 , 4133.33333333 , 4071.79487179 , 3394.35897436 , 4133.84615385 , 4129.74358974 , 2037.0 , 2036.0 , 129.883 , 0.0 , 0.0 , 0.0 , 0.0 , 

84.0 , 4125.12820513 , 4122.05128205 , 4128.71794872 , 4121.02564103 , 4122.05128205 , 4124.61538462 , 4123.58974359 , 4131.28205128 , 4127.69230769 , 4133.33333333 , 4068.71794872 , 3395.8974359 , 4127.69230769 , 4128.20512821 , 2036.0 , 2035.0 , 129.899 , 0.0 , 0.0 , 0.0 , 0.0 , 

85.0 , 4122.56410256 , 4121.02564103 , 4123.58974359 , 4121.53846154 , 4125.12820513 , 4122.05128205 , 4124.61538462 , 4135.38461538 , 4126.66666667 , 4133.33333333 , 4071.28205128 , 3392.30769231 , 4130.76923077 , 4129.74358974 , 2036.0 , 2038.0 , 129.899 , 0.0 , 0.0 , 0.0 , 0.0 , 

86.0 , 4122.05128205 , 4118.97435897 , 4122.56410256 , 4124.1025641 , 4125.12820513 , 4122.56410256 , 4122.56410256 , 4134.87179487 , 4124.1025641 , 4133.33333333 , 4072.82051282 , 3393.84615385 , 4124.1025641 , 4128.71794872 , 2035.0 , 2038.0 , 129.914 , 0.0 , 0.0 , 0.0 , 0.0 , 

87.0 , 4122.56410256 , 4119.48717949 , 4127.17948718 , 4120.0 , 4123.07692308 , 4123.07692308 , 4121.53846154 , 4137.94871795 , 4123.07692308 , 4133.33333333 , 4069.23076923 , 3395.8974359 , 4125.64102564 , 4126.15384615 , 2033.0 , 2038.0 , 129.914 , 0.0 , 0.0 , 0.0 , 0.0 , 

88.0 , 4123.58974359 , 4120.0 , 4130.76923077 , 4121.02564103 , 4124.61538462 , 4124.61538462 , 4124.1025641 , 4134.87179487 , 4123.07692308 , 4133.33333333 , 4069.74358974 , 3394.87179487 , 4123.07692308 , 4125.12820513 , 2033.0 , 2037.0 , 129.93 , 0.0 , 0.0 , 0.0 , 0.0 , 

89.0 , 4121.53846154 , 4119.48717949 , 4126.15384615 , 4123.07692308 , 4126.15384615 , 4125.64102564 , 4123.07692308 , 4135.38461538 , 4122.05128205 , 4133.33333333 , 4074.35897436 , 3394.87179487 , 4129.74358974 , 4125.12820513 , 2034.0 , 2034.0 , 129.93 , 0.0 , 0.0 , 0.0 , 0.0 , 

90.0 , 4118.97435897 , 4117.43589744 , 4125.64102564 , 4120.51282051 , 4125.64102564 , 4125.64102564 , 4122.05128205 , 4131.28205128 , 4122.05128205 , 4133.33333333 , 4072.30769231 , 3394.35897436 , 4130.76923077 , 4125.12820513 , 2034.0 , 2034.0 , 129.946 , 0.0 , 0.0 , 0.0 , 0.0 , 

91.0 , 4121.02564103 , 4115.8974359 , 4130.25641026 , 4118.46153846 , 4126.15384615 , 4123.07692308 , 4126.66666667 , 4132.30769231 , 4122.05128205 , 4133.33333333 , 4073.33333333 , 3393.84615385 , 4123.07692308 , 4123.58974359 , 2034.0 , 2033.0 , 129.946 , 0.0 , 0.0 , 0.0 , 0.0 , 

92.0 , 4124.61538462 , 4118.46153846 , 4131.28205128 , 4119.48717949 , 4125.64102564 , 4123.58974359 , 4126.15384615 , 4133.84615385 , 4120.0 , 4133.33333333 , 4075.8974359 , 3396.41025641 , 4123.58974359 , 4123.07692308 , 2035.0 , 2032.0 , 129.961 , 0.0 , 0.0 , 0.0 , 0.0 , 

93.0 , 4124.1025641 , 4122.05128205 , 4128.20512821 , 4121.02564103 , 4122.05128205 , 4124.1025641 , 4122.56410256 , 4135.8974359 , 4121.53846154 , 4133.33333333 , 4071.79487179 , 3394.35897436 , 4125.12820513 , 4122.56410256 , 2035.0 , 2030.0 , 129.961 , 0.0 , 0.0 , 0.0 , 0.0 , 

94.0 , 4119.48717949 , 4119.48717949 , 4126.66666667 , 4120.0 , 4122.56410256 , 4124.1025641 , 4123.07692308 , 4134.35897436 , 4123.07692308 , 4133.33333333 , 4069.23076923 , 3390.76923077 , 4129.74358974 , 4126.15384615 , 2038.0 , 2032.0 , 129.977 , 0.0 , 0.0 , 0.0 , 0.0 , 

95.0 , 4120.51282051 , 4119.48717949 , 4130.76923077 , 4120.51282051 , 4125.12820513 , 4127.17948718 , 4125.64102564 , 4130.25641026 , 4123.07692308 , 4133.33333333 , 4073.84615385 , 3393.33333333 , 4128.71794872 , 4123.58974359 , 2039.0 , 2033.0 , 129.977 , 0.0 , 0.0 , 0.0 , 0.0 , 

96.0 , 4121.02564103 , 4122.05128205 , 4132.30769231 , 4122.05128205 , 4123.07692308 , 4127.17948718 , 4123.07692308 , 4136.41025641 , 4123.58974359 , 4133.33333333 , 4075.38461538 , 3393.33333333 , 4130.25641026 , 4121.02564103 , 2043.0 , 2034.0 , 129.992 , 0.0 , 0.0 , 0.0 , 0.0 , 

97.0 , 4122.56410256 , 4121.53846154 , 4131.28205128 , 4123.58974359 , 4123.58974359 , 4123.07692308 , 4123.07692308 , 4138.97435897 , 4125.64102564 , 4133.33333333 , 4072.30769231 , 3391.28205128 , 4122.05128205 , 4118.46153846 , 2045.0 , 2033.0 , 129.992 , 0.0 , 0.0 , 0.0 , 0.0 , 

98.0 , 4121.53846154 , 4120.51282051 , 4126.66666667 , 4123.07692308 , 4127.17948718 , 4122.05128205 , 4124.61538462 , 4138.46153846 , 4123.58974359 , 4133.33333333 , 4072.30769231 , 3391.28205128 , 4127.17948718 , 4117.43589744 , 2045.0 , 2033.0 , 130.008 , 0.0 , 0.0 , 0.0 , 0.0 , 

99.0 , 4123.58974359 , 4124.1025641 , 4129.23076923 , 4125.12820513 , 4126.15384615 , 4123.58974359 , 4123.58974359 , 4132.82051282 , 4121.02564103 , 4133.33333333 , 4075.38461538 , 3393.84615385 , 4119.48717949 , 4115.8974359 , 2045.0 , 2031.0 , 130.008 , 0.0 , 0.0 , 0.0 , 0.0 , 

100.0 , 4124.61538462 , 4123.58974359 , 4131.28205128 , 4124.1025641 , 4124.1025641 , 4120.0 , 4122.05128205 , 4130.25641026 , 4124.1025641 , 4133.33333333 , 4077.43589744 , 3393.84615385 , 4122.05128205 , 4121.53846154 , 2046.0 , 2032.0 , 130.024 , 0.0 , 0.0 , 0.0 , 0.0 , 

101.0 , 4124.1025641 , 4122.05128205 , 4131.28205128 , 4124.1025641 , 4127.17948718 , 4121.53846154 , 4123.07692308 , 4121.53846154 , 4124.1025641 , 4133.33333333 , 4072.30769231 , 3394.35897436 , 4118.97435897 , 4119.48717949 , 2045.0 , 2030.0 , 130.024 , 0.0 , 0.0 , 0.0 , 0.0 , 

102.0 , 4119.48717949 , 4122.56410256 , 4126.15384615 , 4126.15384615 , 4128.20512821 , 4124.1025641 , 4120.51282051 , 4125.12820513 , 4123.58974359 , 4133.33333333 , 4069.74358974 , 3392.30769231 , 4125.64102564 , 4117.94871795 , 2046.0 , 2030.0 , 130.039 , 0.0 , 0.0 , 0.0 , 0.0 , 

103.0 , 4121.53846154 , 4124.1025641 , 4126.66666667 , 4125.12820513 , 4126.15384615 , 4122.56410256 , 4119.48717949 , 4124.1025641 , 4127.69230769 , 4133.33333333 , 4070.25641026 , 3393.33333333 , 4120.0 , 4122.05128205 , 2046.0 , 2029.0 , 130.039 , 0.0 , 0.0 , 0.0 , 0.0 , 

104.0 , 4123.58974359 , 4122.56410256 , 4124.61538462 , 4121.02564103 , 4125.64102564 , 4120.0 , 4120.0 , 4123.07692308 , 4131.28205128 , 4133.33333333 , 4071.79487179 , 3396.41025641 , 4121.53846154 , 4125.64102564 , 2046.0 , 2031.0 , 130.055 , 0.0 , 0.0 , 0.0 , 0.0 , 

105.0 , 4126.15384615 , 4123.07692308 , 4126.66666667 , 4123.07692308 , 4126.15384615 , 4122.56410256 , 4117.94871795 , 4118.97435897 , 4128.20512821 , 4132.82051282 , 4071.79487179 , 3395.38461538 , 4118.46153846 , 4120.0 , 2046.0 , 2030.0 , 130.055 , 0.0 , 0.0 , 0.0 , 0.0 , 

106.0 , 4124.61538462 , 4125.64102564 , 4127.69230769 , 4127.17948718 , 4127.69230769 , 4123.58974359 , 4117.94871795 , 4124.1025641 , 4128.20512821 , 4132.82051282 , 4071.79487179 , 3392.30769231 , 4121.02564103 , 4117.94871795 , 2046.0 , 2030.0 , 130.071 , 0.0 , 0.0 , 0.0 , 0.0 , 

107.0 , 4122.05128205 , 4126.66666667 , 4125.64102564 , 4127.17948718 , 4128.71794872 , 4123.07692308 , 4120.51282051 , 4120.0 , 4130.25641026 , 4133.33333333 , 4071.79487179 , 3395.8974359 , 4119.48717949 , 4122.05128205 , 2045.0 , 2031.0 , 130.071 , 0.0 , 0.0 , 0.0 , 0.0 , 

108.0 , 4120.0 , 4125.12820513 , 4124.1025641 , 4128.20512821 , 4124.1025641 , 4121.53846154 , 4120.51282051 , 4118.97435897 , 4126.66666667 , 4132.82051282 , 4071.28205128 , 3397.43589744 , 4120.51282051 , 4125.12820513 , 2048.0 , 2031.0 , 130.086 , 0.0 , 0.0 , 0.0 , 0.0 , 

109.0 , 4123.58974359 , 4124.1025641 , 4126.15384615 , 4129.74358974 , 4121.02564103 , 4122.05128205 , 4118.97435897 , 4120.0 , 4126.15384615 , 4132.82051282 , 4069.23076923 , 3394.35897436 , 4117.43589744 , 4124.61538462 , 2049.0 , 2030.0 , 130.086 , 0.0 , 0.0 , 0.0 , 0.0 , 

110.0 , 4125.12820513 , 4125.64102564 , 4124.1025641 , 4128.71794872 , 4124.61538462 , 4124.1025641 , 4117.43589744 , 4122.05128205 , 4129.23076923 , 4134.35897436 , 4067.17948718 , 3394.35897436 , 4115.38461538 , 4121.02564103 , 2053.0 , 2028.0 , 130.102 , 0.0 , 0.0 , 0.0 , 0.0 , 

111.0 , 4123.07692308 , 4126.15384615 , 4121.53846154 , 4127.17948718 , 4127.17948718 , 4124.61538462 , 4117.43589744 , 4121.53846154 , 4126.66666667 , 4135.38461538 , 4071.79487179 , 3396.41025641 , 4121.53846154 , 4123.58974359 , 2054.0 , 2026.0 , 130.102 , 0.0 , 0.0 , 0.0 , 0.0 , 

112.0 , 4123.58974359 , 4124.1025641 , 4124.1025641 , 4126.66666667 , 4126.15384615 , 4121.53846154 , 4119.48717949 , 4122.56410256 , 4125.64102564 , 4134.87179487 , 4075.38461538 , 3396.41025641 , 4123.07692308 , 4124.1025641 , 2055.0 , 2025.0 , 130.117 , 0.0 , 0.0 , 0.0 , 0.0 , 

113.0 , 4123.58974359 , 4123.58974359 , 4123.58974359 , 4125.12820513 , 4123.58974359 , 4120.0 , 4118.97435897 , 4119.48717949 , 4129.74358974 , 4134.35897436 , 4068.71794872 , 3394.35897436 , 4123.07692308 , 4126.15384615 , 2055.0 , 2025.0 , 130.117 , 0.0 , 0.0 , 0.0 , 0.0 , 

114.0 , 4126.66666667 , 4125.64102564 , 4120.0 , 4126.15384615 , 4125.12820513 , 4122.05128205 , 4116.41025641 , 4115.8974359 , 4130.25641026 , 4135.8974359 , 4066.66666667 , 3395.38461538 , 4119.48717949 , 4125.12820513 , 2055.0 , 2027.0 , 130.133 , 0.0 , 0.0 , 0.0 , 0.0 , 

115.0 , 4126.66666667 , 4126.66666667 , 4117.94871795 , 4128.20512821 , 4126.66666667 , 4123.58974359 , 4116.41025641 , 4116.92307692 , 4127.69230769 , 4134.87179487 , 4068.20512821 , 3399.48717949 , 4125.12820513 , 4127.17948718 , 2054.0 , 2027.0 , 130.133 , 0.0 , 0.0 , 0.0 , 0.0 , 

116.0 , 4125.12820513 , 4128.20512821 , 4122.56410256 , 4130.25641026 , 4125.12820513 , 4122.05128205 , 4117.94871795 , 4112.82051282 , 4127.17948718 , 4134.87179487 , 4064.61538462 , 3401.02564103 , 4120.0 , 4127.69230769 , 2053.0 , 2029.0 , 130.149 , 0.0 , 0.0 , 0.0 , 0.0 , 

117.0 , 4122.05128205 , 4128.20512821 , 4118.97435897 , 4129.23076923 , 4122.56410256 , 4119.48717949 , 4117.43589744 , 4111.28205128 , 4128.20512821 , 4136.41025641 , 4063.58974359 , 3395.38461538 , 4128.71794872 , 4131.28205128 , 2051.0 , 2031.0 , 130.149 , 0.0 , 0.0 , 0.0 , 0.0 , 

118.0 , 4124.61538462 , 4126.66666667 , 4117.94871795 , 4128.20512821 , 4125.64102564 , 4121.02564103 , 4116.41025641 , 4109.23076923 , 4129.23076923 , 4133.33333333 , 4065.64102564 , 3393.84615385 , 4121.53846154 , 4130.76923077 , 2051.0 , 2034.0 , 130.164 , 0.0 , 0.0 , 0.0 , 0.0 , 

119.0 , 4122.56410256 , 4126.15384615 , 4118.46153846 , 4127.17948718 , 4127.17948718 , 4121.53846154 , 4116.92307692 , 4111.79487179 , 4130.76923077 , 4130.25641026 , 4066.66666667 , 3394.35897436 , 4126.15384615 , 4132.82051282 , 2052.0 , 2036.0 , 130.164 , 0.0 , 0.0 , 0.0 , 0.0 , 

119.0 , 4122.56410256 , 4126.15384615 , 4118.46153846 , 4127.17948718 , 4127.17948718 , 4121.53846154 , 4116.92307692 , 4111.79487179 , 4130.76923077 , 4130.25641026 , 4066.66666667 , 3394.35897436 , 4126.15384615 , 4132.82051282 , 2052.0 , 2036.0 , 130.18 , 0.0 , 0.0 , 0.0 , 0.0 , 

120.0 , 4123.58974359 , 4127.69230769 , 4120.0 , 4127.17948718 , 4127.69230769 , 4121.53846154 , 4116.92307692 , 4107.69230769 , 4132.82051282 , 4133.33333333 , 4062.56410256 , 3393.33333333 , 4120.51282051 , 4131.79487179 , 2052.0 , 2037.0 , 130.18 , 0.0 , 0.0 , 0.0 , 0.0 , 

121.0 , 4125.12820513 , 4125.12820513 , 4117.94871795 , 4125.64102564 , 4128.20512821 , 4122.05128205 , 4114.35897436 , 4112.30769231 , 4133.33333333 , 4135.8974359 , 4061.53846154 , 3391.79487179 , 4123.58974359 , 4129.23076923 , 2051.0 , 2037.0 , 130.202 , 0.0 , 0.0 , 0.0 , 0.0 , 

122.0 , 4125.12820513 , 4123.58974359 , 4123.07692308 , 4125.64102564 , 4127.69230769 , 4123.58974359 , 4114.35897436 , 4111.79487179 , 4133.33333333 , 4133.33333333 , 4063.58974359 , 3394.35897436 , 4123.58974359 , 4127.17948718 , 2050.0 , 2035.0 , 130.209 , 0.0 , 0.0 , 0.0 , 0.0 , 

123.0 , 4123.07692308 , 4125.64102564 , 4124.61538462 , 4124.61538462 , 4126.15384615 , 4122.05128205 , 4115.8974359 , 4114.87179487 , 4131.79487179 , 4132.30769231 , 4066.15384615 , 3395.38461538 , 4130.25641026 , 4128.20512821 , 2049.0 , 2035.0 , 130.217 , 0.0 , 0.0 , 0.0 , 0.0 , 

124.0 , 4127.17948718 , 4127.17948718 , 4123.58974359 , 4124.61538462 , 4126.66666667 , 4122.56410256 , 4115.8974359 , 4114.87179487 , 4133.33333333 , 4133.84615385 , 4066.15384615 , 3393.84615385 , 4124.1025641 , 4128.71794872 , 2044.0 , 2034.0 , 130.221 , 0.0 , 0.0 , 0.0 , 0.0 , 

125.0 , 4126.66666667 , 4126.66666667 , 4122.05128205 , 4124.61538462 , 4124.1025641 , 4123.07692308 , 4115.38461538 , 4115.8974359 , 4135.8974359 , 4133.84615385 , 4068.20512821 , 3393.84615385 , 4128.20512821 , 4130.25641026 , 2044.0 , 2036.0 , 130.221 , 0.0 , 0.0 , 0.0 , 0.0 , 

126.0 , 4123.58974359 , 4129.74358974 , 4123.07692308 , 4125.64102564 , 4121.53846154 , 4121.53846154 , 4115.8974359 , 4111.79487179 , 4134.87179487 , 4133.84615385 , 4068.20512821 , 3397.94871795 , 4130.25641026 , 4130.76923077 , 2044.0 , 2038.0 , 130.236 , 0.0 , 0.0 , 0.0 , 0.0 , 

127.0 , 4124.61538462 , 4128.20512821 , 4120.51282051 , 4125.64102564 , 4124.1025641 , 4123.07692308 , 4116.92307692 , 4116.41025641 , 4134.35897436 , 4133.84615385 , 4065.12820513 , 3396.41025641 , 4131.28205128 , 4128.20512821 , 2045.0 , 2038.0 , 130.236 , 0.0 , 0.0 , 0.0 , 0.0 , 

128.0 , 4129.23076923 , 4125.12820513 , 4120.51282051 , 4127.69230769 , 4124.61538462 , 4124.61538462 , 4118.46153846 , 4121.02564103 , 4133.33333333 , 4133.84615385 , 4065.64102564 , 3394.35897436 , 4129.74358974 , 4129.74358974 , 2047.0 , 2037.0 , 130.252 , 0.0 , 0.0 , 0.0 , 0.0 , 

0.0 , 4128.20512821 , 4127.17948718 , 4124.1025641 , 4128.20512821 , 4124.1025641 , 4122.56410256 , 4117.43589744 , 4123.58974359 , 4132.82051282 , 4134.35897436 , 4067.17948718 , 3395.38461538 , 4124.1025641 , 4128.20512821 , 2044.0 , 2036.0 , 130.252 , 0.0 , 0.0 , 0.0 , 0.0 , 

1.0 , 4125.12820513 , 4127.17948718 , 4124.1025641 , 4126.15384615 , 4125.64102564 , 4120.51282051 , 4115.38461538 , 4120.0 , 4128.20512821 , 4134.87179487 , 4067.17948718 , 3396.41025641 , 4128.71794872 , 4128.71794872 , 2045.0 , 2035.0 , 130.267 , 0.0 , 0.0 , 0.0 , 0.0 , 

2.0 , 4125.12820513 , 4124.1025641 , 4122.05128205 , 4127.69230769 , 4124.61538462 , 4121.02564103 , 4117.43589744 , 4116.41025641 , 4126.15384615 , 4135.38461538 , 4070.25641026 , 3397.43589744 , 4131.28205128 , 4130.25641026 , 2043.0 , 2034.0 , 130.267 , 0.0 , 0.0 , 0.0 , 0.0 , 

3.0 , 4124.61538462 , 4124.1025641 , 4119.48717949 , 4129.74358974 , 4121.53846154 , 4122.05128205 , 4117.43589744 , 4116.41025641 , 4128.71794872 , 4135.38461538 , 4071.28205128 , 3396.92307692 , 4135.38461538 , 4128.71794872 , 2042.0 , 2035.0 , 130.283 , 0.0 , 0.0 , 0.0 , 0.0 , 

4.0 , 4125.64102564 , 4125.12820513 , 4122.56410256 , 4130.76923077 , 4124.61538462 , 4122.05128205 , 4117.94871795 , 4122.56410256 , 4128.71794872 , 4134.87179487 , 4067.69230769 , 3396.92307692 , 4128.20512821 , 4123.58974359 , 2041.0 , 2035.0 , 130.283 , 0.0 , 0.0 , 0.0 , 0.0 , 

5.0 , 4124.1025641 , 4124.1025641 , 4123.07692308 , 4129.23076923 , 4128.20512821 , 4121.02564103 , 4118.97435897 , 4130.76923077 , 4127.69230769 , 4135.38461538 , 4067.69230769 , 3396.92307692 , 4135.8974359 , 4129.23076923 , 2040.0 , 2036.0 , 130.299 , 0.0 , 0.0 , 0.0 , 0.0 , 

6.0 , 4124.1025641 , 4125.12820513 , 4123.07692308 , 4127.69230769 , 4124.1025641 , 4123.07692308 , 4121.53846154 , 4124.1025641 , 4126.66666667 , 4135.38461538 , 4067.69230769 , 3396.92307692 , 4133.84615385 , 4129.23076923 , 2040.0 , 2035.0 , 130.299 , 0.0 , 0.0 , 0.0 , 0.0 , 

7.0 , 4123.07692308 , 4125.64102564 , 4122.05128205 , 4126.15384615 , 4120.0 , 4122.56410256 , 4119.48717949 , 4127.17948718 , 4128.71794872 , 4134.87179487 , 4067.17948718 , 3393.84615385 , 4133.33333333 , 4126.15384615 , 2039.0 , 2036.0 , 130.314 , 0.0 , 0.0 , 0.0 , 0.0 , 

8.0 , 4126.66666667 , 4124.1025641 , 4127.17948718 , 4127.17948718 , 4125.12820513 , 4120.51282051 , 4117.43589744 , 4127.17948718 , 4128.71794872 , 4135.38461538 , 4068.71794872 , 3392.82051282 , 4124.61538462 , 4125.64102564 , 2038.0 , 2036.0 , 130.314 , 0.0 , 0.0 , 0.0 , 0.0 , 

9.0 , 4125.12820513 , 4119.48717949 , 4127.69230769 , 4125.64102564 , 4126.66666667 , 4122.05128205 , 4121.53846154 , 4127.69230769 , 4126.15384615 , 4136.41025641 , 4072.30769231 , 3393.84615385 , 4131.79487179 , 4128.20512821 , 2037.0 , 2035.0 , 130.33 , 0.0 , 0.0 , 0.0 , 0.0 , 

10.0 , 4122.05128205 , 4120.0 , 4125.12820513 , 4124.1025641 , 4121.02564103 , 4125.64102564 , 4123.07692308 , 4129.23076923 , 4126.66666667 , 4135.8974359 , 4070.76923077 , 3395.8974359 , 4130.76923077 , 4125.12820513 , 2037.0 , 2035.0 , 130.33 , 0.0 , 0.0 , 0.0 , 0.0 , 

11.0 , 4120.0 , 4121.53846154 , 4121.53846154 , 4125.64102564 , 4121.02564103 , 4123.58974359 , 4118.97435897 , 4132.82051282 , 4123.58974359 , 4134.35897436 , 4067.17948718 , 3393.84615385 , 4133.84615385 , 4124.1025641 , 2033.0 , 2034.0 , 130.346 , 0.0 , 0.0 , 0.0 , 0.0 , 

12.0 , 4125.64102564 , 4118.97435897 , 4126.66666667 , 4128.71794872 , 4125.64102564 , 4124.61538462 , 4120.0 , 4130.76923077 , 4121.02564103 , 4134.35897436 , 4069.74358974 , 3393.84615385 , 4124.1025641 , 4121.53846154 , 2032.0 , 2033.0 , 130.346 , 0.0 , 0.0 , 0.0 , 0.0 , 

13.0 , 4126.15384615 , 4116.41025641 , 4127.69230769 , 4125.12820513 , 4122.05128205 , 4126.15384615 , 4123.58974359 , 4139.48717949 , 4122.56410256 , 4134.35897436 , 4077.43589744 , 3396.41025641 , 4126.15384615 , 4120.51282051 , 2031.0 , 2032.0 , 130.361 , 0.0 , 0.0 , 0.0 , 0.0 , 

14.0 , 4124.1025641 , 4118.97435897 , 4126.66666667 , 4122.05128205 , 4120.0 , 4124.1025641 , 4125.12820513 , 4138.46153846 , 4124.61538462 , 4134.35897436 , 4076.41025641 , 3396.41025641 , 4124.61538462 , 4121.53846154 , 2032.0 , 2033.0 , 130.361 , 0.0 , 0.0 , 0.0 , 0.0 , 

15.0 , 4121.02564103 , 4119.48717949 , 4125.12820513 , 4122.05128205 , 4125.64102564 , 4122.56410256 , 4127.17948718 , 4135.38461538 , 4122.05128205 , 4134.35897436 , 4073.33333333 , 3392.82051282 , 4125.12820513 , 4122.05128205 , 2032.0 , 2032.0 , 130.377 , 0.0 , 0.0 , 0.0 , 0.0 , 

16.0 , 4122.56410256 , 4116.92307692 , 4125.64102564 , 4124.1025641 , 4127.17948718 , 4123.58974359 , 4126.66666667 , 4132.30769231 , 4121.53846154 , 4134.35897436 , 4075.38461538 , 3393.84615385 , 4122.56410256 , 4121.53846154 , 2032.0 , 2033.0 , 130.377 , 0.0 , 0.0 , 0.0 , 0.0 , 

17.0 , 4123.58974359 , 4117.43589744 , 4126.66666667 , 4121.02564103 , 4124.1025641 , 4124.61538462 , 4122.56410256 , 4135.8974359 , 4123.07692308 , 4134.35897436 , 4078.46153846 , 3397.43589744 , 4126.15384615 , 4120.0 , 2032.0 , 2031.0 , 130.392 , 0.0 , 0.0 , 0.0 , 0.0 , 

18.0 , 4120.0 , 4119.48717949 , 4128.71794872 , 4116.41025641 , 4124.1025641 , 4124.61538462 , 4123.07692308 , 4133.84615385 , 4120.0 , 4134.35897436 , 4076.92307692 , 3397.43589744 , 4131.28205128 , 4117.94871795 , 2035.0 , 2032.0 , 130.392 , 0.0 , 0.0 , 0.0 , 0.0 , 

19.0 , 4118.97435897 , 4121.02564103 , 4130.25641026 , 4119.48717949 , 4124.1025641 , 4123.58974359 , 4123.07692308 , 4134.87179487 , 4118.97435897 , 4134.35897436 , 4073.84615385 , 3394.35897436 , 4127.69230769 , 4115.8974359 , 2035.0 , 2032.0 , 130.408 , 0.0 , 0.0 , 0.0 , 0.0 , 

20.0 , 4120.51282051 , 4122.05128205 , 4126.15384615 , 4123.58974359 , 4121.02564103 , 4122.56410256 , 4123.07692308 , 4137.94871795 , 4121.53846154 , 4134.35897436 , 4073.84615385 , 3392.30769231 , 4127.69230769 , 4119.48717949 , 2036.0 , 2033.0 , 130.408 , 0.0 , 0.0 , 0.0 , 0.0 , 

21.0 , 4121.53846154 , 4122.05128205 , 4124.1025641 , 4122.05128205 , 4121.53846154 , 4122.56410256 , 4128.20512821 , 4137.43589744 , 4122.56410256 , 4134.35897436 , 4076.92307692 , 3392.30769231 , 4121.02564103 , 4117.43589744 , 2036.0 , 2033.0 , 130.424 , 0.0 , 0.0 , 0.0 , 0.0 , 

22.0 , 4118.46153846 , 4119.48717949 , 4127.17948718 , 4121.53846154 , 4124.61538462 , 4123.58974359 , 4128.20512821 , 4137.94871795 , 4122.56410256 , 4134.35897436 , 4077.94871795 , 3391.28205128 , 4123.07692308 , 4116.41025641 , 2036.0 , 2035.0 , 130.424 , 0.0 , 0.0 , 0.0 , 0.0 , 

23.0 , 4121.02564103 , 4117.43589744 , 4130.76923077 , 4125.12820513 , 4127.69230769 , 4126.15384615 , 4124.61538462 , 4134.35897436 , 4122.56410256 , 4134.35897436 , 4074.87179487 , 3394.35897436 , 4121.02564103 , 4115.38461538 , 2036.0 , 2036.0 , 130.439 , 0.0 , 0.0 , 0.0 , 0.0 , 

24.0 , 4121.53846154 , 4118.97435897 , 4130.25641026 , 4123.58974359 , 4127.17948718 , 4124.1025641 , 4126.15384615 , 4135.8974359 , 4121.53846154 , 4134.35897436 , 4073.33333333 , 3395.8974359 , 4125.12820513 , 4117.43589744 , 2038.0 , 2037.0 , 130.455 , 0.0 , 0.0 , 0.0 , 0.0 , 

25.0 , 4122.05128205 , 4121.53846154 , 4131.79487179 , 4122.56410256 , 4124.61538462 , 4122.56410256 , 4128.71794872 , 4136.41025641 , 4122.56410256 , 4134.35897436 , 4073.33333333 , 3394.87179487 , 4119.48717949 , 4114.35897436 , 2039.0 , 2040.0 , 130.455 , 0.0 , 0.0 , 0.0 , 0.0 , 

26.0 , 4118.97435897 , 4120.0 , 4129.23076923 , 4121.02564103 , 4122.05128205 , 4124.1025641 , 4122.05128205 , 4138.97435897 , 4122.56410256 , 4134.35897436 , 4075.38461538 , 3394.87179487 , 4127.17948718 , 4118.46153846 , 2040.0 , 2037.0 , 130.455 , 0.0 , 0.0 , 0.0 , 0.0 , 

27.0 , 4120.0 , 4121.53846154 , 4130.76923077 , 4121.53846154 , 4123.07692308 , 4125.12820513 , 4119.48717949 , 4131.28205128 , 4121.02564103 , 4134.35897436 , 4075.38461538 , 3394.35897436 , 4117.94871795 , 4118.97435897 , 2040.0 , 2035.0 , 130.471 , 0.0 , 0.0 , 0.0 , 0.0 , 

28.0 , 4120.0 , 4121.53846154 , 4131.28205128 , 4121.02564103 , 4125.12820513 , 4123.58974359 , 4122.05128205 , 4130.25641026 , 4121.53846154 , 4134.35897436 , 4076.41025641 , 3391.79487179 , 4116.92307692 , 4114.35897436 , 2041.0 , 2035.0 , 130.471 , 0.0 , 0.0 , 0.0 , 0.0 , 

29.0 , 4120.0 , 4119.48717949 , 4131.79487179 , 4120.0 , 4124.61538462 , 4122.05128205 , 4124.1025641 , 4131.79487179 , 4121.02564103 , 4134.35897436 , 4075.8974359 , 3393.33333333 , 4114.87179487 , 4111.28205128 , 2040.0 , 2034.0 , 130.486 , 0.0 , 0.0 , 0.0 , 0.0 , 

30.0 , 4116.92307692 , 4119.48717949 , 4128.20512821 , 4119.48717949 , 4124.1025641 , 4120.0 , 4123.58974359 , 4138.97435897 , 4121.02564103 , 4134.35897436 , 4076.41025641 , 3393.84615385 , 4127.17948718 , 4116.92307692 , 2041.0 , 2032.0 , 130.486 , 0.0 , 0.0 , 0.0 , 0.0 , 

31.0 , 4118.97435897 , 4122.56410256 , 4128.71794872 , 4122.56410256 , 4126.15384615 , 4121.53846154 , 4122.56410256 , 4132.30769231 , 4121.53846154 , 4134.35897436 , 4073.84615385 , 3391.79487179 , 4123.58974359 , 4117.43589744 , 2040.0 , 2034.0 , 130.502 , 0.0 , 0.0 , 0.0 , 0.0 , 

32.0 , 4120.51282051 , 4122.05128205 , 4128.20512821 , 4123.58974359 , 4127.17948718 , 4126.15384615 , 4122.56410256 , 4127.17948718 , 4124.1025641 , 4134.35897436 , 4074.35897436 , 3393.84615385 , 4116.41025641 , 4111.28205128 , 2043.0 , 2034.0 , 130.517 , 0.0 , 0.0 , 0.0 , 0.0 , 

33.0 , 4120.51282051 , 4123.58974359 , 4128.71794872 , 4123.07692308 , 4125.64102564 , 4125.64102564 , 4123.07692308 , 4121.53846154 , 4126.15384615 , 4134.35897436 , 4076.92307692 , 3397.43589744 , 4113.33333333 , 4110.25641026 , 2044.0 , 2035.0 , 130.517 , 0.0 , 0.0 , 0.0 , 0.0 , 

34.0 , 4119.48717949 , 4124.1025641 , 4127.69230769 , 4124.1025641 , 4125.64102564 , 4121.02564103 , 4120.51282051 , 4129.23076923 , 4125.12820513 , 4134.35897436 , 4075.8974359 , 3394.87179487 , 4119.48717949 , 4112.30769231 , 2044.0 , 2036.0 , 130.517 , 0.0 , 0.0 , 0.0 , 0.0 , 

35.0 , 4121.02564103 , 4119.48717949 , 4125.12820513 , 4125.12820513 , 4124.1025641 , 4122.56410256 , 4115.38461538 , 4132.30769231 , 4122.05128205 , 4134.35897436 , 4075.8974359 , 3391.79487179 , 4121.53846154 , 4113.84615385 , 2045.0 , 2035.0 , 130.533 , 0.0 , 0.0 , 0.0 , 0.0 , 

36.0 , 4120.51282051 , 4118.46153846 , 4122.56410256 , 4124.1025641 , 4123.58974359 , 4125.12820513 , 4117.43589744 , 4126.66666667 , 4123.07692308 , 4133.84615385 , 4078.46153846 , 3392.30769231 , 4121.53846154 , 4114.35897436 , 2045.0 , 2034.0 , 130.533 , 0.0 , 0.0 , 0.0 , 0.0 , 

37.0 , 4121.02564103 , 4124.1025641 , 4122.56410256 , 4123.07692308 , 4126.15384615 , 4122.05128205 , 4122.56410256 , 4124.1025641 , 4125.64102564 , 4134.35897436 , 4075.38461538 , 3393.33333333 , 4118.46153846 , 4115.8974359 , 2045.0 , 2033.0 , 130.549 , 0.0 , 0.0 , 0.0 , 0.0 , 

38.0 , 4123.58974359 , 4126.15384615 , 4122.56410256 , 4123.07692308 , 4125.12820513 , 4121.02564103 , 4120.51282051 , 4127.17948718 , 4125.12820513 , 4134.35897436 , 4073.33333333 , 3395.38461538 , 4111.79487179 , 4113.33333333 , 2045.0 , 2032.0 , 130.564 , 0.0 , 0.0 , 0.0 , 0.0 , 

39.0 , 4124.1025641 , 4123.58974359 , 4123.58974359 , 4123.58974359 , 4123.58974359 , 4123.58974359 , 4117.43589744 , 4126.15384615 , 4127.17948718 , 4133.84615385 , 4075.38461538 , 3396.92307692 , 4118.97435897 , 4114.35897436 , 2044.0 , 2031.0 , 130.564 , 0.0 , 0.0 , 0.0 , 0.0 , 

40.0 , 4124.61538462 , 4124.1025641 , 4128.20512821 , 4125.12820513 , 4126.15384615 , 4123.07692308 , 4118.97435897 , 4121.02564103 , 4128.71794872 , 4134.35897436 , 4073.84615385 , 3395.38461538 , 4112.82051282 , 4114.87179487 , 2045.0 , 2032.0 , 130.58 , 0.0 , 0.0 , 0.0 , 0.0 , 

41.0 , 4123.58974359 , 4124.61538462 , 4126.66666667 , 4124.1025641 , 4125.64102564 , 4121.02564103 , 4119.48717949 , 4120.51282051 , 4126.66666667 , 4134.87179487 , 4073.84615385 , 3392.82051282 , 4107.69230769 , 4114.35897436 , 2046.0 , 2032.0 , 130.58 , 0.0 , 0.0 , 0.0 , 0.0 , 

42.0 , 4126.15384615 , 4123.58974359 , 4125.12820513 , 4126.66666667 , 4123.07692308 , 4124.1025641 , 4120.0 , 4121.02564103 , 4126.66666667 , 4134.87179487 , 4074.87179487 , 3392.30769231 , 4106.15384615 , 4110.25641026 , 2046.0 , 2032.0 , 130.58 , 0.0 , 0.0 , 0.0 , 0.0 , 

43.0 , 4125.12820513 , 4122.05128205 , 4123.58974359 , 4128.20512821 , 4124.1025641 , 4127.17948718 , 4117.43589744 , 4122.56410256 , 4126.66666667 , 4134.87179487 , 4073.84615385 , 3392.30769231 , 4118.97435897 , 4111.79487179 , 2046.0 , 2033.0 , 130.603 , 0.0 , 0.0 , 0.0 , 0.0 , 

44.0 , 4124.1025641 , 4124.1025641 , 4126.15384615 , 4128.20512821 , 4125.64102564 , 4125.12820513 , 4115.8974359 , 4119.48717949 , 4124.61538462 , 4134.87179487 , 4071.28205128 , 3395.8974359 , 4110.25641026 , 4110.76923077 , 2045.0 , 2034.0 , 130.611 , 0.0 , 0.0 , 0.0 , 0.0 , 

45.0 , 4123.07692308 , 4123.58974359 , 4124.1025641 , 4127.17948718 , 4124.61538462 , 4122.56410256 , 4119.48717949 , 4123.07692308 , 4127.69230769 , 4134.35897436 , 4073.84615385 , 3395.8974359 , 4116.92307692 , 4115.8974359 , 2044.0 , 2034.0 , 130.618 , 0.0 , 0.0 , 0.0 , 0.0 , 

46.0 , 4125.12820513 , 4124.61538462 , 4123.07692308 , 4128.20512821 , 4126.15384615 , 4124.61538462 , 4122.05128205 , 4116.92307692 , 4129.23076923 , 4133.84615385 , 4074.87179487 , 3395.38461538 , 4117.94871795 , 4114.87179487 , 2046.0 , 2032.0 , 130.627 , 0.0 , 0.0 , 0.0 , 0.0 , 

47.0 , 4122.56410256 , 4125.64102564 , 4121.53846154 , 4126.15384615 , 4125.64102564 , 4125.64102564 , 4117.94871795 , 4118.97435897 , 4127.17948718 , 4134.87179487 , 4074.87179487 , 3396.41025641 , 4119.48717949 , 4113.84615385 , 2049.0 , 2031.0 , 130.635 , 0.0 , 0.0 , 0.0 , 0.0 , 

48.0 , 4122.56410256 , 4126.15384615 , 4124.61538462 , 4125.64102564 , 4124.61538462 , 4125.12820513 , 4116.92307692 , 4118.46153846 , 4127.17948718 , 4135.38461538 , 4074.87179487 , 3396.92307692 , 4113.84615385 , 4113.84615385 , 2050.0 , 2032.0 , 130.637 , 0.0 , 0.0 , 0.0 , 0.0 , 

49.0 , 4123.07692308 , 4123.07692308 , 4124.1025641 , 4122.56410256 , 4124.61538462 , 4123.58974359 , 4121.02564103 , 4120.0 , 4128.20512821 , 4134.87179487 , 4072.82051282 , 3393.33333333 , 4118.97435897 , 4113.84615385 , 2052.0 , 2031.0 , 130.637 , 0.0 , 0.0 , 0.0 , 0.0 , 

50.0 , 4126.66666667 , 4124.1025641 , 4125.64102564 , 4119.48717949 , 4126.15384615 , 4125.64102564 , 4121.02564103 , 4120.51282051 , 4126.66666667 , 4134.35897436 , 4072.82051282 , 3392.30769231 , 4116.41025641 , 4113.33333333 , 2053.0 , 2028.0 , 130.653 , 0.0 , 0.0 , 0.0 , 0.0 , 

51.0 , 4125.12820513 , 4125.12820513 , 4127.17948718 , 4122.05128205 , 4125.12820513 , 4124.61538462 , 4117.94871795 , 4126.15384615 , 4128.71794872 , 4134.35897436 , 4075.8974359 , 3392.82051282 , 4121.02564103 , 4116.41025641 , 2054.0 , 2026.0 , 130.653 , 0.0 , 0.0 , 0.0 , 0.0 , 

52.0 , 4124.61538462 , 4125.12820513 , 4125.12820513 , 4128.71794872 , 4123.07692308 , 4122.56410256 , 4120.0 , 4121.53846154 , 4131.79487179 , 4134.35897436 , 4074.35897436 , 3393.33333333 , 4118.46153846 , 4117.43589744 , 2053.0 , 2024.0 , 130.668 , 0.0 , 0.0 , 0.0 , 0.0 , 

53.0 , 4123.07692308 , 4127.69230769 , 4118.97435897 , 4127.17948718 , 4123.07692308 , 4122.05128205 , 4120.0 , 4118.46153846 , 4126.15384615 , 4134.35897436 , 4071.79487179 , 3394.87179487 , 4118.46153846 , 4117.94871795 , 2052.0 , 2026.0 , 130.668 , 0.0 , 0.0 , 0.0 , 0.0 , 

54.0 , 4123.58974359 , 4128.71794872 , 4117.43589744 , 4126.66666667 , 4125.64102564 , 4123.07692308 , 4116.41025641 , 4117.43589744 , 4126.66666667 , 4134.35897436 , 4070.25641026 , 3396.92307692 , 4119.48717949 , 4121.02564103 , 2051.0 , 2027.0 , 130.684 , 0.0 , 0.0 , 0.0 , 0.0 , 

55.0 , 4123.58974359 , 4128.20512821 , 4119.48717949 , 4131.79487179 , 4128.71794872 , 4123.58974359 , 4114.35897436 , 4113.33333333 , 4137.94871795 , 4134.35897436 , 4069.74358974 , 3396.92307692 , 4119.48717949 , 4119.48717949 , 2051.0 , 2028.0 , 130.684 , 0.0 , 0.0 , 0.0 , 0.0 , 

56.0 , 4124.1025641 , 4130.76923077 , 4120.0 , 4131.28205128 , 4125.12820513 , 4123.07692308 , 4114.35897436 , 4104.61538462 , 4138.97435897 , 4134.35897436 , 4068.71794872 , 3396.92307692 , 4118.46153846 , 4122.56410256 , 2049.0 , 2031.0 , 130.7 , 0.0 , 0.0 , 0.0 , 0.0 , 

57.0 , 4126.15384615 , 4130.76923077 , 4120.0 , 4128.20512821 , 4121.02564103 , 4123.07692308 , 4116.92307692 , 4108.71794872 , 4136.92307692 , 4134.35897436 , 4068.20512821 , 3395.38461538 , 4112.82051282 , 4123.58974359 , 2049.0 , 2031.0 , 130.7 , 0.0 , 0.0 , 0.0 , 0.0 , 

58.0 , 4124.61538462 , 4125.64102564 , 4119.48717949 , 4127.17948718 , 4124.61538462 , 4121.02564103 , 4117.94871795 , 4115.8974359 , 4138.97435897 , 4134.35897436 , 4069.74358974 , 3393.33333333 , 4118.46153846 , 4123.58974359 , 2050.0 , 2031.0 , 130.715 , 0.0 , 0.0 , 0.0 , 0.0 , 

59.0 , 4123.58974359 , 4126.66666667 , 4122.56410256 , 4126.15384615 , 4128.71794872 , 4120.51282051 , 4116.41025641 , 4112.30769231 , 4133.84615385 , 4134.35897436 , 4070.76923077 , 3395.8974359 , 4117.43589744 , 4120.51282051 , 2048.0 , 2033.0 , 130.715 , 0.0 , 0.0 , 0.0 , 0.0 , 

60.0 , 4125.12820513 , 4130.25641026 , 4123.58974359 , 4123.07692308 , 4125.12820513 , 4122.56410256 , 4115.8974359 , 4115.38461538 , 4127.17948718 , 4134.35897436 , 4070.25641026 , 3398.97435897 , 4125.64102564 , 4120.51282051 , 2045.0 , 2033.0 , 130.731 , 0.0 , 0.0 , 0.0 , 0.0 , 

61.0 , 4128.71794872 , 4128.20512821 , 4124.61538462 , 4123.58974359 , 4122.56410256 , 4125.12820513 , 4119.48717949 , 4117.94871795 , 4129.23076923 , 4134.35897436 , 4067.69230769 , 3396.41025641 , 4118.46153846 , 4117.43589744 , 2045.0 , 2033.0 , 130.731 , 0.0 , 0.0 , 0.0 , 0.0 , 

62.0 , 4124.61538462 , 4125.12820513 , 4122.05128205 , 4124.1025641 , 4125.12820513 , 4122.05128205 , 4118.46153846 , 4122.05128205 , 4130.25641026 , 4134.35897436 , 4068.71794872 , 3391.28205128 , 4118.46153846 , 4118.46153846 , 2043.0 , 2033.0 , 130.747 , 0.0 , 0.0 , 0.0 , 0.0 , 

63.0 , 4123.58974359 , 4128.71794872 , 4124.1025641 , 4124.61538462 , 4128.71794872 , 4121.02564103 , 4118.46153846 , 4117.43589744 , 4127.69230769 , 4134.35897436 , 4071.28205128 , 3394.35897436 , 4115.38461538 , 4114.87179487 , 2042.0 , 2034.0 , 130.747 , 0.0 , 0.0 , 0.0 , 0.0 , 

64.0 , 4124.1025641 , 4127.17948718 , 4122.56410256 , 4123.07692308 , 4128.20512821 , 4122.56410256 , 4121.53846154 , 4123.07692308 , 4128.71794872 , 4134.35897436 , 4073.84615385 , 3394.35897436 , 4128.71794872 , 4116.41025641 , 2041.0 , 2033.0 , 130.95 , 0.0 , 0.0 , 0.0 , 0.0 , 

65.0 , 4124.61538462 , 4123.07692308 , 4122.56410256 , 4122.05128205 , 4125.64102564 , 4123.58974359 , 4120.51282051 , 4122.56410256 , 4128.20512821 , 4134.35897436 , 4071.28205128 , 3392.30769231 , 4123.07692308 , 4117.43589744 , 2043.0 , 2034.0 , 130.95 , 0.0 , 0.0 , 0.0 , 0.0 , 

66.0 , 4122.05128205 , 4124.1025641 , 4123.07692308 , 4122.05128205 , 4125.12820513 , 4123.58974359 , 4117.94871795 , 4125.12820513 , 4127.17948718 , 4134.35897436 , 4068.20512821 , 3392.82051282 , 4115.8974359 , 4116.41025641 , 2042.0 , 2032.0 , 130.95 , 0.0 , 0.0 , 0.0 , 0.0 , 

67.0 , 4125.12820513 , 4126.66666667 , 4126.66666667 , 4123.07692308 , 4127.17948718 , 4124.61538462 , 4119.48717949 , 4127.17948718 , 4125.64102564 , 4134.35897436 , 4069.74358974 , 3394.87179487 , 4112.82051282 , 4115.8974359 , 2044.0 , 2032.0 , 130.95 , 0.0 , 0.0 , 0.0 , 0.0 , 

68.0 , 4125.64102564 , 4123.07692308 , 4123.58974359 , 4121.02564103 , 4124.61538462 , 4124.1025641 , 4123.07692308 , 4128.20512821 , 4124.61538462 , 4134.35897436 , 4075.8974359 , 3394.35897436 , 4124.61538462 , 4116.92307692 , 2047.0 , 2033.0 , 130.95 , 0.0 , 0.0 , 0.0 , 0.0 , 

69.0 , 4125.64102564 , 4121.53846154 , 4121.53846154 , 4122.56410256 , 4120.0 , 4125.64102564 , 4121.53846154 , 4121.02564103 , 4123.07692308 , 4134.35897436 , 4075.38461538 , 3395.38461538 , 4120.51282051 , 4115.38461538 , 2048.0 , 2031.0 , 130.95 , 0.0 , 0.0 , 0.0 , 0.0 , 

70.0 , 4124.1025641 , 4125.12820513 , 4122.56410256 , 4124.61538462 , 4121.53846154 , 4126.15384615 , 4117.43589744 , 4121.53846154 , 4123.07692308 , 4134.35897436 , 4070.25641026 , 3395.38461538 , 4119.48717949 , 4116.41025641 , 2049.0 , 2031.0 , 130.95 , 0.0 , 0.0 , 0.0 , 0.0 , 

71.0 , 4125.12820513 , 4126.66666667 , 4126.66666667 , 4123.07692308 , 4125.12820513 , 4124.1025641 , 4115.38461538 , 4120.0 , 4126.66666667 , 4134.35897436 , 4068.20512821 , 3396.41025641 , 4120.0 , 4118.46153846 , 2048.0 , 2032.0 , 130.95 , 0.0 , 0.0 , 0.0 , 0.0 , 

72.0 , 4127.17948718 , 4128.71794872 , 4125.12820513 , 4125.12820513 , 4127.17948718 , 4123.58974359 , 4115.8974359 , 4114.87179487 , 4128.71794872 , 4134.35897436 , 4071.28205128 , 3398.46153846 , 4115.38461538 , 4116.92307692 , 2048.0 , 2034.0 , 130.95 , 0.0 , 0.0 , 0.0 , 0.0 , 

73.0 , 4126.15384615 , 4130.25641026 , 4120.0 , 4128.20512821 , 4124.61538462 , 4126.15384615 , 4116.92307692 , 4107.17948718 , 4127.69230769 , 4134.35897436 , 4071.79487179 , 3398.46153846 , 4120.0 , 4120.0 , 2049.0 , 2033.0 , 130.95 , 0.0 , 0.0 , 0.0 , 0.0 , 

74.0 , 4125.64102564 , 4129.74358974 , 4117.94871795 , 4126.66666667 , 4122.56410256 , 4127.17948718 , 4118.46153846 , 4112.82051282 , 4128.71794872 , 4133.84615385 , 4067.17948718 , 3395.8974359 , 4122.56410256 , 4121.02564103 , 2050.0 , 2033.0 , 130.95 , 0.0 , 0.0 , 0.0 , 0.0 , 

75.0 , 4125.12820513 , 4128.20512821 , 4118.46153846 , 4124.1025641 , 4125.12820513 , 4126.66666667 , 4117.43589744 , 4116.92307692 , 4127.69230769 , 4134.35897436 , 4066.15384615 , 3393.33333333 , 4125.64102564 , 4120.51282051 , 2048.0 , 2035.0 , 130.95 , 0.0 , 0.0 , 0.0 , 0.0 , 

76.0 , 4126.15384615 , 4127.17948718 , 4119.48717949 , 4126.15384615 , 4129.23076923 , 4124.61538462 , 4115.38461538 , 4108.20512821 , 4130.76923077 , 4134.35897436 , 4069.23076923 , 3394.35897436 , 4125.64102564 , 4119.48717949 , 2048.0 , 2036.0 , 130.95 , 0.0 , 0.0 , 0.0 , 0.0 , 

77.0 , 4125.64102564 , 4127.69230769 , 4121.02564103 , 4126.66666667 , 4128.20512821 , 4122.05128205 , 4115.38461538 , 4112.30769231 , 4135.38461538 , 4133.84615385 , 4068.71794872 , 3395.8974359 , 4127.17948718 , 4120.51282051 , 2048.0 , 2035.0 , 130.95 , 0.0 , 0.0 , 0.0 , 0.0 , 

78.0 , 4124.61538462 , 4129.74358974 , 4124.1025641 , 4125.64102564 , 4124.61538462 , 4122.05128205 , 4117.94871795 , 4121.53846154 , 4129.74358974 , 4134.35897436 , 4067.17948718 , 3397.43589744 , 4123.07692308 , 4118.97435897 , 2046.0 , 2035.0 , 130.95 , 0.0 , 0.0 , 0.0 , 0.0 , 

79.0 , 4124.1025641 , 4127.17948718 , 4120.0 , 4124.1025641 , 4125.12820513 , 4123.07692308 , 4116.41025641 , 4121.02564103 , 4124.61538462 , 4134.87179487 , 4069.74358974 , 3395.38461538 , 4133.33333333 , 4120.0 , 2045.0 , 2034.0 , 130.95 , 0.0 , 0.0 , 0.0 , 0.0 , 

80.0 , 4128.20512821 , 4125.12820513 , 4123.07692308 , 4127.17948718 , 4127.69230769 , 4123.58974359 , 4117.94871795 , 4115.8974359 , 4132.82051282 , 4134.87179487 , 4069.23076923 , 3392.82051282 , 4122.56410256 , 4116.92307692 , 2042.0 , 2035.0 , 130.95 , 0.0 , 0.0 , 0.0 , 0.0 , 

81.0 , 4125.64102564 , 4125.64102564 , 4125.64102564 , 4129.23076923 , 4128.20512821 , 4122.56410256 , 4122.05128205 , 4124.61538462 , 4138.46153846 , 4134.87179487 , 4065.64102564 , 3392.30769231 , 4119.48717949 , 4118.97435897 , 2040.0 , 2034.0 , 130.95 , 0.0 , 0.0 , 0.0 , 0.0 , 

82.0 , 4123.58974359 , 4126.66666667 , 4127.69230769 , 4128.20512821 , 4126.66666667 , 4123.07692308 , 4122.05128205 , 4123.07692308 , 4129.23076923 , 4134.35897436 , 4065.64102564 , 3395.38461538 , 4120.51282051 , 4118.46153846 , 2041.0 , 2034.0 , 130.95 , 0.0 , 0.0 , 0.0 , 0.0 , 

83.0 , 4124.61538462 , 4125.12820513 , 4127.17948718 , 4124.61538462 , 4126.66666667 , 4123.07692308 , 4122.05128205 , 4125.12820513 , 4126.15384615 , 4133.84615385 , 4071.28205128 , 3396.41025641 , 4128.71794872 , 4116.41025641 , 2040.0 , 2033.0 , 130.95 , 0.0 , 0.0 , 0.0 , 0.0 , 

84.0 , 4127.17948718 , 4123.58974359 , 4127.69230769 , 4124.61538462 , 4128.20512821 , 4123.58974359 , 4126.15384615 , 4126.15384615 , 4129.23076923 , 4134.35897436 , 4072.30769231 , 3394.87179487 , 4117.43589744 , 4112.82051282 , 2038.0 , 2032.0 , 130.95 , 0.0 , 0.0 , 0.0 , 0.0 , 

85.0 , 4124.61538462 , 4118.97435897 , 4124.1025641 , 4123.07692308 , 4126.15384615 , 4124.61538462 , 4126.15384615 , 4127.17948718 , 4127.17948718 , 4134.35897436 , 4070.25641026 , 3393.84615385 , 4124.1025641 , 4115.8974359 , 2037.0 , 2032.0 , 130.95 , 0.0 , 0.0 , 0.0 , 0.0 , 

86.0 , 4124.61538462 , 4121.02564103 , 4126.66666667 , 4124.1025641 , 4123.58974359 , 4124.1025641 , 4121.02564103 , 4118.97435897 , 4123.58974359 , 4133.84615385 , 4069.74358974 , 3395.38461538 , 4125.64102564 , 4116.41025641 , 2038.0 , 2032.0 , 130.95 , 0.0 , 0.0 , 0.0 , 0.0 , 

87.0 , 4124.1025641 , 4123.58974359 , 4128.20512821 , 4125.12820513 , 4124.61538462 , 4123.58974359 , 4121.02564103 , 4124.61538462 , 4126.66666667 , 4134.35897436 , 4072.30769231 , 3395.8974359 , 4128.20512821 , 4115.38461538 , 2036.0 , 2035.0 , 130.95 , 0.0 , 0.0 , 0.0 , 0.0 , 

88.0 , 4124.61538462 , 4122.56410256 , 4128.20512821 , 4125.12820513 , 4126.66666667 , 4126.15384615 , 4123.58974359 , 4125.64102564 , 4128.20512821 , 4133.84615385 , 4072.30769231 , 3394.87179487 , 4125.12820513 , 4116.92307692 , 2037.0 , 2035.0 , 130.95 , 0.0 , 0.0 , 0.0 , 0.0 , 

89.0 , 4122.05128205 , 4122.56410256 , 4127.17948718 , 4122.56410256 , 4125.64102564 , 4124.61538462 , 4125.12820513 , 4127.69230769 , 4127.17948718 , 4133.84615385 , 4072.82051282 , 3394.35897436 , 4125.12820513 , 4114.87179487 , 2036.0 , 2034.0 , 130.965 , 0.0 , 0.0 , 0.0 , 0.0 , 

90.0 , 4121.02564103 , 4123.07692308 , 4127.17948718 , 4124.1025641 , 4126.15384615 , 4124.61538462 , 4124.61538462 , 4127.17948718 , 4128.71794872 , 4134.87179487 , 4073.84615385 , 3395.38461538 , 4124.1025641 , 4114.35897436 , 2037.0 , 2036.0 , 130.965 , 0.0 , 0.0 , 0.0 , 0.0 , 

91.0 , 4121.53846154 , 4123.07692308 , 4127.17948718 , 4123.58974359 , 4127.69230769 , 4126.66666667 , 4123.58974359 , 4127.17948718 , 4127.17948718 , 4135.8974359 , 4074.35897436 , 3393.84615385 , 4123.58974359 , 4113.84615385 , 2038.0 , 2036.0 , 130.981 , 0.0 , 0.0 , 0.0 , 0.0 , 

92.0 , 4122.05128205 , 4121.53846154 , 4125.64102564 , 4120.51282051 , 4127.17948718 , 4125.12820513 , 4123.07692308 , 4127.69230769 , 4126.66666667 , 4134.87179487 , 4073.84615385 , 3391.79487179 , 4128.20512821 , 4114.35897436 , 2039.0 , 2036.0 , 130.981 , 0.0 , 0.0 , 0.0 , 0.0 , 

93.0 , 4122.05128205 , 4118.97435897 , 4122.56410256 , 4121.02564103 , 4125.12820513 , 4123.58974359 , 4122.56410256 , 4130.25641026 , 4128.71794872 , 4133.84615385 , 4074.35897436 , 3394.35897436 , 4127.17948718 , 4112.82051282 , 2040.0 , 2036.0 , 130.997 , 0.0 , 0.0 , 0.0 , 0.0 , 

94.0 , 4122.56410256 , 4119.48717949 , 4123.58974359 , 4123.07692308 , 4122.56410256 , 4125.12820513 , 4122.05128205 , 4126.15384615 , 4127.17948718 , 4134.87179487 , 4073.33333333 , 3396.92307692 , 4127.17948718 , 4115.38461538 , 2042.0 , 2034.0 , 131.005 , 0.0 , 0.0 , 0.0 , 0.0 , 

95.0 , 4125.12820513 , 4124.1025641 , 4130.76923077 , 4121.53846154 , 4124.61538462 , 4125.64102564 , 4124.1025641 , 4123.58974359 , 4123.58974359 , 4135.38461538 , 4071.79487179 , 3395.38461538 , 4119.48717949 , 4112.30769231 , 2042.0 , 2033.0 , 131.013 , 0.0 , 0.0 , 0.0 , 0.0 , 

96.0 , 4122.05128205 , 4124.1025641 , 4126.15384615 , 4117.94871795 , 4126.15384615 , 4123.07692308 , 4122.56410256 , 4133.33333333 , 4123.58974359 , 4134.87179487 , 4072.82051282 , 3392.30769231 , 4126.66666667 , 4113.84615385 , 2043.0 , 2032.0 , 131.021 , 0.0 , 0.0 , 0.0 , 0.0 , 

97.0 , 4122.56410256 , 4121.53846154 , 4123.07692308 , 4121.02564103 , 4125.64102564 , 4124.1025641 , 4122.56410256 , 4126.66666667 , 4125.12820513 , 4134.35897436 , 4073.84615385 , 3393.84615385 , 4121.02564103 , 4113.84615385 , 2042.0 , 2032.0 , 131.021 , 0.0 , 0.0 , 0.0 , 0.0 , 

98.0 , 4121.53846154 , 4122.56410256 , 4126.15384615 , 4124.61538462 , 4126.66666667 , 4124.61538462 , 4122.56410256 , 4118.97435897 , 4125.64102564 , 4134.35897436 , 4075.38461538 , 3395.8974359 , 4123.58974359 , 4112.82051282 , 2040.0 , 2031.0 , 131.036 , 0.0 , 0.0 , 0.0 , 0.0 , 

99.0 , 4121.53846154 , 4123.58974359 , 4130.25641026 , 4122.56410256 , 4125.64102564 , 4124.1025641 , 4120.0 , 4123.58974359 , 4128.71794872 , 4134.35897436 , 4073.84615385 , 3393.84615385 , 4122.56410256 , 4113.33333333 , 2043.0 , 2032.0 , 131.036 , 0.0 , 0.0 , 0.0 , 0.0 , 

100.0 , 4121.02564103 , 4121.53846154 , 4124.61538462 , 4118.46153846 , 4122.05128205 , 4122.56410256 , 4119.48717949 , 4130.25641026 , 4128.71794872 , 4134.35897436 , 4072.82051282 , 3391.79487179 , 4131.79487179 , 4118.97435897 , 2041.0 , 2033.0 , 131.052 , 0.0 , 0.0 , 0.0 , 0.0 , 

101.0 , 4124.61538462 , 4123.07692308 , 4124.1025641 , 4121.53846154 , 4124.1025641 , 4124.61538462 , 4125.12820513 , 4118.97435897 , 4125.64102564 , 4134.35897436 , 4074.35897436 , 3394.35897436 , 4122.05128205 , 4113.33333333 , 2043.0 , 2032.0 , 131.052 , 0.0 , 0.0 , 0.0 , 0.0 , 

102.0 , 4121.02564103 , 4121.53846154 , 4126.15384615 , 4123.58974359 , 4125.12820513 , 4124.61538462 , 4125.64102564 , 4123.07692308 , 4125.64102564 , 4134.35897436 , 4076.92307692 , 3394.87179487 , 4122.05128205 , 4110.25641026 , 2042.0 , 2034.0 , 131.067 , 0.0 , 0.0 , 0.0 , 0.0 , 

103.0 , 4119.48717949 , 4121.02564103 , 4125.64102564 , 4122.05128205 , 4123.07692308 , 4124.1025641 , 4123.07692308 , 4124.1025641 , 4124.61538462 , 4134.35897436 , 4074.35897436 , 3395.38461538 , 4127.69230769 , 4113.84615385 , 2043.0 , 2034.0 , 131.067 , 0.0 , 0.0 , 0.0 , 0.0 , 

104.0 , 4120.51282051 , 4123.58974359 , 4121.53846154 , 4122.05128205 , 4123.58974359 , 4123.58974359 , 4122.05128205 , 4120.51282051 , 4122.56410256 , 4134.35897436 , 4073.33333333 , 3394.87179487 , 4132.82051282 , 4115.38461538 , 2043.0 , 2035.0 , 131.083 , 0.0 , 0.0 , 0.0 , 0.0 , 

105.0 , 4121.53846154 , 4123.58974359 , 4123.07692308 , 4126.15384615 , 4124.61538462 , 4121.53846154 , 4120.0 , 4115.8974359 , 4125.12820513 , 4134.35897436 , 4076.41025641 , 3393.33333333 , 4122.56410256 , 4112.30769231 , 2041.0 , 2034.0 , 131.083 , 0.0 , 0.0 , 0.0 , 0.0 , 

106.0 , 4121.02564103 , 4118.97435897 , 4125.12820513 , 4124.61538462 , 4124.1025641 , 4121.02564103 , 4120.0 , 4122.56410256 , 4126.66666667 , 4134.35897436 , 4077.43589744 , 3392.30769231 , 4124.1025641 , 4113.33333333 , 2040.0 , 2034.0 , 131.099 , 0.0 , 0.0 , 0.0 , 0.0 , 

107.0 , 4123.07692308 , 4120.51282051 , 4128.20512821 , 4121.02564103 , 4125.64102564 , 4125.12820513 , 4122.56410256 , 4123.58974359 , 4124.1025641 , 4134.35897436 , 4074.35897436 , 3393.84615385 , 4121.02564103 , 4112.30769231 , 2039.0 , 2034.0 , 131.099 , 0.0 , 0.0 , 0.0 , 0.0 , 

108.0 , 4122.56410256 , 4124.1025641 , 4129.23076923 , 4120.51282051 , 4125.64102564 , 4124.61538462 , 4122.05128205 , 4127.17948718 , 4124.1025641 , 4134.35897436 , 4074.87179487 , 3394.87179487 , 4118.46153846 , 4112.30769231 , 2037.0 , 2033.0 , 131.114 , 0.0 , 0.0 , 0.0 , 0.0 , 

109.0 , 4123.07692308 , 4121.02564103 , 4130.25641026 , 4122.56410256 , 4125.12820513 , 4120.51282051 , 4123.07692308 , 4127.69230769 , 4125.64102564 , 4134.35897436 , 4077.43589744 , 3395.8974359 , 4115.8974359 , 4114.87179487 , 2038.0 , 2033.0 , 131.114 , 0.0 , 0.0 , 0.0 , 0.0 , 

110.0 , 4123.07692308 , 4117.94871795 , 4128.71794872 , 4123.07692308 , 4125.64102564 , 4122.56410256 , 4122.56410256 , 4126.66666667 , 4125.12820513 , 4134.35897436 , 4075.38461538 , 3395.8974359 , 4114.87179487 , 4111.79487179 , 2037.0 , 2035.0 , 131.13 , 0.0 , 0.0 , 0.0 , 0.0 , 

111.0 , 4120.51282051 , 4121.02564103 , 4129.74358974 , 4122.56410256 , 4126.15384615 , 4124.61538462 , 4118.97435897 , 4124.1025641 , 4124.1025641 , 4134.35897436 , 4071.28205128 , 3395.38461538 , 4115.8974359 , 4110.76923077 , 2038.0 , 2034.0 , 131.13 , 0.0 , 0.0 , 0.0 , 0.0 , 

112.0 , 4121.53846154 , 4125.12820513 , 4132.30769231 , 4124.61538462 , 4125.64102564 , 4121.53846154 , 4121.02564103 , 4125.12820513 , 4124.61538462 , 4134.35897436 , 4074.35897436 , 3395.38461538 , 4113.84615385 , 4110.25641026 , 2037.0 , 2033.0 , 131.146 , 0.0 , 0.0 , 0.0 , 0.0 , 

113.0 , 4122.05128205 , 4124.61538462 , 4126.15384615 , 4125.12820513 , 4124.61538462 , 4122.05128205 , 4125.12820513 , 4125.12820513 , 4125.12820513 , 4134.35897436 , 4078.46153846 , 3392.82051282 , 4119.48717949 , 4111.28205128 , 2040.0 , 2035.0 , 131.146 , 0.0 , 0.0 , 0.0 , 0.0 , 

114.0 , 4123.58974359 , 4123.58974359 , 4124.61538462 , 4124.1025641 , 4124.61538462 , 4125.64102564 , 4123.58974359 , 4122.05128205 , 4124.61538462 , 4134.35897436 , 4074.87179487 , 3392.30769231 , 4115.38461538 , 4109.23076923 , 2041.0 , 2035.0 , 131.161 , 0.0 , 0.0 , 0.0 , 0.0 , 

115.0 , 4123.07692308 , 4123.07692308 , 4127.17948718 , 4121.02564103 , 4125.64102564 , 4124.61538462 , 4120.0 , 4125.12820513 , 4124.61538462 , 4134.35897436 , 4073.33333333 , 3392.82051282 , 4122.05128205 , 4113.33333333 , 2043.0 , 2032.0 , 131.161 , 0.0 , 0.0 , 0.0 , 0.0 , 

116.0 , 4122.56410256 , 4122.56410256 , 4129.74358974 , 4123.07692308 , 4125.12820513 , 4123.07692308 , 4119.48717949 , 4123.07692308 , 4125.12820513 , 4134.35897436 , 4074.35897436 , 3394.87179487 , 4115.38461538 , 4111.79487179 , 2042.0 , 2033.0 , 131.177 , 0.0 , 0.0 , 0.0 , 0.0 , 

117.0 , 4122.05128205 , 4122.56410256 , 4125.12820513 , 4128.20512821 , 4122.56410256 , 4123.07692308 , 4120.0 , 4125.12820513 , 4127.17948718 , 4134.35897436 , 4074.35897436 , 3394.87179487 , 4119.48717949 , 4109.74358974 , 2046.0 , 2033.0 , 131.177 , 0.0 , 0.0 , 0.0 , 0.0 , 

118.0 , 4125.12820513 , 4125.12820513 , 4124.1025641 , 4128.71794872 , 4124.1025641 , 4123.58974359 , 4122.05128205 , 4120.0 , 4126.66666667 , 4134.35897436 , 4075.38461538 , 3395.8974359 , 4120.0 , 4109.23076923 , 2045.0 , 2034.0 , 131.192 , 0.0 , 0.0 , 0.0 , 0.0 , 

119.0 , 4124.1025641 , 4123.58974359 , 4123.07692308 , 4124.61538462 , 4126.66666667 , 4123.07692308 , 4122.05128205 , 4121.02564103 , 4128.20512821 , 4134.35897436 , 4075.8974359 , 3396.41025641 , 4125.12820513 , 4113.84615385 , 2045.0 , 2032.0 , 131.192 , 0.0 , 0.0 , 0.0 , 0.0 , 

120.0 , 4122.05128205 , 4123.07692308 , 4125.12820513 , 4126.66666667 , 4125.64102564 , 4122.56410256 , 4120.0 , 4122.05128205 , 4129.23076923 , 4134.35897436 , 4071.79487179 , 3395.8974359 , 4114.35897436 , 4114.87179487 , 2046.0 , 2033.0 , 131.208 , 0.0 , 0.0 , 0.0 , 0.0 , 

121.0 , 4121.53846154 , 4124.61538462 , 4125.12820513 , 4129.23076923 , 4123.07692308 , 4120.51282051 , 4117.43589744 , 4120.0 , 4128.71794872 , 4134.35897436 , 4073.33333333 , 3394.87179487 , 4117.94871795 , 4114.35897436 , 2047.0 , 2033.0 , 131.208 , 0.0 , 0.0 , 0.0 , 0.0 , 

122.0 , 4125.12820513 , 4126.15384615 , 4126.66666667 , 4128.20512821 , 4123.58974359 , 4123.07692308 , 4118.46153846 , 4112.82051282 , 4127.17948718 , 4134.35897436 , 4076.41025641 , 3395.38461538 , 4120.0 , 4112.82051282 , 2047.0 , 2032.0 , 131.224 , 0.0 , 0.0 , 0.0 , 0.0 , 

123.0 , 4123.58974359 , 4125.64102564 , 4124.61538462 , 4123.58974359 , 4124.61538462 , 4126.66666667 , 4118.46153846 , 4122.56410256 , 4128.20512821 , 4134.35897436 , 4076.41025641 , 3394.87179487 , 4125.64102564 , 4113.84615385 , 2047.0 , 2030.0 , 131.224 , 0.0 , 0.0 , 0.0 , 0.0 , 

124.0 , 4122.56410256 , 4124.1025641 , 4123.07692308 , 4123.07692308 , 4125.64102564 , 4122.56410256 , 4117.43589744 , 4124.61538462 , 4128.20512821 , 4134.35897436 , 4073.84615385 , 3395.38461538 , 4118.97435897 , 4115.38461538 , 2046.0 , 2032.0 , 131.239 , 0.0 , 0.0 , 0.0 , 0.0 , 

125.0 , 4123.07692308 , 4123.07692308 , 4122.56410256 , 4125.64102564 , 4125.12820513 , 4120.0 , 4117.43589744 , 4118.97435897 , 4127.69230769 , 4134.35897436 , 4075.38461538 , 3396.41025641 , 4117.94871795 , 4114.35897436 , 2044.0 , 2031.0 , 131.239 , 0.0 , 0.0 , 0.0 , 0.0 , 

126.0 , 4124.61538462 , 4124.1025641 , 4123.58974359 , 4128.71794872 , 4124.61538462 , 4124.61538462 , 4118.97435897 , 4111.28205128 , 4127.17948718 , 4134.35897436 , 4075.8974359 , 3395.8974359 , 4117.94871795 , 4114.87179487 , 2044.0 , 2030.0 , 131.255 , 0.0 , 0.0 , 0.0 , 0.0 , 

127.0 , 4123.07692308 , 4124.61538462 , 4121.02564103 , 4128.71794872 , 4126.66666667 , 4123.58974359 , 4120.0 , 4113.84615385 , 4126.15384615 , 4134.35897436 , 4074.87179487 , 3396.41025641 , 4121.02564103 , 4115.8974359 , 2045.0 , 2031.0 , 131.255 , 0.0 , 0.0 , 0.0 , 0.0 , 

128.0 , 4122.05128205 , 4124.1025641 , 4121.53846154 , 4127.69230769 , 4127.17948718 , 4121.02564103 , 4117.94871795 , 4110.76923077 , 4127.17948718 , 4134.35897436 , 4073.33333333 , 3397.43589744 , 4124.1025641 , 4115.38461538 , 2045.0 , 2032.0 , 131.271 , 0.0 , 0.0 , 0.0 , 0.0 , 

0.0 , 4125.12820513 , 4126.15384615 , 4125.64102564 , 4128.20512821 , 4123.58974359 , 4123.07692308 , 4116.92307692 , 4109.74358974 , 4130.25641026 , 4134.35897436 , 4070.76923077 , 3394.35897436 , 4114.87179487 , 4111.28205128 , 2048.0 , 2028.0 , 131.271 , 0.0 , 0.0 , 0.0 , 0.0 , 

1.0 , 4126.15384615 , 4127.17948718 , 4124.61538462 , 4127.17948718 , 4125.64102564 , 4124.1025641 , 4120.0 , 4113.84615385 , 4129.74358974 , 4134.35897436 , 4072.30769231 , 3392.30769231 , 4113.33333333 , 4114.35897436 , 2050.0 , 2025.0 , 131.286 , 0.0 , 0.0 , 0.0 , 0.0 , 

2.0 , 4125.12820513 , 4127.17948718 , 4123.58974359 , 4123.07692308 , 4129.23076923 , 4122.56410256 , 4120.51282051 , 4116.41025641 , 4128.71794872 , 4134.35897436 , 4073.84615385 , 3396.41025641 , 4113.33333333 , 4114.87179487 , 2050.0 , 2023.0 , 131.286 , 0.0 , 0.0 , 0.0 , 0.0 , 

3.0 , 4124.1025641 , 4127.69230769 , 4124.61538462 , 4121.53846154 , 4125.64102564 , 4121.02564103 , 4115.8974359 , 4121.02564103 , 4130.76923077 , 4134.35897436 , 4072.82051282 , 3398.97435897 , 4116.41025641 , 4111.79487179 , 2049.0 , 2022.0 , 131.302 , 0.0 , 0.0 , 0.0 , 0.0 , 

4.0 , 4127.69230769 , 4130.76923077 , 4125.12820513 , 4126.66666667 , 4124.61538462 , 4120.0 , 4115.38461538 , 4117.94871795 , 4130.25641026 , 4134.35897436 , 4070.76923077 , 3397.43589744 , 4109.74358974 , 4110.76923077 , 2050.0 , 2025.0 , 131.302 , 0.0 , 0.0 , 0.0 , 0.0 , 

5.0 , 4125.12820513 , 4131.28205128 , 4118.97435897 , 4128.71794872 , 4127.17948718 , 4120.0 , 4114.87179487 , 4111.79487179 , 4129.23076923 , 4134.35897436 , 4070.76923077 , 3395.38461538 , 4121.02564103 , 4118.46153846 , 2049.0 , 2027.0 , 131.317 , 0.0 , 0.0 , 0.0 , 0.0 , 

6.0 , 4124.1025641 , 4133.84615385 , 4118.46153846 , 4128.20512821 , 4126.66666667 , 4121.53846154 , 4114.87179487 , 4102.56410256 , 4135.38461538 , 4134.35897436 , 4067.17948718 , 3398.46153846 , 4121.53846154 , 4119.48717949 , 2048.0 , 2029.0 , 131.317 , 0.0 , 0.0 , 0.0 , 0.0 , 

7.0 , 4122.05128205 , 4132.82051282 , 4117.94871795 , 4129.23076923 , 4125.12820513 , 4120.51282051 , 4117.94871795 , 4105.64102564 , 4136.92307692 , 4134.35897436 , 4067.17948718 , 3399.48717949 , 4122.56410256 , 4121.53846154 , 2048.0 , 2031.0 , 131.333 , 0.0 , 0.0 , 0.0 , 0.0 , 

8.0 , 4125.12820513 , 4128.20512821 , 4121.53846154 , 4130.76923077 , 4127.17948718 , 4121.53846154 , 4119.48717949 , 4108.20512821 , 4134.35897436 , 4134.35897436 , 4069.23076923 , 3397.43589744 , 4113.84615385 , 4121.53846154 , 2050.0 , 2032.0 , 131.333 , 0.0 , 0.0 , 0.0 , 0.0 , 

9.0 , 4128.71794872 , 4126.66666667 , 4120.51282051 , 4129.74358974 , 4127.17948718 , 4124.1025641 , 4115.38461538 , 4113.33333333 , 4137.43589744 , 4134.35897436 , 4069.74358974 , 3393.84615385 , 4118.97435897 , 4120.51282051 , 2050.0 , 2028.0 , 131.349 , 0.0 , 0.0 , 0.0 , 0.0 , 

10.0 , 4128.20512821 , 4128.20512821 , 4123.07692308 , 4130.25641026 , 4125.12820513 , 4123.58974359 , 4115.8974359 , 4113.33333333 , 4134.35897436 , 4134.35897436 , 4067.69230769 , 3394.87179487 , 4114.87179487 , 4117.94871795 , 2049.0 , 2030.0 , 131.349 , 0.0 , 0.0 , 0.0 , 0.0 , 

11.0 , 4121.53846154 , 4125.64102564 , 4123.07692308 , 4128.71794872 , 4125.64102564 , 4122.05128205 , 4117.43589744 , 4116.41025641 , 4126.66666667 , 4134.35897436 , 4067.69230769 , 3397.43589744 , 4123.58974359 , 4119.48717949 , 2048.0 , 2030.0 , 131.364 , 0.0 , 0.0 , 0.0 , 0.0 , 

12.0 , 4124.1025641 , 4125.12820513 , 4122.56410256 , 4129.74358974 , 4125.12820513 , 4122.56410256 , 4117.43589744 , 4113.33333333 , 4129.23076923 , 4134.35897436 , 4068.20512821 , 3400.0 , 4117.43589744 , 4117.94871795 , 2048.0 , 2031.0 , 131.364 , 0.0 , 0.0 , 0.0 , 0.0 , 

13.0 , 4126.15384615 , 4128.20512821 , 4120.51282051 , 4128.20512821 , 4123.07692308 , 4123.07692308 , 4116.41025641 , 4118.46153846 , 4132.82051282 , 4134.35897436 , 4069.23076923 , 3398.46153846 , 4118.46153846 , 4115.8974359 , 2046.0 , 2030.0 , 131.383 , 0.0 , 0.0 , 0.0 , 0.0 , 

14.0 , 4124.1025641 , 4128.71794872 , 4121.53846154 , 4123.58974359 , 4125.12820513 , 4122.56410256 , 4114.87179487 , 4113.84615385 , 4127.17948718 , 4134.35897436 , 4070.25641026 , 3396.41025641 , 4124.1025641 , 4117.94871795 , 2044.0 , 2031.0 , 131.391 , 0.0 , 0.0 , 0.0 , 0.0 , 

15.0 , 4123.07692308 , 4124.61538462 , 4120.0 , 4122.05128205 , 4127.69230769 , 4121.53846154 , 4116.92307692 , 4113.33333333 , 4125.64102564 , 4134.35897436 , 4069.74358974 , 3397.43589744 , 4127.69230769 , 4120.0 , 2042.0 , 2031.0 , 131.399 , 0.0 , 0.0 , 0.0 , 0.0 , 

16.0 , 4126.15384615 , 4123.58974359 , 4120.51282051 , 4126.66666667 , 4127.69230769 , 4122.05128205 , 4120.51282051 , 4117.94871795 , 4129.74358974 , 4134.35897436 , 4068.71794872 , 3398.46153846 , 4125.64102564 , 4118.97435897 , 2042.0 , 2031.0 , 131.407 , 0.0 , 0.0 , 0.0 , 0.0 , 

17.0 , 4125.12820513 , 4124.1025641 , 4122.05128205 , 4128.20512821 , 4127.17948718 , 4124.61538462 , 4122.56410256 , 4125.12820513 , 4130.25641026 , 4134.35897436 , 4070.76923077 , 3396.41025641 , 4126.66666667 , 4115.38461538 , 2039.0 , 2031.0 , 131.415 , 0.0 , 0.0 , 0.0 , 0.0 , 

18.0 , 4122.56410256 , 4125.12820513 , 4123.58974359 , 4126.15384615 , 4126.66666667 , 4123.58974359 , 4121.02564103 , 4125.64102564 , 4129.23076923 , 4134.35897436 , 4074.87179487 , 3395.8974359 , 4126.15384615 , 4116.92307692 , 2037.0 , 2030.0 , 131.421 , 0.0 , 0.0 , 0.0 , 0.0 , 

19.0 , 4124.61538462 , 4125.12820513 , 4124.61538462 , 4124.61538462 , 4123.07692308 , 4120.51282051 , 4121.53846154 , 4122.56410256 , 4127.17948718 , 4134.35897436 , 4074.87179487 , 3396.41025641 , 4120.51282051 , 4115.8974359 , 2036.0 , 2031.0 , 131.421 , 0.0 , 0.0 , 0.0 , 0.0 , 

20.0 , 4124.1025641 , 4124.1025641 , 4122.05128205 , 4126.15384615 , 4124.1025641 , 4122.05128205 , 4121.02564103 , 4124.61538462 , 4124.1025641 , 4134.35897436 , 4071.79487179 , 3395.38461538 , 4125.12820513 , 4116.41025641 , 2036.0 , 2030.0 , 131.437 , 0.0 , 0.0 , 0.0 , 0.0 , 

21.0 , 4122.05128205 , 4123.58974359 , 4123.58974359 , 4129.74358974 , 4127.69230769 , 4125.64102564 , 4122.56410256 , 4131.28205128 , 4124.1025641 , 4134.35897436 , 4072.30769231 , 3395.8974359 , 4120.0 , 4114.87179487 , 2037.0 , 2031.0 , 131.437 , 0.0 , 0.0 , 0.0 , 0.0 , 

22.0 , 4120.51282051 , 4122.05128205 , 4125.64102564 , 4126.15384615 , 4127.69230769 , 4123.07692308 , 4122.56410256 , 4136.41025641 , 4126.66666667 , 4134.35897436 , 4074.35897436 , 3395.8974359 , 4124.1025641 , 4115.38461538 , 2037.0 , 2031.0 , 131.452 , 0.0 , 0.0 , 0.0 , 0.0 , 

23.0 , 4125.12820513 , 4123.07692308 , 4128.71794872 , 4122.05128205 , 4125.64102564 , 4123.07692308 , 4120.51282051 , 4129.23076923 , 4130.25641026 , 4134.35897436 , 4072.82051282 , 3396.92307692 , 4119.48717949 , 4111.79487179 , 2038.0 , 2029.0 , 131.452 , 0.0 , 0.0 , 0.0 , 0.0 , 

24.0 , 4123.07692308 , 4125.12820513 , 4124.61538462 , 4123.07692308 , 4125.64102564 , 4126.15384615 , 4122.05128205 , 4126.66666667 , 4127.17948718 , 4134.35897436 , 4071.79487179 , 3396.92307692 , 4120.0 , 4110.76923077 , 2037.0 , 2029.0 , 131.468 , 0.0 , 0.0 , 0.0 , 0.0 , 

25.0 , 4122.05128205 , 4124.1025641 , 4126.66666667 , 4127.69230769 , 4126.66666667 , 4124.1025641 , 4125.64102564 , 4126.15384615 , 4121.53846154 , 4134.35897436 , 4072.30769231 , 3394.87179487 , 4116.92307692 , 4110.76923077 , 2039.0 , 2030.0 , 131.468 , 0.0 , 0.0 , 0.0 , 0.0 , 

26.0 , 4121.02564103 , 4121.02564103 , 4127.17948718 , 4125.64102564 , 4125.64102564 , 4122.56410256 , 4122.56410256 , 4130.25641026 , 4124.1025641 , 4134.35897436 , 4076.92307692 , 3393.33333333 , 4131.79487179 , 4114.35897436 , 2037.0 , 2030.0 , 131.484 , 0.0 , 0.0 , 0.0 , 0.0 , 

27.0 , 4122.05128205 , 4122.56410256 , 4127.69230769 , 4124.1025641 , 4127.17948718 , 4125.64102564 , 4118.46153846 , 4123.58974359 , 4129.23076923 , 4134.35897436 , 4077.43589744 , 3397.43589744 , 4130.76923077 , 4113.84615385 , 2038.0 , 2031.0 , 131.484 , 0.0 , 0.0 , 0.0 , 0.0 , 

28.0 , 4121.02564103 , 4123.07692308 , 4123.58974359 , 4124.1025641 , 4128.71794872 , 4125.12820513 , 4118.97435897 , 4124.61538462 , 4126.66666667 , 4134.35897436 , 4075.38461538 , 3396.41025641 , 4129.74358974 , 4115.8974359 , 2039.0 , 2033.0 , 131.499 , 0.0 , 0.0 , 0.0 , 0.0 , 

29.0 , 4123.07692308 , 4123.07692308 , 4124.61538462 , 4124.1025641 , 4127.17948718 , 4127.17948718 , 4120.0 , 4121.53846154 , 4123.07692308 , 4134.35897436 , 4074.35897436 , 3393.33333333 , 4123.58974359 , 4117.43589744 , 2041.0 , 2033.0 , 131.499 , 0.0 , 0.0 , 0.0 , 0.0 , 

30.0 , 4122.56410256 , 4123.58974359 , 4125.64102564 , 4126.15384615 , 4123.58974359 , 4126.66666667 , 4121.53846154 , 4124.61538462 , 4125.12820513 , 4134.35897436 , 4074.87179487 , 3395.38461538 , 4127.17948718 , 4113.84615385 , 2041.0 , 2037.0 , 131.515 , 0.0 , 0.0 , 0.0 , 0.0 , 

31.0 , 4125.12820513 , 4125.12820513 , 4127.17948718 , 4128.20512821 , 4125.64102564 , 4125.64102564 , 4123.58974359 , 4125.64102564 , 4126.15384615 , 4134.35897436 , 4073.84615385 , 3397.94871795 , 4121.02564103 , 4109.23076923 , 2041.0 , 2038.0 , 131.515 , 0.0 , 0.0 , 0.0 , 0.0 , 

32.0 , 4124.61538462 , 4123.07692308 , 4127.17948718 , 4124.1025641 , 4128.20512821 , 4128.20512821 , 4122.56410256 , 4130.25641026 , 4124.61538462 , 4134.35897436 , 4075.8974359 , 3397.43589744 , 4125.64102564 , 4111.79487179 , 2043.0 , 2039.0 , 131.53 , 0.0 , 0.0 , 0.0 , 0.0 , 

33.0 , 4123.58974359 , 4122.56410256 , 4128.71794872 , 4121.02564103 , 4124.61538462 , 4127.17948718 , 4121.53846154 , 4129.23076923 , 4126.66666667 , 4134.35897436 , 4077.43589744 , 3397.43589744 , 4130.76923077 , 4113.33333333 , 2043.0 , 2039.0 , 131.53 , 0.0 , 0.0 , 0.0 , 0.0 , 

34.0 , 4122.56410256 , 4124.1025641 , 4126.15384615 , 4123.07692308 , 4122.56410256 , 4122.56410256 , 4121.53846154 , 4129.23076923 , 4129.23076923 , 4134.35897436 , 4076.92307692 , 3396.92307692 , 4124.61538462 , 4112.30769231 , 2042.0 , 2040.0 , 131.546 , 0.0 , 0.0 , 0.0 , 0.0 , 

35.0 , 4124.1025641 , 4122.56410256 , 4124.61538462 , 4127.17948718 , 4125.64102564 , 4124.1025641 , 4122.05128205 , 4124.61538462 , 4128.71794872 , 4134.35897436 , 4075.38461538 , 3394.87179487 , 4114.87179487 , 4113.84615385 , 2043.0 , 2039.0 , 131.546 , 0.0 , 0.0 , 0.0 , 0.0 , 

36.0 , 4123.58974359 , 4120.0 , 4127.17948718 , 4123.58974359 , 4125.12820513 , 4127.17948718 , 4124.61538462 , 4127.17948718 , 4127.17948718 , 4134.35897436 , 4073.84615385 , 3394.35897436 , 4118.97435897 , 4110.25641026 , 2042.0 , 2039.0 , 131.562 , 0.0 , 0.0 , 0.0 , 0.0 , 

37.0 , 4122.56410256 , 4122.56410256 , 4130.25641026 , 4120.0 , 4121.53846154 , 4124.1025641 , 4121.53846154 , 4131.79487179 , 4127.69230769 , 4134.35897436 , 4073.84615385 , 3395.8974359 , 4123.58974359 , 4109.23076923 , 2040.0 , 2037.0 , 131.562 , 0.0 , 0.0 , 0.0 , 0.0 , 

38.0 , 4124.1025641 , 4125.64102564 , 4127.69230769 , 4123.07692308 , 4123.58974359 , 4124.1025641 , 4120.0 , 4130.76923077 , 4127.69230769 , 4134.35897436 , 4075.38461538 , 3396.92307692 , 4115.38461538 , 4108.20512821 , 2039.0 , 2036.0 , 131.577 , 0.0 , 0.0 , 0.0 , 0.0 , 

39.0 , 4123.58974359 , 4122.05128205 , 4124.61538462 , 4123.58974359 , 4126.66666667 , 4125.64102564 , 4122.05128205 , 4129.74358974 , 4125.12820513 , 4134.35897436 , 4076.41025641 , 3394.35897436 , 4123.58974359 , 4109.74358974 , 2039.0 , 2037.0 , 131.577 , 0.0 , 0.0 , 0.0 , 0.0 , 

40.0 , 4124.61538462 , 4121.02564103 , 4127.69230769 , 4120.51282051 , 4125.12820513 , 4124.1025641 , 4120.0 , 4126.15384615 , 4124.1025641 , 4134.35897436 , 4075.8974359 , 3395.38461538 , 4124.61538462 , 4109.23076923 , 2039.0 , 2035.0 , 131.593 , 0.0 , 0.0 , 0.0 , 0.0 , 

41.0 , 4123.58974359 , 4123.07692308 , 4124.61538462 , 4121.02564103 , 4124.1025641 , 4121.02564103 , 4118.97435897 , 4126.15384615 , 4123.07692308 , 4134.35897436 , 4076.92307692 , 3396.92307692 , 4125.64102564 , 4112.30769231 , 2038.0 , 2036.0 , 131.593 , 0.0 , 0.0 , 0.0 , 0.0 , 

42.0 , 4125.12820513 , 4122.56410256 , 4124.61538462 , 4122.56410256 , 4128.20512821 , 4123.07692308 , 4124.1025641 , 4126.15384615 , 4123.58974359 , 4134.35897436 , 4076.41025641 , 3396.41025641 , 4115.38461538 , 4107.69230769 , 2037.0 , 2035.0 , 131.609 , 0.0 , 0.0 , 0.0 , 0.0 , 

43.0 , 4120.51282051 , 4122.56410256 , 4127.17948718 , 4120.51282051 , 4129.23076923 , 4124.61538462 , 4123.58974359 , 4129.23076923 , 4124.61538462 , 4134.35897436 , 4076.41025641 , 3394.87179487 , 4122.05128205 , 4106.66666667 , 2037.0 , 2035.0 , 131.609 , 0.0 , 0.0 , 0.0 , 0.0 , 

44.0 , 4120.51282051 , 4125.64102564 , 4127.69230769 , 4121.02564103 , 4126.66666667 , 4123.58974359 , 4119.48717949 , 4124.61538462 , 4124.61538462 , 4134.35897436 , 4075.8974359 , 3395.38461538 , 4124.1025641 , 4107.17948718 , 2039.0 , 2036.0 , 131.624 , 0.0 , 0.0 , 0.0 , 0.0 , 

45.0 , 4122.56410256 , 4122.56410256 , 4123.58974359 , 4121.53846154 , 4124.61538462 , 4123.58974359 , 4120.51282051 , 4128.71794872 , 4125.12820513 , 4134.35897436 , 4076.92307692 , 3394.87179487 , 4127.69230769 , 4109.74358974 , 2038.0 , 2035.0 , 131.624 , 0.0 , 0.0 , 0.0 , 0.0 , 

46.0 , 4124.61538462 , 4121.53846154 , 4125.64102564 , 4122.05128205 , 4127.69230769 , 4126.66666667 , 4126.15384615 , 4131.28205128 , 4128.20512821 , 4134.35897436 , 4076.41025641 , 3396.92307692 , 4119.48717949 , 4111.79487179 , 2041.0 , 2034.0 , 131.64 , 0.0 , 0.0 , 0.0 , 0.0 , 

47.0 , 4121.53846154 , 4123.58974359 , 4125.12820513 , 4119.48717949 , 4128.20512821 , 4124.61538462 , 4125.64102564 , 4133.84615385 , 4128.20512821 , 4134.35897436 , 4077.94871795 , 3397.43589744 , 4122.56410256 , 4115.38461538 , 2041.0 , 2033.0 , 131.64 , 0.0 , 0.0 , 0.0 , 0.0 , 

48.0 , 4122.56410256 , 4123.58974359 , 4127.17948718 , 4120.0 , 4125.12820513 , 4124.1025641 , 4120.0 , 4128.71794872 , 4124.1025641 , 4134.35897436 , 4078.97435897 , 3395.8974359 , 4120.0 , 4111.28205128 , 2042.0 , 2034.0 , 131.655 , 0.0 , 0.0 , 0.0 , 0.0 , 

49.0 , 4122.56410256 , 4120.51282051 , 4127.17948718 , 4122.05128205 , 4123.58974359 , 4125.12820513 , 4118.97435897 , 4130.25641026 , 4126.66666667 , 4134.35897436 , 4080.0 , 3395.8974359 , 4128.20512821 , 4109.74358974 , 2043.0 , 2031.0 , 131.655 , 0.0 , 0.0 , 0.0 , 0.0 , 

50.0 , 4124.1025641 , 4123.07692308 , 4126.66666667 , 4125.12820513 , 4124.1025641 , 4123.07692308 , 4124.1025641 , 4129.74358974 , 4128.71794872 , 4134.35897436 , 4078.46153846 , 3396.41025641 , 4121.02564103 , 4111.79487179 , 2043.0 , 2032.0 , 131.671 , 0.0 , 0.0 , 0.0 , 0.0 , 

51.0 , 4123.58974359 , 4124.1025641 , 4126.15384615 , 4124.1025641 , 4123.58974359 , 4121.02564103 , 4123.07692308 , 4130.25641026 , 4126.15384615 , 4134.35897436 , 4077.43589744 , 3394.87179487 , 4116.92307692 , 4110.76923077 , 2044.0 , 2032.0 , 131.671 , 0.0 , 0.0 , 0.0 , 0.0 , 

52.0 , 4122.05128205 , 4122.56410256 , 4127.17948718 , 4122.56410256 , 4123.58974359 , 4122.56410256 , 4117.94871795 , 4120.0 , 4125.64102564 , 4134.35897436 , 4077.94871795 , 3395.38461538 , 4120.0 , 4110.76923077 , 2044.0 , 2031.0 , 131.687 , 0.0 , 0.0 , 0.0 , 0.0 , 

53.0 , 4122.56410256 , 4123.07692308 , 4125.12820513 , 4121.02564103 , 4123.58974359 , 4125.64102564 , 4121.53846154 , 4116.41025641 , 4128.20512821 , 4134.35897436 , 4078.46153846 , 3396.92307692 , 4123.07692308 , 4113.33333333 , 2045.0 , 2032.0 , 131.687 , 0.0 , 0.0 , 0.0 , 0.0 , 

54.0 , 4126.15384615 , 4125.12820513 , 4123.58974359 , 4121.02564103 , 4119.48717949 , 4126.66666667 , 4123.58974359 , 4118.97435897 , 4129.23076923 , 4134.35897436 , 4077.43589744 , 3397.43589744 , 4124.1025641 , 4113.84615385 , 2045.0 , 2033.0 , 131.702 , 0.0 , 0.0 , 0.0 , 0.0 , 

55.0 , 4123.58974359 , 4123.07692308 , 4124.1025641 , 4122.05128205 , 4118.97435897 , 4125.12820513 , 4121.02564103 , 4127.17948718 , 4128.20512821 , 4134.35897436 , 4076.92307692 , 3397.94871795 , 4124.61538462 , 4112.30769231 , 2047.0 , 2034.0 , 131.702 , 0.0 , 0.0 , 0.0 , 0.0 , 

56.0 , 4121.02564103 , 4121.53846154 , 4123.58974359 , 4122.05128205 , 4124.1025641 , 4124.1025641 , 4120.0 , 4126.66666667 , 4126.66666667 , 4134.35897436 , 4076.41025641 , 3397.94871795 , 4128.71794872 , 4114.87179487 , 2046.0 , 2034.0 , 131.718 , 0.0 , 0.0 , 0.0 , 0.0 , 

57.0 , 4124.61538462 , 4123.07692308 , 4123.58974359 , 4124.1025641 , 4126.15384615 , 4124.1025641 , 4123.07692308 , 4119.48717949 , 4127.17948718 , 4134.35897436 , 4074.87179487 , 3394.35897436 , 4121.02564103 , 4110.76923077 , 2045.0 , 2034.0 , 131.718 , 0.0 , 0.0 , 0.0 , 0.0 , 

58.0 , 4123.58974359 , 4124.61538462 , 4123.58974359 , 4127.69230769 , 4124.61538462 , 4123.58974359 , 4123.07692308 , 4124.61538462 , 4129.23076923 , 4134.35897436 , 4075.8974359 , 3391.79487179 , 4125.12820513 , 4112.82051282 , 2045.0 , 2035.0 , 131.734 , 0.0 , 0.0 , 0.0 , 0.0 , 

59.0 , 4123.58974359 , 4124.61538462 , 4128.20512821 , 4127.69230769 , 4126.15384615 , 4124.1025641 , 4121.02564103 , 4122.56410256 , 4127.69230769 , 4134.35897436 , 4075.38461538 , 3395.8974359 , 4116.92307692 , 4113.33333333 , 2045.0 , 2035.0 , 131.734 , 0.0 , 0.0 , 0.0 , 0.0 , 

60.0 , 4126.15384615 , 4123.07692308 , 4127.69230769 , 4123.07692308 , 4127.69230769 , 4124.1025641 , 4122.05128205 , 4120.0 , 4124.61538462 , 4134.35897436 , 4073.84615385 , 3397.43589744 , 4114.35897436 , 4109.74358974 , 2045.0 , 2034.0 , 131.749 , 0.0 , 0.0 , 0.0 , 0.0 , 

61.0 , 4127.17948718 , 4124.61538462 , 4124.61538462 , 4122.56410256 , 4125.64102564 , 4124.61538462 , 4123.58974359 , 4122.56410256 , 4125.12820513 , 4134.35897436 , 4074.87179487 , 3395.8974359 , 4112.82051282 , 4107.69230769 , 2044.0 , 2036.0 , 131.749 , 0.0 , 0.0 , 0.0 , 0.0 , 

62.0 , 4121.02564103 , 4125.12820513 , 4122.56410256 , 4123.07692308 , 4125.12820513 , 4123.07692308 , 4123.58974359 , 4129.74358974 , 4127.17948718 , 4134.35897436 , 4076.41025641 , 3394.35897436 , 4121.53846154 , 4111.79487179 , 2044.0 , 2035.0 , 131.765 , 0.0 , 0.0 , 0.0 , 0.0 , 

63.0 , 4123.58974359 , 4125.12820513 , 4128.20512821 , 4124.1025641 , 4125.64102564 , 4122.05128205 , 4122.56410256 , 4126.15384615 , 4129.23076923 , 4134.35897436 , 4074.87179487 , 3395.38461538 , 4112.82051282 , 4108.20512821 , 2045.0 , 2035.0 , 131.765 , 0.0 , 0.0 , 0.0 , 0.0 , 

64.0 , 4123.58974359 , 4124.1025641 , 4126.66666667 , 4124.1025641 , 4124.61538462 , 4122.05128205 , 4120.0 , 4124.1025641 , 4127.17948718 , 4134.35897436 , 4075.8974359 , 3395.8974359 , 4115.38461538 , 4109.23076923 , 2046.0 , 2034.0 , 131.78 , 0.0 , 0.0 , 0.0 , 0.0 , 

65.0 , 4123.07692308 , 4125.12820513 , 4122.05128205 , 4124.1025641 , 4123.07692308 , 4123.07692308 , 4123.07692308 , 4118.46153846 , 4124.1025641 , 4134.35897436 , 4074.87179487 , 3396.41025641 , 4115.38461538 , 4113.33333333 , 2044.0 , 2033.0 , 131.78 , 0.0 , 0.0 , 0.0 , 0.0 , 

66.0 , 4123.07692308 , 4123.58974359 , 4118.97435897 , 4122.05128205 , 4124.61538462 , 4121.53846154 , 4124.1025641 , 4122.05128205 , 4125.12820513 , 4134.35897436 , 4075.38461538 , 3396.92307692 , 4123.58974359 , 4112.30769231 , 2044.0 , 2033.0 , 131.801 , 0.0 , 0.0 , 0.0 , 0.0 , 

67.0 , 4124.1025641 , 4123.58974359 , 4124.61538462 , 4122.05128205 , 4126.15384615 , 4120.51282051 , 4120.51282051 , 4122.56410256 , 4127.17948718 , 4134.35897436 , 4076.92307692 , 3398.97435897 , 4118.46153846 , 4107.69230769 , 2046.0 , 2032.0 , 131.81 , 0.0 , 0.0 , 0.0 , 0.0 , 

68.0 , 4121.53846154 , 4123.58974359 , 4125.64102564 , 4126.15384615 , 4123.58974359 , 4121.02564103 , 4119.48717949 , 4124.61538462 , 4127.17948718 , 4134.35897436 , 4077.94871795 , 3400.0 , 4122.56410256 , 4110.76923077 , 2045.0 , 2032.0 , 131.818 , 0.0 , 0.0 , 0.0 , 0.0 , 

69.0 , 4121.53846154 , 4124.1025641 , 4123.58974359 , 4127.17948718 , 4123.07692308 , 4123.58974359 , 4121.02564103 , 4116.92307692 , 4124.1025641 , 4134.35897436 , 4076.92307692 , 3398.46153846 , 4124.61538462 , 4112.30769231 , 2047.0 , 2031.0 , 131.821 , 0.0 , 0.0 , 0.0 , 0.0 , 

70.0 , 4121.53846154 , 4124.61538462 , 4121.53846154 , 4122.56410256 , 4123.07692308 , 4124.61538462 , 4118.97435897 , 4120.0 , 4124.61538462 , 4134.35897436 , 4076.41025641 , 3397.94871795 , 4125.12820513 , 4108.71794872 , 2046.0 , 2031.0 , 131.821 , 0.0 , 0.0 , 0.0 , 0.0 , 

71.0 , 4123.58974359 , 4125.12820513 , 4125.64102564 , 4120.51282051 , 4121.53846154 , 4124.61538462 , 4120.51282051 , 4123.58974359 , 4126.15384615 , 4134.35897436 , 4076.41025641 , 3398.46153846 , 4118.97435897 , 4108.71794872 , 2046.0 , 2032.0 , 131.836 , 0.0 , 0.0 , 0.0 , 0.0 , 

72.0 , 4124.61538462 , 4124.61538462 , 4128.71794872 , 4123.07692308 , 4123.07692308 , 4124.1025641 , 4122.56410256 , 4122.05128205 , 4126.15384615 , 4134.35897436 , 4075.38461538 , 3396.92307692 , 4118.46153846 , 4109.23076923 , 2046.0 , 2032.0 , 131.836 , 0.0 , 0.0 , 0.0 , 0.0 , 

73.0 , 4124.1025641 , 4124.61538462 , 4125.12820513 , 4124.1025641 , 4127.17948718 , 4123.58974359 , 4118.97435897 , 4118.97435897 , 4128.20512821 , 4134.35897436 , 4075.8974359 , 3395.38461538 , 4123.58974359 , 4108.20512821 , 2045.0 , 2034.0 , 131.852 , 0.0 , 0.0 , 0.0 , 0.0 , 

74.0 , 4124.61538462 , 4124.61538462 , 4123.07692308 , 4125.12820513 , 4125.64102564 , 4125.12820513 , 4119.48717949 , 4120.51282051 , 4129.74358974 , 4134.35897436 , 4078.46153846 , 3395.8974359 , 4120.51282051 , 4106.66666667 , 2043.0 , 2035.0 , 131.852 , 0.0 , 0.0 , 0.0 , 0.0 , 

75.0 , 4124.61538462 , 4122.56410256 , 4124.61538462 , 4124.1025641 , 4124.61538462 , 4124.1025641 , 4121.02564103 , 4118.46153846 , 4126.15384615 , 4134.35897436 , 4078.46153846 , 3397.43589744 , 4123.07692308 , 4112.82051282 , 2044.0 , 2037.0 , 131.867 , 0.0 , 0.0 , 0.0 , 0.0 , 

76.0 , 4123.07692308 , 4123.58974359 , 4124.1025641 , 4124.1025641 , 4127.17948718 , 4123.58974359 , 4122.56410256 , 4117.94871795 , 4126.15384615 , 4134.35897436 , 4074.87179487 , 3399.48717949 , 4117.94871795 , 4110.25641026 , 2046.0 , 2035.0 , 131.867 , 0.0 , 0.0 , 0.0 , 0.0 , 

77.0 , 4123.58974359 , 4125.12820513 , 4122.05128205 , 4126.15384615 , 4123.58974359 , 4122.56410256 , 4124.61538462 , 4123.58974359 , 4129.23076923 , 4134.35897436 , 4073.84615385 , 3400.0 , 4117.43589744 , 4108.20512821 , 2044.0 , 2036.0 , 131.883 , 0.0 , 0.0 , 0.0 , 0.0 , 

78.0 , 4128.20512821 , 4125.64102564 , 4127.69230769 , 4126.66666667 , 4121.53846154 , 4122.05128205 , 4124.1025641 , 4118.97435897 , 4128.71794872 , 4134.35897436 , 4075.38461538 , 3398.97435897 , 4111.28205128 , 4105.64102564 , 2044.0 , 2036.0 , 131.883 , 0.0 , 0.0 , 0.0 , 0.0 , 

79.0 , 4124.61538462 , 4125.64102564 , 4126.15384615 , 4121.53846154 , 4124.61538462 , 4121.53846154 , 4120.51282051 , 4121.02564103 , 4126.15384615 , 4134.35897436 , 4074.87179487 , 3396.41025641 , 4120.0 , 4106.66666667 , 2044.0 , 2035.0 , 131.899 , 0.0 , 0.0 , 0.0 , 0.0 , 

80.0 , 4124.61538462 , 4126.15384615 , 4123.58974359 , 4123.07692308 , 4126.15384615 , 4123.58974359 , 4120.51282051 , 4123.58974359 , 4127.17948718 , 4134.35897436 , 4071.79487179 , 3399.48717949 , 4114.87179487 , 4103.58974359 , 2044.0 , 2035.0 , 131.899 , 0.0 , 0.0 , 0.0 , 0.0 , 

81.0 , 4125.12820513 , 4124.1025641 , 4122.56410256 , 4128.71794872 , 4125.12820513 , 4123.58974359 , 4119.48717949 , 4121.53846154 , 4129.23076923 , 4134.35897436 , 4074.87179487 , 3400.51282051 , 4118.46153846 , 4105.64102564 , 2046.0 , 2035.0 , 131.914 , 0.0 , 0.0 , 0.0 , 0.0 , 

82.0 , 4126.15384615 , 4124.61538462 , 4126.15384615 , 4128.71794872 , 4124.1025641 , 4120.51282051 , 4117.43589744 , 4115.38461538 , 4127.69230769 , 4134.35897436 , 4074.35897436 , 3396.92307692 , 4116.41025641 , 4108.71794872 , 2047.0 , 2035.0 , 131.914 , 0.0 , 0.0 , 0.0 , 0.0 , 

83.0 , 4122.56410256 , 4126.15384615 , 4121.02564103 , 4123.07692308 , 4123.58974359 , 4121.02564103 , 4117.94871795 , 4122.56410256 , 4126.66666667 , 4134.35897436 , 4072.30769231 , 3394.87179487 , 4122.56410256 , 4111.28205128 , 2048.0 , 2032.0 , 131.93 , 0.0 , 0.0 , 0.0 , 0.0 , 

84.0 , 4125.12820513 , 4126.66666667 , 4118.97435897 , 4124.61538462 , 4125.12820513 , 4125.64102564 , 4118.97435897 , 4116.92307692 , 4128.20512821 , 4134.35897436 , 4073.84615385 , 3398.97435897 , 4115.8974359 , 4109.23076923 , 2048.0 , 2031.0 , 131.93 , 0.0 , 0.0 , 0.0 , 0.0 , 

85.0 , 4125.64102564 , 4123.58974359 , 4119.48717949 , 4127.69230769 , 4124.1025641 , 4124.61538462 , 4117.43589744 , 4117.94871795 , 4130.25641026 , 4134.35897436 , 4075.8974359 , 3400.51282051 , 4123.07692308 , 4112.30769231 , 2049.0 , 2028.0 , 131.946 , 0.0 , 0.0 , 0.0 , 0.0 , 

86.0 , 4125.12820513 , 4122.56410256 , 4122.56410256 , 4127.17948718 , 4123.07692308 , 4120.51282051 , 4117.43589744 , 4117.43589744 , 4129.74358974 , 4134.35897436 , 4075.38461538 , 3398.46153846 , 4131.28205128 , 4116.41025641 , 2048.0 , 2029.0 , 131.946 , 0.0 , 0.0 , 0.0 , 0.0 , 

87.0 , 4122.56410256 , 4127.17948718 , 4120.0 , 4126.15384615 , 4125.12820513 , 4121.02564103 , 4116.41025641 , 4116.41025641 , 4129.23076923 , 4134.35897436 , 4074.87179487 , 3396.92307692 , 4132.82051282 , 4114.87179487 , 2050.0 , 2030.0 , 131.961 , 0.0 , 0.0 , 0.0 , 0.0 , 

88.0 , 4123.58974359 , 4130.76923077 , 4118.46153846 , 4129.23076923 , 4126.15384615 , 4123.58974359 , 4115.38461538 , 4112.82051282 , 4131.28205128 , 4134.35897436 , 4073.84615385 , 3397.43589744 , 4122.05128205 , 4114.35897436 , 2051.0 , 2028.0 , 131.961 , 0.0 , 0.0 , 0.0 , 0.0 , 

89.0 , 4125.12820513 , 4127.17948718 , 4118.97435897 , 4127.69230769 , 4124.61538462 , 4122.56410256 , 4117.43589744 , 4113.33333333 , 4133.33333333 , 4134.35897436 , 4074.35897436 , 3397.94871795 , 4123.07692308 , 4116.92307692 , 2051.0 , 2028.0 , 131.982 , 0.0 , 0.0 , 0.0 , 0.0 , 

90.0 , 4125.64102564 , 4126.15384615 , 4122.05128205 , 4123.58974359 , 4127.17948718 , 4123.07692308 , 4118.46153846 , 4115.38461538 , 4131.28205128 , 4134.35897436 , 4073.84615385 , 3397.43589744 , 4124.61538462 , 4115.8974359 , 2051.0 , 2029.0 , 131.99 , 0.0 , 0.0 , 0.0 , 0.0 , 

91.0 , 4126.15384615 , 4127.17948718 , 4123.58974359 , 4125.64102564 , 4128.71794872 , 4123.07692308 , 4117.94871795 , 4120.51282051 , 4128.71794872 , 4134.35897436 , 4070.76923077 , 3396.92307692 , 4115.8974359 , 4111.28205128 , 2051.0 , 2028.0 , 131.992 , 0.0 , 0.0 , 0.0 , 0.0 , 

92.0 , 4126.66666667 , 4125.12820513 , 4122.56410256 , 4128.20512821 , 4125.12820513 , 4119.48717949 , 4120.0 , 4120.51282051 , 4130.25641026 , 4134.35897436 , 4070.25641026 , 3398.46153846 , 4116.92307692 , 4113.33333333 , 2051.0 , 2027.0 , 131.992 , 0.0 , 0.0 , 0.0 , 0.0 , 

93.0 , 4125.64102564 , 4126.66666667 , 4121.02564103 , 4128.20512821 , 4123.58974359 , 4121.02564103 , 4122.56410256 , 4119.48717949 , 4131.28205128 , 4134.35897436 , 4073.33333333 , 3398.97435897 , 4118.97435897 , 4113.84615385 , 2054.0 , 2028.0 , 132.008 , 0.0 , 0.0 , 0.0 , 0.0 , 

94.0 , 4121.53846154 , 4127.17948718 , 4120.51282051 , 4127.17948718 , 4125.64102564 , 4124.1025641 , 4118.97435897 , 4122.05128205 , 4128.71794872 , 4134.35897436 , 4073.84615385 , 3396.92307692 , 4121.53846154 , 4113.84615385 , 2054.0 , 2025.0 , 132.008 , 0.0 , 0.0 , 0.0 , 0.0 , 

95.0 , 4123.58974359 , 4123.58974359 , 4125.64102564 , 4127.17948718 , 4125.12820513 , 4121.53846154 , 4116.41025641 , 4120.51282051 , 4128.71794872 , 4134.35897436 , 4071.28205128 , 3396.92307692 , 4115.8974359 , 4110.25641026 , 2051.0 , 2024.0 , 132.023 , 0.0 , 0.0 , 0.0 , 0.0 , 

96.0 , 4126.66666667 , 4123.07692308 , 4127.17948718 , 4124.1025641 , 4124.1025641 , 4122.05128205 , 4116.92307692 , 4116.41025641 , 4127.69230769 , 4134.35897436 , 4071.28205128 , 3397.43589744 , 4123.07692308 , 4110.76923077 , 2051.0 , 2024.0 , 132.023 , 0.0 , 0.0 , 0.0 , 0.0 , 

97.0 , 4125.64102564 , 4127.69230769 , 4126.66666667 , 4124.1025641 , 4124.61538462 , 4125.64102564 , 4117.43589744 , 4113.33333333 , 4123.58974359 , 4134.35897436 , 4071.79487179 , 3397.94871795 , 4118.97435897 , 4110.25641026 , 2049.0 , 2026.0 , 132.039 , 0.0 , 0.0 , 0.0 , 0.0 , 

98.0 , 4122.56410256 , 4128.20512821 , 4120.51282051 , 4125.64102564 , 4124.61538462 , 4121.53846154 , 4114.87179487 , 4116.41025641 , 4124.61538462 , 4134.35897436 , 4073.84615385 , 3396.92307692 , 4127.17948718 , 4118.46153846 , 2047.0 , 2028.0 , 132.039 , 0.0 , 0.0 , 0.0 , 0.0 , 

99.0 , 4126.15384615 , 4128.20512821 , 4120.0 , 4128.20512821 , 4125.64102564 , 4121.02564103 , 4115.38461538 , 4110.25641026 , 4134.87179487 , 4134.35897436 , 4069.74358974 , 3397.94871795 , 4123.07692308 , 4120.51282051 , 2046.0 , 2032.0 , 132.055 , 0.0 , 0.0 , 0.0 , 0.0 , 

100.0 , 4126.15384615 , 4129.23076923 , 4118.97435897 , 4129.23076923 , 4127.17948718 , 4123.07692308 , 4118.46153846 , 4114.87179487 , 4139.48717949 , 4134.35897436 , 4067.17948718 , 3396.92307692 , 4120.51282051 , 4117.43589744 , 2046.0 , 2031.0 , 132.055 , 0.0 , 0.0 , 0.0 , 0.0 , 

101.0 , 4125.64102564 , 4128.20512821 , 4120.0 , 4129.23076923 , 4125.64102564 , 4122.56410256 , 4119.48717949 , 4116.41025641 , 4134.87179487 , 4134.35897436 , 4070.25641026 , 3395.38461538 , 4116.92307692 , 4116.41025641 , 2045.0 , 2031.0 , 132.07 , 0.0 , 0.0 , 0.0 , 0.0 , 

102.0 , 4124.1025641 , 4125.64102564 , 4118.97435897 , 4127.17948718 , 4123.58974359 , 4122.05128205 , 4117.43589744 , 4113.33333333 , 4133.84615385 , 4134.35897436 , 4072.30769231 , 3396.92307692 , 4130.25641026 , 4119.48717949 , 2045.0 , 2027.0 , 132.07 , 0.0 , 0.0 , 0.0 , 0.0 , 

103.0 , 4127.17948718 , 4125.12820513 , 4122.05128205 , 4127.17948718 , 4126.66666667 , 4122.56410256 , 4117.94871795 , 4109.74358974 , 4134.35897436 , 4134.35897436 , 4070.25641026 , 3400.0 , 4124.1025641 , 4116.41025641 , 2044.0 , 2027.0 , 132.086 , 0.0 , 0.0 , 0.0 , 0.0 , 

104.0 , 4125.64102564 , 4124.1025641 , 4120.51282051 , 4125.64102564 , 4126.66666667 , 4121.53846154 , 4121.53846154 , 4119.48717949 , 4128.20512821 , 4134.35897436 , 4070.25641026 , 3397.43589744 , 4125.64102564 , 4118.46153846 , 2041.0 , 2026.0 , 132.086 , 0.0 , 0.0 , 0.0 , 0.0 , 

105.0 , 4125.12820513 , 4124.61538462 , 4122.56410256 , 4124.61538462 , 4124.1025641 , 4122.56410256 , 4122.05128205 , 4117.43589744 , 4128.20512821 , 4134.35897436 , 4071.79487179 , 3394.87179487 , 4126.66666667 , 4121.53846154 , 2041.0 , 2026.0 , 132.101 , 0.0 , 0.0 , 0.0 , 0.0 , 

106.0 , 4126.66666667 , 4125.64102564 , 4124.1025641 , 4123.07692308 , 4126.66666667 , 4123.58974359 , 4119.48717949 , 4121.53846154 , 4135.38461538 , 4134.35897436 , 4071.28205128 , 3395.8974359 , 4130.25641026 , 4115.8974359 , 2040.0 , 2029.0 , 132.101 , 0.0 , 0.0 , 0.0 , 0.0 , 

107.0 , 4126.66666667 , 4127.69230769 , 4124.1025641 , 4122.56410256 , 4129.23076923 , 4124.1025641 , 4118.46153846 , 4127.17948718 , 4129.23076923 , 4134.35897436 , 4069.74358974 , 3396.92307692 , 4125.64102564 , 4114.35897436 , 2041.0 , 2031.0 , 132.117 , 0.0 , 0.0 , 0.0 , 0.0 , 

108.0 , 4124.61538462 , 4127.69230769 , 4124.61538462 , 4121.02564103 , 4125.64102564 , 4123.58974359 , 4121.53846154 , 4127.17948718 , 4122.56410256 , 4134.35897436 , 4070.76923077 , 3395.38461538 , 4123.07692308 , 4117.43589744 , 2040.0 , 2033.0 , 132.117 , 0.0 , 0.0 , 0.0 , 0.0 , 

109.0 , 4123.58974359 , 4125.12820513 , 4126.15384615 , 4121.53846154 , 4124.61538462 , 4124.1025641 , 4121.53846154 , 4125.12820513 , 4127.17948718 , 4134.35897436 , 4073.33333333 , 3395.8974359 , 4126.15384615 , 4117.94871795 , 2041.0 , 2034.0 , 132.133 , 0.0 , 0.0 , 0.0 , 0.0 , 

110.0 , 4124.61538462 , 4122.56410256 , 4126.15384615 , 4122.05128205 , 4128.71794872 , 4124.61538462 , 4122.05128205 , 4132.82051282 , 4128.20512821 , 4134.35897436 , 4076.41025641 , 3397.43589744 , 4124.61538462 , 4113.84615385 , 2039.0 , 2035.0 , 132.148 , 0.0 , 0.0 , 0.0 , 0.0 , 

111.0 , 4125.12820513 , 4123.58974359 , 4123.58974359 , 4121.53846154 , 4127.69230769 , 4124.1025641 , 4123.58974359 , 4132.82051282 , 4124.61538462 , 4134.35897436 , 4076.41025641 , 3396.41025641 , 4125.64102564 , 4113.33333333 , 2040.0 , 2036.0 , 132.148 , 0.0 , 0.0 , 0.0 , 0.0 , 

112.0 , 4124.1025641 , 4124.61538462 , 4127.17948718 , 4124.1025641 , 4125.12820513 , 4122.56410256 , 4121.53846154 , 4124.61538462 , 4125.12820513 , 4134.35897436 , 4073.84615385 , 3395.8974359 , 4122.05128205 , 4111.28205128 , 2040.0 , 2037.0 , 132.164 , 0.0 , 0.0 , 0.0 , 0.0 , 

