['COUNTER', 'AF3', 'F7', 'F3', 'FC5', 'T7', 'P7', 'O1', 'O2', 'P8', 'T8', 'FC6', 'F4', 'F8', 'AF4', 'GYROX', 'GYROY', 'TIMESTAMP', 'FUNC_ID', 'FUNC_VALUE', 'MARKER', 'SYNC_SIGNAL']
94.0 , 4123.58974359 , 4125.12820513 , 4128.71794872 , 4125.64102564 , 4120.0 , 4121.53846154 , 4116.41025641 , 4121.53846154 , 4122.05128205 , 4130.76923077 , 4179.48717949 , 4906.15384615 , 4117.43589744 , 4132.82051282 , 2042.0 , 2034.0 , 94.218 , 0.0 , 0.0 , 0.0 , 0.0 , 

95.0 , 4123.58974359 , 4127.17948718 , 4124.1025641 , 4127.17948718 , 4121.53846154 , 4124.1025641 , 4121.02564103 , 4123.58974359 , 4124.61538462 , 4132.82051282 , 4181.02564103 , 4905.12820513 , 4128.20512821 , 4130.76923077 , 2044.0 , 2034.0 , 94.23 , 0.0 , 0.0 , 0.0 , 0.0 , 

96.0 , 4126.66666667 , 4123.07692308 , 4123.58974359 , 4125.64102564 , 4124.1025641 , 4121.02564103 , 4120.51282051 , 4119.48717949 , 4123.58974359 , 4134.35897436 , 4178.97435897 , 4906.66666667 , 4129.23076923 , 4129.23076923 , 2043.0 , 2034.0 , 94.234 , 0.0 , 0.0 , 0.0 , 0.0 , 

97.0 , 4125.12820513 , 4123.58974359 , 4122.56410256 , 4131.28205128 , 4125.64102564 , 4124.1025641 , 4121.02564103 , 4124.1025641 , 4127.17948718 , 4133.84615385 , 4182.05128205 , 4903.58974359 , 4130.76923077 , 4133.84615385 , 2042.0 , 2034.0 , 94.243 , 0.0 , 0.0 , 0.0 , 0.0 , 

98.0 , 4123.07692308 , 4120.51282051 , 4125.64102564 , 4129.23076923 , 4125.12820513 , 4122.05128205 , 4116.92307692 , 4112.30769231 , 4123.58974359 , 4131.28205128 , 4181.02564103 , 4903.58974359 , 4125.64102564 , 4134.35897436 , 2043.0 , 2034.0 , 94.25 , 0.0 , 0.0 , 0.0 , 0.0 , 

99.0 , 4125.12820513 , 4124.61538462 , 4120.51282051 , 4126.15384615 , 4124.61538462 , 4121.53846154 , 4116.92307692 , 4116.92307692 , 4123.58974359 , 4132.82051282 , 4181.02564103 , 4902.05128205 , 4129.23076923 , 4131.79487179 , 2043.0 , 2035.0 , 94.262 , 0.0 , 0.0 , 0.0 , 0.0 , 

100.0 , 4124.61538462 , 4123.07692308 , 4124.1025641 , 4121.02564103 , 4123.07692308 , 4120.0 , 4110.25641026 , 4126.66666667 , 4123.58974359 , 4131.28205128 , 4180.51282051 , 4903.07692308 , 4125.64102564 , 4131.79487179 , 2045.0 , 2034.0 , 94.266 , 0.0 , 0.0 , 0.0 , 0.0 , 

101.0 , 4124.1025641 , 4120.51282051 , 4130.25641026 , 4122.56410256 , 4123.07692308 , 4121.02564103 , 4112.82051282 , 4125.64102564 , 4126.15384615 , 4129.74358974 , 4183.58974359 , 4904.1025641 , 4123.58974359 , 4133.33333333 , 2045.0 , 2035.0 , 94.274 , 0.0 , 0.0 , 0.0 , 0.0 , 

102.0 , 4123.58974359 , 4120.0 , 4128.71794872 , 4124.1025641 , 4122.05128205 , 4122.56410256 , 4117.94871795 , 4122.05128205 , 4131.79487179 , 4131.79487179 , 4183.58974359 , 4905.64102564 , 4127.69230769 , 4134.35897436 , 2044.0 , 2034.0 , 94.282 , 0.0 , 0.0 , 0.0 , 0.0 , 

103.0 , 4126.15384615 , 4122.05128205 , 4125.64102564 , 4124.1025641 , 4121.53846154 , 4122.05128205 , 4116.41025641 , 4124.61538462 , 4129.23076923 , 4134.87179487 , 4181.02564103 , 4904.61538462 , 4124.1025641 , 4136.92307692 , 2045.0 , 2033.0 , 94.293 , 0.0 , 0.0 , 0.0 , 0.0 , 

104.0 , 4124.61538462 , 4124.1025641 , 4123.58974359 , 4125.64102564 , 4121.02564103 , 4122.05128205 , 4118.97435897 , 4128.71794872 , 4127.17948718 , 4135.38461538 , 4181.53846154 , 4903.07692308 , 4125.12820513 , 4135.38461538 , 2045.0 , 2033.0 , 94.297 , 0.0 , 0.0 , 0.0 , 0.0 , 

105.0 , 4126.15384615 , 4123.58974359 , 4126.66666667 , 4125.64102564 , 4124.1025641 , 4121.53846154 , 4121.02564103 , 4117.94871795 , 4120.51282051 , 4132.82051282 , 4181.53846154 , 4904.61538462 , 4124.61538462 , 4132.82051282 , 2045.0 , 2033.0 , 94.306 , 0.0 , 0.0 , 0.0 , 0.0 , 

106.0 , 4125.12820513 , 4125.64102564 , 4125.12820513 , 4128.71794872 , 4124.61538462 , 4125.12820513 , 4122.56410256 , 4126.15384615 , 4126.15384615 , 4132.30769231 , 4183.58974359 , 4905.12820513 , 4127.17948718 , 4132.82051282 , 2045.0 , 2034.0 , 94.313 , 0.0 , 0.0 , 0.0 , 0.0 , 

107.0 , 4124.61538462 , 4125.64102564 , 4126.66666667 , 4125.64102564 , 4123.58974359 , 4122.56410256 , 4119.48717949 , 4120.0 , 4122.56410256 , 4131.28205128 , 4181.02564103 , 4906.66666667 , 4119.48717949 , 4131.79487179 , 2046.0 , 2033.0 , 94.324 , 0.0 , 0.0 , 0.0 , 0.0 , 

108.0 , 4122.56410256 , 4126.15384615 , 4122.05128205 , 4128.71794872 , 4124.1025641 , 4124.1025641 , 4121.53846154 , 4118.46153846 , 4124.1025641 , 4131.28205128 , 4183.07692308 , 4903.58974359 , 4131.28205128 , 4132.82051282 , 2047.0 , 2035.0 , 94.329 , 0.0 , 0.0 , 0.0 , 0.0 , 

109.0 , 4129.23076923 , 4119.48717949 , 4127.69230769 , 4125.64102564 , 4124.1025641 , 4120.0 , 4112.82051282 , 4109.74358974 , 4116.41025641 , 4130.76923077 , 4179.48717949 , 4905.12820513 , 4129.23076923 , 4134.87179487 , 2045.0 , 2034.0 , 94.337 , 0.0 , 0.0 , 0.0 , 0.0 , 

110.0 , 4128.20512821 , 4122.05128205 , 4125.64102564 , 4128.20512821 , 4122.56410256 , 4121.02564103 , 4116.41025641 , 4123.07692308 , 4125.12820513 , 4133.84615385 , 4182.05128205 , 4904.61538462 , 4132.82051282 , 4134.35897436 , 2044.0 , 2034.0 , 94.345 , 0.0 , 0.0 , 0.0 , 0.0 , 

111.0 , 4123.58974359 , 4121.53846154 , 4126.66666667 , 4124.1025641 , 4124.61538462 , 4118.97435897 , 4114.87179487 , 4116.41025641 , 4123.58974359 , 4131.79487179 , 4182.05128205 , 4905.64102564 , 4125.12820513 , 4132.30769231 , 2045.0 , 2036.0 , 94.356 , 0.0 , 0.0 , 0.0 , 0.0 , 

112.0 , 4122.05128205 , 4123.07692308 , 4123.58974359 , 4129.23076923 , 4127.17948718 , 4124.61538462 , 4119.48717949 , 4125.12820513 , 4126.66666667 , 4130.76923077 , 4185.12820513 , 4902.05128205 , 4131.79487179 , 4131.79487179 , 2045.0 , 2034.0 , 94.361 , 0.0 , 0.0 , 0.0 , 0.0 , 

113.0 , 4124.1025641 , 4118.97435897 , 4129.23076923 , 4126.66666667 , 4125.64102564 , 4120.51282051 , 4114.35897436 , 4123.58974359 , 4120.51282051 , 4130.76923077 , 4183.58974359 , 4901.53846154 , 4126.66666667 , 4130.76923077 , 2045.0 , 2034.0 , 94.368 , 0.0 , 0.0 , 0.0 , 0.0 , 

114.0 , 4124.1025641 , 4123.58974359 , 4124.61538462 , 4126.66666667 , 4125.64102564 , 4124.61538462 , 4118.97435897 , 4129.23076923 , 4129.74358974 , 4131.28205128 , 4186.15384615 , 4900.51282051 , 4130.76923077 , 4131.79487179 , 2045.0 , 2032.0 , 94.376 , 0.0 , 0.0 , 0.0 , 0.0 , 

115.0 , 4125.12820513 , 4122.56410256 , 4125.64102564 , 4124.1025641 , 4125.64102564 , 4125.64102564 , 4115.8974359 , 4122.56410256 , 4131.28205128 , 4129.74358974 , 4182.05128205 , 4904.61538462 , 4125.64102564 , 4133.33333333 , 2046.0 , 2032.0 , 94.387 , 0.0 , 0.0 , 0.0 , 0.0 , 

116.0 , 4127.17948718 , 4123.58974359 , 4126.15384615 , 4128.71794872 , 4123.58974359 , 4127.17948718 , 4120.51282051 , 4127.69230769 , 4129.74358974 , 4131.79487179 , 4182.05128205 , 4902.05128205 , 4128.20512821 , 4131.28205128 , 2045.0 , 2034.0 , 94.391 , 0.0 , 0.0 , 0.0 , 0.0 , 

117.0 , 4126.15384615 , 4121.02564103 , 4130.25641026 , 4125.64102564 , 4122.05128205 , 4122.05128205 , 4120.51282051 , 4122.05128205 , 4122.05128205 , 4131.79487179 , 4181.53846154 , 4902.56410256 , 4125.12820513 , 4130.25641026 , 2045.0 , 2034.0 , 94.4 , 0.0 , 0.0 , 0.0 , 0.0 , 

118.0 , 4126.15384615 , 4126.15384615 , 4129.23076923 , 4124.1025641 , 4125.64102564 , 4121.02564103 , 4121.53846154 , 4122.56410256 , 4122.05128205 , 4133.84615385 , 4181.53846154 , 4905.12820513 , 4124.1025641 , 4131.79487179 , 2044.0 , 2033.0 , 94.408 , 0.0 , 0.0 , 0.0 , 0.0 , 

119.0 , 4126.66666667 , 4125.12820513 , 4127.69230769 , 4125.12820513 , 4124.61538462 , 4121.53846154 , 4118.97435897 , 4123.07692308 , 4123.58974359 , 4135.38461538 , 4180.51282051 , 4906.66666667 , 4120.51282051 , 4130.25641026 , 2043.0 , 2032.0 , 94.418 , 0.0 , 0.0 , 0.0 , 0.0 , 

120.0 , 4127.17948718 , 4122.56410256 , 4126.66666667 , 4128.71794872 , 4121.02564103 , 4124.1025641 , 4120.0 , 4122.56410256 , 4121.53846154 , 4133.33333333 , 4182.05128205 , 4905.12820513 , 4120.51282051 , 4129.74358974 , 2043.0 , 2033.0 , 94.423 , 0.0 , 0.0 , 0.0 , 0.0 , 

121.0 , 4124.1025641 , 4121.53846154 , 4125.12820513 , 4125.64102564 , 4119.48717949 , 4122.05128205 , 4118.97435897 , 4124.61538462 , 4124.1025641 , 4131.79487179 , 4182.56410256 , 4904.1025641 , 4127.17948718 , 4132.30769231 , 2044.0 , 2034.0 , 94.431 , 0.0 , 0.0 , 0.0 , 0.0 , 

122.0 , 4124.61538462 , 4123.07692308 , 4124.1025641 , 4126.66666667 , 4123.07692308 , 4118.97435897 , 4113.33333333 , 4121.53846154 , 4123.58974359 , 4131.28205128 , 4182.05128205 , 4903.58974359 , 4131.28205128 , 4133.33333333 , 2044.0 , 2034.0 , 94.44 , 0.0 , 0.0 , 0.0 , 0.0 , 

123.0 , 4122.56410256 , 4122.05128205 , 4121.53846154 , 4133.84615385 , 4123.07692308 , 4122.05128205 , 4114.87179487 , 4126.66666667 , 4127.69230769 , 4130.25641026 , 4184.1025641 , 4903.07692308 , 4135.38461538 , 4131.28205128 , 2043.0 , 2031.0 , 94.45 , 0.0 , 0.0 , 0.0 , 0.0 , 

124.0 , 4123.58974359 , 4121.02564103 , 4126.15384615 , 4129.23076923 , 4122.56410256 , 4119.48717949 , 4116.41025641 , 4123.07692308 , 4121.02564103 , 4130.76923077 , 4183.58974359 , 4904.1025641 , 4125.64102564 , 4132.30769231 , 2044.0 , 2032.0 , 94.455 , 0.0 , 0.0 , 0.0 , 0.0 , 

125.0 , 4125.12820513 , 4125.64102564 , 4122.56410256 , 4125.12820513 , 4122.56410256 , 4117.43589744 , 4118.46153846 , 4129.74358974 , 4124.1025641 , 4133.33333333 , 4186.15384615 , 4900.0 , 4127.17948718 , 4134.35897436 , 2044.0 , 2033.0 , 94.463 , 0.0 , 0.0 , 0.0 , 0.0 , 

126.0 , 4126.15384615 , 4123.07692308 , 4124.1025641 , 4122.56410256 , 4123.58974359 , 4116.41025641 , 4111.28205128 , 4120.51282051 , 4121.53846154 , 4130.25641026 , 4183.07692308 , 4903.07692308 , 4124.1025641 , 4134.35897436 , 2044.0 , 2033.0 , 94.47 , 0.0 , 0.0 , 0.0 , 0.0 , 

127.0 , 4122.56410256 , 4121.02564103 , 4126.15384615 , 4127.69230769 , 4124.1025641 , 4122.05128205 , 4116.41025641 , 4127.17948718 , 4129.74358974 , 4131.28205128 , 4184.61538462 , 4907.69230769 , 4130.25641026 , 4132.82051282 , 2042.0 , 2032.0 , 94.481 , 0.0 , 0.0 , 0.0 , 0.0 , 

128.0 , 4125.64102564 , 4118.46153846 , 4133.33333333 , 4122.56410256 , 4123.58974359 , 4118.46153846 , 4114.87179487 , 4119.48717949 , 4124.61538462 , 4132.82051282 , 4182.05128205 , 4909.23076923 , 4119.48717949 , 4132.30769231 , 2042.0 , 2032.0 , 94.486 , 0.0 , 0.0 , 0.0 , 0.0 , 

0.0 , 4126.15384615 , 4126.15384615 , 4127.17948718 , 4125.12820513 , 4121.53846154 , 4122.56410256 , 4121.02564103 , 4127.17948718 , 4129.23076923 , 4133.84615385 , 4183.07692308 , 4903.58974359 , 4126.15384615 , 4132.30769231 , 2041.0 , 2032.0 , 94.495 , 0.0 , 0.0 , 0.0 , 0.0 , 

1.0 , 4124.1025641 , 4123.58974359 , 4128.71794872 , 4122.56410256 , 4122.56410256 , 4122.05128205 , 4119.48717949 , 4120.51282051 , 4123.58974359 , 4133.84615385 , 4178.46153846 , 4906.15384615 , 4122.56410256 , 4132.82051282 , 2043.0 , 2034.0 , 94.502 , 0.0 , 0.0 , 0.0 , 0.0 , 

2.0 , 4124.1025641 , 4125.64102564 , 4125.12820513 , 4127.17948718 , 4124.1025641 , 4124.1025641 , 4122.56410256 , 4127.17948718 , 4126.15384615 , 4137.43589744 , 4181.02564103 , 4905.12820513 , 4126.15384615 , 4132.82051282 , 2044.0 , 2035.0 , 94.512 , 0.0 , 0.0 , 0.0 , 0.0 , 

3.0 , 4127.69230769 , 4125.12820513 , 4126.15384615 , 4125.64102564 , 4122.56410256 , 4122.05128205 , 4117.43589744 , 4122.05128205 , 4121.53846154 , 4134.35897436 , 4181.02564103 , 4905.64102564 , 4122.56410256 , 4132.30769231 , 2043.0 , 2037.0 , 94.519 , 0.0 , 0.0 , 0.0 , 0.0 , 

4.0 , 4128.20512821 , 4129.23076923 , 4121.53846154 , 4128.20512821 , 4121.53846154 , 4126.66666667 , 4125.12820513 , 4126.66666667 , 4127.17948718 , 4131.28205128 , 4183.07692308 , 4904.61538462 , 4131.79487179 , 4132.82051282 , 2043.0 , 2037.0 , 94.525 , 0.0 , 0.0 , 0.0 , 0.0 , 

5.0 , 4127.69230769 , 4125.12820513 , 4126.15384615 , 4126.15384615 , 4124.1025641 , 4122.05128205 , 4122.05128205 , 4120.0 , 4124.1025641 , 4130.25641026 , 4180.51282051 , 4906.15384615 , 4126.66666667 , 4133.33333333 , 2043.0 , 2037.0 , 94.534 , 0.0 , 0.0 , 0.0 , 0.0 , 

6.0 , 4126.66666667 , 4124.1025641 , 4127.17948718 , 4129.23076923 , 4125.64102564 , 4122.56410256 , 4117.94871795 , 4120.51282051 , 4122.05128205 , 4134.35897436 , 4183.58974359 , 4904.61538462 , 4126.66666667 , 4133.84615385 , 2044.0 , 2038.0 , 94.545 , 0.0 , 0.0 , 0.0 , 0.0 , 

7.0 , 4124.1025641 , 4120.51282051 , 4125.64102564 , 4124.1025641 , 4123.58974359 , 4124.61538462 , 4113.33333333 , 4114.35897436 , 4120.51282051 , 4132.82051282 , 4184.1025641 , 4904.1025641 , 4127.17948718 , 4134.35897436 , 2044.0 , 2037.0 , 94.549 , 0.0 , 0.0 , 0.0 , 0.0 , 

8.0 , 4125.64102564 , 4122.05128205 , 4123.58974359 , 4122.05128205 , 4124.61538462 , 4121.53846154 , 4116.92307692 , 4118.46153846 , 4124.61538462 , 4130.25641026 , 4185.12820513 , 4903.07692308 , 4126.66666667 , 4134.87179487 , 2044.0 , 2040.0 , 94.558 , 0.0 , 0.0 , 0.0 , 0.0 , 

9.0 , 4125.12820513 , 4119.48717949 , 4127.17948718 , 4125.64102564 , 4126.15384615 , 4115.8974359 , 4115.8974359 , 4125.64102564 , 4126.15384615 , 4131.28205128 , 4183.58974359 , 4904.1025641 , 4123.07692308 , 4132.82051282 , 2045.0 , 2038.0 , 94.566 , 0.0 , 0.0 , 0.0 , 0.0 , 

10.0 , 4124.61538462 , 4118.97435897 , 4127.17948718 , 4126.66666667 , 4125.64102564 , 4121.02564103 , 4114.87179487 , 4123.58974359 , 4123.58974359 , 4132.82051282 , 4181.53846154 , 4903.58974359 , 4124.1025641 , 4131.79487179 , 2044.0 , 2037.0 , 94.577 , 0.0 , 0.0 , 0.0 , 0.0 , 

11.0 , 4123.58974359 , 4121.02564103 , 4123.07692308 , 4124.61538462 , 4121.02564103 , 4123.58974359 , 4116.41025641 , 4126.15384615 , 4130.25641026 , 4131.79487179 , 4183.58974359 , 4901.53846154 , 4128.20512821 , 4133.33333333 , 2044.0 , 2037.0 , 94.58 , 0.0 , 0.0 , 0.0 , 0.0 , 

12.0 , 4127.69230769 , 4123.07692308 , 4124.1025641 , 4125.12820513 , 4123.58974359 , 4119.48717949 , 4115.8974359 , 4126.15384615 , 4128.20512821 , 4131.79487179 , 4184.61538462 , 4902.56410256 , 4123.58974359 , 4134.35897436 , 2044.0 , 2036.0 , 94.59 , 0.0 , 0.0 , 0.0 , 0.0 , 

13.0 , 4125.12820513 , 4124.61538462 , 4123.58974359 , 4128.71794872 , 4125.12820513 , 4123.07692308 , 4120.0 , 4128.20512821 , 4128.20512821 , 4134.87179487 , 4183.58974359 , 4904.1025641 , 4126.15384615 , 4132.30769231 , 2044.0 , 2036.0 , 94.597 , 0.0 , 0.0 , 0.0 , 0.0 , 

14.0 , 4124.1025641 , 4123.58974359 , 4129.74358974 , 4124.61538462 , 4122.05128205 , 4124.61538462 , 4118.97435897 , 4117.94871795 , 4123.07692308 , 4133.33333333 , 4180.0 , 4904.1025641 , 4121.53846154 , 4131.28205128 , 2044.0 , 2035.0 , 94.606 , 0.0 , 0.0 , 0.0 , 0.0 , 

15.0 , 4124.1025641 , 4125.12820513 , 4129.23076923 , 4128.20512821 , 4121.53846154 , 4127.17948718 , 4122.56410256 , 4126.15384615 , 4129.74358974 , 4132.82051282 , 4183.07692308 , 4903.58974359 , 4124.61538462 , 4132.82051282 , 2043.0 , 2036.0 , 94.612 , 0.0 , 0.0 , 0.0 , 0.0 , 

16.0 , 4126.66666667 , 4122.56410256 , 4127.69230769 , 4128.20512821 , 4125.64102564 , 4123.58974359 , 4118.46153846 , 4116.41025641 , 4120.51282051 , 4134.35897436 , 4180.0 , 4906.66666667 , 4119.48717949 , 4130.25641026 , 2045.0 , 2035.0 , 94.621 , 0.0 , 0.0 , 0.0 , 0.0 , 

17.0 , 4123.07692308 , 4124.61538462 , 4122.05128205 , 4131.28205128 , 4123.58974359 , 4123.58974359 , 4121.53846154 , 4120.0 , 4121.02564103 , 4136.92307692 , 4180.51282051 , 4903.58974359 , 4127.17948718 , 4129.74358974 , 2047.0 , 2037.0 , 94.629 , 0.0 , 0.0 , 0.0 , 0.0 , 

18.0 , 4122.56410256 , 4121.53846154 , 4126.66666667 , 4126.15384615 , 4120.51282051 , 4119.48717949 , 4116.92307692 , 4113.84615385 , 4116.41025641 , 4133.84615385 , 4180.51282051 , 4903.07692308 , 4121.53846154 , 4132.82051282 , 2045.0 , 2037.0 , 94.64 , 0.0 , 0.0 , 0.0 , 0.0 , 

19.0 , 4124.61538462 , 4124.61538462 , 4123.58974359 , 4126.15384615 , 4123.07692308 , 4123.07692308 , 4123.58974359 , 4123.58974359 , 4125.12820513 , 4133.33333333 , 4184.1025641 , 4903.58974359 , 4130.76923077 , 4131.28205128 , 2045.0 , 2034.0 , 94.644 , 0.0 , 0.0 , 0.0 , 0.0 , 

20.0 , 4126.15384615 , 4122.05128205 , 4126.15384615 , 4123.07692308 , 4124.61538462 , 4120.0 , 4116.92307692 , 4117.94871795 , 4121.02564103 , 4131.79487179 , 4181.53846154 , 4907.17948718 , 4128.20512821 , 4129.74358974 , 2046.0 , 2031.0 , 94.652 , 0.0 , 0.0 , 0.0 , 0.0 , 

21.0 , 4123.58974359 , 4126.66666667 , 4122.05128205 , 4130.25641026 , 4124.1025641 , 4124.1025641 , 4117.94871795 , 4123.58974359 , 4124.1025641 , 4130.76923077 , 4185.64102564 , 4902.05128205 , 4131.28205128 , 4132.30769231 , 2045.0 , 2030.0 , 94.661 , 0.0 , 0.0 , 0.0 , 0.0 , 

22.0 , 4125.12820513 , 4125.12820513 , 4125.64102564 , 4124.61538462 , 4125.12820513 , 4120.51282051 , 4116.41025641 , 4119.48717949 , 4121.53846154 , 4130.76923077 , 4183.58974359 , 4901.53846154 , 4123.58974359 , 4134.87179487 , 2044.0 , 2032.0 , 94.671 , 0.0 , 0.0 , 0.0 , 0.0 , 

23.0 , 4126.66666667 , 4126.15384615 , 4123.07692308 , 4123.58974359 , 4123.58974359 , 4119.48717949 , 4120.51282051 , 4130.25641026 , 4128.20512821 , 4136.41025641 , 4184.61538462 , 4903.07692308 , 4127.69230769 , 4133.33333333 , 2044.0 , 2033.0 , 94.675 , 0.0 , 0.0 , 0.0 , 0.0 , 

24.0 , 4123.07692308 , 4120.51282051 , 4124.1025641 , 4123.07692308 , 4120.51282051 , 4117.43589744 , 4114.35897436 , 4127.17948718 , 4128.71794872 , 4134.87179487 , 4182.05128205 , 4904.61538462 , 4123.07692308 , 4131.28205128 , 2044.0 , 2036.0 , 94.684 , 0.0 , 0.0 , 0.0 , 0.0 , 

25.0 , 4122.05128205 , 4122.56410256 , 4125.64102564 , 4123.58974359 , 4123.58974359 , 4121.53846154 , 4118.97435897 , 4123.58974359 , 4126.15384615 , 4132.82051282 , 4180.51282051 , 4900.51282051 , 4120.0 , 4131.79487179 , 2043.0 , 2038.0 , 94.692 , 0.0 , 0.0 , 0.0 , 0.0 , 

26.0 , 4124.1025641 , 4121.53846154 , 4129.74358974 , 4121.53846154 , 4124.61538462 , 4120.51282051 , 4121.02564103 , 4120.0 , 4120.0 , 4132.30769231 , 4177.94871795 , 4903.07692308 , 4119.48717949 , 4129.23076923 , 2042.0 , 2039.0 , 94.703 , 0.0 , 0.0 , 0.0 , 0.0 , 

27.0 , 4124.1025641 , 4123.58974359 , 4129.74358974 , 4123.58974359 , 4122.56410256 , 4121.53846154 , 4121.02564103 , 4125.12820513 , 4123.58974359 , 4130.76923077 , 4181.53846154 , 4904.61538462 , 4122.56410256 , 4129.74358974 , 2043.0 , 2037.0 , 94.707 , 0.0 , 0.0 , 0.0 , 0.0 , 

28.0 , 4121.53846154 , 4125.12820513 , 4129.23076923 , 4121.53846154 , 4123.07692308 , 4122.56410256 , 4118.97435897 , 4126.15384615 , 4129.74358974 , 4128.20512821 , 4182.56410256 , 4903.58974359 , 4121.02564103 , 4132.30769231 , 2042.0 , 2037.0 , 94.715 , 0.0 , 0.0 , 0.0 , 0.0 , 

29.0 , 4124.61538462 , 4124.61538462 , 4128.20512821 , 4122.05128205 , 4125.64102564 , 4122.56410256 , 4120.51282051 , 4121.53846154 , 4125.12820513 , 4131.79487179 , 4179.48717949 , 4904.1025641 , 4120.0 , 4133.84615385 , 2042.0 , 2036.0 , 94.722 , 0.0 , 0.0 , 0.0 , 0.0 , 

30.0 , 4124.61538462 , 4126.66666667 , 4124.61538462 , 4128.20512821 , 4123.07692308 , 4122.56410256 , 4124.1025641 , 4128.71794872 , 4124.1025641 , 4134.87179487 , 4181.02564103 , 4904.1025641 , 4126.15384615 , 4133.33333333 , 2043.0 , 2034.0 , 94.732 , 0.0 , 0.0 , 0.0 , 0.0 , 

31.0 , 4126.15384615 , 4127.69230769 , 4126.66666667 , 4127.17948718 , 4124.1025641 , 4120.51282051 , 4121.02564103 , 4127.69230769 , 4120.51282051 , 4131.79487179 , 4181.53846154 , 4905.12820513 , 4121.02564103 , 4131.79487179 , 2044.0 , 2034.0 , 94.738 , 0.0 , 0.0 , 0.0 , 0.0 , 

32.0 , 4124.61538462 , 4126.15384615 , 4124.1025641 , 4125.64102564 , 4124.1025641 , 4122.56410256 , 4122.05128205 , 4130.25641026 , 4123.58974359 , 4132.30769231 , 4184.61538462 , 4904.61538462 , 4127.17948718 , 4130.76923077 , 2044.0 , 2033.0 , 94.746 , 0.0 , 0.0 , 0.0 , 0.0 , 

33.0 , 4124.61538462 , 4121.53846154 , 4124.61538462 , 4122.56410256 , 4120.0 , 4121.53846154 , 4119.48717949 , 4122.56410256 , 4120.0 , 4133.84615385 , 4182.56410256 , 4905.64102564 , 4128.71794872 , 4131.79487179 , 2045.0 , 2034.0 , 94.754 , 0.0 , 0.0 , 0.0 , 0.0 , 

34.0 , 4122.56410256 , 4125.12820513 , 4121.53846154 , 4126.66666667 , 4120.0 , 4122.56410256 , 4120.51282051 , 4129.74358974 , 4126.15384615 , 4133.84615385 , 4183.58974359 , 4902.05128205 , 4130.76923077 , 4131.79487179 , 2044.0 , 2032.0 , 94.764 , 0.0 , 0.0 , 0.0 , 0.0 , 

35.0 , 4125.12820513 , 4121.02564103 , 4125.12820513 , 4123.07692308 , 4125.64102564 , 4117.43589744 , 4112.82051282 , 4121.02564103 , 4119.48717949 , 4131.79487179 , 4183.07692308 , 4903.07692308 , 4122.05128205 , 4129.74358974 , 2044.0 , 2030.0 , 94.769 , 0.0 , 0.0 , 0.0 , 0.0 , 

36.0 , 4122.05128205 , 4120.51282051 , 4124.1025641 , 4125.12820513 , 4124.61538462 , 4118.97435897 , 4118.46153846 , 4129.74358974 , 4129.23076923 , 4135.8974359 , 4187.17948718 , 4903.07692308 , 4131.28205128 , 4127.69230769 , 2043.0 , 2030.0 , 94.779 , 0.0 , 0.0 , 0.0 , 0.0 , 

37.0 , 4124.61538462 , 4122.05128205 , 4131.28205128 , 4121.53846154 , 4121.02564103 , 4117.94871795 , 4115.38461538 , 4125.64102564 , 4128.71794872 , 4135.8974359 , 4181.53846154 , 4906.66666667 , 4121.53846154 , 4129.23076923 , 2043.0 , 2031.0 , 94.786 , 0.0 , 0.0 , 0.0 , 0.0 , 

38.0 , 4126.66666667 , 4126.66666667 , 4127.17948718 , 4124.61538462 , 4123.58974359 , 4123.58974359 , 4120.0 , 4131.79487179 , 4132.30769231 , 4134.35897436 , 4182.56410256 , 4906.15384615 , 4122.56410256 , 4131.79487179 , 2042.0 , 2031.0 , 94.797 , 0.0 , 0.0 , 0.0 , 0.0 , 

39.0 , 4124.61538462 , 4119.48717949 , 4127.69230769 , 4118.46153846 , 4123.58974359 , 4122.56410256 , 4118.46153846 , 4123.58974359 , 4127.69230769 , 4132.82051282 , 4183.07692308 , 4906.15384615 , 4121.02564103 , 4132.82051282 , 2042.0 , 2032.0 , 94.801 , 0.0 , 0.0 , 0.0 , 0.0 , 

40.0 , 4123.58974359 , 4123.58974359 , 4125.12820513 , 4124.61538462 , 4120.0 , 4125.64102564 , 4125.12820513 , 4130.25641026 , 4130.76923077 , 4135.38461538 , 4185.12820513 , 4903.58974359 , 4127.17948718 , 4133.33333333 , 2043.0 , 2031.0 , 94.811 , 0.0 , 0.0 , 0.0 , 0.0 , 

41.0 , 4126.15384615 , 4126.15384615 , 4127.69230769 , 4126.15384615 , 4123.07692308 , 4121.53846154 , 4120.51282051 , 4122.05128205 , 4123.58974359 , 4133.84615385 , 4180.0 , 4905.64102564 , 4122.56410256 , 4133.33333333 , 2043.0 , 2030.0 , 94.818 , 0.0 , 0.0 , 0.0 , 0.0 , 

42.0 , 4126.15384615 , 4130.76923077 , 4123.58974359 , 4129.74358974 , 4127.69230769 , 4123.07692308 , 4122.05128205 , 4122.56410256 , 4124.61538462 , 4133.33333333 , 4182.56410256 , 4903.58974359 , 4128.20512821 , 4133.84615385 , 2043.0 , 2032.0 , 94.828 , 0.0 , 0.0 , 0.0 , 0.0 , 

43.0 , 4125.12820513 , 4125.64102564 , 4127.69230769 , 4126.66666667 , 4125.12820513 , 4119.48717949 , 4117.43589744 , 4118.46153846 , 4123.58974359 , 4134.35897436 , 4182.56410256 , 4905.64102564 , 4124.1025641 , 4131.28205128 , 2043.0 , 2032.0 , 94.833 , 0.0 , 0.0 , 0.0 , 0.0 , 

44.0 , 4126.66666667 , 4124.61538462 , 4127.17948718 , 4127.17948718 , 4123.58974359 , 4121.53846154 , 4118.97435897 , 4120.0 , 4122.05128205 , 4133.33333333 , 4183.07692308 , 4907.17948718 , 4125.64102564 , 4129.74358974 , 2043.0 , 2033.0 , 94.84 , 0.0 , 0.0 , 0.0 , 0.0 , 

45.0 , 4125.12820513 , 4122.56410256 , 4125.64102564 , 4125.64102564 , 4124.1025641 , 4121.02564103 , 4118.46153846 , 4117.43589744 , 4120.51282051 , 4130.25641026 , 4183.07692308 , 4907.17948718 , 4128.71794872 , 4130.76923077 , 2041.0 , 2034.0 , 94.849 , 0.0 , 0.0 , 0.0 , 0.0 , 

46.0 , 4124.1025641 , 4123.58974359 , 4126.15384615 , 4127.17948718 , 4124.1025641 , 4117.94871795 , 4118.46153846 , 4119.48717949 , 4120.51282051 , 4132.82051282 , 4184.1025641 , 4905.12820513 , 4125.64102564 , 4133.84615385 , 2041.0 , 2035.0 , 94.861 , 0.0 , 0.0 , 0.0 , 0.0 , 

47.0 , 4122.05128205 , 4121.53846154 , 4125.12820513 , 4127.69230769 , 4123.07692308 , 4115.8974359 , 4116.41025641 , 4125.12820513 , 4124.1025641 , 4133.33333333 , 4184.1025641 , 4904.61538462 , 4123.58974359 , 4132.82051282 , 2041.0 , 2034.0 , 94.864 , 0.0 , 0.0 , 0.0 , 0.0 , 

48.0 , 4123.07692308 , 4121.02564103 , 4124.61538462 , 4124.61538462 , 4124.1025641 , 4116.41025641 , 4114.87179487 , 4120.0 , 4124.1025641 , 4132.30769231 , 4183.58974359 , 4903.58974359 , 4126.15384615 , 4131.79487179 , 2043.0 , 2033.0 , 94.873 , 0.0 , 0.0 , 0.0 , 0.0 , 

49.0 , 4123.07692308 , 4124.61538462 , 4124.1025641 , 4125.64102564 , 4123.07692308 , 4118.46153846 , 4118.97435897 , 4126.66666667 , 4130.25641026 , 4136.41025641 , 4185.12820513 , 4902.05128205 , 4129.74358974 , 4132.82051282 , 2042.0 , 2032.0 , 94.881 , 0.0 , 0.0 , 0.0 , 0.0 , 

50.0 , 4126.15384615 , 4125.12820513 , 4127.17948718 , 4123.58974359 , 4123.07692308 , 4118.97435897 , 4118.97435897 , 4126.66666667 , 4129.23076923 , 4136.92307692 , 4183.58974359 , 4903.58974359 , 4121.53846154 , 4132.30769231 , 2043.0 , 2034.0 , 94.891 , 0.0 , 0.0 , 0.0 , 0.0 , 

51.0 , 4123.58974359 , 4123.58974359 , 4124.1025641 , 4124.1025641 , 4122.56410256 , 4123.07692308 , 4122.05128205 , 4129.23076923 , 4133.33333333 , 4134.35897436 , 4182.05128205 , 4906.15384615 , 4127.69230769 , 4131.28205128 , 2042.0 , 2033.0 , 94.896 , 0.0 , 0.0 , 0.0 , 0.0 , 

52.0 , 4123.58974359 , 4122.05128205 , 4127.69230769 , 4121.02564103 , 4123.07692308 , 4121.53846154 , 4119.48717949 , 4119.48717949 , 4124.61538462 , 4132.30769231 , 4176.92307692 , 4909.74358974 , 4121.02564103 , 4133.33333333 , 2041.0 , 2032.0 , 94.904 , 0.0 , 0.0 , 0.0 , 0.0 , 

53.0 , 4123.07692308 , 4127.17948718 , 4124.1025641 , 4121.02564103 , 4123.58974359 , 4125.64102564 , 4124.61538462 , 4128.20512821 , 4127.69230769 , 4132.82051282 , 4181.53846154 , 4906.66666667 , 4120.51282051 , 4134.35897436 , 2041.0 , 2033.0 , 94.912 , 0.0 , 0.0 , 0.0 , 0.0 , 

54.0 , 4126.15384615 , 4123.07692308 , 4128.20512821 , 4118.97435897 , 4121.53846154 , 4124.1025641 , 4118.97435897 , 4117.43589744 , 4121.53846154 , 4132.30769231 , 4181.02564103 , 4905.12820513 , 4115.8974359 , 4131.28205128 , 2043.0 , 2034.0 , 94.923 , 0.0 , 0.0 , 0.0 , 0.0 , 

55.0 , 4125.64102564 , 4125.64102564 , 4127.17948718 , 4127.17948718 , 4122.56410256 , 4123.58974359 , 4118.97435897 , 4124.1025641 , 4127.17948718 , 4134.87179487 , 4181.02564103 , 4904.1025641 , 4128.20512821 , 4129.74358974 , 2042.0 , 2031.0 , 94.928 , 0.0 , 0.0 , 0.0 , 0.0 , 

56.0 , 4125.12820513 , 4126.15384615 , 4128.71794872 , 4123.07692308 , 4124.61538462 , 4119.48717949 , 4114.87179487 , 4120.51282051 , 4124.61538462 , 4131.79487179 , 4179.48717949 , 4906.15384615 , 4120.51282051 , 4132.30769231 , 2044.0 , 2032.0 , 94.936 , 0.0 , 0.0 , 0.0 , 0.0 , 

57.0 , 4123.58974359 , 4128.20512821 , 4122.05128205 , 4122.56410256 , 4123.58974359 , 4124.1025641 , 4123.58974359 , 4125.12820513 , 4129.74358974 , 4130.76923077 , 4184.61538462 , 4903.58974359 , 4125.64102564 , 4132.30769231 , 2044.0 , 2033.0 , 94.944 , 0.0 , 0.0 , 0.0 , 0.0 , 

58.0 , 4125.12820513 , 4122.05128205 , 4126.66666667 , 4122.05128205 , 4123.58974359 , 4120.51282051 , 4118.97435897 , 4115.38461538 , 4121.53846154 , 4132.30769231 , 4182.05128205 , 4906.15384615 , 4127.69230769 , 4132.82051282 , 2043.0 , 2033.0 , 94.955 , 0.0 , 0.0 , 0.0 , 0.0 , 

59.0 , 4125.64102564 , 4125.64102564 , 4125.12820513 , 4129.23076923 , 4126.15384615 , 4122.56410256 , 4118.46153846 , 4127.69230769 , 4125.12820513 , 4133.84615385 , 4184.1025641 , 4905.12820513 , 4133.33333333 , 4135.8974359 , 2044.0 , 2036.0 , 94.959 , 0.0 , 0.0 , 0.0 , 0.0 , 

60.0 , 4123.58974359 , 4124.61538462 , 4126.15384615 , 4124.1025641 , 4125.12820513 , 4119.48717949 , 4116.92307692 , 4124.61538462 , 4125.12820513 , 4130.25641026 , 4184.61538462 , 4905.12820513 , 4125.64102564 , 4136.92307692 , 2044.0 , 2036.0 , 94.966 , 0.0 , 0.0 , 0.0 , 0.0 , 

61.0 , 4123.58974359 , 4125.64102564 , 4123.07692308 , 4125.12820513 , 4123.58974359 , 4118.97435897 , 4121.53846154 , 4123.07692308 , 4125.12820513 , 4130.76923077 , 4187.69230769 , 4903.58974359 , 4130.25641026 , 4132.30769231 , 2043.0 , 2036.0 , 94.974 , 0.0 , 0.0 , 0.0 , 0.0 , 

62.0 , 4125.64102564 , 4122.05128205 , 4126.15384615 , 4123.07692308 , 4122.05128205 , 4116.92307692 , 4116.41025641 , 4122.56410256 , 4123.07692308 , 4132.30769231 , 4182.56410256 , 4904.1025641 , 4128.20512821 , 4130.25641026 , 2043.0 , 2036.0 , 94.984 , 0.0 , 0.0 , 0.0 , 0.0 , 

63.0 , 4126.15384615 , 4120.51282051 , 4127.69230769 , 4121.02564103 , 4121.53846154 , 4121.02564103 , 4116.92307692 , 4127.17948718 , 4125.64102564 , 4132.82051282 , 4180.0 , 4903.58974359 , 4122.05128205 , 4132.30769231 , 2042.0 , 2034.0 , 94.99 , 0.0 , 0.0 , 0.0 , 0.0 , 

64.0 , 4123.58974359 , 4119.48717949 , 4129.23076923 , 4119.48717949 , 4123.07692308 , 4122.56410256 , 4117.43589744 , 4125.64102564 , 4127.69230769 , 4132.30769231 , 4182.56410256 , 4905.12820513 , 4121.02564103 , 4132.82051282 , 2043.0 , 2033.0 , 94.998 , 0.0 , 0.0 , 0.0 , 0.0 , 

65.0 , 4124.61538462 , 4122.05128205 , 4128.71794872 , 4122.56410256 , 4125.64102564 , 4122.05128205 , 4119.48717949 , 4123.58974359 , 4126.15384615 , 4132.30769231 , 4182.05128205 , 4905.12820513 , 4123.58974359 , 4131.79487179 , 2044.0 , 2032.0 , 95.006 , 0.0 , 0.0 , 0.0 , 0.0 , 

66.0 , 4124.1025641 , 4122.56410256 , 4126.66666667 , 4124.1025641 , 4123.58974359 , 4121.02564103 , 4121.02564103 , 4126.15384615 , 4128.20512821 , 4132.82051282 , 4182.05128205 , 4905.64102564 , 4125.12820513 , 4130.76923077 , 2043.0 , 2032.0 , 95.016 , 0.0 , 0.0 , 0.0 , 0.0 , 

67.0 , 4126.66666667 , 4125.12820513 , 4128.20512821 , 4123.58974359 , 4125.12820513 , 4121.53846154 , 4120.0 , 4121.02564103 , 4125.12820513 , 4132.82051282 , 4183.58974359 , 4905.64102564 , 4121.53846154 , 4129.74358974 , 2044.0 , 2031.0 , 95.023 , 0.0 , 0.0 , 0.0 , 0.0 , 

68.0 , 4124.61538462 , 4128.71794872 , 4124.61538462 , 4126.66666667 , 4125.12820513 , 4124.61538462 , 4121.53846154 , 4127.17948718 , 4127.17948718 , 4133.33333333 , 4184.61538462 , 4904.1025641 , 4127.69230769 , 4131.28205128 , 2043.0 , 2031.0 , 95.031 , 0.0 , 0.0 , 0.0 , 0.0 , 

69.0 , 4124.61538462 , 4123.58974359 , 4125.12820513 , 4125.64102564 , 4124.61538462 , 4122.56410256 , 4118.97435897 , 4120.0 , 4121.02564103 , 4132.30769231 , 4182.05128205 , 4905.12820513 , 4127.17948718 , 4134.87179487 , 2043.0 , 2031.0 , 95.038 , 0.0 , 0.0 , 0.0 , 0.0 , 

70.0 , 4123.58974359 , 4122.05128205 , 4123.58974359 , 4128.71794872 , 4125.12820513 , 4123.58974359 , 4124.61538462 , 4121.02564103 , 4124.61538462 , 4133.33333333 , 4184.61538462 , 4905.64102564 , 4132.82051282 , 4133.33333333 , 2042.0 , 2030.0 , 95.049 , 0.0 , 0.0 , 0.0 , 0.0 , 

71.0 , 4125.64102564 , 4124.1025641 , 4129.23076923 , 4124.61538462 , 4126.66666667 , 4120.51282051 , 4118.46153846 , 4113.84615385 , 4117.94871795 , 4131.79487179 , 4181.02564103 , 4907.17948718 , 4123.07692308 , 4131.79487179 , 2043.0 , 2031.0 , 95.053 , 0.0 , 0.0 , 0.0 , 0.0 , 

72.0 , 4125.64102564 , 4127.17948718 , 4125.12820513 , 4122.56410256 , 4125.12820513 , 4122.05128205 , 4117.94871795 , 4125.64102564 , 4121.53846154 , 4131.28205128 , 4182.56410256 , 4903.58974359 , 4125.12820513 , 4135.38461538 , 2042.0 , 2032.0 , 95.062 , 0.0 , 0.0 , 0.0 , 0.0 , 

73.0 , 4126.66666667 , 4120.0 , 4127.69230769 , 4116.92307692 , 4123.58974359 , 4118.97435897 , 4115.8974359 , 4118.97435897 , 4121.53846154 , 4132.82051282 , 4182.56410256 , 4904.61538462 , 4122.56410256 , 4134.35897436 , 2042.0 , 2032.0 , 95.069 , 0.0 , 0.0 , 0.0 , 0.0 , 

74.0 , 4124.1025641 , 4123.07692308 , 4126.66666667 , 4124.61538462 , 4123.58974359 , 4120.51282051 , 4124.1025641 , 4128.20512821 , 4134.87179487 , 4136.41025641 , 4186.15384615 , 4904.61538462 , 4129.23076923 , 4128.20512821 , 2042.0 , 2031.0 , 95.08 , 0.0 , 0.0 , 0.0 , 0.0 , 

75.0 , 4125.12820513 , 4122.56410256 , 4128.20512821 , 4123.58974359 , 4122.56410256 , 4116.41025641 , 4114.87179487 , 4125.64102564 , 4129.23076923 , 4133.33333333 , 4183.58974359 , 4906.66666667 , 4122.05128205 , 4127.17948718 , 2041.0 , 2033.0 , 95.086 , 0.0 , 0.0 , 0.0 , 0.0 , 

76.0 , 4123.58974359 , 4123.07692308 , 4118.97435897 , 4126.15384615 , 4122.05128205 , 4120.0 , 4117.43589744 , 4130.76923077 , 4129.23076923 , 4134.87179487 , 4184.1025641 , 4902.56410256 , 4130.76923077 , 4129.74358974 , 2040.0 , 2035.0 , 95.095 , 0.0 , 0.0 , 0.0 , 0.0 , 

77.0 , 4123.58974359 , 4118.46153846 , 4124.1025641 , 4121.02564103 , 4125.12820513 , 4118.46153846 , 4120.51282051 , 4122.05128205 , 4125.64102564 , 4137.43589744 , 4182.05128205 , 4901.53846154 , 4125.12820513 , 4130.25641026 , 2039.0 , 2037.0 , 95.1 , 0.0 , 0.0 , 0.0 , 0.0 , 

78.0 , 4125.12820513 , 4124.61538462 , 4128.20512821 , 4122.56410256 , 4126.66666667 , 4124.1025641 , 4126.15384615 , 4128.20512821 , 4128.20512821 , 4135.38461538 , 4187.17948718 , 4900.0 , 4123.07692308 , 4132.82051282 , 2039.0 , 2039.0 , 95.112 , 0.0 , 0.0 , 0.0 , 0.0 , 

79.0 , 4124.61538462 , 4125.64102564 , 4128.71794872 , 4124.1025641 , 4123.07692308 , 4124.61538462 , 4117.94871795 , 4122.05128205 , 4123.07692308 , 4131.28205128 , 4186.15384615 , 4904.1025641 , 4120.51282051 , 4133.84615385 , 2036.0 , 2038.0 , 95.116 , 0.0 , 0.0 , 0.0 , 0.0 , 

80.0 , 4124.61538462 , 4127.69230769 , 4123.07692308 , 4130.76923077 , 4124.1025641 , 4124.61538462 , 4117.94871795 , 4120.51282051 , 4122.56410256 , 4133.33333333 , 4184.61538462 , 4904.61538462 , 4127.17948718 , 4131.79487179 , 2037.0 , 2038.0 , 95.125 , 0.0 , 0.0 , 0.0 , 0.0 , 

81.0 , 4126.66666667 , 4124.61538462 , 4126.15384615 , 4127.17948718 , 4127.17948718 , 4122.56410256 , 4116.41025641 , 4115.8974359 , 4120.51282051 , 4131.28205128 , 4179.48717949 , 4905.64102564 , 4121.53846154 , 4130.76923077 , 2038.0 , 2038.0 , 95.132 , 0.0 , 0.0 , 0.0 , 0.0 , 

82.0 , 4126.15384615 , 4123.58974359 , 4125.64102564 , 4124.61538462 , 4124.61538462 , 4124.61538462 , 4118.97435897 , 4116.41025641 , 4120.0 , 4129.74358974 , 4178.46153846 , 4906.15384615 , 4120.0 , 4133.33333333 , 2038.0 , 2035.0 , 95.143 , 0.0 , 0.0 , 0.0 , 0.0 , 

83.0 , 4122.05128205 , 4121.53846154 , 4123.58974359 , 4124.1025641 , 4120.51282051 , 4121.02564103 , 4119.48717949 , 4118.46153846 , 4121.53846154 , 4131.79487179 , 4181.53846154 , 4906.15384615 , 4129.23076923 , 4132.82051282 , 2039.0 , 2035.0 , 95.15 , 0.0 , 0.0 , 0.0 , 0.0 , 

84.0 , 4126.66666667 , 4124.61538462 , 4124.61538462 , 4125.64102564 , 4123.58974359 , 4115.8974359 , 4117.94871795 , 4121.02564103 , 4117.43589744 , 4130.76923077 , 4184.61538462 , 4903.07692308 , 4130.25641026 , 4132.82051282 , 2041.0 , 2035.0 , 95.158 , 0.0 , 0.0 , 0.0 , 0.0 , 

85.0 , 4125.64102564 , 4125.12820513 , 4123.07692308 , 4127.69230769 , 4125.12820513 , 4119.48717949 , 4120.0 , 4125.64102564 , 4121.02564103 , 4129.23076923 , 4184.1025641 , 4903.07692308 , 4127.17948718 , 4133.33333333 , 2041.0 , 2036.0 , 95.164 , 0.0 , 0.0 , 0.0 , 0.0 , 

86.0 , 4123.07692308 , 4121.53846154 , 4124.1025641 , 4126.15384615 , 4124.61538462 , 4122.05128205 , 4118.46153846 , 4121.02564103 , 4124.1025641 , 4131.28205128 , 4182.56410256 , 4905.12820513 , 4124.1025641 , 4132.30769231 , 2042.0 , 2037.0 , 95.175 , 0.0 , 0.0 , 0.0 , 0.0 , 

87.0 , 4123.58974359 , 4124.1025641 , 4125.12820513 , 4126.66666667 , 4124.1025641 , 4121.53846154 , 4118.97435897 , 4131.28205128 , 4131.28205128 , 4134.35897436 , 4185.12820513 , 4902.56410256 , 4131.28205128 , 4131.79487179 , 2043.0 , 2037.0 , 95.18 , 0.0 , 0.0 , 0.0 , 0.0 , 

88.0 , 4127.69230769 , 4126.15384615 , 4128.20512821 , 4124.61538462 , 4123.07692308 , 4120.0 , 4116.92307692 , 4126.66666667 , 4125.12820513 , 4132.30769231 , 4181.53846154 , 4902.56410256 , 4125.12820513 , 4131.28205128 , 2043.0 , 2038.0 , 95.187 , 0.0 , 0.0 , 0.0 , 0.0 , 

89.0 , 4124.1025641 , 4125.12820513 , 4122.05128205 , 4126.15384615 , 4122.05128205 , 4124.1025641 , 4122.56410256 , 4128.20512821 , 4129.23076923 , 4130.76923077 , 4182.56410256 , 4905.12820513 , 4128.71794872 , 4128.20512821 , 2043.0 , 2039.0 , 95.196 , 0.0 , 0.0 , 0.0 , 0.0 , 

90.0 , 4124.1025641 , 4122.05128205 , 4127.17948718 , 4121.53846154 , 4123.58974359 , 4122.05128205 , 4116.92307692 , 4117.94871795 , 4122.56410256 , 4130.76923077 , 4181.02564103 , 4906.66666667 , 4121.02564103 , 4128.20512821 , 2043.0 , 2039.0 , 95.207 , 0.0 , 0.0 , 0.0 , 0.0 , 

91.0 , 4125.12820513 , 4128.20512821 , 4127.17948718 , 4123.07692308 , 4125.12820513 , 4124.1025641 , 4120.0 , 4126.66666667 , 4127.17948718 , 4133.33333333 , 4180.51282051 , 4902.05128205 , 4124.1025641 , 4131.79487179 , 2045.0 , 2039.0 , 95.212 , 0.0 , 0.0 , 0.0 , 0.0 , 

92.0 , 4127.17948718 , 4125.64102564 , 4128.71794872 , 4120.0 , 4124.61538462 , 4120.51282051 , 4118.97435897 , 4119.48717949 , 4124.1025641 , 4132.30769231 , 4176.41025641 , 4905.12820513 , 4120.0 , 4133.33333333 , 2045.0 , 2040.0 , 95.219 , 0.0 , 0.0 , 0.0 , 0.0 , 

93.0 , 4124.61538462 , 4126.15384615 , 4126.66666667 , 4126.15384615 , 4122.56410256 , 4124.1025641 , 4123.07692308 , 4129.23076923 , 4131.28205128 , 4132.30769231 , 4181.53846154 , 4906.15384615 , 4127.69230769 , 4131.28205128 , 2047.0 , 2039.0 , 95.228 , 0.0 , 0.0 , 0.0 , 0.0 , 

94.0 , 4125.64102564 , 4125.12820513 , 4133.33333333 , 4125.12820513 , 4122.56410256 , 4123.07692308 , 4114.87179487 , 4123.58974359 , 4124.61538462 , 4130.76923077 , 4180.0 , 4905.12820513 , 4121.53846154 , 4129.74358974 , 2047.0 , 2036.0 , 95.238 , 0.0 , 0.0 , 0.0 , 0.0 , 

95.0 , 4126.15384615 , 4130.25641026 , 4127.69230769 , 4128.71794872 , 4124.1025641 , 4125.12820513 , 4121.53846154 , 4125.64102564 , 4125.64102564 , 4131.79487179 , 4180.51282051 , 4902.05128205 , 4128.71794872 , 4130.76923077 , 2048.0 , 2033.0 , 95.242 , 0.0 , 0.0 , 0.0 , 0.0 , 

96.0 , 4125.12820513 , 4123.58974359 , 4127.69230769 , 4124.61538462 , 4124.61538462 , 4122.05128205 , 4120.0 , 4120.51282051 , 4121.53846154 , 4129.23076923 , 4178.97435897 , 4906.15384615 , 4127.17948718 , 4132.82051282 , 2047.0 , 2030.0 , 95.25 , 0.0 , 0.0 , 0.0 , 0.0 , 

97.0 , 4125.12820513 , 4123.07692308 , 4125.64102564 , 4125.64102564 , 4123.58974359 , 4125.12820513 , 4121.53846154 , 4127.69230769 , 4124.1025641 , 4129.74358974 , 4184.1025641 , 4903.07692308 , 4128.71794872 , 4133.84615385 , 2048.0 , 2030.0 , 95.258 , 0.0 , 0.0 , 0.0 , 0.0 , 

98.0 , 4125.12820513 , 4122.05128205 , 4128.71794872 , 4123.58974359 , 4123.58974359 , 4118.97435897 , 4118.46153846 , 4120.0 , 4124.61538462 , 4131.79487179 , 4183.58974359 , 4901.53846154 , 4125.64102564 , 4131.79487179 , 2046.0 , 2031.0 , 95.269 , 0.0 , 0.0 , 0.0 , 0.0 , 

99.0 , 4123.58974359 , 4122.05128205 , 4129.23076923 , 4127.69230769 , 4124.61538462 , 4116.92307692 , 4120.51282051 , 4121.53846154 , 4126.15384615 , 4133.84615385 , 4184.61538462 , 4902.05128205 , 4129.74358974 , 4129.74358974 , 2046.0 , 2033.0 , 95.274 , 0.0 , 0.0 , 0.0 , 0.0 , 

100.0 , 4122.05128205 , 4118.46153846 , 4129.74358974 , 4125.12820513 , 4123.07692308 , 4122.05128205 , 4119.48717949 , 4124.61538462 , 4123.58974359 , 4132.30769231 , 4182.05128205 , 4905.12820513 , 4123.58974359 , 4131.79487179 , 2046.0 , 2036.0 , 95.283 , 0.0 , 0.0 , 0.0 , 0.0 , 

101.0 , 4123.07692308 , 4121.53846154 , 4128.71794872 , 4121.53846154 , 4124.1025641 , 4125.64102564 , 4119.48717949 , 4124.61538462 , 4125.64102564 , 4130.76923077 , 4181.53846154 , 4903.07692308 , 4119.48717949 , 4134.35897436 , 2046.0 , 2034.0 , 95.292 , 0.0 , 0.0 , 0.0 , 0.0 , 

102.0 , 4121.02564103 , 4123.58974359 , 4128.20512821 , 4124.61538462 , 4123.07692308 , 4120.0 , 4115.8974359 , 4124.1025641 , 4131.79487179 , 4129.74358974 , 4183.07692308 , 4900.51282051 , 4125.12820513 , 4130.25641026 , 2045.0 , 2035.0 , 95.302 , 0.0 , 0.0 , 0.0 , 0.0 , 

103.0 , 4123.07692308 , 4122.05128205 , 4128.20512821 , 4126.66666667 , 4123.07692308 , 4118.46153846 , 4115.8974359 , 4122.56410256 , 4127.17948718 , 4130.25641026 , 4182.56410256 , 4901.02564103 , 4124.1025641 , 4127.17948718 , 2046.0 , 2036.0 , 95.305 , 0.0 , 0.0 , 0.0 , 0.0 , 

104.0 , 4123.58974359 , 4121.53846154 , 4127.69230769 , 4123.58974359 , 4124.1025641 , 4124.1025641 , 4120.51282051 , 4127.69230769 , 4128.20512821 , 4132.30769231 , 4183.07692308 , 4902.05128205 , 4124.61538462 , 4130.76923077 , 2046.0 , 2037.0 , 95.314 , 0.0 , 0.0 , 0.0 , 0.0 , 

105.0 , 4124.61538462 , 4124.1025641 , 4133.33333333 , 4121.02564103 , 4123.07692308 , 4122.56410256 , 4120.51282051 , 4125.12820513 , 4129.23076923 , 4131.79487179 , 4181.53846154 , 4905.12820513 , 4122.05128205 , 4132.82051282 , 2045.0 , 2035.0 , 95.321 , 0.0 , 0.0 , 0.0 , 0.0 , 

106.0 , 4123.58974359 , 4129.74358974 , 4128.20512821 , 4126.66666667 , 4120.0 , 4121.53846154 , 4125.12820513 , 4133.84615385 , 4132.82051282 , 4133.84615385 , 4182.05128205 , 4905.64102564 , 4124.61538462 , 4131.79487179 , 2045.0 , 2034.0 , 95.332 , 0.0 , 0.0 , 0.0 , 0.0 , 

107.0 , 4125.64102564 , 4126.15384615 , 4127.17948718 , 4125.12820513 , 4124.61538462 , 4120.51282051 , 4122.05128205 , 4125.12820513 , 4121.02564103 , 4135.38461538 , 4178.46153846 , 4906.15384615 , 4119.48717949 , 4132.30769231 , 2045.0 , 2034.0 , 95.337 , 0.0 , 0.0 , 0.0 , 0.0 , 

108.0 , 4124.61538462 , 4123.07692308 , 4125.12820513 , 4128.71794872 , 4126.66666667 , 4125.64102564 , 4122.05128205 , 4128.20512821 , 4127.69230769 , 4133.33333333 , 4182.56410256 , 4905.12820513 , 4129.23076923 , 4134.35897436 , 2044.0 , 2034.0 , 95.346 , 0.0 , 0.0 , 0.0 , 0.0 , 

109.0 , 4126.66666667 , 4121.02564103 , 4129.23076923 , 4125.64102564 , 4122.05128205 , 4119.48717949 , 4115.8974359 , 4117.94871795 , 4126.15384615 , 4129.74358974 , 4181.53846154 , 4906.66666667 , 4122.05128205 , 4133.84615385 , 2043.0 , 2031.0 , 95.354 , 0.0 , 0.0 , 0.0 , 0.0 , 

110.0 , 4125.12820513 , 4125.12820513 , 4126.15384615 , 4125.64102564 , 4122.05128205 , 4120.51282051 , 4120.0 , 4123.07692308 , 4127.17948718 , 4131.28205128 , 4183.58974359 , 4904.1025641 , 4126.66666667 , 4133.84615385 , 2041.0 , 2031.0 , 95.365 , 0.0 , 0.0 , 0.0 , 0.0 , 

111.0 , 4123.58974359 , 4119.48717949 , 4129.74358974 , 4123.07692308 , 4124.61538462 , 4118.97435897 , 4115.38461538 , 4117.43589744 , 4121.02564103 , 4129.74358974 , 4183.07692308 , 4906.15384615 , 4125.64102564 , 4132.82051282 , 2042.0 , 2031.0 , 95.368 , 0.0 , 0.0 , 0.0 , 0.0 , 

112.0 , 4123.07692308 , 4122.56410256 , 4126.66666667 , 4130.25641026 , 4123.07692308 , 4121.53846154 , 4119.48717949 , 4129.23076923 , 4129.23076923 , 4129.23076923 , 4188.20512821 , 4903.58974359 , 4132.30769231 , 4131.79487179 , 2041.0 , 2033.0 , 95.378 , 0.0 , 0.0 , 0.0 , 0.0 , 

113.0 , 4127.17948718 , 4123.07692308 , 4130.25641026 , 4124.1025641 , 4124.1025641 , 4118.46153846 , 4114.87179487 , 4124.1025641 , 4124.61538462 , 4129.74358974 , 4185.12820513 , 4902.56410256 , 4125.12820513 , 4133.33333333 , 2041.0 , 2033.0 , 95.385 , 0.0 , 0.0 , 0.0 , 0.0 , 

114.0 , 4126.15384615 , 4125.12820513 , 4125.64102564 , 4123.58974359 , 4124.61538462 , 4122.05128205 , 4119.48717949 , 4129.74358974 , 4128.71794872 , 4134.35897436 , 4186.15384615 , 4900.51282051 , 4131.28205128 , 4133.84615385 , 2040.0 , 2032.0 , 95.396 , 0.0 , 0.0 , 0.0 , 0.0 , 

115.0 , 4123.07692308 , 4118.97435897 , 4126.15384615 , 4123.58974359 , 4122.05128205 , 4121.02564103 , 4117.94871795 , 4125.64102564 , 4129.23076923 , 4134.35897436 , 4181.02564103 , 4904.1025641 , 4125.12820513 , 4132.82051282 , 2041.0 , 2032.0 , 95.4 , 0.0 , 0.0 , 0.0 , 0.0 , 

116.0 , 4123.07692308 , 4122.05128205 , 4128.20512821 , 4127.69230769 , 4124.61538462 , 4127.17948718 , 4123.07692308 , 4126.66666667 , 4128.71794872 , 4133.33333333 , 4181.02564103 , 4903.58974359 , 4123.58974359 , 4131.28205128 , 2042.0 , 2032.0 , 95.409 , 0.0 , 0.0 , 0.0 , 0.0 , 

117.0 , 4124.1025641 , 4124.61538462 , 4132.30769231 , 4124.61538462 , 4125.12820513 , 4125.64102564 , 4123.58974359 , 4120.51282051 , 4122.05128205 , 4130.76923077 , 4184.1025641 , 4905.64102564 , 4122.05128205 , 4129.23076923 , 2042.0 , 2032.0 , 95.417 , 0.0 , 0.0 , 0.0 , 0.0 , 

118.0 , 4125.64102564 , 4127.17948718 , 4128.71794872 , 4127.69230769 , 4123.07692308 , 4124.1025641 , 4123.58974359 , 4123.07692308 , 4126.15384615 , 4130.25641026 , 4185.64102564 , 4906.15384615 , 4123.58974359 , 4130.76923077 , 2042.0 , 2033.0 , 95.428 , 0.0 , 0.0 , 0.0 , 0.0 , 

119.0 , 4125.12820513 , 4124.1025641 , 4130.25641026 , 4126.66666667 , 4125.12820513 , 4124.1025641 , 4117.94871795 , 4121.53846154 , 4127.17948718 , 4128.20512821 , 4179.48717949 , 4907.17948718 , 4120.0 , 4133.33333333 , 2044.0 , 2034.0 , 95.431 , 0.0 , 0.0 , 0.0 , 0.0 , 

120.0 , 4125.12820513 , 4124.61538462 , 4129.74358974 , 4125.64102564 , 4127.17948718 , 4124.61538462 , 4119.48717949 , 4118.97435897 , 4121.02564103 , 4129.74358974 , 4180.51282051 , 4905.64102564 , 4121.53846154 , 4134.87179487 , 2044.0 , 2035.0 , 95.44 , 0.0 , 0.0 , 0.0 , 0.0 , 

121.0 , 4123.07692308 , 4125.12820513 , 4124.1025641 , 4127.17948718 , 4124.61538462 , 4121.02564103 , 4120.0 , 4123.07692308 , 4122.56410256 , 4132.82051282 , 4184.61538462 , 4904.1025641 , 4128.71794872 , 4132.30769231 , 2042.0 , 2032.0 , 95.447 , 0.0 , 0.0 , 0.0 , 0.0 , 

122.0 , 4124.61538462 , 4125.12820513 , 4125.64102564 , 4126.15384615 , 4125.12820513 , 4122.05128205 , 4115.38461538 , 4117.94871795 , 4122.05128205 , 4132.30769231 , 4182.56410256 , 4904.61538462 , 4124.61538462 , 4130.76923077 , 2043.0 , 2033.0 , 95.457 , 0.0 , 0.0 , 0.0 , 0.0 , 

123.0 , 4123.07692308 , 4125.12820513 , 4123.58974359 , 4124.61538462 , 4126.15384615 , 4124.61538462 , 4118.97435897 , 4122.56410256 , 4129.74358974 , 4129.74358974 , 4183.58974359 , 4903.58974359 , 4125.12820513 , 4130.76923077 , 2045.0 , 2034.0 , 95.463 , 0.0 , 0.0 , 0.0 , 0.0 , 

124.0 , 4124.61538462 , 4121.53846154 , 4124.1025641 , 4125.64102564 , 4125.12820513 , 4118.97435897 , 4118.46153846 , 4122.05128205 , 4124.61538462 , 4128.71794872 , 4185.12820513 , 4904.1025641 , 4124.1025641 , 4131.79487179 , 2044.0 , 2035.0 , 95.471 , 0.0 , 0.0 , 0.0 , 0.0 , 

125.0 , 4124.1025641 , 4122.56410256 , 4124.61538462 , 4130.25641026 , 4124.1025641 , 4124.1025641 , 4118.97435897 , 4127.17948718 , 4124.61538462 , 4132.82051282 , 4186.66666667 , 4902.05128205 , 4129.74358974 , 4132.82051282 , 2043.0 , 2035.0 , 95.479 , 0.0 , 0.0 , 0.0 , 0.0 , 

126.0 , 4125.12820513 , 4122.56410256 , 4130.25641026 , 4123.07692308 , 4125.12820513 , 4122.56410256 , 4115.8974359 , 4116.92307692 , 4123.58974359 , 4133.84615385 , 4185.64102564 , 4902.05128205 , 4118.97435897 , 4131.79487179 , 2045.0 , 2034.0 , 95.49 , 0.0 , 0.0 , 0.0 , 0.0 , 

127.0 , 4125.12820513 , 4125.12820513 , 4124.61538462 , 4124.1025641 , 4123.58974359 , 4117.43589744 , 4120.0 , 4128.71794872 , 4134.35897436 , 4132.30769231 , 4187.69230769 , 4902.05128205 , 4123.07692308 , 4131.79487179 , 2044.0 , 2034.0 , 95.495 , 0.0 , 0.0 , 0.0 , 0.0 , 

128.0 , 4127.69230769 , 4119.48717949 , 4128.20512821 , 4121.53846154 , 4122.05128205 , 4116.41025641 , 4113.84615385 , 4124.1025641 , 4124.61538462 , 4131.79487179 , 4180.0 , 4905.12820513 , 4120.0 , 4132.82051282 , 2045.0 , 2033.0 , 95.502 , 0.0 , 0.0 , 0.0 , 0.0 , 

0.0 , 4123.07692308 , 4120.51282051 , 4127.17948718 , 4123.07692308 , 4122.56410256 , 4127.69230769 , 4121.53846154 , 4128.71794872 , 4128.71794872 , 4133.84615385 , 4182.56410256 , 4906.66666667 , 4124.61538462 , 4131.28205128 , 2045.0 , 2033.0 , 95.51 , 0.0 , 0.0 , 0.0 , 0.0 , 

1.0 , 4124.1025641 , 4119.48717949 , 4129.74358974 , 4120.0 , 4124.61538462 , 4123.07692308 , 4122.56410256 , 4120.51282051 , 4127.17948718 , 4131.28205128 , 4184.61538462 , 4909.74358974 , 4117.43589744 , 4128.71794872 , 2045.0 , 2032.0 , 95.522 , 0.0 , 0.0 , 0.0 , 0.0 , 

2.0 , 4127.17948718 , 4125.12820513 , 4126.66666667 , 4126.15384615 , 4126.66666667 , 4123.58974359 , 4124.61538462 , 4130.76923077 , 4130.25641026 , 4132.30769231 , 4185.12820513 , 4904.1025641 , 4125.12820513 , 4130.25641026 , 2045.0 , 2033.0 , 95.526 , 0.0 , 0.0 , 0.0 , 0.0 , 

3.0 , 4126.15384615 , 4124.61538462 , 4131.28205128 , 4123.58974359 , 4125.12820513 , 4122.05128205 , 4120.0 , 4124.61538462 , 4124.1025641 , 4132.82051282 , 4180.51282051 , 4904.1025641 , 4121.53846154 , 4133.84615385 , 2045.0 , 2033.0 , 95.535 , 0.0 , 0.0 , 0.0 , 0.0 , 

4.0 , 4123.07692308 , 4127.69230769 , 4127.17948718 , 4126.66666667 , 4123.07692308 , 4124.1025641 , 4124.61538462 , 4124.1025641 , 4126.66666667 , 4131.28205128 , 4186.15384615 , 4905.12820513 , 4123.58974359 , 4131.79487179 , 2044.0 , 2034.0 , 95.543 , 0.0 , 0.0 , 0.0 , 0.0 , 

5.0 , 4124.61538462 , 4123.07692308 , 4127.17948718 , 4126.66666667 , 4123.58974359 , 4121.53846154 , 4116.41025641 , 4117.43589744 , 4122.05128205 , 4129.23076923 , 4183.58974359 , 4906.66666667 , 4122.05128205 , 4130.25641026 , 2044.0 , 2032.0 , 95.554 , 0.0 , 0.0 , 0.0 , 0.0 , 

6.0 , 4125.12820513 , 4124.1025641 , 4125.12820513 , 4130.25641026 , 4125.12820513 , 4123.58974359 , 4117.43589744 , 4121.53846154 , 4123.07692308 , 4129.74358974 , 4182.05128205 , 4904.1025641 , 4128.20512821 , 4135.38461538 , 2045.0 , 2033.0 , 95.558 , 0.0 , 0.0 , 0.0 , 0.0 , 

7.0 , 4121.53846154 , 4124.1025641 , 4126.66666667 , 4125.64102564 , 4123.07692308 , 4121.02564103 , 4118.46153846 , 4117.94871795 , 4122.05128205 , 4130.25641026 , 4181.53846154 , 4906.15384615 , 4123.07692308 , 4136.41025641 , 2045.0 , 2032.0 , 95.566 , 0.0 , 0.0 , 0.0 , 0.0 , 

8.0 , 4123.58974359 , 4125.64102564 , 4125.64102564 , 4123.07692308 , 4123.58974359 , 4121.53846154 , 4118.46153846 , 4122.05128205 , 4121.53846154 , 4133.33333333 , 4182.56410256 , 4904.61538462 , 4120.51282051 , 4131.28205128 , 2045.0 , 2033.0 , 95.574 , 0.0 , 0.0 , 0.0 , 0.0 , 

9.0 , 4124.61538462 , 4122.56410256 , 4126.15384615 , 4125.12820513 , 4123.07692308 , 4120.0 , 4114.35897436 , 4125.64102564 , 4122.05128205 , 4131.79487179 , 4182.05128205 , 4903.07692308 , 4124.1025641 , 4128.71794872 , 2047.0 , 2032.0 , 95.584 , 0.0 , 0.0 , 0.0 , 0.0 , 

10.0 , 4125.12820513 , 4122.56410256 , 4126.15384615 , 4127.69230769 , 4122.56410256 , 4117.43589744 , 4116.41025641 , 4121.53846154 , 4121.02564103 , 4129.23076923 , 4185.64102564 , 4904.1025641 , 4127.69230769 , 4131.79487179 , 2046.0 , 2017.0 , 95.59 , 0.0 , 0.0 , 0.0 , 0.0 , 

11.0 , 4123.07692308 , 4123.07692308 , 4124.61538462 , 4126.15384615 , 4122.05128205 , 4116.41025641 , 4118.46153846 , 4125.12820513 , 4127.69230769 , 4131.28205128 , 4185.12820513 , 4904.1025641 , 4128.71794872 , 4132.30769231 , 2045.0 , 2031.0 , 95.599 , 0.0 , 0.0 , 0.0 , 0.0 , 

12.0 , 4123.07692308 , 4123.58974359 , 4126.66666667 , 4124.1025641 , 4124.61538462 , 4117.43589744 , 4115.38461538 , 4127.69230769 , 4126.66666667 , 4133.33333333 , 4182.05128205 , 4901.53846154 , 4121.02564103 , 4130.76923077 , 2045.0 , 2031.0 , 95.607 , 0.0 , 0.0 , 0.0 , 0.0 , 

13.0 , 4121.53846154 , 4126.66666667 , 4126.15384615 , 4126.66666667 , 4124.61538462 , 4124.1025641 , 4122.05128205 , 4132.30769231 , 4129.23076923 , 4133.84615385 , 4185.64102564 , 4901.53846154 , 4122.56410256 , 4131.79487179 , 2046.0 , 2031.0 , 95.616 , 0.0 , 0.0 , 0.0 , 0.0 , 

14.0 , 4126.66666667 , 4124.61538462 , 4129.74358974 , 4123.07692308 , 4124.1025641 , 4122.56410256 , 4123.58974359 , 4122.05128205 , 4124.61538462 , 4132.30769231 , 4183.58974359 , 4905.12820513 , 4121.53846154 , 4133.33333333 , 2045.0 , 2031.0 , 95.621 , 0.0 , 0.0 , 0.0 , 0.0 , 

15.0 , 4126.15384615 , 4125.12820513 , 4126.15384615 , 4123.58974359 , 4124.61538462 , 4121.02564103 , 4124.61538462 , 4129.74358974 , 4129.23076923 , 4131.28205128 , 4182.05128205 , 4903.58974359 , 4126.66666667 , 4132.30769231 , 2044.0 , 2031.0 , 95.629 , 0.0 , 0.0 , 0.0 , 0.0 , 

16.0 , 4125.12820513 , 4127.69230769 , 4128.20512821 , 4121.02564103 , 4124.1025641 , 4121.53846154 , 4118.46153846 , 4122.56410256 , 4121.02564103 , 4131.28205128 , 4177.43589744 , 4904.61538462 , 4118.46153846 , 4132.30769231 , 2043.0 , 2032.0 , 95.637 , 0.0 , 0.0 , 0.0 , 0.0 , 

17.0 , 4125.12820513 , 4129.23076923 , 4124.61538462 , 4126.66666667 , 4122.56410256 , 4125.64102564 , 4123.07692308 , 4125.64102564 , 4124.61538462 , 4133.33333333 , 4182.05128205 , 4905.12820513 , 4127.17948718 , 4131.79487179 , 2043.0 , 2031.0 , 95.648 , 0.0 , 0.0 , 0.0 , 0.0 , 

18.0 , 4125.64102564 , 4118.97435897 , 4126.66666667 , 4125.12820513 , 4124.1025641 , 4118.97435897 , 4117.94871795 , 4115.38461538 , 4120.51282051 , 4132.30769231 , 4183.07692308 , 4908.20512821 , 4125.12820513 , 4130.25641026 , 2043.0 , 2030.0 , 95.652 , 0.0 , 0.0 , 0.0 , 0.0 , 

19.0 , 4122.56410256 , 4123.58974359 , 4120.0 , 4127.69230769 , 4125.64102564 , 4122.56410256 , 4121.02564103 , 4122.56410256 , 4127.17948718 , 4133.33333333 , 4185.64102564 , 4906.66666667 , 4128.71794872 , 4132.30769231 , 2041.0 , 2033.0 , 95.661 , 0.0 , 0.0 , 0.0 , 0.0 , 

20.0 , 4124.61538462 , 4125.12820513 , 4122.56410256 , 4122.56410256 , 4122.05128205 , 4121.02564103 , 4114.87179487 , 4114.87179487 , 4123.58974359 , 4132.30769231 , 4180.0 , 4907.17948718 , 4122.05128205 , 4133.33333333 , 2042.0 , 2032.0 , 95.669 , 0.0 , 0.0 , 0.0 , 0.0 , 

21.0 , 4125.64102564 , 4126.66666667 , 4121.02564103 , 4128.71794872 , 4122.56410256 , 4122.05128205 , 4117.43589744 , 4123.07692308 , 4126.66666667 , 4133.33333333 , 4182.56410256 , 4904.1025641 , 4130.25641026 , 4129.74358974 , 2041.0 , 2033.0 , 95.68 , 0.0 , 0.0 , 0.0 , 0.0 , 

22.0 , 4124.1025641 , 4124.1025641 , 4125.64102564 , 4128.20512821 , 4126.15384615 , 4120.0 , 4116.41025641 , 4118.46153846 , 4121.53846154 , 4133.33333333 , 4183.07692308 , 4904.1025641 , 4125.12820513 , 4130.25641026 , 2040.0 , 2032.0 , 95.685 , 0.0 , 0.0 , 0.0 , 0.0 , 

23.0 , 4124.61538462 , 4126.15384615 , 4123.07692308 , 4129.74358974 , 4125.12820513 , 4121.53846154 , 4123.07692308 , 4123.58974359 , 4127.17948718 , 4132.82051282 , 4187.17948718 , 4903.07692308 , 4128.71794872 , 4135.8974359 , 2041.0 , 2032.0 , 95.692 , 0.0 , 0.0 , 0.0 , 0.0 , 

24.0 , 4126.15384615 , 4122.56410256 , 4125.12820513 , 4126.15384615 , 4122.05128205 , 4117.43589744 , 4117.43589744 , 4124.61538462 , 4129.23076923 , 4131.28205128 , 4184.1025641 , 4906.15384615 , 4125.12820513 , 4132.82051282 , 2041.0 , 2034.0 , 95.7 , 0.0 , 0.0 , 0.0 , 0.0 , 

25.0 , 4126.15384615 , 4126.66666667 , 4127.17948718 , 4125.64102564 , 4123.58974359 , 4121.53846154 , 4117.94871795 , 4130.25641026 , 4129.23076923 , 4135.38461538 , 4181.53846154 , 4906.66666667 , 4121.53846154 , 4129.23076923 , 2042.0 , 2034.0 , 95.711 , 0.0 , 0.0 , 0.0 , 0.0 , 

26.0 , 4123.58974359 , 4123.58974359 , 4129.74358974 , 4122.05128205 , 4124.61538462 , 4123.07692308 , 4118.46153846 , 4122.05128205 , 4125.12820513 , 4135.38461538 , 4180.51282051 , 4906.66666667 , 4119.48717949 , 4130.76923077 , 2042.0 , 2033.0 , 95.715 , 0.0 , 0.0 , 0.0 , 0.0 , 

27.0 , 4124.1025641 , 4121.02564103 , 4125.12820513 , 4123.07692308 , 4124.61538462 , 4122.56410256 , 4122.56410256 , 4118.97435897 , 4125.64102564 , 4132.30769231 , 4182.56410256 , 4904.1025641 , 4122.56410256 , 4131.28205128 , 2042.0 , 2035.0 , 95.723 , 0.0 , 0.0 , 0.0 , 0.0 , 

28.0 , 4124.61538462 , 4124.61538462 , 4124.61538462 , 4123.07692308 , 4124.1025641 , 4123.07692308 , 4124.1025641 , 4125.12820513 , 4127.17948718 , 4129.74358974 , 4181.53846154 , 4904.1025641 , 4121.53846154 , 4129.74358974 , 2042.0 , 2035.0 , 95.731 , 0.0 , 0.0 , 0.0 , 0.0 , 

29.0 , 4124.1025641 , 4127.17948718 , 4128.71794872 , 4124.61538462 , 4122.56410256 , 4125.12820513 , 4123.58974359 , 4123.58974359 , 4122.56410256 , 4129.74358974 , 4181.02564103 , 4904.61538462 , 4120.0 , 4131.79487179 , 2044.0 , 2037.0 , 95.741 , 0.0 , 0.0 , 0.0 , 0.0 , 

30.0 , 4121.53846154 , 4124.61538462 , 4127.17948718 , 4129.74358974 , 4122.05128205 , 4128.20512821 , 4123.07692308 , 4122.05128205 , 4126.15384615 , 4131.79487179 , 4183.58974359 , 4904.61538462 , 4129.74358974 , 4132.30769231 , 2043.0 , 2038.0 , 95.747 , 0.0 , 0.0 , 0.0 , 0.0 , 

31.0 , 4126.15384615 , 4123.07692308 , 4126.15384615 , 4126.15384615 , 4124.61538462 , 4126.66666667 , 4123.07692308 , 4117.94871795 , 4123.58974359 , 4131.79487179 , 4182.56410256 , 4905.64102564 , 4128.20512821 , 4131.79487179 , 2044.0 , 2037.0 , 95.755 , 0.0 , 0.0 , 0.0 , 0.0 , 

32.0 , 4124.1025641 , 4124.61538462 , 4122.56410256 , 4123.07692308 , 4124.1025641 , 4125.64102564 , 4126.15384615 , 4127.69230769 , 4127.17948718 , 4130.76923077 , 4184.1025641 , 4906.15384615 , 4127.69230769 , 4132.82051282 , 2044.0 , 2037.0 , 95.763 , 0.0 , 0.0 , 0.0 , 0.0 , 

33.0 , 4123.58974359 , 4122.05128205 , 4126.15384615 , 4123.58974359 , 4124.1025641 , 4121.53846154 , 4118.46153846 , 4122.56410256 , 4123.07692308 , 4130.25641026 , 4183.58974359 , 4908.20512821 , 4121.53846154 , 4132.82051282 , 2044.0 , 2037.0 , 95.774 , 0.0 , 0.0 , 0.0 , 0.0 , 

34.0 , 4125.64102564 , 4124.1025641 , 4124.1025641 , 4128.71794872 , 4125.12820513 , 4124.1025641 , 4120.0 , 4126.15384615 , 4126.15384615 , 4132.30769231 , 4186.66666667 , 4905.12820513 , 4126.66666667 , 4131.28205128 , 2045.0 , 2036.0 , 95.778 , 0.0 , 0.0 , 0.0 , 0.0 , 

35.0 , 4128.71794872 , 4121.53846154 , 4127.69230769 , 4122.56410256 , 4125.12820513 , 4119.48717949 , 4116.41025641 , 4116.92307692 , 4117.43589744 , 4130.76923077 , 4183.58974359 , 4903.58974359 , 4118.97435897 , 4131.79487179 , 2044.0 , 2036.0 , 95.787 , 0.0 , 0.0 , 0.0 , 0.0 , 

36.0 , 4124.1025641 , 4123.58974359 , 4124.1025641 , 4125.12820513 , 4122.56410256 , 4118.46153846 , 4119.48717949 , 4127.69230769 , 4126.66666667 , 4132.82051282 , 4184.61538462 , 4902.05128205 , 4124.61538462 , 4131.79487179 , 2047.0 , 2038.0 , 95.795 , 0.0 , 0.0 , 0.0 , 0.0 , 

37.0 , 4123.58974359 , 4120.0 , 4128.20512821 , 4121.53846154 , 4123.07692308 , 4116.41025641 , 4114.87179487 , 4123.07692308 , 4125.12820513 , 4134.35897436 , 4179.48717949 , 4905.12820513 , 4118.97435897 , 4131.79487179 , 2046.0 , 2037.0 , 95.805 , 0.0 , 0.0 , 0.0 , 0.0 , 

38.0 , 4123.58974359 , 4122.56410256 , 4124.1025641 , 4123.07692308 , 4123.58974359 , 4123.58974359 , 4120.51282051 , 4126.66666667 , 4126.66666667 , 4135.38461538 , 4182.56410256 , 4903.58974359 , 4125.12820513 , 4132.30769231 , 2048.0 , 2036.0 , 95.81 , 0.0 , 0.0 , 0.0 , 0.0 , 

39.0 , 4123.07692308 , 4121.02564103 , 4128.20512821 , 4121.02564103 , 4121.53846154 , 4121.53846154 , 4116.92307692 , 4117.94871795 , 4124.1025641 , 4134.35897436 , 4184.61538462 , 4903.07692308 , 4122.56410256 , 4131.28205128 , 2049.0 , 2035.0 , 95.818 , 0.0 , 0.0 , 0.0 , 0.0 , 

40.0 , 4122.56410256 , 4124.1025641 , 4127.17948718 , 4129.23076923 , 4122.56410256 , 4123.58974359 , 4123.58974359 , 4131.79487179 , 4132.82051282 , 4135.38461538 , 4185.64102564 , 4899.48717949 , 4128.20512821 , 4131.28205128 , 2049.0 , 2032.0 , 95.826 , 0.0 , 0.0 , 0.0 , 0.0 , 

41.0 , 4124.1025641 , 4123.58974359 , 4127.69230769 , 4126.15384615 , 4124.1025641 , 4121.02564103 , 4121.53846154 , 4130.25641026 , 4125.64102564 , 4131.79487179 , 4178.97435897 , 4902.56410256 , 4122.05128205 , 4130.76923077 , 2050.0 , 2030.0 , 95.836 , 0.0 , 0.0 , 0.0 , 0.0 , 

42.0 , 4124.61538462 , 4128.71794872 , 4125.64102564 , 4125.12820513 , 4123.58974359 , 4124.61538462 , 4121.53846154 , 4127.69230769 , 4126.15384615 , 4131.79487179 , 4181.53846154 , 4905.12820513 , 4126.66666667 , 4131.28205128 , 2047.0 , 2032.0 , 95.841 , 0.0 , 0.0 , 0.0 , 0.0 , 

43.0 , 4125.12820513 , 4123.07692308 , 4129.23076923 , 4124.1025641 , 4122.05128205 , 4122.05128205 , 4114.87179487 , 4118.97435897 , 4127.17948718 , 4133.33333333 , 4181.02564103 , 4907.17948718 , 4124.1025641 , 4131.28205128 , 2048.0 , 2034.0 , 95.849 , 0.0 , 0.0 , 0.0 , 0.0 , 

44.0 , 4128.20512821 , 4121.02564103 , 4127.17948718 , 4128.71794872 , 4125.64102564 , 4123.07692308 , 4117.94871795 , 4120.0 , 4123.07692308 , 4132.82051282 , 4180.0 , 4905.12820513 , 4122.56410256 , 4130.76923077 , 2048.0 , 2034.0 , 95.858 , 0.0 , 0.0 , 0.0 , 0.0 , 

45.0 , 4126.15384615 , 4122.05128205 , 4126.66666667 , 4124.1025641 , 4125.64102564 , 4121.02564103 , 4120.0 , 4120.0 , 4120.51282051 , 4128.71794872 , 4181.02564103 , 4907.17948718 , 4123.58974359 , 4130.25641026 , 2046.0 , 2037.0 , 95.869 , 0.0 , 0.0 , 0.0 , 0.0 , 

46.0 , 4121.02564103 , 4124.61538462 , 4126.15384615 , 4123.07692308 , 4123.58974359 , 4119.48717949 , 4118.46153846 , 4120.0 , 4125.12820513 , 4130.25641026 , 4184.61538462 , 4907.17948718 , 4124.61538462 , 4131.28205128 , 2046.0 , 2039.0 , 95.873 , 0.0 , 0.0 , 0.0 , 0.0 , 

47.0 , 4118.97435897 , 4121.02564103 , 4126.15384615 , 4128.20512821 , 4122.56410256 , 4120.0 , 4117.43589744 , 4123.58974359 , 4128.71794872 , 4133.84615385 , 4186.66666667 , 4904.1025641 , 4124.1025641 , 4131.79487179 , 2047.0 , 2038.0 , 95.882 , 0.0 , 0.0 , 0.0 , 0.0 , 

48.0 , 4125.64102564 , 4123.07692308 , 4127.17948718 , 4126.66666667 , 4122.05128205 , 4119.48717949 , 4118.97435897 , 4125.12820513 , 4124.61538462 , 4131.79487179 , 4185.12820513 , 4902.56410256 , 4125.64102564 , 4132.82051282 , 2046.0 , 2038.0 , 95.89 , 0.0 , 0.0 , 0.0 , 0.0 , 

49.0 , 4125.64102564 , 4125.64102564 , 4124.61538462 , 4124.1025641 , 4120.0 , 4117.94871795 , 4118.46153846 , 4132.30769231 , 4133.33333333 , 4130.25641026 , 4182.05128205 , 4902.56410256 , 4130.76923077 , 4131.79487179 , 2046.0 , 2037.0 , 95.901 , 0.0 , 0.0 , 0.0 , 0.0 , 

50.0 , 4124.1025641 , 4122.05128205 , 4128.20512821 , 4124.61538462 , 4123.07692308 , 4116.41025641 , 4115.8974359 , 4126.15384615 , 4131.79487179 , 4132.30769231 , 4180.51282051 , 4904.1025641 , 4124.1025641 , 4130.76923077 , 2044.0 , 2036.0 , 95.904 , 0.0 , 0.0 , 0.0 , 0.0 , 

51.0 , 4122.56410256 , 4123.58974359 , 4127.17948718 , 4127.17948718 , 4123.58974359 , 4124.1025641 , 4122.56410256 , 4130.76923077 , 4132.82051282 , 4133.84615385 , 4185.64102564 , 4903.58974359 , 4129.74358974 , 4131.79487179 , 2043.0 , 2036.0 , 95.913 , 0.0 , 0.0 , 0.0 , 0.0 , 

52.0 , 4126.15384615 , 4124.1025641 , 4128.71794872 , 4122.56410256 , 4120.51282051 , 4123.58974359 , 4120.0 , 4124.61538462 , 4125.12820513 , 4130.25641026 , 4182.05128205 , 4904.1025641 , 4124.1025641 , 4132.30769231 , 2042.0 , 2036.0 , 95.921 , 0.0 , 0.0 , 0.0 , 0.0 , 

53.0 , 4125.12820513 , 4124.61538462 , 4125.64102564 , 4126.15384615 , 4122.05128205 , 4124.1025641 , 4123.58974359 , 4129.23076923 , 4126.66666667 , 4131.28205128 , 4180.0 , 4903.58974359 , 4125.12820513 , 4131.28205128 , 2042.0 , 2037.0 , 95.932 , 0.0 , 0.0 , 0.0 , 0.0 , 

54.0 , 4123.58974359 , 4122.56410256 , 4131.79487179 , 4124.1025641 , 4126.66666667 , 4120.51282051 , 4121.53846154 , 4116.41025641 , 4120.0 , 4132.82051282 , 4178.97435897 , 4906.66666667 , 4119.48717949 , 4130.25641026 , 2040.0 , 2036.0 , 95.936 , 0.0 , 0.0 , 0.0 , 0.0 , 

55.0 , 4120.51282051 , 4128.20512821 , 4127.17948718 , 4127.17948718 , 4123.58974359 , 4124.1025641 , 4124.1025641 , 4123.07692308 , 4128.71794872 , 4134.35897436 , 4185.12820513 , 4904.1025641 , 4126.15384615 , 4130.76923077 , 2039.0 , 2035.0 , 95.943 , 0.0 , 0.0 , 0.0 , 0.0 , 

56.0 , 4123.07692308 , 4122.05128205 , 4128.71794872 , 4126.15384615 , 4121.02564103 , 4121.02564103 , 4116.41025641 , 4118.46153846 , 4121.02564103 , 4129.74358974 , 4182.56410256 , 4904.61538462 , 4117.43589744 , 4131.79487179 , 2040.0 , 2034.0 , 95.953 , 0.0 , 0.0 , 0.0 , 0.0 , 

57.0 , 4123.58974359 , 4122.56410256 , 4125.12820513 , 4130.76923077 , 4125.64102564 , 4124.1025641 , 4124.61538462 , 4126.15384615 , 4121.02564103 , 4130.25641026 , 4184.1025641 , 4903.58974359 , 4126.66666667 , 4132.30769231 , 2039.0 , 2034.0 , 95.964 , 0.0 , 0.0 , 0.0 , 0.0 , 

58.0 , 4122.05128205 , 4123.07692308 , 4125.64102564 , 4123.58974359 , 4125.64102564 , 4122.56410256 , 4122.05128205 , 4117.43589744 , 4118.97435897 , 4130.76923077 , 4183.58974359 , 4904.61538462 , 4127.69230769 , 4130.76923077 , 2039.0 , 2034.0 , 95.967 , 0.0 , 0.0 , 0.0 , 0.0 , 

59.0 , 4122.56410256 , 4128.20512821 , 4121.02564103 , 4126.15384615 , 4123.07692308 , 4122.05128205 , 4120.0 , 4124.61538462 , 4124.1025641 , 4132.30769231 , 4186.66666667 , 4902.05128205 , 4130.76923077 , 4130.76923077 , 2039.0 , 2035.0 , 95.975 , 0.0 , 0.0 , 0.0 , 0.0 , 

60.0 , 4124.61538462 , 4123.07692308 , 4125.12820513 , 4124.1025641 , 4124.61538462 , 4117.94871795 , 4115.38461538 , 4125.12820513 , 4121.02564103 , 4131.28205128 , 4183.58974359 , 4903.58974359 , 4123.58974359 , 4132.82051282 , 2040.0 , 2035.0 , 95.983 , 0.0 , 0.0 , 0.0 , 0.0 , 

61.0 , 4124.61538462 , 4123.58974359 , 4125.64102564 , 4125.64102564 , 4125.64102564 , 4120.51282051 , 4121.02564103 , 4129.74358974 , 4128.71794872 , 4132.82051282 , 4184.61538462 , 4903.07692308 , 4128.20512821 , 4133.84615385 , 2041.0 , 2034.0 , 95.994 , 0.0 , 0.0 , 0.0 , 0.0 , 

62.0 , 4124.61538462 , 4123.07692308 , 4129.74358974 , 4123.07692308 , 4122.56410256 , 4120.51282051 , 4116.41025641 , 4121.53846154 , 4131.28205128 , 4133.33333333 , 4184.61538462 , 4904.61538462 , 4125.64102564 , 4132.82051282 , 2041.0 , 2034.0 , 95.999 , 0.0 , 0.0 , 0.0 , 0.0 , 

63.0 , 4125.12820513 , 4125.12820513 , 4129.74358974 , 4124.61538462 , 4124.1025641 , 4123.07692308 , 4118.46153846 , 4124.1025641 , 4128.71794872 , 4135.38461538 , 4185.12820513 , 4904.1025641 , 4120.51282051 , 4130.76923077 , 2042.0 , 2033.0 , 96.006 , 0.0 , 0.0 , 0.0 , 0.0 , 

64.0 , 4123.07692308 , 4122.56410256 , 4129.23076923 , 4122.56410256 , 4123.07692308 , 4121.53846154 , 4121.02564103 , 4129.74358974 , 4127.69230769 , 4135.8974359 , 4184.1025641 , 4903.07692308 , 4118.46153846 , 4130.25641026 , 2041.0 , 2034.0 , 96.014 , 0.0 , 0.0 , 0.0 , 0.0 , 

65.0 , 4125.12820513 , 4123.07692308 , 4130.25641026 , 4124.61538462 , 4122.05128205 , 4121.53846154 , 4120.51282051 , 4127.17948718 , 4127.69230769 , 4134.87179487 , 4182.05128205 , 4900.51282051 , 4122.56410256 , 4130.76923077 , 2042.0 , 2034.0 , 96.024 , 0.0 , 0.0 , 0.0 , 0.0 , 

66.0 , 4125.64102564 , 4123.58974359 , 4129.74358974 , 4128.71794872 , 4124.1025641 , 4124.1025641 , 4121.53846154 , 4124.61538462 , 4129.23076923 , 4133.33333333 , 4180.0 , 4902.56410256 , 4126.15384615 , 4130.76923077 , 2044.0 , 2035.0 , 96.031 , 0.0 , 0.0 , 0.0 , 0.0 , 

67.0 , 4127.17948718 , 4122.56410256 , 4127.69230769 , 4126.15384615 , 4126.66666667 , 4122.56410256 , 4121.53846154 , 4120.51282051 , 4124.61538462 , 4133.33333333 , 4181.02564103 , 4907.69230769 , 4121.02564103 , 4131.79487179 , 2044.0 , 2034.0 , 96.039 , 0.0 , 0.0 , 0.0 , 0.0 , 

68.0 , 4124.61538462 , 4124.61538462 , 4125.12820513 , 4127.17948718 , 4124.1025641 , 4121.02564103 , 4121.02564103 , 4126.66666667 , 4127.17948718 , 4133.84615385 , 4185.12820513 , 4905.12820513 , 4127.69230769 , 4133.84615385 , 2043.0 , 2035.0 , 96.047 , 0.0 , 0.0 , 0.0 , 0.0 , 

69.0 , 4125.12820513 , 4126.15384615 , 4126.66666667 , 4127.17948718 , 4125.64102564 , 4120.51282051 , 4119.48717949 , 4120.51282051 , 4122.56410256 , 4133.33333333 , 4182.05128205 , 4902.56410256 , 4129.23076923 , 4133.33333333 , 2043.0 , 2032.0 , 96.058 , 0.0 , 0.0 , 0.0 , 0.0 , 

70.0 , 4123.58974359 , 4125.64102564 , 4122.05128205 , 4127.69230769 , 4125.64102564 , 4123.58974359 , 4123.58974359 , 4125.12820513 , 4128.20512821 , 4133.33333333 , 4183.58974359 , 4905.12820513 , 4131.79487179 , 4131.79487179 , 2042.0 , 2033.0 , 96.064 , 0.0 , 0.0 , 0.0 , 0.0 , 

71.0 , 4125.12820513 , 4120.0 , 4126.15384615 , 4124.1025641 , 4123.58974359 , 4120.0 , 4114.87179487 , 4116.92307692 , 4121.53846154 , 4131.79487179 , 4183.58974359 , 4907.69230769 , 4121.53846154 , 4133.33333333 , 2044.0 , 2034.0 , 96.071 , 0.0 , 0.0 , 0.0 , 0.0 , 

72.0 , 4123.58974359 , 4124.61538462 , 4126.66666667 , 4128.71794872 , 4123.07692308 , 4123.58974359 , 4117.43589744 , 4125.12820513 , 4124.1025641 , 4133.84615385 , 4185.12820513 , 4901.02564103 , 4126.15384615 , 4133.84615385 , 2045.0 , 2034.0 , 96.079 , 0.0 , 0.0 , 0.0 , 0.0 , 

73.0 , 4124.61538462 , 4121.02564103 , 4129.23076923 , 4126.15384615 , 4123.58974359 , 4119.48717949 , 4115.38461538 , 4117.43589744 , 4117.43589744 , 4133.84615385 , 4181.02564103 , 4905.12820513 , 4122.56410256 , 4132.82051282 , 2046.0 , 2033.0 , 96.089 , 0.0 , 0.0 , 0.0 , 0.0 , 

74.0 , 4123.58974359 , 4121.53846154 , 4122.05128205 , 4128.71794872 , 4122.56410256 , 4121.02564103 , 4118.46153846 , 4125.12820513 , 4126.15384615 , 4133.84615385 , 4186.15384615 , 4908.20512821 , 4131.28205128 , 4131.28205128 , 2046.0 , 2031.0 , 96.093 , 0.0 , 0.0 , 0.0 , 0.0 , 

75.0 , 4124.1025641 , 4121.53846154 , 4126.66666667 , 4124.61538462 , 4122.05128205 , 4120.0 , 4114.35897436 , 4121.53846154 , 4127.17948718 , 4133.33333333 , 4185.12820513 , 4904.61538462 , 4126.15384615 , 4130.25641026 , 2046.0 , 2032.0 , 96.102 , 0.0 , 0.0 , 0.0 , 0.0 , 

76.0 , 4122.56410256 , 4124.61538462 , 4125.64102564 , 4127.69230769 , 4124.1025641 , 4123.58974359 , 4121.02564103 , 4130.25641026 , 4132.82051282 , 4133.84615385 , 4185.64102564 , 4898.97435897 , 4130.25641026 , 4131.28205128 , 2045.0 , 2032.0 , 96.11 , 0.0 , 0.0 , 0.0 , 0.0 , 

77.0 , 4123.58974359 , 4118.46153846 , 4128.71794872 , 4123.07692308 , 4124.1025641 , 4120.51282051 , 4120.0 , 4122.56410256 , 4127.17948718 , 4131.28205128 , 4182.05128205 , 4905.12820513 , 4124.1025641 , 4131.28205128 , 2044.0 , 2033.0 , 96.12 , 0.0 , 0.0 , 0.0 , 0.0 , 

78.0 , 4125.12820513 , 4124.61538462 , 4127.17948718 , 4125.12820513 , 4122.05128205 , 4125.12820513 , 4126.66666667 , 4128.20512821 , 4131.28205128 , 4132.82051282 , 4183.58974359 , 4904.1025641 , 4126.15384615 , 4130.25641026 , 2045.0 , 2034.0 , 96.125 , 0.0 , 0.0 , 0.0 , 0.0 , 

79.0 , 4125.12820513 , 4126.15384615 , 4130.76923077 , 4126.15384615 , 4121.53846154 , 4124.61538462 , 4124.1025641 , 4123.07692308 , 4128.71794872 , 4134.35897436 , 4181.02564103 , 4902.56410256 , 4120.0 , 4130.76923077 , 2045.0 , 2034.0 , 96.134 , 0.0 , 0.0 , 0.0 , 0.0 , 

80.0 , 4124.61538462 , 4124.61538462 , 4127.17948718 , 4131.28205128 , 4126.15384615 , 4123.58974359 , 4120.51282051 , 4120.51282051 , 4127.17948718 , 4133.84615385 , 4183.07692308 , 4902.05128205 , 4124.1025641 , 4132.82051282 , 2046.0 , 2032.0 , 96.142 , 0.0 , 0.0 , 0.0 , 0.0 , 

81.0 , 4122.05128205 , 4119.48717949 , 4125.12820513 , 4127.69230769 , 4125.12820513 , 4120.51282051 , 4114.35897436 , 4117.94871795 , 4127.17948718 , 4131.28205128 , 4183.58974359 , 4903.07692308 , 4123.07692308 , 4131.79487179 , 2045.0 , 2033.0 , 96.153 , 0.0 , 0.0 , 0.0 , 0.0 , 

82.0 , 4123.07692308 , 4121.53846154 , 4124.61538462 , 4126.66666667 , 4123.58974359 , 4121.53846154 , 4120.51282051 , 4121.53846154 , 4127.17948718 , 4131.79487179 , 4183.07692308 , 4903.07692308 , 4120.51282051 , 4132.30769231 , 2046.0 , 2034.0 , 96.156 , 0.0 , 0.0 , 0.0 , 0.0 , 

83.0 , 4124.1025641 , 4120.0 , 4124.61538462 , 4126.66666667 , 4123.07692308 , 4121.02564103 , 4123.07692308 , 4121.02564103 , 4123.58974359 , 4130.76923077 , 4180.51282051 , 4905.64102564 , 4125.12820513 , 4133.33333333 , 2044.0 , 2033.0 , 96.165 , 0.0 , 0.0 , 0.0 , 0.0 , 

84.0 , 4124.61538462 , 4121.02564103 , 4125.64102564 , 4126.15384615 , 4122.05128205 , 4121.53846154 , 4118.97435897 , 4118.46153846 , 4120.51282051 , 4131.79487179 , 4182.56410256 , 4905.64102564 , 4130.25641026 , 4132.30769231 , 2044.0 , 2034.0 , 96.173 , 0.0 , 0.0 , 0.0 , 0.0 , 

85.0 , 4123.07692308 , 4124.61538462 , 4123.58974359 , 4126.15384615 , 4121.02564103 , 4123.58974359 , 4116.92307692 , 4123.07692308 , 4125.12820513 , 4133.33333333 , 4185.64102564 , 4902.56410256 , 4131.28205128 , 4131.79487179 , 2043.0 , 2033.0 , 96.184 , 0.0 , 0.0 , 0.0 , 0.0 , 

86.0 , 4126.15384615 , 4124.61538462 , 4123.07692308 , 4126.66666667 , 4123.58974359 , 4120.51282051 , 4115.38461538 , 4118.97435897 , 4125.64102564 , 4130.25641026 , 4183.07692308 , 4903.58974359 , 4125.64102564 , 4134.35897436 , 2043.0 , 2033.0 , 96.189 , 0.0 , 0.0 , 0.0 , 0.0 , 

87.0 , 4122.56410256 , 4125.12820513 , 4124.61538462 , 4129.23076923 , 4124.1025641 , 4121.02564103 , 4117.94871795 , 4128.20512821 , 4132.82051282 , 4131.28205128 , 4184.1025641 , 4903.58974359 , 4129.23076923 , 4133.33333333 , 2043.0 , 2032.0 , 96.197 , 0.0 , 0.0 , 0.0 , 0.0 , 

88.0 , 4122.56410256 , 4122.56410256 , 4131.28205128 , 4123.58974359 , 4123.58974359 , 4120.0 , 4116.41025641 , 4125.64102564 , 4124.61538462 , 4133.84615385 , 4183.07692308 , 4903.07692308 , 4123.58974359 , 4130.25641026 , 2044.0 , 2032.0 , 96.205 , 0.0 , 0.0 , 0.0 , 0.0 , 

89.0 , 4124.1025641 , 4121.02564103 , 4125.64102564 , 4123.58974359 , 4123.58974359 , 4120.0 , 4123.07692308 , 4130.25641026 , 4125.64102564 , 4133.33333333 , 4182.05128205 , 4900.51282051 , 4127.17948718 , 4129.74358974 , 2043.0 , 2031.0 , 96.215 , 0.0 , 0.0 , 0.0 , 0.0 , 

90.0 , 4125.64102564 , 4117.43589744 , 4127.17948718 , 4123.07692308 , 4124.1025641 , 4116.92307692 , 4117.94871795 , 4121.02564103 , 4123.58974359 , 4131.28205128 , 4178.97435897 , 4902.56410256 , 4119.48717949 , 4131.79487179 , 2042.0 , 2033.0 , 96.219 , 0.0 , 0.0 , 0.0 , 0.0 , 

91.0 , 4123.07692308 , 4124.61538462 , 4128.20512821 , 4126.15384615 , 4125.64102564 , 4123.58974359 , 4121.02564103 , 4128.71794872 , 4131.28205128 , 4133.33333333 , 4183.58974359 , 4902.05128205 , 4123.07692308 , 4131.28205128 , 2042.0 , 2032.0 , 96.228 , 0.0 , 0.0 , 0.0 , 0.0 , 

92.0 , 4125.12820513 , 4124.61538462 , 4131.28205128 , 4121.53846154 , 4126.66666667 , 4120.51282051 , 4118.97435897 , 4120.51282051 , 4122.56410256 , 4131.28205128 , 4180.0 , 4903.58974359 , 4119.48717949 , 4131.79487179 , 2041.0 , 2033.0 , 96.236 , 0.0 , 0.0 , 0.0 , 0.0 , 

93.0 , 4126.66666667 , 4126.66666667 , 4125.12820513 , 4127.69230769 , 4124.1025641 , 4123.58974359 , 4122.56410256 , 4127.69230769 , 4126.66666667 , 4134.35897436 , 4182.56410256 , 4902.05128205 , 4126.66666667 , 4134.87179487 , 2042.0 , 2033.0 , 96.247 , 0.0 , 0.0 , 0.0 , 0.0 , 

94.0 , 4127.69230769 , 4125.64102564 , 4130.25641026 , 4127.17948718 , 4124.1025641 , 4123.58974359 , 4118.97435897 , 4118.46153846 , 4123.58974359 , 4134.87179487 , 4181.53846154 , 4905.64102564 , 4119.48717949 , 4132.82051282 , 2042.0 , 2032.0 , 96.251 , 0.0 , 0.0 , 0.0 , 0.0 , 

95.0 , 4123.58974359 , 4129.23076923 , 4125.64102564 , 4128.20512821 , 4125.64102564 , 4125.64102564 , 4126.66666667 , 4123.07692308 , 4128.20512821 , 4133.33333333 , 4184.1025641 , 4904.61538462 , 4128.20512821 , 4129.74358974 , 2042.0 , 2033.0 , 96.259 , 0.0 , 0.0 , 0.0 , 0.0 , 

96.0 , 4123.07692308 , 4122.56410256 , 4123.58974359 , 4124.61538462 , 4124.61538462 , 4118.46153846 , 4119.48717949 , 4118.46153846 , 4123.07692308 , 4132.30769231 , 4183.07692308 , 4904.61538462 , 4128.20512821 , 4133.33333333 , 2042.0 , 2035.0 , 96.267 , 0.0 , 0.0 , 0.0 , 0.0 , 

97.0 , 4126.66666667 , 4125.12820513 , 4121.53846154 , 4130.76923077 , 4124.1025641 , 4122.05128205 , 4117.43589744 , 4124.1025641 , 4122.05128205 , 4132.30769231 , 4187.17948718 , 4903.07692308 , 4130.76923077 , 4137.43589744 , 2042.0 , 2034.0 , 96.278 , 0.0 , 0.0 , 0.0 , 0.0 , 

98.0 , 4124.61538462 , 4125.64102564 , 4126.66666667 , 4127.69230769 , 4124.1025641 , 4122.05128205 , 4116.92307692 , 4118.46153846 , 4116.92307692 , 4129.74358974 , 4185.12820513 , 4905.12820513 , 4127.17948718 , 4134.87179487 , 2043.0 , 2034.0 , 96.282 , 0.0 , 0.0 , 0.0 , 0.0 , 

99.0 , 4121.02564103 , 4124.1025641 , 4125.12820513 , 4125.64102564 , 4124.61538462 , 4121.02564103 , 4120.0 , 4120.0 , 4121.53846154 , 4132.82051282 , 4184.61538462 , 4903.07692308 , 4130.25641026 , 4132.30769231 , 2043.0 , 2032.0 , 96.291 , 0.0 , 0.0 , 0.0 , 0.0 , 

100.0 , 4123.07692308 , 4117.43589744 , 4126.66666667 , 4124.61538462 , 4123.07692308 , 4117.43589744 , 4113.84615385 , 4124.1025641 , 4128.20512821 , 4133.33333333 , 4183.58974359 , 4901.53846154 , 4125.64102564 , 4133.33333333 , 2043.0 , 2033.0 , 96.298 , 0.0 , 0.0 , 0.0 , 0.0 , 

101.0 , 4128.20512821 , 4120.0 , 4128.20512821 , 4126.15384615 , 4123.58974359 , 4118.97435897 , 4114.35897436 , 4127.69230769 , 4130.76923077 , 4131.79487179 , 4185.12820513 , 4900.51282051 , 4124.61538462 , 4134.35897436 , 2041.0 , 2035.0 , 96.309 , 0.0 , 0.0 , 0.0 , 0.0 , 

102.0 , 4124.61538462 , 4121.53846154 , 4127.69230769 , 4124.1025641 , 4123.07692308 , 4121.02564103 , 4117.43589744 , 4127.69230769 , 4131.28205128 , 4133.33333333 , 4186.66666667 , 4901.02564103 , 4129.23076923 , 4131.79487179 , 2041.0 , 2035.0 , 96.314 , 0.0 , 0.0 , 0.0 , 0.0 , 

103.0 , 4123.58974359 , 4121.53846154 , 4126.66666667 , 4124.61538462 , 4124.1025641 , 4125.12820513 , 4118.46153846 , 4123.07692308 , 4127.69230769 , 4133.84615385 , 4183.58974359 , 4902.05128205 , 4124.61538462 , 4129.23076923 , 2044.0 , 2036.0 , 96.323 , 0.0 , 0.0 , 0.0 , 0.0 , 

104.0 , 4124.61538462 , 4126.15384615 , 4124.61538462 , 4126.15384615 , 4123.58974359 , 4126.15384615 , 4121.02564103 , 4124.61538462 , 4127.69230769 , 4135.8974359 , 4181.53846154 , 4902.56410256 , 4123.58974359 , 4129.74358974 , 2043.0 , 2038.0 , 96.331 , 0.0 , 0.0 , 0.0 , 0.0 , 

105.0 , 4126.66666667 , 4128.20512821 , 4126.66666667 , 4124.1025641 , 4124.61538462 , 4121.53846154 , 4120.0 , 4120.0 , 4123.07692308 , 4136.92307692 , 4182.05128205 , 4903.07692308 , 4120.51282051 , 4132.30769231 , 2044.0 , 2036.0 , 96.342 , 0.0 , 0.0 , 0.0 , 0.0 , 

106.0 , 4123.07692308 , 4128.71794872 , 4126.66666667 , 4129.23076923 , 4124.61538462 , 4125.64102564 , 4124.61538462 , 4130.25641026 , 4130.25641026 , 4133.33333333 , 4183.58974359 , 4903.07692308 , 4127.69230769 , 4132.82051282 , 2044.0 , 2037.0 , 96.346 , 0.0 , 0.0 , 0.0 , 0.0 , 

107.0 , 4126.15384615 , 4126.15384615 , 4129.23076923 , 4128.20512821 , 4125.64102564 , 4123.58974359 , 4121.02564103 , 4120.0 , 4124.61538462 , 4130.76923077 , 4178.97435897 , 4906.66666667 , 4125.12820513 , 4132.30769231 , 2045.0 , 2037.0 , 96.354 , 0.0 , 0.0 , 0.0 , 0.0 , 

108.0 , 4126.66666667 , 4127.17948718 , 4122.56410256 , 4128.71794872 , 4124.61538462 , 4123.58974359 , 4122.56410256 , 4118.46153846 , 4125.12820513 , 4133.84615385 , 4184.1025641 , 4906.15384615 , 4132.30769231 , 4130.76923077 , 2045.0 , 2035.0 , 96.362 , 0.0 , 0.0 , 0.0 , 0.0 , 

109.0 , 4126.66666667 , 4121.53846154 , 4126.66666667 , 4126.66666667 , 4124.61538462 , 4121.02564103 , 4116.41025641 , 4111.28205128 , 4117.43589744 , 4131.28205128 , 4184.61538462 , 4906.15384615 , 4124.1025641 , 4131.28205128 , 2046.0 , 2036.0 , 96.373 , 0.0 , 0.0 , 0.0 , 0.0 , 

110.0 , 4123.07692308 , 4121.02564103 , 4125.64102564 , 4129.74358974 , 4124.61538462 , 4123.07692308 , 4118.46153846 , 4124.61538462 , 4123.07692308 , 4128.20512821 , 4185.12820513 , 4904.61538462 , 4129.74358974 , 4133.84615385 , 2047.0 , 2036.0 , 96.378 , 0.0 , 0.0 , 0.0 , 0.0 , 

111.0 , 4124.1025641 , 4119.48717949 , 4127.69230769 , 4125.12820513 , 4123.58974359 , 4116.92307692 , 4111.79487179 , 4118.97435897 , 4117.94871795 , 4129.23076923 , 4182.05128205 , 4906.15384615 , 4126.15384615 , 4132.82051282 , 2045.0 , 2036.0 , 96.386 , 0.0 , 0.0 , 0.0 , 0.0 , 

112.0 , 4123.07692308 , 4125.12820513 , 4121.53846154 , 4131.79487179 , 4123.07692308 , 4120.51282051 , 4117.94871795 , 4125.64102564 , 4125.12820513 , 4133.33333333 , 4185.64102564 , 4901.02564103 , 4130.76923077 , 4130.25641026 , 2047.0 , 2036.0 , 96.395 , 0.0 , 0.0 , 0.0 , 0.0 , 

113.0 , 4121.53846154 , 4122.56410256 , 4127.69230769 , 4128.20512821 , 4124.1025641 , 4119.48717949 , 4115.38461538 , 4121.53846154 , 4125.64102564 , 4130.25641026 , 4183.07692308 , 4900.51282051 , 4124.61538462 , 4131.28205128 , 2048.0 , 2034.0 , 96.405 , 0.0 , 0.0 , 0.0 , 0.0 , 

114.0 , 4122.56410256 , 4124.61538462 , 4127.69230769 , 4126.15384615 , 4123.58974359 , 4123.07692308 , 4118.97435897 , 4132.30769231 , 4131.79487179 , 4132.30769231 , 4184.61538462 , 4900.51282051 , 4130.25641026 , 4132.30769231 , 2047.0 , 2032.0 , 96.409 , 0.0 , 0.0 , 0.0 , 0.0 , 

115.0 , 4125.12820513 , 4122.05128205 , 4128.71794872 , 4124.1025641 , 4124.1025641 , 4121.02564103 , 4118.97435897 , 4127.69230769 , 4130.25641026 , 4135.38461538 , 4183.58974359 , 4904.61538462 , 4123.07692308 , 4129.74358974 , 2046.0 , 2032.0 , 96.417 , 0.0 , 0.0 , 0.0 , 0.0 , 

116.0 , 4124.1025641 , 4123.07692308 , 4124.61538462 , 4128.20512821 , 4124.61538462 , 4123.58974359 , 4125.64102564 , 4127.17948718 , 4132.82051282 , 4137.43589744 , 4184.61538462 , 4903.07692308 , 4123.07692308 , 4129.74358974 , 2046.0 , 2030.0 , 96.425 , 0.0 , 0.0 , 0.0 , 0.0 , 

117.0 , 4120.51282051 , 4120.0 , 4128.71794872 , 4122.56410256 , 4123.07692308 , 4121.02564103 , 4121.02564103 , 4120.51282051 , 4128.20512821 , 4135.38461538 , 4181.53846154 , 4901.02564103 , 4122.56410256 , 4130.76923077 , 2045.0 , 2034.0 , 96.436 , 0.0 , 0.0 , 0.0 , 0.0 , 

118.0 , 4122.56410256 , 4123.07692308 , 4128.71794872 , 4123.07692308 , 4124.61538462 , 4122.05128205 , 4120.0 , 4120.0 , 4125.12820513 , 4135.38461538 , 4182.05128205 , 4901.53846154 , 4124.61538462 , 4129.74358974 , 2044.0 , 2035.0 , 96.44 , 0.0 , 0.0 , 0.0 , 0.0 , 

119.0 , 4125.12820513 , 4121.53846154 , 4127.17948718 , 4126.15384615 , 4126.15384615 , 4122.05128205 , 4119.48717949 , 4115.8974359 , 4123.07692308 , 4134.87179487 , 4182.56410256 , 4906.15384615 , 4120.51282051 , 4128.71794872 , 2042.0 , 2038.0 , 96.448 , 0.0 , 0.0 , 0.0 , 0.0 , 

120.0 , 4125.12820513 , 4123.58974359 , 4126.66666667 , 4128.20512821 , 4125.64102564 , 4124.61538462 , 4121.02564103 , 4116.41025641 , 4122.05128205 , 4133.33333333 , 4182.05128205 , 4904.1025641 , 4121.53846154 , 4130.76923077 , 2043.0 , 2037.0 , 96.457 , 0.0 , 0.0 , 0.0 , 0.0 , 

121.0 , 4120.51282051 , 4125.12820513 , 4126.15384615 , 4128.20512821 , 4123.58974359 , 4124.61538462 , 4121.53846154 , 4122.05128205 , 4123.07692308 , 4131.79487179 , 4183.07692308 , 4901.53846154 , 4128.71794872 , 4132.30769231 , 2044.0 , 2038.0 , 96.468 , 0.0 , 0.0 , 0.0 , 0.0 , 

122.0 , 4122.56410256 , 4123.58974359 , 4127.69230769 , 4128.71794872 , 4126.15384615 , 4122.05128205 , 4121.02564103 , 4118.46153846 , 4118.97435897 , 4129.74358974 , 4184.61538462 , 4908.71794872 , 4127.69230769 , 4132.82051282 , 2044.0 , 2037.0 , 96.472 , 0.0 , 0.0 , 0.0 , 0.0 , 

123.0 , 4123.58974359 , 4121.02564103 , 4125.12820513 , 4130.76923077 , 4125.64102564 , 4123.07692308 , 4120.51282051 , 4124.1025641 , 4125.12820513 , 4129.23076923 , 4186.15384615 , 4909.23076923 , 4129.23076923 , 4133.33333333 , 2044.0 , 2035.0 , 96.481 , 0.0 , 0.0 , 0.0 , 0.0 , 

124.0 , 4126.15384615 , 4119.48717949 , 4127.69230769 , 4124.61538462 , 4124.61538462 , 4118.97435897 , 4118.46153846 , 4123.58974359 , 4125.64102564 , 4130.25641026 , 4186.15384615 , 4902.05128205 , 4125.64102564 , 4133.33333333 , 2043.0 , 2034.0 , 96.487 , 0.0 , 0.0 , 0.0 , 0.0 , 

125.0 , 4123.58974359 , 4124.61538462 , 4125.64102564 , 4124.61538462 , 4123.58974359 , 4116.92307692 , 4121.02564103 , 4134.35897436 , 4130.76923077 , 4131.79487179 , 4188.20512821 , 4900.51282051 , 4131.28205128 , 4133.33333333 , 2043.0 , 2034.0 , 96.498 , 0.0 , 0.0 , 0.0 , 0.0 , 

126.0 , 4123.07692308 , 4122.05128205 , 4126.66666667 , 4124.1025641 , 4123.58974359 , 4115.38461538 , 4115.8974359 , 4130.25641026 , 4124.1025641 , 4131.79487179 , 4184.1025641 , 4905.12820513 , 4124.1025641 , 4133.33333333 , 2042.0 , 2035.0 , 96.504 , 0.0 , 0.0 , 0.0 , 0.0 , 

127.0 , 4122.56410256 , 4118.97435897 , 4122.05128205 , 4125.64102564 , 4123.07692308 , 4122.56410256 , 4121.02564103 , 4136.41025641 , 4130.76923077 , 4136.41025641 , 4184.1025641 , 4903.58974359 , 4126.66666667 , 4132.30769231 , 2041.0 , 2035.0 , 96.513 , 0.0 , 0.0 , 0.0 , 0.0 , 

128.0 , 4125.12820513 , 4117.43589744 , 4128.20512821 , 4121.53846154 , 4124.1025641 , 4121.53846154 , 4118.97435897 , 4126.15384615 , 4126.15384615 , 4137.43589744 , 4181.02564103 , 4905.12820513 , 4117.94871795 , 4130.25641026 , 2040.0 , 2035.0 , 96.519 , 0.0 , 0.0 , 0.0 , 0.0 , 

0.0 , 4123.07692308 , 4126.15384615 , 4126.15384615 , 4124.1025641 , 4125.64102564 , 4125.12820513 , 4124.61538462 , 4132.30769231 , 4129.74358974 , 4134.35897436 , 4185.64102564 , 4902.05128205 , 4123.58974359 , 4130.76923077 , 2039.0 , 2036.0 , 96.53 , 0.0 , 0.0 , 0.0 , 0.0 , 

1.0 , 4122.56410256 , 4122.05128205 , 4128.20512821 , 4118.46153846 , 4124.61538462 , 4123.58974359 , 4125.12820513 , 4126.15384615 , 4124.61538462 , 4129.74358974 , 4183.58974359 , 4903.58974359 , 4119.48717949 , 4131.79487179 , 2038.0 , 2036.0 , 96.535 , 0.0 , 0.0 , 0.0 , 0.0 , 

2.0 , 4123.58974359 , 4121.53846154 , 4125.64102564 , 4125.12820513 , 4122.05128205 , 4126.66666667 , 4130.76923077 , 4134.35897436 , 4133.84615385 , 4131.28205128 , 4182.56410256 , 4904.61538462 , 4124.61538462 , 4132.82051282 , 2041.0 , 2034.0 , 96.544 , 0.0 , 0.0 , 0.0 , 0.0 , 

3.0 , 4126.66666667 , 4122.05128205 , 4129.23076923 , 4126.15384615 , 4122.56410256 , 4122.05128205 , 4121.53846154 , 4123.07692308 , 4129.23076923 , 4131.79487179 , 4179.48717949 , 4904.61538462 , 4118.46153846 , 4133.33333333 , 2041.0 , 2033.0 , 96.551 , 0.0 , 0.0 , 0.0 , 0.0 , 

4.0 , 4127.17948718 , 4125.64102564 , 4122.56410256 , 4127.17948718 , 4126.15384615 , 4123.07692308 , 4124.1025641 , 4123.58974359 , 4127.69230769 , 4134.35897436 , 4184.61538462 , 4901.02564103 , 4126.66666667 , 4133.84615385 , 2040.0 , 2033.0 , 96.562 , 0.0 , 0.0 , 0.0 , 0.0 , 

5.0 , 4123.07692308 , 4120.0 , 4123.07692308 , 4125.64102564 , 4124.1025641 , 4118.97435897 , 4121.02564103 , 4120.51282051 , 4124.61538462 , 4132.82051282 , 4182.56410256 , 4905.12820513 , 4128.20512821 , 4132.82051282 , 2041.0 , 2034.0 , 96.566 , 0.0 , 0.0 , 0.0 , 0.0 , 

6.0 , 4121.02564103 , 4125.12820513 , 4123.07692308 , 4131.79487179 , 4123.07692308 , 4121.53846154 , 4121.53846154 , 4124.61538462 , 4126.15384615 , 4132.30769231 , 4183.58974359 , 4904.1025641 , 4128.71794872 , 4133.33333333 , 2041.0 , 2034.0 , 96.575 , 0.0 , 0.0 , 0.0 , 0.0 , 

7.0 , 4124.61538462 , 4125.12820513 , 4125.64102564 , 4127.69230769 , 4123.58974359 , 4122.05128205 , 4116.92307692 , 4116.92307692 , 4120.0 , 4132.30769231 , 4184.1025641 , 4901.53846154 , 4122.56410256 , 4133.33333333 , 2042.0 , 2034.0 , 96.583 , 0.0 , 0.0 , 0.0 , 0.0 , 

8.0 , 4127.17948718 , 4123.07692308 , 4126.66666667 , 4127.17948718 , 4124.61538462 , 4120.0 , 4115.8974359 , 4118.46153846 , 4118.46153846 , 4131.79487179 , 4183.58974359 , 4904.1025641 , 4126.15384615 , 4132.82051282 , 2042.0 , 2034.0 , 96.595 , 0.0 , 0.0 , 0.0 , 0.0 , 

9.0 , 4123.58974359 , 4121.53846154 , 4129.74358974 , 4128.71794872 , 4124.1025641 , 4117.94871795 , 4115.38461538 , 4125.12820513 , 4123.07692308 , 4129.23076923 , 4182.56410256 , 4906.66666667 , 4129.74358974 , 4132.30769231 , 2042.0 , 2036.0 , 96.598 , 0.0 , 0.0 , 0.0 , 0.0 , 

10.0 , 4124.1025641 , 4124.1025641 , 4129.23076923 , 4127.17948718 , 4124.1025641 , 4120.51282051 , 4117.43589744 , 4124.61538462 , 4123.07692308 , 4129.74358974 , 4184.61538462 , 4903.07692308 , 4127.17948718 , 4131.79487179 , 2041.0 , 2038.0 , 96.607 , 0.0 , 0.0 , 0.0 , 0.0 , 

11.0 , 4124.1025641 , 4122.56410256 , 4124.1025641 , 4125.12820513 , 4122.56410256 , 4118.97435897 , 4117.94871795 , 4126.15384615 , 4128.71794872 , 4132.30769231 , 4187.17948718 , 4903.07692308 , 4126.66666667 , 4131.28205128 , 2044.0 , 2035.0 , 96.614 , 0.0 , 0.0 , 0.0 , 0.0 , 

12.0 , 4124.61538462 , 4120.51282051 , 4126.15384615 , 4124.61538462 , 4123.07692308 , 4116.41025641 , 4117.94871795 , 4122.56410256 , 4129.23076923 , 4132.30769231 , 4184.61538462 , 4903.58974359 , 4123.07692308 , 4131.79487179 , 2044.0 , 2034.0 , 96.625 , 0.0 , 0.0 , 0.0 , 0.0 , 

13.0 , 4124.1025641 , 4123.58974359 , 4127.69230769 , 4129.23076923 , 4123.58974359 , 4122.56410256 , 4125.64102564 , 4128.71794872 , 4130.25641026 , 4131.28205128 , 4184.1025641 , 4901.53846154 , 4125.12820513 , 4129.74358974 , 2045.0 , 2035.0 , 96.63 , 0.0 , 0.0 , 0.0 , 0.0 , 

14.0 , 4126.15384615 , 4122.56410256 , 4129.23076923 , 4127.17948718 , 4124.61538462 , 4123.07692308 , 4124.1025641 , 4124.1025641 , 4126.15384615 , 4131.28205128 , 4182.05128205 , 4904.61538462 , 4120.0 , 4130.25641026 , 2044.0 , 2034.0 , 96.639 , 0.0 , 0.0 , 0.0 , 0.0 , 

15.0 , 4124.1025641 , 4126.15384615 , 4124.61538462 , 4129.23076923 , 4125.12820513 , 4125.12820513 , 4123.07692308 , 4130.25641026 , 4132.30769231 , 4134.35897436 , 4182.56410256 , 4906.15384615 , 4125.64102564 , 4133.84615385 , 2045.0 , 2033.0 , 96.646 , 0.0 , 0.0 , 0.0 , 0.0 , 

16.0 , 4125.64102564 , 4126.66666667 , 4128.71794872 , 4126.66666667 , 4124.61538462 , 4124.1025641 , 4115.8974359 , 4119.48717949 , 4122.56410256 , 4132.82051282 , 4180.0 , 4905.64102564 , 4118.97435897 , 4133.33333333 , 2046.0 , 2033.0 , 96.656 , 0.0 , 0.0 , 0.0 , 0.0 , 

17.0 , 4123.58974359 , 4126.66666667 , 4123.07692308 , 4128.20512821 , 4124.1025641 , 4125.12820513 , 4121.53846154 , 4123.07692308 , 4123.07692308 , 4131.28205128 , 4184.1025641 , 4904.1025641 , 4123.58974359 , 4129.74358974 , 2047.0 , 2032.0 , 96.662 , 0.0 , 0.0 , 0.0 , 0.0 , 

18.0 , 4124.1025641 , 4120.0 , 4122.05128205 , 4125.12820513 , 4125.12820513 , 4118.46153846 , 4119.48717949 , 4117.43589744 , 4118.97435897 , 4130.76923077 , 4181.02564103 , 4907.17948718 , 4120.51282051 , 4131.28205128 , 2044.0 , 2031.0 , 96.67 , 0.0 , 0.0 , 0.0 , 0.0 , 

19.0 , 4125.12820513 , 4123.58974359 , 4121.02564103 , 4131.28205128 , 4125.64102564 , 4121.53846154 , 4123.07692308 , 4126.15384615 , 4124.1025641 , 4133.84615385 , 4183.07692308 , 4902.56410256 , 4132.30769231 , 4134.35897436 , 2045.0 , 2032.0 , 96.677 , 0.0 , 0.0 , 0.0 , 0.0 , 

20.0 , 4127.69230769 , 4121.53846154 , 4127.69230769 , 4128.20512821 , 4124.1025641 , 4118.97435897 , 4115.8974359 , 4114.87179487 , 4117.94871795 , 4130.76923077 , 4184.61538462 , 4901.53846154 , 4129.74358974 , 4132.30769231 , 2045.0 , 2033.0 , 96.688 , 0.0 , 0.0 , 0.0 , 0.0 , 

21.0 , 4125.12820513 , 4124.61538462 , 4120.51282051 , 4130.76923077 , 4123.58974359 , 4122.56410256 , 4118.97435897 , 4123.58974359 , 4126.66666667 , 4130.76923077 , 4188.20512821 , 4902.05128205 , 4133.33333333 , 4131.28205128 , 2045.0 , 2033.0 , 96.692 , 0.0 , 0.0 , 0.0 , 0.0 , 

22.0 , 4123.07692308 , 4122.05128205 , 4121.53846154 , 4125.64102564 , 4122.56410256 , 4117.94871795 , 4114.87179487 , 4124.61538462 , 4126.15384615 , 4132.82051282 , 4184.61538462 , 4905.12820513 , 4127.69230769 , 4132.82051282 , 2043.0 , 2034.0 , 96.702 , 0.0 , 0.0 , 0.0 , 0.0 , 

23.0 , 4124.61538462 , 4123.07692308 , 4123.58974359 , 4126.66666667 , 4122.56410256 , 4118.97435897 , 4118.97435897 , 4129.23076923 , 4130.25641026 , 4132.82051282 , 4187.17948718 , 4902.05128205 , 4131.28205128 , 4134.87179487 , 2045.0 , 2034.0 , 96.709 , 0.0 , 0.0 , 0.0 , 0.0 , 

24.0 , 4126.15384615 , 4121.02564103 , 4128.71794872 , 4125.12820513 , 4123.58974359 , 4120.0 , 4116.41025641 , 4121.53846154 , 4129.23076923 , 4129.23076923 , 4184.1025641 , 4903.07692308 , 4124.1025641 , 4133.33333333 , 2044.0 , 2034.0 , 96.719 , 0.0 , 0.0 , 0.0 , 0.0 , 

25.0 , 4127.69230769 , 4124.61538462 , 4127.17948718 , 4127.17948718 , 4125.12820513 , 4122.56410256 , 4118.46153846 , 4127.69230769 , 4130.76923077 , 4132.30769231 , 4182.56410256 , 4903.58974359 , 4122.05128205 , 4130.76923077 , 2046.0 , 2034.0 , 96.724 , 0.0 , 0.0 , 0.0 , 0.0 , 

26.0 , 4126.66666667 , 4121.02564103 , 4129.74358974 , 4123.07692308 , 4123.07692308 , 4120.0 , 4117.94871795 , 4126.15384615 , 4128.71794872 , 4133.33333333 , 4183.58974359 , 4904.61538462 , 4120.51282051 , 4129.74358974 , 2045.0 , 2034.0 , 96.732 , 0.0 , 0.0 , 0.0 , 0.0 , 

27.0 , 4125.12820513 , 4122.56410256 , 4129.74358974 , 4123.58974359 , 4122.56410256 , 4120.51282051 , 4120.0 , 4122.56410256 , 4126.66666667 , 4133.84615385 , 4185.12820513 , 4903.58974359 , 4123.07692308 , 4130.25641026 , 2044.0 , 2034.0 , 96.741 , 0.0 , 0.0 , 0.0 , 0.0 , 

28.0 , 4123.58974359 , 4126.66666667 , 4128.71794872 , 4126.15384615 , 4123.58974359 , 4122.05128205 , 4118.46153846 , 4123.58974359 , 4126.15384615 , 4134.87179487 , 4182.56410256 , 4905.64102564 , 4124.61538462 , 4130.76923077 , 2043.0 , 2033.0 , 96.751 , 0.0 , 0.0 , 0.0 , 0.0 , 

29.0 , 4125.12820513 , 4127.17948718 , 4128.71794872 , 4126.66666667 , 4124.61538462 , 4124.1025641 , 4117.94871795 , 4123.07692308 , 4123.58974359 , 4134.35897436 , 4181.53846154 , 4905.64102564 , 4122.56410256 , 4131.79487179 , 2043.0 , 2032.0 , 96.755 , 0.0 , 0.0 , 0.0 , 0.0 , 

30.0 , 4123.07692308 , 4123.07692308 , 4124.61538462 , 4126.66666667 , 4123.07692308 , 4126.15384615 , 4121.53846154 , 4124.61538462 , 4129.23076923 , 4133.33333333 , 4184.1025641 , 4904.61538462 , 4127.69230769 , 4132.82051282 , 2042.0 , 2032.0 , 96.764 , 0.0 , 0.0 , 0.0 , 0.0 , 

31.0 , 4124.1025641 , 4122.56410256 , 4125.12820513 , 4126.15384615 , 4124.1025641 , 4123.07692308 , 4120.0 , 4118.97435897 , 4123.07692308 , 4133.84615385 , 4183.07692308 , 4906.15384615 , 4126.66666667 , 4132.82051282 , 2043.0 , 2032.0 , 96.771 , 0.0 , 0.0 , 0.0 , 0.0 , 

32.0 , 4124.61538462 , 4127.17948718 , 4124.61538462 , 4130.76923077 , 4124.1025641 , 4125.12820513 , 4120.51282051 , 4125.12820513 , 4122.56410256 , 4132.30769231 , 4184.61538462 , 4906.15384615 , 4129.23076923 , 4131.79487179 , 2043.0 , 2032.0 , 96.783 , 0.0 , 0.0 , 0.0 , 0.0 , 

33.0 , 4125.64102564 , 4124.61538462 , 4127.17948718 , 4128.20512821 , 4124.61538462 , 4123.58974359 , 4116.41025641 , 4118.97435897 , 4120.0 , 4129.74358974 , 4183.07692308 , 4905.12820513 , 4123.58974359 , 4131.79487179 , 2042.0 , 2032.0 , 96.787 , 0.0 , 0.0 , 0.0 , 0.0 , 

34.0 , 4122.05128205 , 4124.1025641 , 4122.56410256 , 4130.25641026 , 4124.1025641 , 4122.56410256 , 4118.46153846 , 4127.69230769 , 4127.17948718 , 4133.33333333 , 4184.1025641 , 4901.02564103 , 4128.20512821 , 4132.82051282 , 2043.0 , 2031.0 , 96.796 , 0.0 , 0.0 , 0.0 , 0.0 , 

35.0 , 4123.07692308 , 4120.51282051 , 4126.15384615 , 4124.61538462 , 4123.58974359 , 4116.92307692 , 4113.84615385 , 4122.05128205 , 4118.97435897 , 4133.84615385 , 4181.53846154 , 4902.05128205 , 4120.0 , 4133.33333333 , 2043.0 , 2032.0 , 96.804 , 0.0 , 0.0 , 0.0 , 0.0 , 

36.0 , 4124.1025641 , 4123.58974359 , 4124.1025641 , 4124.1025641 , 4122.56410256 , 4120.51282051 , 4118.97435897 , 4129.74358974 , 4127.17948718 , 4132.30769231 , 4185.12820513 , 4902.05128205 , 4126.15384615 , 4131.79487179 , 2043.0 , 2031.0 , 96.815 , 0.0 , 0.0 , 0.0 , 0.0 , 

37.0 , 4126.15384615 , 4119.48717949 , 4127.17948718 , 4121.53846154 , 4122.05128205 , 4115.8974359 , 4115.8974359 , 4123.07692308 , 4128.71794872 , 4131.28205128 , 4180.51282051 , 4902.56410256 , 4120.0 , 4130.76923077 , 2043.0 , 2032.0 , 96.818 , 0.0 , 0.0 , 0.0 , 0.0 , 

38.0 , 4123.58974359 , 4121.02564103 , 4125.12820513 , 4126.15384615 , 4123.07692308 , 4120.0 , 4122.56410256 , 4130.76923077 , 4132.82051282 , 4135.8974359 , 4183.58974359 , 4899.48717949 , 4123.07692308 , 4131.28205128 , 2044.0 , 2033.0 , 96.827 , 0.0 , 0.0 , 0.0 , 0.0 , 

39.0 , 4123.58974359 , 4118.46153846 , 4128.71794872 , 4119.48717949 , 4123.58974359 , 4121.53846154 , 4121.53846154 , 4125.64102564 , 4126.66666667 , 4133.84615385 , 4185.64102564 , 4905.12820513 , 4121.02564103 , 4130.25641026 , 2043.0 , 2034.0 , 96.835 , 0.0 , 0.0 , 0.0 , 0.0 , 

40.0 , 4124.1025641 , 4126.66666667 , 4124.1025641 , 4125.12820513 , 4125.64102564 , 4125.12820513 , 4124.61538462 , 4133.84615385 , 4132.30769231 , 4132.82051282 , 4185.64102564 , 4906.66666667 , 4129.23076923 , 4131.79487179 , 2043.0 , 2033.0 , 96.846 , 0.0 , 0.0 , 0.0 , 0.0 , 

41.0 , 4125.64102564 , 4126.15384615 , 4128.20512821 , 4127.69230769 , 4127.17948718 , 4123.58974359 , 4120.0 , 4126.15384615 , 4125.64102564 , 4133.33333333 , 4177.94871795 , 4906.15384615 , 4121.02564103 , 4133.84615385 , 2043.0 , 2033.0 , 96.85 , 0.0 , 0.0 , 0.0 , 0.0 , 

42.0 , 4124.61538462 , 4125.12820513 , 4126.15384615 , 4129.23076923 , 4125.64102564 , 4126.15384615 , 4125.12820513 , 4124.61538462 , 4123.07692308 , 4135.38461538 , 4181.53846154 , 4902.56410256 , 4126.66666667 , 4133.33333333 , 2043.0 , 2034.0 , 96.858 , 0.0 , 0.0 , 0.0 , 0.0 , 

43.0 , 4122.56410256 , 4124.1025641 , 4124.61538462 , 4127.17948718 , 4124.1025641 , 4119.48717949 , 4121.02564103 , 4118.97435897 , 4119.48717949 , 4131.79487179 , 4183.58974359 , 4903.07692308 , 4129.23076923 , 4133.33333333 , 2044.0 , 2034.0 , 96.867 , 0.0 , 0.0 , 0.0 , 0.0 , 

44.0 , 4125.64102564 , 4128.20512821 , 4123.58974359 , 4131.79487179 , 4124.1025641 , 4118.46153846 , 4118.46153846 , 4118.46153846 , 4120.51282051 , 4131.79487179 , 4184.61538462 , 4902.56410256 , 4128.20512821 , 4132.82051282 , 2043.0 , 2035.0 , 96.878 , 0.0 , 0.0 , 0.0 , 0.0 , 

45.0 , 4125.64102564 , 4124.61538462 , 4126.15384615 , 4129.23076923 , 4120.51282051 , 4120.51282051 , 4117.94871795 , 4114.35897436 , 4120.0 , 4132.30769231 , 4183.07692308 , 4906.66666667 , 4126.15384615 , 4131.28205128 , 2042.0 , 2035.0 , 96.881 , 0.0 , 0.0 , 0.0 , 0.0 , 

46.0 , 4124.1025641 , 4122.05128205 , 4126.15384615 , 4127.17948718 , 4121.02564103 , 4117.94871795 , 4120.0 , 4117.43589744 , 4120.51282051 , 4130.76923077 , 4184.61538462 , 4906.66666667 , 4129.74358974 , 4133.84615385 , 2043.0 , 2036.0 , 96.889 , 0.0 , 0.0 , 0.0 , 0.0 , 

47.0 , 4122.05128205 , 4120.0 , 4124.61538462 , 4127.69230769 , 4123.07692308 , 4114.87179487 , 4118.97435897 , 4126.66666667 , 4125.12820513 , 4130.76923077 , 4184.1025641 , 4902.05128205 , 4129.74358974 , 4134.87179487 , 2044.0 , 2037.0 , 96.898 , 0.0 , 0.0 , 0.0 , 0.0 , 

48.0 , 4124.1025641 , 4119.48717949 , 4125.64102564 , 4125.64102564 , 4122.05128205 , 4118.97435897 , 4116.92307692 , 4126.15384615 , 4125.64102564 , 4133.33333333 , 4182.56410256 , 4900.51282051 , 4125.64102564 , 4134.87179487 , 2043.0 , 2037.0 , 96.908 , 0.0 , 0.0 , 0.0 , 0.0 , 

49.0 , 4123.07692308 , 4121.53846154 , 4123.58974359 , 4125.64102564 , 4120.51282051 , 4122.56410256 , 4116.41025641 , 4128.71794872 , 4130.25641026 , 4134.87179487 , 4183.07692308 , 4903.58974359 , 4131.28205128 , 4133.33333333 , 2044.0 , 2038.0 , 96.914 , 0.0 , 0.0 , 0.0 , 0.0 , 

50.0 , 4125.64102564 , 4122.05128205 , 4127.17948718 , 4125.12820513 , 4125.12820513 , 4121.02564103 , 4115.8974359 , 4122.56410256 , 4125.64102564 , 4133.33333333 , 4182.56410256 , 4905.12820513 , 4125.12820513 , 4131.28205128 , 2043.0 , 2039.0 , 96.923 , 0.0 , 0.0 , 0.0 , 0.0 , 

51.0 , 4123.58974359 , 4124.1025641 , 4125.64102564 , 4122.05128205 , 4125.64102564 , 4124.61538462 , 4125.12820513 , 4129.23076923 , 4130.76923077 , 4134.35897436 , 4185.12820513 , 4902.56410256 , 4123.58974359 , 4131.28205128 , 2043.0 , 2038.0 , 96.93 , 0.0 , 0.0 , 0.0 , 0.0 , 

52.0 , 4124.1025641 , 4125.64102564 , 4129.23076923 , 4118.97435897 , 4123.07692308 , 4121.53846154 , 4123.58974359 , 4121.02564103 , 4124.61538462 , 4135.8974359 , 4182.05128205 , 4905.64102564 , 4119.48717949 , 4133.84615385 , 2045.0 , 2035.0 , 96.94 , 0.0 , 0.0 , 0.0 , 0.0 , 

53.0 , 4124.61538462 , 4128.71794872 , 4128.20512821 , 4129.23076923 , 4121.53846154 , 4122.56410256 , 4124.61538462 , 4126.66666667 , 4126.15384615 , 4133.84615385 , 4183.07692308 , 4905.12820513 , 4127.17948718 , 4132.82051282 , 2045.0 , 2034.0 , 96.945 , 0.0 , 0.0 , 0.0 , 0.0 , 

54.0 , 4126.15384615 , 4122.56410256 , 4130.76923077 , 4126.66666667 , 4124.1025641 , 4121.02564103 , 4121.02564103 , 4118.46153846 , 4121.02564103 , 4129.74358974 , 4178.97435897 , 4906.15384615 , 4118.46153846 , 4130.25641026 , 2044.0 , 2034.0 , 96.974 , 0.0 , 0.0 , 0.0 , 0.0 , 

55.0 , 4124.1025641 , 4122.56410256 , 4125.12820513 , 4125.64102564 , 4126.15384615 , 4124.1025641 , 4124.61538462 , 4125.64102564 , 4126.15384615 , 4132.82051282 , 4182.05128205 , 4904.61538462 , 4126.66666667 , 4130.76923077 , 2044.0 , 2034.0 , 96.976 , 0.0 , 0.0 , 0.0 , 0.0 , 

56.0 , 4125.64102564 , 4119.48717949 , 4126.66666667 , 4124.1025641 , 4124.1025641 , 4120.51282051 , 4116.41025641 , 4115.8974359 , 4117.43589744 , 4134.35897436 , 4182.05128205 , 4906.15384615 , 4126.66666667 , 4131.28205128 , 2044.0 , 2035.0 , 96.976 , 0.0 , 0.0 , 0.0 , 0.0 , 

57.0 , 4125.64102564 , 4124.61538462 , 4123.07692308 , 4129.74358974 , 4123.58974359 , 4126.66666667 , 4120.0 , 4123.07692308 , 4123.07692308 , 4133.84615385 , 4187.69230769 , 4904.1025641 , 4129.74358974 , 4133.33333333 , 2045.0 , 2035.0 , 96.976 , 0.0 , 0.0 , 0.0 , 0.0 , 

58.0 , 4126.15384615 , 4121.02564103 , 4126.66666667 , 4125.64102564 , 4126.15384615 , 4121.53846154 , 4116.92307692 , 4117.94871795 , 4123.07692308 , 4131.79487179 , 4184.61538462 , 4906.66666667 , 4122.56410256 , 4134.87179487 , 2046.0 , 2036.0 , 96.984 , 0.0 , 0.0 , 0.0 , 0.0 , 

59.0 , 4124.61538462 , 4121.02564103 , 4124.1025641 , 4129.74358974 , 4126.66666667 , 4122.05128205 , 4120.51282051 , 4126.15384615 , 4126.15384615 , 4133.84615385 , 4182.56410256 , 4905.12820513 , 4129.23076923 , 4132.82051282 , 2047.0 , 2033.0 , 96.992 , 0.0 , 0.0 , 0.0 , 0.0 , 

60.0 , 4122.56410256 , 4119.48717949 , 4125.64102564 , 4125.12820513 , 4122.05128205 , 4120.51282051 , 4117.43589744 , 4122.05128205 , 4122.56410256 , 4131.79487179 , 4182.05128205 , 4904.61538462 , 4125.64102564 , 4131.79487179 , 2049.0 , 2031.0 , 97.001 , 0.0 , 0.0 , 0.0 , 0.0 , 

61.0 , 4122.56410256 , 4122.56410256 , 4122.05128205 , 4126.15384615 , 4123.58974359 , 4121.02564103 , 4123.07692308 , 4127.69230769 , 4129.23076923 , 4132.30769231 , 4185.12820513 , 4906.15384615 , 4128.20512821 , 4133.84615385 , 2047.0 , 2031.0 , 97.008 , 0.0 , 0.0 , 0.0 , 0.0 , 

62.0 , 4124.61538462 , 4118.46153846 , 4126.15384615 , 4124.61538462 , 4124.61538462 , 4118.97435897 , 4121.53846154 , 4126.66666667 , 4130.76923077 , 4132.30769231 , 4180.51282051 , 4907.17948718 , 4125.12820513 , 4134.35897436 , 2045.0 , 2031.0 , 97.015 , 0.0 , 0.0 , 0.0 , 0.0 , 

63.0 , 4125.64102564 , 4120.51282051 , 4126.66666667 , 4122.56410256 , 4123.07692308 , 4122.56410256 , 4121.53846154 , 4125.12820513 , 4127.69230769 , 4133.33333333 , 4181.02564103 , 4901.02564103 , 4121.53846154 , 4131.79487179 , 2044.0 , 2033.0 , 97.023 , 0.0 , 0.0 , 0.0 , 0.0 , 

64.0 , 4122.05128205 , 4123.58974359 , 4127.17948718 , 4118.97435897 , 4122.56410256 , 4122.05128205 , 4118.97435897 , 4121.53846154 , 4127.17948718 , 4132.82051282 , 4182.05128205 , 4902.56410256 , 4121.02564103 , 4131.79487179 , 2044.0 , 2034.0 , 97.032 , 0.0 , 0.0 , 0.0 , 0.0 , 

65.0 , 4122.56410256 , 4123.58974359 , 4127.17948718 , 4122.56410256 , 4123.07692308 , 4123.58974359 , 4121.02564103 , 4122.56410256 , 4128.71794872 , 4133.84615385 , 4182.56410256 , 4905.12820513 , 4123.07692308 , 4136.41025641 , 2043.0 , 2035.0 , 97.04 , 0.0 , 0.0 , 0.0 , 0.0 , 

66.0 , 4124.61538462 , 4124.1025641 , 4126.66666667 , 4127.17948718 , 4122.56410256 , 4126.15384615 , 4123.58974359 , 4126.66666667 , 4131.79487179 , 4133.84615385 , 4184.61538462 , 4903.58974359 , 4123.07692308 , 4135.8974359 , 2041.0 , 2035.0 , 97.047 , 0.0 , 0.0 , 0.0 , 0.0 , 

67.0 , 4125.64102564 , 4127.69230769 , 4127.69230769 , 4125.64102564 , 4123.58974359 , 4123.58974359 , 4121.53846154 , 4121.02564103 , 4124.61538462 , 4131.79487179 , 4183.58974359 , 4903.07692308 , 4118.46153846 , 4131.79487179 , 2042.0 , 2035.0 , 97.056 , 0.0 , 0.0 , 0.0 , 0.0 , 

68.0 , 4122.05128205 , 4128.71794872 , 4126.15384615 , 4127.69230769 , 4123.07692308 , 4123.07692308 , 4122.56410256 , 4126.15384615 , 4125.12820513 , 4132.30769231 , 4182.56410256 , 4904.61538462 , 4124.1025641 , 4131.79487179 , 2042.0 , 2035.0 , 97.064 , 0.0 , 0.0 , 0.0 , 0.0 , 

69.0 , 4125.64102564 , 4125.12820513 , 4128.71794872 , 4126.15384615 , 4122.56410256 , 4123.07692308 , 4119.48717949 , 4124.61538462 , 4122.05128205 , 4132.30769231 , 4183.07692308 , 4905.64102564 , 4121.02564103 , 4133.84615385 , 2042.0 , 2035.0 , 97.071 , 0.0 , 0.0 , 0.0 , 0.0 , 

70.0 , 4124.61538462 , 4125.64102564 , 4123.58974359 , 4124.61538462 , 4122.05128205 , 4124.61538462 , 4122.56410256 , 4128.71794872 , 4126.66666667 , 4131.28205128 , 4185.12820513 , 4904.61538462 , 4128.71794872 , 4131.28205128 , 2041.0 , 2034.0 , 97.079 , 0.0 , 0.0 , 0.0 , 0.0 , 

71.0 , 4125.64102564 , 4122.05128205 , 4125.64102564 , 4121.53846154 , 4123.07692308 , 4118.46153846 , 4117.94871795 , 4117.43589744 , 4121.02564103 , 4128.20512821 , 4180.51282051 , 4904.61538462 , 4125.64102564 , 4132.82051282 , 2042.0 , 2035.0 , 97.087 , 0.0 , 0.0 , 0.0 , 0.0 , 

72.0 , 4125.12820513 , 4123.07692308 , 4124.61538462 , 4128.20512821 , 4125.64102564 , 4122.56410256 , 4117.94871795 , 4128.71794872 , 4126.66666667 , 4131.79487179 , 4184.61538462 , 4901.53846154 , 4128.20512821 , 4137.43589744 , 2042.0 , 2035.0 , 97.095 , 0.0 , 0.0 , 0.0 , 0.0 , 

73.0 , 4125.64102564 , 4121.53846154 , 4130.76923077 , 4124.1025641 , 4126.66666667 , 4121.53846154 , 4112.30769231 , 4123.58974359 , 4121.53846154 , 4133.84615385 , 4182.05128205 , 4902.56410256 , 4120.51282051 , 4134.35897436 , 2041.0 , 2035.0 , 97.104 , 0.0 , 0.0 , 0.0 , 0.0 , 

74.0 , 4123.07692308 , 4124.61538462 , 4127.17948718 , 4126.66666667 , 4123.58974359 , 4120.0 , 4116.41025641 , 4128.20512821 , 4128.20512821 , 4137.43589744 , 4182.05128205 , 4901.53846154 , 4130.76923077 , 4131.28205128 , 2040.0 , 2035.0 , 97.112 , 0.0 , 0.0 , 0.0 , 0.0 , 

75.0 , 4124.61538462 , 4118.97435897 , 4130.76923077 , 4125.12820513 , 4122.56410256 , 4115.38461538 , 4111.79487179 , 4123.07692308 , 4124.1025641 , 4136.41025641 , 4181.02564103 , 4904.61538462 , 4124.61538462 , 4132.82051282 , 2039.0 , 2035.0 , 97.119 , 0.0 , 0.0 , 0.0 , 0.0 , 

76.0 , 4124.1025641 , 4121.53846154 , 4127.69230769 , 4128.20512821 , 4122.05128205 , 4124.61538462 , 4121.53846154 , 4133.33333333 , 4130.25641026 , 4134.35897436 , 4184.61538462 , 4902.05128205 , 4125.12820513 , 4132.82051282 , 2040.0 , 2032.0 , 97.127 , 0.0 , 0.0 , 0.0 , 0.0 , 

77.0 , 4122.05128205 , 4123.58974359 , 4129.74358974 , 4123.58974359 , 4121.53846154 , 4123.07692308 , 4124.1025641 , 4124.1025641 , 4127.69230769 , 4132.82051282 , 4180.51282051 , 4903.07692308 , 4121.02564103 , 4132.30769231 , 2040.0 , 2032.0 , 97.134 , 0.0 , 0.0 , 0.0 , 0.0 , 

78.0 , 4123.07692308 , 4127.69230769 , 4126.15384615 , 4128.71794872 , 4125.12820513 , 4122.56410256 , 4126.66666667 , 4127.69230769 , 4129.23076923 , 4135.38461538 , 4182.56410256 , 4903.58974359 , 4126.15384615 , 4133.84615385 , 2039.0 , 2033.0 , 97.141 , 0.0 , 0.0 , 0.0 , 0.0 , 

79.0 , 4125.64102564 , 4126.15384615 , 4128.20512821 , 4126.15384615 , 4126.15384615 , 4122.56410256 , 4121.02564103 , 4120.51282051 , 4125.64102564 , 4132.30769231 , 4180.51282051 , 4906.66666667 , 4121.53846154 , 4133.84615385 , 2041.0 , 2032.0 , 97.149 , 0.0 , 0.0 , 0.0 , 0.0 , 

80.0 , 4126.15384615 , 4128.71794872 , 4124.1025641 , 4128.71794872 , 4126.66666667 , 4125.12820513 , 4123.58974359 , 4118.97435897 , 4126.66666667 , 4128.71794872 , 4183.07692308 , 4904.1025641 , 4126.15384615 , 4133.84615385 , 2042.0 , 2032.0 , 97.158 , 0.0 , 0.0 , 0.0 , 0.0 , 

81.0 , 4123.58974359 , 4123.58974359 , 4125.64102564 , 4128.20512821 , 4126.15384615 , 4120.0 , 4120.0 , 4117.94871795 , 4121.02564103 , 4129.23076923 , 4184.61538462 , 4905.12820513 , 4125.12820513 , 4133.84615385 , 2042.0 , 2032.0 , 97.165 , 0.0 , 0.0 , 0.0 , 0.0 , 

82.0 , 4124.61538462 , 4125.12820513 , 4127.69230769 , 4128.20512821 , 4125.12820513 , 4120.51282051 , 4120.0 , 4121.53846154 , 4118.97435897 , 4132.82051282 , 4184.1025641 , 4905.64102564 , 4124.61538462 , 4131.28205128 , 2042.0 , 2033.0 , 97.174 , 0.0 , 0.0 , 0.0 , 0.0 , 

83.0 , 4124.1025641 , 4126.66666667 , 4125.64102564 , 4126.66666667 , 4124.61538462 , 4121.53846154 , 4117.43589744 , 4121.02564103 , 4124.1025641 , 4130.76923077 , 4183.58974359 , 4905.12820513 , 4128.20512821 , 4131.28205128 , 2044.0 , 2033.0 , 97.182 , 0.0 , 0.0 , 0.0 , 0.0 , 

84.0 , 4124.61538462 , 4126.15384615 , 4122.56410256 , 4128.20512821 , 4125.64102564 , 4120.0 , 4116.41025641 , 4118.46153846 , 4124.1025641 , 4129.23076923 , 4184.61538462 , 4903.58974359 , 4128.71794872 , 4132.82051282 , 2044.0 , 2034.0 , 97.19 , 0.0 , 0.0 , 0.0 , 0.0 , 

85.0 , 4123.07692308 , 4124.61538462 , 4122.56410256 , 4129.74358974 , 4123.58974359 , 4118.46153846 , 4120.0 , 4125.12820513 , 4126.15384615 , 4131.28205128 , 4184.61538462 , 4903.58974359 , 4130.25641026 , 4132.30769231 , 2044.0 , 2034.0 , 97.198 , 0.0 , 0.0 , 0.0 , 0.0 , 

86.0 , 4124.1025641 , 4125.64102564 , 4126.15384615 , 4125.64102564 , 4123.07692308 , 4118.97435897 , 4116.92307692 , 4124.1025641 , 4124.61538462 , 4133.33333333 , 4183.58974359 , 4905.64102564 , 4128.20512821 , 4134.35897436 , 2043.0 , 2035.0 , 97.205 , 0.0 , 0.0 , 0.0 , 0.0 , 

87.0 , 4122.05128205 , 4125.12820513 , 4123.58974359 , 4126.15384615 , 4123.58974359 , 4124.1025641 , 4119.48717949 , 4130.25641026 , 4132.82051282 , 4136.41025641 , 4186.66666667 , 4904.61538462 , 4130.76923077 , 4134.87179487 , 2044.0 , 2035.0 , 97.214 , 0.0 , 0.0 , 0.0 , 0.0 , 

88.0 , 4121.53846154 , 4121.02564103 , 4125.64102564 , 4124.1025641 , 4124.61538462 , 4122.56410256 , 4121.53846154 , 4125.12820513 , 4126.15384615 , 4134.87179487 , 4185.12820513 , 4904.1025641 , 4123.58974359 , 4131.79487179 , 2045.0 , 2036.0 , 97.22 , 0.0 , 0.0 , 0.0 , 0.0 , 

89.0 , 4121.53846154 , 4124.61538462 , 4125.12820513 , 4125.12820513 , 4124.61538462 , 4125.64102564 , 4125.12820513 , 4131.28205128 , 4128.20512821 , 4132.82051282 , 4187.17948718 , 4905.12820513 , 4128.20512821 , 4130.76923077 , 2045.0 , 2035.0 , 97.229 , 0.0 , 0.0 , 0.0 , 0.0 , 

90.0 , 4124.1025641 , 4124.61538462 , 4130.76923077 , 4121.53846154 , 4125.64102564 , 4123.07692308 , 4117.94871795 , 4120.51282051 , 4126.15384615 , 4131.79487179 , 4182.05128205 , 4907.69230769 , 4118.97435897 , 4131.79487179 , 2045.0 , 2034.0 , 97.236 , 0.0 , 0.0 , 0.0 , 0.0 , 

91.0 , 4123.07692308 , 4126.15384615 , 4128.71794872 , 4125.12820513 , 4125.12820513 , 4124.61538462 , 4122.56410256 , 4125.64102564 , 4132.82051282 , 4135.38461538 , 4180.51282051 , 4903.07692308 , 4121.53846154 , 4131.28205128 , 2046.0 , 2033.0 , 97.245 , 0.0 , 0.0 , 0.0 , 0.0 , 

92.0 , 4125.64102564 , 4121.02564103 , 4132.30769231 , 4122.56410256 , 4124.61538462 , 4121.02564103 , 4121.02564103 , 4116.92307692 , 4123.58974359 , 4133.33333333 , 4177.94871795 , 4905.64102564 , 4122.05128205 , 4131.79487179 , 2047.0 , 2033.0 , 97.252 , 0.0 , 0.0 , 0.0 , 0.0 , 

93.0 , 4125.64102564 , 4125.64102564 , 4127.69230769 , 4128.71794872 , 4124.61538462 , 4124.1025641 , 4125.64102564 , 4122.56410256 , 4129.23076923 , 4132.82051282 , 4181.53846154 , 4906.66666667 , 4132.30769231 , 4131.28205128 , 2046.0 , 2033.0 , 97.26 , 0.0 , 0.0 , 0.0 , 0.0 , 

94.0 , 4125.12820513 , 4126.15384615 , 4128.20512821 , 4126.66666667 , 4123.07692308 , 4120.0 , 4120.0 , 4116.41025641 , 4126.15384615 , 4131.79487179 , 4178.97435897 , 4906.66666667 , 4123.07692308 , 4130.25641026 , 2046.0 , 2030.0 , 97.268 , 0.0 , 0.0 , 0.0 , 0.0 , 

95.0 , 4125.64102564 , 4127.17948718 , 4122.56410256 , 4130.25641026 , 4123.58974359 , 4124.61538462 , 4121.53846154 , 4127.17948718 , 4126.66666667 , 4131.79487179 , 4184.1025641 , 4903.07692308 , 4128.71794872 , 4133.84615385 , 2045.0 , 2031.0 , 97.275 , 0.0 , 0.0 , 0.0 , 0.0 , 

96.0 , 4126.66666667 , 4121.02564103 , 4126.66666667 , 4128.20512821 , 4126.15384615 , 4122.56410256 , 4116.92307692 , 4120.51282051 , 4122.56410256 , 4131.28205128 , 4185.12820513 , 4905.12820513 , 4129.74358974 , 4136.41025641 , 2045.0 , 2033.0 , 97.284 , 0.0 , 0.0 , 0.0 , 0.0 , 

97.0 , 4125.12820513 , 4125.64102564 , 4124.61538462 , 4129.74358974 , 4126.66666667 , 4120.51282051 , 4121.02564103 , 4124.1025641 , 4129.23076923 , 4133.33333333 , 4185.12820513 , 4904.1025641 , 4131.28205128 , 4133.84615385 , 2044.0 , 2033.0 , 97.292 , 0.0 , 0.0 , 0.0 , 0.0 , 

98.0 , 4123.58974359 , 4124.1025641 , 4127.17948718 , 4124.61538462 , 4122.05128205 , 4116.92307692 , 4116.41025641 , 4123.58974359 , 4129.74358974 , 4131.28205128 , 4181.02564103 , 4903.58974359 , 4122.56410256 , 4131.79487179 , 2044.0 , 2033.0 , 97.299 , 0.0 , 0.0 , 0.0 , 0.0 , 

99.0 , 4125.12820513 , 4123.07692308 , 4126.66666667 , 4125.64102564 , 4122.05128205 , 4119.48717949 , 4116.92307692 , 4127.69230769 , 4130.76923077 , 4131.28205128 , 4186.66666667 , 4902.05128205 , 4126.15384615 , 4135.38461538 , 2045.0 , 2035.0 , 97.308 , 0.0 , 0.0 , 0.0 , 0.0 , 

100.0 , 4125.64102564 , 4120.51282051 , 4126.66666667 , 4124.1025641 , 4123.07692308 , 4115.38461538 , 4114.35897436 , 4123.58974359 , 4127.69230769 , 4132.82051282 , 4185.64102564 , 4903.58974359 , 4126.66666667 , 4135.38461538 , 2045.0 , 2034.0 , 97.315 , 0.0 , 0.0 , 0.0 , 0.0 , 

101.0 , 4124.61538462 , 4122.56410256 , 4127.17948718 , 4123.07692308 , 4123.07692308 , 4114.87179487 , 4120.0 , 4123.07692308 , 4126.15384615 , 4132.82051282 , 4181.02564103 , 4902.56410256 , 4122.05128205 , 4131.28205128 , 2044.0 , 2034.0 , 97.324 , 0.0 , 0.0 , 0.0 , 0.0 , 

102.0 , 4122.05128205 , 4123.58974359 , 4129.23076923 , 4121.02564103 , 4124.1025641 , 4120.0 , 4125.12820513 , 4128.20512821 , 4127.69230769 , 4131.79487179 , 4181.53846154 , 4901.53846154 , 4120.0 , 4131.28205128 , 2044.0 , 2034.0 , 97.331 , 0.0 , 0.0 , 0.0 , 0.0 , 

103.0 , 4124.1025641 , 4125.12820513 , 4130.25641026 , 4123.07692308 , 4126.66666667 , 4124.1025641 , 4121.53846154 , 4126.66666667 , 4126.66666667 , 4133.84615385 , 4185.12820513 , 4903.07692308 , 4123.07692308 , 4131.28205128 , 2042.0 , 2033.0 , 97.339 , 0.0 , 0.0 , 0.0 , 0.0 , 

104.0 , 4124.1025641 , 4127.17948718 , 4126.15384615 , 4127.69230769 , 4125.12820513 , 4124.61538462 , 4121.02564103 , 4128.20512821 , 4130.76923077 , 4133.84615385 , 4185.12820513 , 4903.58974359 , 4127.17948718 , 4130.25641026 , 2044.0 , 2034.0 , 97.347 , 0.0 , 0.0 , 0.0 , 0.0 , 

105.0 , 4126.15384615 , 4126.15384615 , 4128.71794872 , 4127.17948718 , 4124.1025641 , 4122.56410256 , 4123.07692308 , 4123.07692308 , 4125.64102564 , 4131.28205128 , 4180.0 , 4903.07692308 , 4122.05128205 , 4131.79487179 , 2044.0 , 2033.0 , 97.355 , 0.0 , 0.0 , 0.0 , 0.0 , 

106.0 , 4124.61538462 , 4127.69230769 , 4126.15384615 , 4128.71794872 , 4123.58974359 , 4126.66666667 , 4126.15384615 , 4129.74358974 , 4128.20512821 , 4132.30769231 , 4181.53846154 , 4903.58974359 , 4129.74358974 , 4132.30769231 , 2044.0 , 2032.0 , 97.363 , 0.0 , 0.0 , 0.0 , 0.0 , 

107.0 , 4127.17948718 , 4125.64102564 , 4127.17948718 , 4128.20512821 , 4124.1025641 , 4124.1025641 , 4119.48717949 , 4118.46153846 , 4120.0 , 4131.28205128 , 4183.58974359 , 4907.17948718 , 4126.15384615 , 4132.82051282 , 2044.0 , 2032.0 , 97.371 , 0.0 , 0.0 , 0.0 , 0.0 , 

108.0 , 4127.69230769 , 4125.12820513 , 4123.58974359 , 4129.74358974 , 4124.61538462 , 4123.07692308 , 4123.58974359 , 4122.05128205 , 4121.02564103 , 4130.25641026 , 4187.17948718 , 4905.12820513 , 4129.23076923 , 4135.8974359 , 2042.0 , 2033.0 , 97.379 , 0.0 , 0.0 , 0.0 , 0.0 , 

109.0 , 4128.20512821 , 4120.0 , 4127.69230769 , 4123.07692308 , 4125.12820513 , 4117.94871795 , 4118.46153846 , 4118.46153846 , 4115.38461538 , 4130.25641026 , 4181.02564103 , 4905.12820513 , 4124.1025641 , 4133.84615385 , 2042.0 , 2033.0 , 97.387 , 0.0 , 0.0 , 0.0 , 0.0 , 

110.0 , 4124.1025641 , 4122.05128205 , 4126.15384615 , 4128.20512821 , 4123.58974359 , 4121.53846154 , 4116.92307692 , 4127.17948718 , 4124.61538462 , 4133.84615385 , 4183.07692308 , 4903.07692308 , 4130.25641026 , 4129.23076923 , 2043.0 , 2032.0 , 97.395 , 0.0 , 0.0 , 0.0 , 0.0 , 

111.0 , 4122.56410256 , 4117.94871795 , 4128.20512821 , 4124.61538462 , 4122.56410256 , 4120.51282051 , 4113.33333333 , 4117.43589744 , 4123.58974359 , 4132.30769231 , 4185.12820513 , 4906.15384615 , 4123.58974359 , 4132.82051282 , 2042.0 , 2033.0 , 97.403 , 0.0 , 0.0 , 0.0 , 0.0 , 

112.0 , 4121.53846154 , 4121.02564103 , 4122.05128205 , 4126.15384615 , 4123.58974359 , 4123.58974359 , 4121.53846154 , 4128.71794872 , 4131.79487179 , 4132.30769231 , 4188.20512821 , 4905.12820513 , 4129.74358974 , 4136.41025641 , 2041.0 , 2033.0 , 97.412 , 0.0 , 0.0 , 0.0 , 0.0 , 

113.0 , 4124.1025641 , 4118.46153846 , 4127.69230769 , 4124.1025641 , 4124.1025641 , 4119.48717949 , 4116.92307692 , 4126.66666667 , 4128.71794872 , 4132.30769231 , 4183.58974359 , 4905.64102564 , 4123.07692308 , 4132.30769231 , 2042.0 , 2032.0 , 97.42 , 0.0 , 0.0 , 0.0 , 0.0 , 

114.0 , 4123.58974359 , 4123.58974359 , 4125.12820513 , 4128.20512821 , 4123.07692308 , 4124.1025641 , 4120.51282051 , 4131.79487179 , 4132.30769231 , 4135.38461538 , 4183.58974359 , 4902.56410256 , 4127.17948718 , 4129.74358974 , 2043.0 , 2033.0 , 97.426 , 0.0 , 0.0 , 0.0 , 0.0 , 

115.0 , 4124.1025641 , 4124.61538462 , 4125.64102564 , 4124.61538462 , 4122.56410256 , 4123.58974359 , 4120.0 , 4124.1025641 , 4129.74358974 , 4133.84615385 , 4182.05128205 , 4903.58974359 , 4125.12820513 , 4132.30769231 , 2042.0 , 2034.0 , 97.434 , 0.0 , 0.0 , 0.0 , 0.0 , 

116.0 , 4128.20512821 , 4125.64102564 , 4126.15384615 , 4127.69230769 , 4123.07692308 , 4125.12820513 , 4125.12820513 , 4126.66666667 , 4129.74358974 , 4132.30769231 , 4182.56410256 , 4904.1025641 , 4124.61538462 , 4133.84615385 , 2043.0 , 2034.0 , 97.442 , 0.0 , 0.0 , 0.0 , 0.0 , 

117.0 , 4127.17948718 , 4121.02564103 , 4130.25641026 , 4124.61538462 , 4123.58974359 , 4123.07692308 , 4122.56410256 , 4117.94871795 , 4122.56410256 , 4130.76923077 , 4179.48717949 , 4904.61538462 , 4116.41025641 , 4131.28205128 , 2043.0 , 2035.0 , 97.449 , 0.0 , 0.0 , 0.0 , 0.0 , 

118.0 , 4125.64102564 , 4126.66666667 , 4126.66666667 , 4124.61538462 , 4125.12820513 , 4124.1025641 , 4121.53846154 , 4114.35897436 , 4121.53846154 , 4132.82051282 , 4182.05128205 , 4903.07692308 , 4121.53846154 , 4132.30769231 , 2043.0 , 2037.0 , 97.458 , 0.0 , 0.0 , 0.0 , 0.0 , 

119.0 , 4125.12820513 , 4127.17948718 , 4126.66666667 , 4127.69230769 , 4123.07692308 , 4120.0 , 4117.43589744 , 4116.41025641 , 4123.07692308 , 4132.82051282 , 4183.07692308 , 4905.64102564 , 4125.64102564 , 4133.33333333 , 2043.0 , 2038.0 , 97.465 , 0.0 , 0.0 , 0.0 , 0.0 , 

120.0 , 4125.64102564 , 4125.12820513 , 4128.20512821 , 4128.71794872 , 4122.56410256 , 4118.97435897 , 4118.46153846 , 4119.48717949 , 4122.05128205 , 4132.30769231 , 4180.51282051 , 4906.15384615 , 4125.64102564 , 4132.82051282 , 2044.0 , 2039.0 , 97.473 , 0.0 , 0.0 , 0.0 , 0.0 , 

121.0 , 4123.58974359 , 4126.15384615 , 4126.15384615 , 4123.58974359 , 4125.12820513 , 4120.51282051 , 4120.0 , 4120.0 , 4124.61538462 , 4133.33333333 , 4181.53846154 , 4903.58974359 , 4129.23076923 , 4130.76923077 , 2044.0 , 2038.0 , 97.481 , 0.0 , 0.0 , 0.0 , 0.0 , 

122.0 , 4125.12820513 , 4127.69230769 , 4126.15384615 , 4124.1025641 , 4125.12820513 , 4122.56410256 , 4116.92307692 , 4118.97435897 , 4125.12820513 , 4132.82051282 , 4183.58974359 , 4901.53846154 , 4128.71794872 , 4130.76923077 , 2045.0 , 2038.0 , 97.488 , 0.0 , 0.0 , 0.0 , 0.0 , 

123.0 , 4123.07692308 , 4126.66666667 , 4125.64102564 , 4129.23076923 , 4122.56410256 , 4124.1025641 , 4117.43589744 , 4129.23076923 , 4129.23076923 , 4131.79487179 , 4183.58974359 , 4904.1025641 , 4130.25641026 , 4132.82051282 , 2046.0 , 2040.0 , 97.497 , 0.0 , 0.0 , 0.0 , 0.0 , 

124.0 , 4124.1025641 , 4126.15384615 , 4129.23076923 , 4125.12820513 , 4124.61538462 , 4120.51282051 , 4115.38461538 , 4121.02564103 , 4123.58974359 , 4131.28205128 , 4184.1025641 , 4906.66666667 , 4124.61538462 , 4134.35897436 , 2045.0 , 2040.0 , 97.504 , 0.0 , 0.0 , 0.0 , 0.0 , 

125.0 , 4124.1025641 , 4126.15384615 , 4127.17948718 , 4124.61538462 , 4125.64102564 , 4121.53846154 , 4121.02564103 , 4125.64102564 , 4132.82051282 , 4133.84615385 , 4186.66666667 , 4902.05128205 , 4128.71794872 , 4134.35897436 , 2045.0 , 2040.0 , 97.513 , 0.0 , 0.0 , 0.0 , 0.0 , 

126.0 , 4125.64102564 , 4117.94871795 , 4129.74358974 , 4123.07692308 , 4123.58974359 , 4122.05128205 , 4121.53846154 , 4123.07692308 , 4131.28205128 , 4134.87179487 , 4181.53846154 , 4901.53846154 , 4121.02564103 , 4132.82051282 , 2045.0 , 2038.0 , 97.52 , 0.0 , 0.0 , 0.0 , 0.0 , 

127.0 , 4124.61538462 , 4120.0 , 4127.69230769 , 4124.61538462 , 4123.07692308 , 4124.61538462 , 4125.64102564 , 4129.74358974 , 4129.74358974 , 4134.87179487 , 4183.07692308 , 4902.05128205 , 4123.07692308 , 4131.79487179 , 2044.0 , 2037.0 , 97.529 , 0.0 , 0.0 , 0.0 , 0.0 , 

128.0 , 4124.61538462 , 4122.05128205 , 4131.79487179 , 4120.51282051 , 4125.64102564 , 4117.94871795 , 4120.0 , 4117.94871795 , 4120.0 , 4131.28205128 , 4180.0 , 4906.15384615 , 4116.41025641 , 4131.79487179 , 2045.0 , 2038.0 , 97.537 , 0.0 , 0.0 , 0.0 , 0.0 , 

0.0 , 4122.05128205 , 4126.15384615 , 4127.69230769 , 4127.17948718 , 4125.64102564 , 4121.53846154 , 4123.58974359 , 4128.71794872 , 4130.25641026 , 4132.82051282 , 4182.56410256 , 4905.64102564 , 4122.05128205 , 4132.30769231 , 2046.0 , 2036.0 , 97.546 , 0.0 , 0.0 , 0.0 , 0.0 , 

1.0 , 4124.61538462 , 4123.07692308 , 4128.71794872 , 4124.61538462 , 4125.12820513 , 4122.05128205 , 4120.0 , 4124.61538462 , 4126.15384615 , 4131.28205128 , 4182.05128205 , 4907.17948718 , 4118.46153846 , 4132.30769231 , 2045.0 , 2037.0 , 97.553 , 0.0 , 0.0 , 0.0 , 0.0 , 

2.0 , 4124.1025641 , 4127.69230769 , 4125.12820513 , 4125.64102564 , 4125.64102564 , 4124.61538462 , 4125.12820513 , 4128.71794872 , 4129.74358974 , 4132.30769231 , 4185.12820513 , 4904.1025641 , 4127.69230769 , 4132.30769231 , 2045.0 , 2038.0 , 97.56 , 0.0 , 0.0 , 0.0 , 0.0 , 

3.0 , 4125.64102564 , 4125.12820513 , 4131.28205128 , 4124.61538462 , 4125.64102564 , 4121.02564103 , 4119.48717949 , 4120.0 , 4127.17948718 , 4131.28205128 , 4180.51282051 , 4906.66666667 , 4125.12820513 , 4130.76923077 , 2046.0 , 2037.0 , 97.568 , 0.0 , 0.0 , 0.0 , 0.0 , 

