['COUNTER', 'AF3', 'F7', 'F3', 'FC5', 'T7', 'P7', 'O1', 'O2', 'P8', 'T8', 'FC6', 'F4', 'F8', 'AF4', 'GYROX', 'GYROY', 'TIMESTAMP', 'FUNC_ID', 'FUNC_VALUE', 'MARKER', 'SYNC_SIGNAL']
80.0 , 4128.20512821 , 4131.79487179 , 4122.56410256 , 4128.71794872 , 4125.12820513 , 4125.64102564 , 4117.94871795 , 4161.02564103 , 4120.51282051 , 4131.28205128 , 4181.53846154 , 4905.12820513 , 4128.20512821 , 4133.84615385 , 2047.0 , 2035.0 , 111.391 , 0.0 , 0.0 , 0.0 , 0.0 , 

81.0 , 4126.15384615 , 4125.64102564 , 4123.07692308 , 4125.64102564 , 4120.51282051 , 4122.56410256 , 4113.84615385 , 4158.97435897 , 4114.87179487 , 4131.28205128 , 4181.53846154 , 4906.15384615 , 4130.25641026 , 4132.82051282 , 2045.0 , 2035.0 , 111.397 , 0.0 , 0.0 , 0.0 , 0.0 , 

82.0 , 4128.71794872 , 4121.53846154 , 4127.17948718 , 4130.25641026 , 4124.1025641 , 4117.43589744 , 4115.8974359 , 4161.02564103 , 4115.38461538 , 4133.33333333 , 4185.12820513 , 4907.69230769 , 4129.74358974 , 4132.82051282 , 2046.0 , 2035.0 , 111.406 , 0.0 , 0.0 , 0.0 , 0.0 , 

83.0 , 4125.12820513 , 4121.02564103 , 4125.64102564 , 4129.23076923 , 4125.64102564 , 4115.38461538 , 4116.41025641 , 4167.69230769 , 4124.1025641 , 4133.84615385 , 4186.66666667 , 4904.61538462 , 4130.76923077 , 4131.79487179 , 2046.0 , 2034.0 , 111.413 , 0.0 , 0.0 , 0.0 , 0.0 , 

84.0 , 4125.12820513 , 4122.05128205 , 4124.1025641 , 4126.15384615 , 4123.58974359 , 4117.94871795 , 4114.35897436 , 4168.20512821 , 4121.02564103 , 4132.82051282 , 4184.61538462 , 4902.56410256 , 4124.61538462 , 4134.35897436 , 2046.0 , 2033.0 , 111.423 , 0.0 , 0.0 , 0.0 , 0.0 , 

85.0 , 4123.58974359 , 4121.02564103 , 4122.56410256 , 4132.82051282 , 4121.53846154 , 4121.53846154 , 4115.38461538 , 4180.0 , 4132.82051282 , 4133.84615385 , 4185.12820513 , 4902.56410256 , 4132.30769231 , 4133.84615385 , 2046.0 , 2033.0 , 111.428 , 0.0 , 0.0 , 0.0 , 0.0 , 

86.0 , 4128.20512821 , 4120.0 , 4126.15384615 , 4127.17948718 , 4125.12820513 , 4118.46153846 , 4111.28205128 , 4176.92307692 , 4129.74358974 , 4133.84615385 , 4185.64102564 , 4905.12820513 , 4126.66666667 , 4132.30769231 , 2043.0 , 2033.0 , 111.438 , 0.0 , 0.0 , 0.0 , 0.0 , 

87.0 , 4127.17948718 , 4125.12820513 , 4120.51282051 , 4125.12820513 , 4126.15384615 , 4125.64102564 , 4124.1025641 , 4196.92307692 , 4136.41025641 , 4135.38461538 , 4190.25641026 , 4902.05128205 , 4132.82051282 , 4131.79487179 , 2043.0 , 2034.0 , 111.446 , 0.0 , 0.0 , 0.0 , 0.0 , 

88.0 , 4130.25641026 , 4120.0 , 4131.79487179 , 4120.0 , 4124.1025641 , 4122.56410256 , 4121.53846154 , 4187.69230769 , 4124.61538462 , 4131.28205128 , 4182.56410256 , 4907.17948718 , 4118.46153846 , 4135.38461538 , 2043.0 , 2035.0 , 111.455 , 0.0 , 0.0 , 0.0 , 0.0 , 

89.0 , 4124.61538462 , 4123.07692308 , 4131.79487179 , 4126.66666667 , 4121.53846154 , 4128.20512821 , 4128.20512821 , 4190.25641026 , 4135.38461538 , 4133.33333333 , 4183.07692308 , 4907.69230769 , 4122.05128205 , 4129.23076923 , 2043.0 , 2037.0 , 111.46 , 0.0 , 0.0 , 0.0 , 0.0 , 

90.0 , 4126.66666667 , 4119.48717949 , 4137.94871795 , 4118.46153846 , 4124.1025641 , 4122.56410256 , 4118.97435897 , 4172.30769231 , 4122.05128205 , 4134.87179487 , 4177.94871795 , 4912.82051282 , 4110.76923077 , 4130.25641026 , 2041.0 , 2036.0 , 111.469 , 0.0 , 0.0 , 0.0 , 0.0 , 

91.0 , 4125.64102564 , 4127.69230769 , 4130.25641026 , 4128.20512821 , 4126.66666667 , 4126.66666667 , 4125.12820513 , 4182.05128205 , 4128.20512821 , 4133.33333333 , 4182.05128205 , 4907.17948718 , 4129.23076923 , 4135.38461538 , 2041.0 , 2034.0 , 111.477 , 0.0 , 0.0 , 0.0 , 0.0 , 

92.0 , 4128.71794872 , 4123.58974359 , 4133.84615385 , 4126.66666667 , 4126.66666667 , 4118.97435897 , 4113.84615385 , 4160.51282051 , 4117.43589744 , 4128.20512821 , 4179.48717949 , 4909.23076923 , 4122.05128205 , 4138.46153846 , 2043.0 , 2034.0 , 111.487 , 0.0 , 0.0 , 0.0 , 0.0 , 

93.0 , 4127.69230769 , 4127.69230769 , 4123.58974359 , 4133.84615385 , 4125.12820513 , 4127.69230769 , 4124.61538462 , 4164.61538462 , 4128.20512821 , 4135.38461538 , 4185.64102564 , 4907.17948718 , 4129.74358974 , 4132.30769231 , 2042.0 , 2034.0 , 111.491 , 0.0 , 0.0 , 0.0 , 0.0 , 

94.0 , 4128.71794872 , 4123.07692308 , 4125.12820513 , 4127.69230769 , 4119.48717949 , 4122.05128205 , 4114.87179487 , 4158.97435897 , 4120.51282051 , 4132.82051282 , 4183.58974359 , 4913.33333333 , 4125.12820513 , 4131.79487179 , 2041.0 , 2034.0 , 111.499 , 0.0 , 0.0 , 0.0 , 0.0 , 

95.0 , 4127.17948718 , 4130.76923077 , 4118.46153846 , 4135.38461538 , 4122.56410256 , 4124.1025641 , 4117.43589744 , 4172.30769231 , 4123.07692308 , 4127.69230769 , 4190.25641026 , 4908.20512821 , 4137.43589744 , 4133.33333333 , 2041.0 , 2032.0 , 111.507 , 0.0 , 0.0 , 0.0 , 0.0 , 

96.0 , 4127.17948718 , 4121.53846154 , 4124.1025641 , 4127.69230769 , 4127.69230769 , 4118.46153846 , 4111.28205128 , 4164.1025641 , 4119.48717949 , 4129.23076923 , 4187.17948718 , 4908.71794872 , 4129.23076923 , 4134.35897436 , 2042.0 , 2032.0 , 111.517 , 0.0 , 0.0 , 0.0 , 0.0 , 

97.0 , 4128.20512821 , 4121.53846154 , 4123.58974359 , 4127.17948718 , 4125.64102564 , 4120.0 , 4118.97435897 , 4175.8974359 , 4132.30769231 , 4135.8974359 , 4187.17948718 , 4905.12820513 , 4131.79487179 , 4132.30769231 , 2043.0 , 2032.0 , 111.524 , 0.0 , 0.0 , 0.0 , 0.0 , 

98.0 , 4128.20512821 , 4122.56410256 , 4129.74358974 , 4121.02564103 , 4121.53846154 , 4113.84615385 , 4112.82051282 , 4177.94871795 , 4129.23076923 , 4133.33333333 , 4184.1025641 , 4905.64102564 , 4124.1025641 , 4133.33333333 , 2044.0 , 2032.0 , 111.532 , 0.0 , 0.0 , 0.0 , 0.0 , 

99.0 , 4126.66666667 , 4122.56410256 , 4131.28205128 , 4122.56410256 , 4126.66666667 , 4118.97435897 , 4117.94871795 , 4184.1025641 , 4126.66666667 , 4134.35897436 , 4184.1025641 , 4903.58974359 , 4120.0 , 4135.38461538 , 2043.0 , 2033.0 , 111.54 , 0.0 , 0.0 , 0.0 , 0.0 , 

100.0 , 4122.56410256 , 4114.87179487 , 4131.79487179 , 4120.51282051 , 4127.17948718 , 4120.51282051 , 4120.0 , 4186.66666667 , 4133.33333333 , 4137.43589744 , 4183.07692308 , 4907.17948718 , 4118.46153846 , 4135.38461538 , 2043.0 , 2034.0 , 111.549 , 0.0 , 0.0 , 0.0 , 0.0 , 

101.0 , 4126.15384615 , 4123.07692308 , 4130.25641026 , 4121.53846154 , 4126.15384615 , 4122.05128205 , 4120.0 , 4185.12820513 , 4132.30769231 , 4136.41025641 , 4184.61538462 , 4907.69230769 , 4117.43589744 , 4135.38461538 , 2042.0 , 2034.0 , 111.556 , 0.0 , 0.0 , 0.0 , 0.0 , 

102.0 , 4126.15384615 , 4128.20512821 , 4128.71794872 , 4125.12820513 , 4127.17948718 , 4127.69230769 , 4122.05128205 , 4188.71794872 , 4130.25641026 , 4133.33333333 , 4187.17948718 , 4905.12820513 , 4121.02564103 , 4132.30769231 , 2043.0 , 2032.0 , 111.564 , 0.0 , 0.0 , 0.0 , 0.0 , 

103.0 , 4127.17948718 , 4125.12820513 , 4132.30769231 , 4126.15384615 , 4128.20512821 , 4128.20512821 , 4121.02564103 , 4179.48717949 , 4123.58974359 , 4134.87179487 , 4184.61538462 , 4906.66666667 , 4119.48717949 , 4132.30769231 , 2044.0 , 2033.0 , 111.571 , 0.0 , 0.0 , 0.0 , 0.0 , 

104.0 , 4123.58974359 , 4129.23076923 , 4127.17948718 , 4133.84615385 , 4123.58974359 , 4129.74358974 , 4125.64102564 , 4176.92307692 , 4131.79487179 , 4137.43589744 , 4186.15384615 , 4906.66666667 , 4128.71794872 , 4132.30769231 , 2045.0 , 2034.0 , 111.58 , 0.0 , 0.0 , 0.0 , 0.0 , 

105.0 , 4126.66666667 , 4127.69230769 , 4129.74358974 , 4129.74358974 , 4125.12820513 , 4125.12820513 , 4120.0 , 4161.02564103 , 4116.92307692 , 4131.28205128 , 4184.1025641 , 4909.23076923 , 4120.51282051 , 4134.87179487 , 2045.0 , 2033.0 , 111.588 , 0.0 , 0.0 , 0.0 , 0.0 , 

106.0 , 4125.64102564 , 4127.69230769 , 4123.07692308 , 4132.82051282 , 4125.12820513 , 4130.25641026 , 4127.17948718 , 4173.84615385 , 4122.56410256 , 4130.76923077 , 4186.15384615 , 4906.66666667 , 4130.76923077 , 4134.35897436 , 2045.0 , 2032.0 , 111.595 , 0.0 , 0.0 , 0.0 , 0.0 , 

107.0 , 4129.74358974 , 4125.12820513 , 4126.66666667 , 4126.15384615 , 4123.58974359 , 4121.53846154 , 4113.84615385 , 4156.41025641 , 4117.43589744 , 4131.79487179 , 4180.51282051 , 4909.74358974 , 4125.12820513 , 4136.92307692 , 2045.0 , 2031.0 , 111.603 , 0.0 , 0.0 , 0.0 , 0.0 , 

108.0 , 4125.12820513 , 4128.71794872 , 4120.0 , 4129.74358974 , 4125.12820513 , 4122.56410256 , 4116.41025641 , 4167.17948718 , 4126.66666667 , 4132.82051282 , 4186.15384615 , 4906.15384615 , 4133.84615385 , 4135.8974359 , 2044.0 , 2031.0 , 111.611 , 0.0 , 0.0 , 0.0 , 0.0 , 

109.0 , 4124.61538462 , 4115.38461538 , 4128.71794872 , 4122.05128205 , 4124.61538462 , 4114.35897436 , 4108.71794872 , 4167.69230769 , 4115.8974359 , 4129.74358974 , 4186.66666667 , 4909.74358974 , 4121.53846154 , 4136.41025641 , 2044.0 , 2036.0 , 111.617 , 0.0 , 0.0 , 0.0 , 0.0 , 

110.0 , 4124.1025641 , 4121.02564103 , 4125.64102564 , 4132.30769231 , 4122.56410256 , 4118.46153846 , 4118.46153846 , 4182.56410256 , 4134.35897436 , 4134.87179487 , 4188.71794872 , 4905.64102564 , 4133.33333333 , 4133.33333333 , 2043.0 , 2035.0 , 111.626 , 0.0 , 0.0 , 0.0 , 0.0 , 

111.0 , 4128.20512821 , 4121.53846154 , 4130.25641026 , 4124.61538462 , 4124.1025641 , 4111.28205128 , 4110.25641026 , 4164.61538462 , 4129.74358974 , 4135.38461538 , 4182.05128205 , 4909.23076923 , 4123.58974359 , 4133.33333333 , 2042.0 , 2035.0 , 111.633 , 0.0 , 0.0 , 0.0 , 0.0 , 

112.0 , 4124.61538462 , 4126.15384615 , 4120.0 , 4130.25641026 , 4126.66666667 , 4122.05128205 , 4123.58974359 , 4185.64102564 , 4136.92307692 , 4136.92307692 , 4189.74358974 , 4902.05128205 , 4131.79487179 , 4131.79487179 , 2042.0 , 2036.0 , 111.643 , 0.0 , 0.0 , 0.0 , 0.0 , 

113.0 , 4124.61538462 , 4117.94871795 , 4124.61538462 , 4122.56410256 , 4122.56410256 , 4121.02564103 , 4118.46153846 , 4186.15384615 , 4133.33333333 , 4134.35897436 , 4185.12820513 , 4903.07692308 , 4123.58974359 , 4133.84615385 , 2042.0 , 2037.0 , 111.65 , 0.0 , 0.0 , 0.0 , 0.0 , 

114.0 , 4127.17948718 , 4128.20512821 , 4124.1025641 , 4125.12820513 , 4125.64102564 , 4127.17948718 , 4128.20512821 , 4193.33333333 , 4141.02564103 , 4138.46153846 , 4185.64102564 , 4903.58974359 , 4129.23076923 , 4133.84615385 , 2042.0 , 2036.0 , 111.658 , 0.0 , 0.0 , 0.0 , 0.0 , 

115.0 , 4127.17948718 , 4125.64102564 , 4129.23076923 , 4122.56410256 , 4128.71794872 , 4124.1025641 , 4126.66666667 , 4183.07692308 , 4130.76923077 , 4137.43589744 , 4182.56410256 , 4908.20512821 , 4121.53846154 , 4133.84615385 , 2042.0 , 2036.0 , 111.666 , 0.0 , 0.0 , 0.0 , 0.0 , 

116.0 , 4125.64102564 , 4124.61538462 , 4128.20512821 , 4128.71794872 , 4128.20512821 , 4127.17948718 , 4131.28205128 , 4181.02564103 , 4126.66666667 , 4134.35897436 , 4183.07692308 , 4905.12820513 , 4125.12820513 , 4132.82051282 , 2042.0 , 2038.0 , 111.675 , 0.0 , 0.0 , 0.0 , 0.0 , 

117.0 , 4126.15384615 , 4121.02564103 , 4134.87179487 , 4122.56410256 , 4123.58974359 , 4122.56410256 , 4122.56410256 , 4171.28205128 , 4122.05128205 , 4131.28205128 , 4180.51282051 , 4909.23076923 , 4119.48717949 , 4136.41025641 , 2041.0 , 2037.0 , 111.682 , 0.0 , 0.0 , 0.0 , 0.0 , 

118.0 , 4127.69230769 , 4126.15384615 , 4131.79487179 , 4127.17948718 , 4124.61538462 , 4124.1025641 , 4123.58974359 , 4167.17948718 , 4121.53846154 , 4135.38461538 , 4184.1025641 , 4910.25641026 , 4119.48717949 , 4135.8974359 , 2041.0 , 2038.0 , 111.69 , 0.0 , 0.0 , 0.0 , 0.0 , 

119.0 , 4124.61538462 , 4123.58974359 , 4123.58974359 , 4133.33333333 , 4126.15384615 , 4121.02564103 , 4120.0 , 4162.56410256 , 4125.12820513 , 4135.8974359 , 4183.07692308 , 4908.20512821 , 4126.15384615 , 4128.71794872 , 2040.0 , 2038.0 , 111.696 , 0.0 , 0.0 , 0.0 , 0.0 , 

120.0 , 4129.23076923 , 4122.05128205 , 4123.07692308 , 4133.33333333 , 4125.64102564 , 4119.48717949 , 4117.43589744 , 4157.94871795 , 4118.46153846 , 4130.25641026 , 4181.02564103 , 4907.17948718 , 4126.66666667 , 4130.76923077 , 2040.0 , 2038.0 , 111.706 , 0.0 , 0.0 , 0.0 , 0.0 , 

121.0 , 4126.66666667 , 4124.1025641 , 4122.56410256 , 4132.82051282 , 4122.05128205 , 4127.69230769 , 4123.07692308 , 4169.74358974 , 4122.56410256 , 4129.23076923 , 4185.64102564 , 4906.66666667 , 4132.82051282 , 4135.38461538 , 2042.0 , 2037.0 , 111.713 , 0.0 , 0.0 , 0.0 , 0.0 , 

122.0 , 4127.17948718 , 4124.61538462 , 4123.07692308 , 4127.69230769 , 4123.58974359 , 4127.17948718 , 4117.43589744 , 4167.69230769 , 4121.53846154 , 4133.33333333 , 4187.17948718 , 4905.12820513 , 4129.74358974 , 4133.84615385 , 2042.0 , 2036.0 , 111.721 , 0.0 , 0.0 , 0.0 , 0.0 , 

123.0 , 4125.64102564 , 4125.12820513 , 4120.51282051 , 4128.20512821 , 4124.61538462 , 4125.12820513 , 4118.46153846 , 4175.8974359 , 4131.79487179 , 4134.35897436 , 4188.20512821 , 4900.51282051 , 4134.35897436 , 4128.20512821 , 2043.0 , 2036.0 , 111.729 , 0.0 , 0.0 , 0.0 , 0.0 , 

124.0 , 4127.69230769 , 4117.94871795 , 4130.76923077 , 4123.07692308 , 4123.58974359 , 4117.94871795 , 4114.35897436 , 4170.25641026 , 4124.1025641 , 4131.28205128 , 4183.58974359 , 4902.56410256 , 4121.02564103 , 4132.30769231 , 2043.0 , 2034.0 , 111.738 , 0.0 , 0.0 , 0.0 , 0.0 , 

125.0 , 4123.58974359 , 4121.02564103 , 4127.17948718 , 4130.25641026 , 4123.58974359 , 4122.05128205 , 4122.56410256 , 4190.76923077 , 4138.97435897 , 4134.87179487 , 4186.66666667 , 4898.97435897 , 4130.76923077 , 4132.82051282 , 2043.0 , 2032.0 , 111.745 , 0.0 , 0.0 , 0.0 , 0.0 , 

126.0 , 4129.74358974 , 4117.94871795 , 4132.82051282 , 4121.02564103 , 4127.69230769 , 4114.87179487 , 4111.79487179 , 4182.05128205 , 4128.20512821 , 4134.87179487 , 4179.48717949 , 4903.58974359 , 4118.97435897 , 4134.87179487 , 2043.0 , 2032.0 , 111.752 , 0.0 , 0.0 , 0.0 , 0.0 , 

127.0 , 4127.17948718 , 4122.05128205 , 4127.69230769 , 4121.53846154 , 4126.66666667 , 4123.58974359 , 4123.07692308 , 4192.30769231 , 4132.82051282 , 4135.8974359 , 4183.07692308 , 4903.58974359 , 4123.07692308 , 4134.35897436 , 2044.0 , 2035.0 , 111.76 , 0.0 , 0.0 , 0.0 , 0.0 , 

128.0 , 4125.12820513 , 4116.41025641 , 4135.38461538 , 4116.92307692 , 4122.05128205 , 4121.02564103 , 4118.46153846 , 4182.05128205 , 4125.64102564 , 4131.28205128 , 4181.53846154 , 4907.69230769 , 4113.84615385 , 4135.8974359 , 2044.0 , 2037.0 , 111.769 , 0.0 , 0.0 , 0.0 , 0.0 , 

0.0 , 4124.1025641 , 4128.71794872 , 4129.23076923 , 4132.82051282 , 4124.1025641 , 4127.17948718 , 4126.66666667 , 4192.30769231 , 4137.43589744 , 4132.82051282 , 4186.66666667 , 4901.02564103 , 4129.23076923 , 4135.38461538 , 2044.0 , 2039.0 , 111.776 , 0.0 , 0.0 , 0.0 , 0.0 , 

1.0 , 4129.74358974 , 4129.74358974 , 4132.30769231 , 4126.15384615 , 4128.71794872 , 4123.07692308 , 4119.48717949 , 4169.74358974 , 4120.51282051 , 4134.35897436 , 4180.0 , 4908.71794872 , 4120.51282051 , 4136.41025641 , 2043.0 , 2041.0 , 111.784 , 0.0 , 0.0 , 0.0 , 0.0 , 

2.0 , 4129.74358974 , 4132.82051282 , 4123.58974359 , 4127.69230769 , 4126.66666667 , 4129.74358974 , 4129.74358974 , 4173.84615385 , 4127.17948718 , 4136.92307692 , 4182.56410256 , 4909.23076923 , 4127.69230769 , 4131.79487179 , 2044.0 , 2040.0 , 111.792 , 0.0 , 0.0 , 0.0 , 0.0 , 

3.0 , 4128.71794872 , 4126.15384615 , 4127.17948718 , 4125.64102564 , 4121.02564103 , 4121.53846154 , 4118.46153846 , 4164.1025641 , 4123.07692308 , 4130.76923077 , 4182.05128205 , 4906.15384615 , 4124.1025641 , 4131.79487179 , 2043.0 , 2038.0 , 111.801 , 0.0 , 0.0 , 0.0 , 0.0 , 

4.0 , 4126.66666667 , 4131.79487179 , 4122.05128205 , 4137.43589744 , 4123.58974359 , 4125.64102564 , 4122.05128205 , 4169.23076923 , 4125.64102564 , 4131.79487179 , 4187.17948718 , 4901.53846154 , 4135.38461538 , 4133.84615385 , 2044.0 , 2037.0 , 111.807 , 0.0 , 0.0 , 0.0 , 0.0 , 

5.0 , 4124.1025641 , 4122.05128205 , 4125.12820513 , 4131.28205128 , 4124.61538462 , 4119.48717949 , 4114.87179487 , 4167.17948718 , 4120.51282051 , 4134.87179487 , 4184.1025641 , 4909.23076923 , 4128.20512821 , 4134.35897436 , 2044.0 , 2038.0 , 111.816 , 0.0 , 0.0 , 0.0 , 0.0 , 

6.0 , 4124.61538462 , 4121.02564103 , 4126.15384615 , 4129.74358974 , 4123.58974359 , 4116.41025641 , 4113.84615385 , 4173.84615385 , 4123.07692308 , 4133.84615385 , 4186.15384615 , 4903.58974359 , 4129.23076923 , 4132.30769231 , 2043.0 , 2036.0 , 111.822 , 0.0 , 0.0 , 0.0 , 0.0 , 

7.0 , 4124.1025641 , 4119.48717949 , 4129.74358974 , 4124.1025641 , 4121.02564103 , 4114.35897436 , 4108.20512821 , 4169.23076923 , 4123.07692308 , 4127.69230769 , 4186.66666667 , 4900.0 , 4130.25641026 , 4132.82051282 , 2043.0 , 2035.0 , 111.832 , 0.0 , 0.0 , 0.0 , 0.0 , 

8.0 , 4124.1025641 , 4121.53846154 , 4127.17948718 , 4125.12820513 , 4122.05128205 , 4115.8974359 , 4112.82051282 , 4175.38461538 , 4124.61538462 , 4130.25641026 , 4187.69230769 , 4904.61538462 , 4130.25641026 , 4133.33333333 , 2042.0 , 2034.0 , 111.838 , 0.0 , 0.0 , 0.0 , 0.0 , 

9.0 , 4121.53846154 , 4119.48717949 , 4125.12820513 , 4125.64102564 , 4122.56410256 , 4112.30769231 , 4113.33333333 , 4188.20512821 , 4134.35897436 , 4135.8974359 , 4188.71794872 , 4907.17948718 , 4128.71794872 , 4132.82051282 , 2042.0 , 2033.0 , 111.846 , 0.0 , 0.0 , 0.0 , 0.0 , 

10.0 , 4123.58974359 , 4118.46153846 , 4127.17948718 , 4124.1025641 , 4124.1025641 , 4115.8974359 , 4113.84615385 , 4186.15384615 , 4133.33333333 , 4136.41025641 , 4187.17948718 , 4901.53846154 , 4122.56410256 , 4134.35897436 , 2040.0 , 2034.0 , 111.855 , 0.0 , 0.0 , 0.0 , 0.0 , 

11.0 , 4120.51282051 , 4120.51282051 , 4124.61538462 , 4127.69230769 , 4121.53846154 , 4125.12820513 , 4125.12820513 , 4192.30769231 , 4138.46153846 , 4135.8974359 , 4185.12820513 , 4900.51282051 , 4128.20512821 , 4133.84615385 , 2040.0 , 2034.0 , 111.863 , 0.0 , 0.0 , 0.0 , 0.0 , 

12.0 , 4126.15384615 , 4122.56410256 , 4131.79487179 , 4125.64102564 , 4123.07692308 , 4122.56410256 , 4124.1025641 , 4186.66666667 , 4127.69230769 , 4134.87179487 , 4184.1025641 , 4906.15384615 , 4120.51282051 , 4135.38461538 , 2041.0 , 2033.0 , 111.871 , 0.0 , 0.0 , 0.0 , 0.0 , 

13.0 , 4126.15384615 , 4127.69230769 , 4129.74358974 , 4128.71794872 , 4127.17948718 , 4129.23076923 , 4128.20512821 , 4194.87179487 , 4133.33333333 , 4137.43589744 , 4191.28205128 , 4905.64102564 , 4126.66666667 , 4133.33333333 , 2041.0 , 2033.0 , 111.878 , 0.0 , 0.0 , 0.0 , 0.0 , 

14.0 , 4129.23076923 , 4121.53846154 , 4131.28205128 , 4123.58974359 , 4128.20512821 , 4124.61538462 , 4119.48717949 , 4172.30769231 , 4120.0 , 4137.94871795 , 4183.07692308 , 4911.28205128 , 4120.51282051 , 4133.84615385 , 2041.0 , 2033.0 , 111.886 , 0.0 , 0.0 , 0.0 , 0.0 , 

15.0 , 4127.17948718 , 4124.1025641 , 4124.61538462 , 4131.79487179 , 4125.64102564 , 4122.56410256 , 4122.56410256 , 4171.79487179 , 4128.20512821 , 4136.41025641 , 4181.53846154 , 4906.66666667 , 4132.30769231 , 4132.30769231 , 2041.0 , 2035.0 , 111.895 , 0.0 , 0.0 , 0.0 , 0.0 , 

16.0 , 4129.74358974 , 4124.61538462 , 4131.28205128 , 4123.58974359 , 4124.1025641 , 4115.8974359 , 4110.76923077 , 4156.41025641 , 4116.92307692 , 4128.71794872 , 4178.97435897 , 4908.71794872 , 4120.0 , 4135.38461538 , 2042.0 , 2033.0 , 111.904 , 0.0 , 0.0 , 0.0 , 0.0 , 

17.0 , 4124.61538462 , 4130.25641026 , 4121.53846154 , 4130.76923077 , 4124.61538462 , 4126.15384615 , 4120.51282051 , 4169.74358974 , 4121.53846154 , 4131.28205128 , 4182.56410256 , 4906.15384615 , 4132.30769231 , 4135.38461538 , 2041.0 , 2034.0 , 111.912 , 0.0 , 0.0 , 0.0 , 0.0 , 

18.0 , 4127.69230769 , 4118.97435897 , 4124.61538462 , 4127.69230769 , 4124.1025641 , 4116.92307692 , 4110.25641026 , 4154.87179487 , 4110.25641026 , 4131.79487179 , 4177.43589744 , 4910.76923077 , 4127.69230769 , 4136.41025641 , 2041.0 , 2033.0 , 111.917 , 0.0 , 0.0 , 0.0 , 0.0 , 

19.0 , 4127.69230769 , 4127.17948718 , 4118.97435897 , 4132.30769231 , 4124.61538462 , 4122.05128205 , 4116.41025641 , 4166.66666667 , 4123.58974359 , 4133.33333333 , 4186.66666667 , 4903.58974359 , 4137.94871795 , 4133.33333333 , 2042.0 , 2033.0 , 111.926 , 0.0 , 0.0 , 0.0 , 0.0 , 

20.0 , 4125.64102564 , 4125.12820513 , 4125.64102564 , 4124.61538462 , 4125.64102564 , 4118.46153846 , 4109.74358974 , 4161.53846154 , 4119.48717949 , 4129.74358974 , 4185.64102564 , 4904.61538462 , 4128.20512821 , 4133.84615385 , 2042.0 , 2033.0 , 111.934 , 0.0 , 0.0 , 0.0 , 0.0 , 

21.0 , 4124.1025641 , 4124.61538462 , 4122.05128205 , 4135.8974359 , 4127.69230769 , 4122.56410256 , 4120.0 , 4178.46153846 , 4132.82051282 , 4133.33333333 , 4189.23076923 , 4902.05128205 , 4134.87179487 , 4133.84615385 , 2043.0 , 2034.0 , 111.942 , 0.0 , 0.0 , 0.0 , 0.0 , 

22.0 , 4125.64102564 , 4117.94871795 , 4127.17948718 , 4127.17948718 , 4125.12820513 , 4116.92307692 , 4114.35897436 , 4172.82051282 , 4133.33333333 , 4133.84615385 , 4185.12820513 , 4904.61538462 , 4124.1025641 , 4133.33333333 , 2045.0 , 2034.0 , 111.95 , 0.0 , 0.0 , 0.0 , 0.0 , 

23.0 , 4123.07692308 , 4123.58974359 , 4123.07692308 , 4124.1025641 , 4123.58974359 , 4124.61538462 , 4123.07692308 , 4184.1025641 , 4132.30769231 , 4134.87179487 , 4185.12820513 , 4901.53846154 , 4128.20512821 , 4131.28205128 , 2043.0 , 2034.0 , 111.96 , 0.0 , 0.0 , 0.0 , 0.0 , 

24.0 , 4124.1025641 , 4116.92307692 , 4129.23076923 , 4120.0 , 4122.05128205 , 4120.0 , 4121.02564103 , 4189.23076923 , 4125.12820513 , 4133.33333333 , 4181.02564103 , 4904.61538462 , 4122.56410256 , 4131.79487179 , 2043.0 , 2033.0 , 111.964 , 0.0 , 0.0 , 0.0 , 0.0 , 

25.0 , 4129.74358974 , 4122.56410256 , 4133.33333333 , 4124.61538462 , 4124.61538462 , 4120.51282051 , 4125.64102564 , 4190.76923077 , 4129.74358974 , 4136.41025641 , 4181.53846154 , 4905.12820513 , 4117.94871795 , 4133.84615385 , 2044.0 , 2033.0 , 111.973 , 0.0 , 0.0 , 0.0 , 0.0 , 

26.0 , 4127.17948718 , 4125.12820513 , 4134.35897436 , 4122.05128205 , 4126.66666667 , 4124.1025641 , 4124.1025641 , 4181.02564103 , 4129.23076923 , 4136.41025641 , 4178.97435897 , 4908.20512821 , 4117.94871795 , 4134.87179487 , 2044.0 , 2033.0 , 111.981 , 0.0 , 0.0 , 0.0 , 0.0 , 

27.0 , 4126.66666667 , 4126.66666667 , 4130.76923077 , 4123.07692308 , 4128.20512821 , 4128.71794872 , 4126.15384615 , 4176.41025641 , 4124.1025641 , 4133.84615385 , 4178.46153846 , 4909.74358974 , 4122.56410256 , 4133.84615385 , 2045.0 , 2033.0 , 111.991 , 0.0 , 0.0 , 0.0 , 0.0 , 

28.0 , 4124.61538462 , 4128.20512821 , 4126.66666667 , 4126.66666667 , 4125.64102564 , 4130.25641026 , 4126.66666667 , 4177.43589744 , 4127.69230769 , 4133.33333333 , 4179.48717949 , 4909.74358974 , 4124.1025641 , 4131.28205128 , 2045.0 , 2034.0 , 111.997 , 0.0 , 0.0 , 0.0 , 0.0 , 

29.0 , 4127.17948718 , 4129.23076923 , 4128.71794872 , 4128.20512821 , 4128.20512821 , 4126.15384615 , 4120.0 , 4161.53846154 , 4119.48717949 , 4134.87179487 , 4179.48717949 , 4906.66666667 , 4119.48717949 , 4134.35897436 , 2045.0 , 2033.0 , 112.005 , 0.0 , 0.0 , 0.0 , 0.0 , 

30.0 , 4125.12820513 , 4128.71794872 , 4122.05128205 , 4133.84615385 , 4128.20512821 , 4125.64102564 , 4121.53846154 , 4166.15384615 , 4128.71794872 , 4135.8974359 , 4183.58974359 , 4904.1025641 , 4136.92307692 , 4133.84615385 , 2044.0 , 2034.0 , 112.012 , 0.0 , 0.0 , 0.0 , 0.0 , 

31.0 , 4129.23076923 , 4126.66666667 , 4123.58974359 , 4129.23076923 , 4124.61538462 , 4121.53846154 , 4116.41025641 , 4164.1025641 , 4123.58974359 , 4132.82051282 , 4184.61538462 , 4907.17948718 , 4133.84615385 , 4133.33333333 , 2046.0 , 2034.0 , 112.022 , 0.0 , 0.0 , 0.0 , 0.0 , 

32.0 , 4125.64102564 , 4128.20512821 , 4119.48717949 , 4133.33333333 , 4124.1025641 , 4126.15384615 , 4124.1025641 , 4175.38461538 , 4123.58974359 , 4131.28205128 , 4189.23076923 , 4903.58974359 , 4138.97435897 , 4133.33333333 , 2045.0 , 2033.0 , 112.028 , 0.0 , 0.0 , 0.0 , 0.0 , 

33.0 , 4125.12820513 , 4117.43589744 , 4126.15384615 , 4126.15384615 , 4126.66666667 , 4116.41025641 , 4112.30769231 , 4162.05128205 , 4112.30769231 , 4129.74358974 , 4184.61538462 , 4906.66666667 , 4128.71794872 , 4135.8974359 , 2046.0 , 2033.0 , 112.036 , 0.0 , 0.0 , 0.0 , 0.0 , 

34.0 , 4122.05128205 , 4120.0 , 4123.58974359 , 4126.15384615 , 4125.64102564 , 4119.48717949 , 4113.84615385 , 4178.97435897 , 4132.30769231 , 4134.35897436 , 4188.20512821 , 4904.1025641 , 4135.8974359 , 4131.28205128 , 2045.0 , 2033.0 , 112.044 , 0.0 , 0.0 , 0.0 , 0.0 , 

35.0 , 4126.15384615 , 4117.43589744 , 4131.28205128 , 4116.92307692 , 4125.12820513 , 4116.92307692 , 4107.17948718 , 4175.8974359 , 4124.61538462 , 4133.84615385 , 4184.1025641 , 4906.15384615 , 4120.0 , 4132.30769231 , 2044.0 , 2031.0 , 112.052 , 0.0 , 0.0 , 0.0 , 0.0 , 

36.0 , 4124.61538462 , 4120.51282051 , 4122.05128205 , 4128.71794872 , 4124.61538462 , 4124.1025641 , 4122.56410256 , 4194.87179487 , 4135.38461538 , 4135.38461538 , 4185.64102564 , 4900.51282051 , 4127.69230769 , 4133.33333333 , 2044.0 , 2032.0 , 112.06 , 0.0 , 0.0 , 0.0 , 0.0 , 

37.0 , 4124.61538462 , 4114.35897436 , 4128.71794872 , 4123.07692308 , 4120.51282051 , 4116.41025641 , 4115.38461538 , 4183.58974359 , 4131.79487179 , 4132.82051282 , 4181.02564103 , 4905.12820513 , 4113.33333333 , 4134.87179487 , 2044.0 , 2032.0 , 112.067 , 0.0 , 0.0 , 0.0 , 0.0 , 

38.0 , 4121.53846154 , 4125.64102564 , 4127.17948718 , 4126.66666667 , 4121.53846154 , 4125.64102564 , 4126.15384615 , 4193.84615385 , 4138.97435897 , 4135.38461538 , 4188.71794872 , 4902.56410256 , 4121.53846154 , 4131.79487179 , 2043.0 , 2033.0 , 112.076 , 0.0 , 0.0 , 0.0 , 0.0 , 

39.0 , 4124.61538462 , 4121.02564103 , 4132.82051282 , 4119.48717949 , 4127.17948718 , 4125.12820513 , 4125.64102564 , 4185.64102564 , 4125.64102564 , 4134.87179487 , 4183.58974359 , 4905.64102564 , 4118.46153846 , 4133.84615385 , 2042.0 , 2031.0 , 112.084 , 0.0 , 0.0 , 0.0 , 0.0 , 

40.0 , 4126.66666667 , 4126.66666667 , 4126.66666667 , 4129.23076923 , 4128.71794872 , 4131.79487179 , 4132.30769231 , 4187.69230769 , 4131.79487179 , 4133.84615385 , 4184.1025641 , 4904.61538462 , 4128.71794872 , 4133.33333333 , 2042.0 , 2032.0 , 112.09 , 0.0 , 0.0 , 0.0 , 0.0 , 

41.0 , 4127.69230769 , 4126.66666667 , 4129.23076923 , 4127.17948718 , 4126.15384615 , 4124.61538462 , 4115.38461538 , 4167.17948718 , 4124.1025641 , 4131.28205128 , 4183.07692308 , 4909.74358974 , 4120.51282051 , 4133.33333333 , 2042.0 , 2031.0 , 112.098 , 0.0 , 0.0 , 0.0 , 0.0 , 

42.0 , 4128.71794872 , 4131.79487179 , 4126.66666667 , 4131.79487179 , 4128.20512821 , 4125.64102564 , 4119.48717949 , 4165.12820513 , 4115.8974359 , 4134.87179487 , 4185.12820513 , 4907.69230769 , 4125.64102564 , 4131.79487179 , 2041.0 , 2032.0 , 112.106 , 0.0 , 0.0 , 0.0 , 0.0 , 

43.0 , 4128.71794872 , 4124.61538462 , 4129.74358974 , 4128.20512821 , 4125.64102564 , 4120.0 , 4118.46153846 , 4161.02564103 , 4113.33333333 , 4133.33333333 , 4180.0 , 4909.23076923 , 4122.05128205 , 4131.28205128 , 2041.0 , 2031.0 , 112.115 , 0.0 , 0.0 , 0.0 , 0.0 , 

44.0 , 4129.23076923 , 4126.66666667 , 4126.66666667 , 4128.71794872 , 4124.61538462 , 4122.05128205 , 4116.41025641 , 4158.46153846 , 4118.46153846 , 4128.71794872 , 4182.05128205 , 4907.17948718 , 4126.15384615 , 4133.33333333 , 2040.0 , 2031.0 , 112.123 , 0.0 , 0.0 , 0.0 , 0.0 , 

45.0 , 4124.61538462 , 4124.1025641 , 4124.61538462 , 4126.15384615 , 4125.12820513 , 4122.05128205 , 4113.33333333 , 4162.56410256 , 4119.48717949 , 4129.74358974 , 4184.1025641 , 4907.69230769 , 4134.87179487 , 4131.79487179 , 2041.0 , 2032.0 , 112.13 , 0.0 , 0.0 , 0.0 , 0.0 , 

46.0 , 4125.64102564 , 4121.53846154 , 4127.17948718 , 4126.15384615 , 4126.15384615 , 4116.92307692 , 4112.82051282 , 4167.17948718 , 4116.41025641 , 4135.38461538 , 4185.12820513 , 4904.1025641 , 4135.8974359 , 4132.82051282 , 2042.0 , 2031.0 , 112.14 , 0.0 , 0.0 , 0.0 , 0.0 , 

47.0 , 4123.58974359 , 4122.05128205 , 4124.61538462 , 4128.20512821 , 4123.07692308 , 4117.43589744 , 4112.82051282 , 4172.30769231 , 4127.17948718 , 4134.87179487 , 4186.66666667 , 4900.0 , 4135.38461538 , 4132.30769231 , 2042.0 , 2032.0 , 112.149 , 0.0 , 0.0 , 0.0 , 0.0 , 

48.0 , 4125.64102564 , 4120.51282051 , 4125.12820513 , 4125.64102564 , 4123.58974359 , 4118.46153846 , 4113.84615385 , 4171.79487179 , 4126.15384615 , 4130.76923077 , 4185.12820513 , 4905.64102564 , 4127.17948718 , 4130.25641026 , 2041.0 , 2032.0 , 112.153 , 0.0 , 0.0 , 0.0 , 0.0 , 

49.0 , 4122.05128205 , 4122.05128205 , 4121.53846154 , 4130.25641026 , 4123.58974359 , 4123.07692308 , 4128.20512821 , 4194.35897436 , 4135.38461538 , 4133.33333333 , 4186.66666667 , 4907.17948718 , 4133.84615385 , 4127.17948718 , 2042.0 , 2031.0 , 112.162 , 0.0 , 0.0 , 0.0 , 0.0 , 

50.0 , 4126.66666667 , 4120.51282051 , 4128.71794872 , 4122.56410256 , 4125.12820513 , 4120.0 , 4124.1025641 , 4186.15384615 , 4125.64102564 , 4135.38461538 , 4183.07692308 , 4908.20512821 , 4118.97435897 , 4134.35897436 , 2045.0 , 2031.0 , 112.17 , 0.0 , 0.0 , 0.0 , 0.0 , 

51.0 , 4123.07692308 , 4124.61538462 , 4125.64102564 , 4123.58974359 , 4126.66666667 , 4127.69230769 , 4130.25641026 , 4193.84615385 , 4132.82051282 , 4137.94871795 , 4185.64102564 , 4905.12820513 , 4123.58974359 , 4133.84615385 , 2044.0 , 2032.0 , 112.18 , 0.0 , 0.0 , 0.0 , 0.0 , 

52.0 , 4125.64102564 , 4119.48717949 , 4132.82051282 , 4116.41025641 , 4125.64102564 , 4122.05128205 , 4123.07692308 , 4182.56410256 , 4121.53846154 , 4133.84615385 , 4177.94871795 , 4908.20512821 , 4115.38461538 , 4131.28205128 , 2044.0 , 2033.0 , 112.186 , 0.0 , 0.0 , 0.0 , 0.0 , 

53.0 , 4126.66666667 , 4127.17948718 , 4130.25641026 , 4126.15384615 , 4124.1025641 , 4127.69230769 , 4128.71794872 , 4189.74358974 , 4129.74358974 , 4133.33333333 , 4180.51282051 , 4902.05128205 , 4123.58974359 , 4131.79487179 , 2043.0 , 2034.0 , 112.194 , 0.0 , 0.0 , 0.0 , 0.0 , 

54.0 , 4131.28205128 , 4125.12820513 , 4137.94871795 , 4122.05128205 , 4126.15384615 , 4121.53846154 , 4117.94871795 , 4167.69230769 , 4116.41025641 , 4132.30769231 , 4180.51282051 , 4909.74358974 , 4112.30769231 , 4135.38461538 , 2045.0 , 2034.0 , 112.202 , 0.0 , 0.0 , 0.0 , 0.0 , 

55.0 , 4127.69230769 , 4127.17948718 , 4127.17948718 , 4131.79487179 , 4125.12820513 , 4127.69230769 , 4125.64102564 , 4174.87179487 , 4130.25641026 , 4135.8974359 , 4187.17948718 , 4909.23076923 , 4128.71794872 , 4133.33333333 , 2043.0 , 2034.0 , 112.211 , 0.0 , 0.0 , 0.0 , 0.0 , 

56.0 , 4128.20512821 , 4122.56410256 , 4127.69230769 , 4127.69230769 , 4122.05128205 , 4124.61538462 , 4115.38461538 , 4158.46153846 , 4121.02564103 , 4132.82051282 , 4179.48717949 , 4908.20512821 , 4123.07692308 , 4135.38461538 , 2045.0 , 2035.0 , 112.217 , 0.0 , 0.0 , 0.0 , 0.0 , 

57.0 , 4127.69230769 , 4133.33333333 , 4120.51282051 , 4133.33333333 , 4124.61538462 , 4128.71794872 , 4126.15384615 , 4164.61538462 , 4124.1025641 , 4134.87179487 , 4183.07692308 , 4902.05128205 , 4131.79487179 , 4132.82051282 , 2045.0 , 2035.0 , 112.225 , 0.0 , 0.0 , 0.0 , 0.0 , 

58.0 , 4127.17948718 , 4125.12820513 , 4126.15384615 , 4126.15384615 , 4124.61538462 , 4118.97435897 , 4121.53846154 , 4157.43589744 , 4118.97435897 , 4134.87179487 , 4183.07692308 , 4908.71794872 , 4128.71794872 , 4132.30769231 , 2046.0 , 2037.0 , 112.233 , 0.0 , 0.0 , 0.0 , 0.0 , 

59.0 , 4126.66666667 , 4126.15384615 , 4122.05128205 , 4130.76923077 , 4124.61538462 , 4124.61538462 , 4122.05128205 , 4170.25641026 , 4126.15384615 , 4133.84615385 , 4188.20512821 , 4904.61538462 , 4136.92307692 , 4133.33333333 , 2045.0 , 2038.0 , 112.242 , 0.0 , 0.0 , 0.0 , 0.0 , 

60.0 , 4126.15384615 , 4121.02564103 , 4125.64102564 , 4123.07692308 , 4124.61538462 , 4120.0 , 4109.23076923 , 4168.20512821 , 4118.46153846 , 4128.20512821 , 4184.61538462 , 4903.07692308 , 4128.71794872 , 4134.87179487 , 2044.0 , 2037.0 , 112.249 , 0.0 , 0.0 , 0.0 , 0.0 , 

61.0 , 4124.61538462 , 4122.56410256 , 4124.61538462 , 4123.07692308 , 4125.64102564 , 4115.8974359 , 4114.87179487 , 4178.46153846 , 4124.1025641 , 4130.76923077 , 4185.12820513 , 4901.53846154 , 4128.71794872 , 4132.30769231 , 2043.0 , 2036.0 , 112.257 , 0.0 , 0.0 , 0.0 , 0.0 , 

62.0 , 4124.61538462 , 4116.41025641 , 4129.74358974 , 4119.48717949 , 4121.53846154 , 4109.74358974 , 4110.76923077 , 4183.58974359 , 4132.82051282 , 4134.35897436 , 4183.58974359 , 4903.58974359 , 4121.53846154 , 4132.82051282 , 2042.0 , 2035.0 , 112.266 , 0.0 , 0.0 , 0.0 , 0.0 , 

63.0 , 4128.71794872 , 4118.97435897 , 4131.28205128 , 4119.48717949 , 4121.02564103 , 4116.41025641 , 4111.79487179 , 4188.20512821 , 4132.30769231 , 4134.87179487 , 4185.12820513 , 4901.02564103 , 4122.05128205 , 4136.92307692 , 2044.0 , 2036.0 , 112.276 , 0.0 , 0.0 , 0.0 , 0.0 , 

64.0 , 4124.61538462 , 4120.51282051 , 4128.20512821 , 4118.46153846 , 4123.58974359 , 4121.02564103 , 4118.97435897 , 4191.79487179 , 4132.82051282 , 4135.38461538 , 4183.58974359 , 4902.56410256 , 4130.25641026 , 4136.41025641 , 2044.0 , 2036.0 , 112.279 , 0.0 , 0.0 , 0.0 , 0.0 , 

65.0 , 4126.66666667 , 4121.02564103 , 4127.17948718 , 4119.48717949 , 4128.20512821 , 4119.48717949 , 4123.58974359 , 4186.66666667 , 4130.76923077 , 4137.43589744 , 4184.1025641 , 4904.1025641 , 4122.56410256 , 4134.35897436 , 2045.0 , 2038.0 , 112.288 , 0.0 , 0.0 , 0.0 , 0.0 , 

66.0 , 4126.15384615 , 4123.07692308 , 4126.15384615 , 4126.15384615 , 4125.64102564 , 4123.58974359 , 4125.64102564 , 4190.76923077 , 4134.87179487 , 4135.8974359 , 4188.20512821 , 4903.07692308 , 4122.56410256 , 4132.30769231 , 2046.0 , 2036.0 , 112.296 , 0.0 , 0.0 , 0.0 , 0.0 , 

67.0 , 4128.20512821 , 4126.66666667 , 4131.79487179 , 4128.71794872 , 4124.61538462 , 4126.15384615 , 4124.1025641 , 4177.43589744 , 4124.1025641 , 4130.25641026 , 4183.07692308 , 4907.17948718 , 4122.05128205 , 4135.38461538 , 2046.0 , 2035.0 , 112.305 , 0.0 , 0.0 , 0.0 , 0.0 , 

68.0 , 4126.15384615 , 4132.82051282 , 4127.17948718 , 4134.87179487 , 4127.69230769 , 4130.25641026 , 4130.76923077 , 4178.46153846 , 4134.35897436 , 4131.79487179 , 4183.58974359 , 4907.69230769 , 4130.25641026 , 4132.82051282 , 2050.0 , 2034.0 , 112.312 , 0.0 , 0.0 , 0.0 , 0.0 , 

69.0 , 4131.28205128 , 4127.69230769 , 4131.79487179 , 4127.69230769 , 4129.74358974 , 4122.05128205 , 4117.94871795 , 4160.51282051 , 4120.51282051 , 4133.33333333 , 4182.56410256 , 4910.25641026 , 4117.94871795 , 4133.84615385 , 2048.0 , 2030.0 , 112.32 , 0.0 , 0.0 , 0.0 , 0.0 , 

70.0 , 4124.61538462 , 4130.25641026 , 4124.61538462 , 4133.84615385 , 4126.15384615 , 4126.15384615 , 4121.02564103 , 4169.23076923 , 4116.92307692 , 4132.30769231 , 4186.66666667 , 4905.64102564 , 4134.87179487 , 4135.38461538 , 2047.0 , 2030.0 , 112.328 , 0.0 , 0.0 , 0.0 , 0.0 , 

71.0 , 4125.12820513 , 4124.61538462 , 4127.17948718 , 4127.17948718 , 4123.07692308 , 4116.92307692 , 4110.76923077 , 4155.38461538 , 4107.69230769 , 4128.20512821 , 4180.51282051 , 4909.23076923 , 4129.23076923 , 4135.8974359 , 2048.0 , 2032.0 , 112.336 , 0.0 , 0.0 , 0.0 , 0.0 , 

72.0 , 4125.12820513 , 4128.20512821 , 4121.53846154 , 4129.23076923 , 4124.61538462 , 4120.51282051 , 4118.97435897 , 4168.71794872 , 4126.15384615 , 4131.28205128 , 4186.15384615 , 4904.1025641 , 4135.8974359 , 4130.76923077 , 2032.0 , 2035.0 , 112.343 , 0.0 , 0.0 , 0.0 , 0.0 , 

73.0 , 4127.17948718 , 4120.0 , 4130.25641026 , 4121.53846154 , 4126.66666667 , 4114.35897436 , 4110.25641026 , 4163.07692308 , 4116.41025641 , 4129.23076923 , 4185.64102564 , 4904.1025641 , 4125.12820513 , 4132.30769231 , 2048.0 , 2038.0 , 112.352 , 0.0 , 0.0 , 0.0 , 0.0 , 

74.0 , 4123.58974359 , 4126.15384615 , 4124.1025641 , 4135.38461538 , 4124.61538462 , 4121.53846154 , 4118.46153846 , 4180.0 , 4128.71794872 , 4132.30769231 , 4189.74358974 , 4900.0 , 4136.41025641 , 4132.30769231 , 2048.0 , 2037.0 , 112.358 , 0.0 , 0.0 , 0.0 , 0.0 , 

75.0 , 4124.1025641 , 4120.0 , 4129.74358974 , 4126.66666667 , 4118.97435897 , 4115.8974359 , 4114.35897436 , 4171.28205128 , 4131.79487179 , 4133.33333333 , 4183.07692308 , 4907.17948718 , 4123.07692308 , 4133.84615385 , 2045.0 , 2039.0 , 112.367 , 0.0 , 0.0 , 0.0 , 0.0 , 

76.0 , 4122.05128205 , 4123.58974359 , 4124.1025641 , 4126.15384615 , 4121.02564103 , 4122.56410256 , 4124.1025641 , 4190.76923077 , 4141.02564103 , 4135.8974359 , 4186.15384615 , 4903.58974359 , 4130.25641026 , 4133.84615385 , 2045.0 , 2039.0 , 112.374 , 0.0 , 0.0 , 0.0 , 0.0 , 

77.0 , 4125.12820513 , 4117.94871795 , 4129.74358974 , 4123.07692308 , 4126.66666667 , 4120.0 , 4117.43589744 , 4189.74358974 , 4129.23076923 , 4134.35897436 , 4184.1025641 , 4904.61538462 , 4126.15384615 , 4134.87179487 , 2046.0 , 2037.0 , 112.382 , 0.0 , 0.0 , 0.0 , 0.0 , 

78.0 , 4128.71794872 , 4123.58974359 , 4130.25641026 , 4129.23076923 , 4128.20512821 , 4125.64102564 , 4130.25641026 , 4191.28205128 , 4129.23076923 , 4136.41025641 , 4185.12820513 , 4903.58974359 , 4129.23076923 , 4134.87179487 , 2047.0 , 2037.0 , 112.39 , 0.0 , 0.0 , 0.0 , 0.0 , 

79.0 , 4126.66666667 , 4120.0 , 4134.35897436 , 4118.97435897 , 4122.56410256 , 4121.02564103 , 4128.20512821 , 4182.05128205 , 4123.07692308 , 4134.87179487 , 4182.05128205 , 4905.12820513 , 4123.07692308 , 4136.92307692 , 2044.0 , 2037.0 , 112.4 , 0.0 , 0.0 , 0.0 , 0.0 , 

80.0 , 4124.61538462 , 4124.61538462 , 4130.25641026 , 4121.53846154 , 4124.1025641 , 4124.1025641 , 4124.1025641 , 4184.1025641 , 4125.12820513 , 4134.87179487 , 4182.05128205 , 4905.64102564 , 4124.61538462 , 4134.87179487 , 2043.0 , 2037.0 , 112.407 , 0.0 , 0.0 , 0.0 , 0.0 , 

81.0 , 4126.66666667 , 4127.17948718 , 4130.76923077 , 4126.15384615 , 4126.66666667 , 4124.61538462 , 4118.46153846 , 4171.28205128 , 4123.58974359 , 4131.79487179 , 4180.51282051 , 4912.30769231 , 4121.02564103 , 4131.79487179 , 2044.0 , 2035.0 , 112.413 , 0.0 , 0.0 , 0.0 , 0.0 , 

82.0 , 4129.74358974 , 4128.71794872 , 4128.20512821 , 4129.74358974 , 4128.20512821 , 4124.61538462 , 4123.07692308 , 4158.46153846 , 4116.92307692 , 4130.76923077 , 4183.07692308 , 4910.76923077 , 4124.1025641 , 4133.33333333 , 2041.0 , 2034.0 , 112.422 , 0.0 , 0.0 , 0.0 , 0.0 , 

83.0 , 4122.56410256 , 4125.12820513 , 4123.58974359 , 4132.82051282 , 4123.58974359 , 4121.53846154 , 4120.51282051 , 4165.64102564 , 4124.61538462 , 4132.30769231 , 4185.64102564 , 4907.17948718 , 4133.33333333 , 4134.87179487 , 2042.0 , 2033.0 , 112.431 , 0.0 , 0.0 , 0.0 , 0.0 , 

84.0 , 4123.58974359 , 4127.69230769 , 4124.61538462 , 4133.33333333 , 4121.53846154 , 4121.53846154 , 4113.84615385 , 4165.12820513 , 4122.56410256 , 4130.76923077 , 4184.1025641 , 4905.12820513 , 4127.69230769 , 4134.87179487 , 2040.0 , 2032.0 , 112.438 , 0.0 , 0.0 , 0.0 , 0.0 , 

85.0 , 4122.56410256 , 4128.20512821 , 4123.07692308 , 4132.30769231 , 4123.07692308 , 4126.15384615 , 4122.05128205 , 4171.28205128 , 4129.23076923 , 4132.30769231 , 4188.20512821 , 4900.51282051 , 4133.84615385 , 4131.28205128 , 2040.0 , 2032.0 , 112.445 , 0.0 , 0.0 , 0.0 , 0.0 , 

86.0 , 4124.1025641 , 4120.0 , 4127.69230769 , 4127.69230769 , 4125.12820513 , 4119.48717949 , 4117.43589744 , 4168.71794872 , 4125.64102564 , 4137.94871795 , 4188.20512821 , 4904.1025641 , 4129.74358974 , 4133.33333333 , 2041.0 , 2032.0 , 112.455 , 0.0 , 0.0 , 0.0 , 0.0 , 

87.0 , 4121.02564103 , 4124.61538462 , 4123.58974359 , 4134.87179487 , 4125.64102564 , 4121.02564103 , 4117.43589744 , 4187.69230769 , 4136.92307692 , 4137.94871795 , 4189.23076923 , 4903.58974359 , 4129.74358974 , 4135.38461538 , 2041.0 , 2031.0 , 112.464 , 0.0 , 0.0 , 0.0 , 0.0 , 

88.0 , 4125.12820513 , 4123.07692308 , 4130.76923077 , 4123.58974359 , 4129.23076923 , 4116.92307692 , 4110.76923077 , 4179.48717949 , 4121.53846154 , 4130.76923077 , 4184.1025641 , 4902.56410256 , 4115.8974359 , 4135.8974359 , 2041.0 , 2032.0 , 112.469 , 0.0 , 0.0 , 0.0 , 0.0 , 

89.0 , 4122.05128205 , 4120.51282051 , 4126.15384615 , 4123.07692308 , 4127.69230769 , 4121.02564103 , 4123.07692308 , 4195.8974359 , 4132.82051282 , 4136.41025641 , 4186.15384615 , 4902.56410256 , 4131.28205128 , 4129.74358974 , 2042.0 , 2034.0 , 112.478 , 0.0 , 0.0 , 0.0 , 0.0 , 

90.0 , 4124.61538462 , 4110.76923077 , 4132.82051282 , 4114.87179487 , 4123.58974359 , 4112.82051282 , 4114.35897436 , 4185.64102564 , 4129.74358974 , 4137.43589744 , 4178.97435897 , 4909.74358974 , 4115.38461538 , 4133.33333333 , 2042.0 , 2033.0 , 112.485 , 0.0 , 0.0 , 0.0 , 0.0 , 

91.0 , 4123.58974359 , 4123.07692308 , 4129.23076923 , 4123.07692308 , 4126.15384615 , 4125.64102564 , 4127.69230769 , 4192.30769231 , 4136.92307692 , 4135.38461538 , 4184.61538462 , 4900.0 , 4120.0 , 4135.8974359 , 2043.0 , 2033.0 , 112.495 , 0.0 , 0.0 , 0.0 , 0.0 , 

92.0 , 4127.69230769 , 4125.12820513 , 4137.94871795 , 4118.97435897 , 4127.17948718 , 4127.17948718 , 4125.12820513 , 4176.41025641 , 4122.56410256 , 4130.25641026 , 4182.05128205 , 4908.20512821 , 4117.43589744 , 4136.92307692 , 2043.0 , 2032.0 , 112.501 , 0.0 , 0.0 , 0.0 , 0.0 , 

93.0 , 4126.15384615 , 4131.28205128 , 4128.20512821 , 4129.74358974 , 4123.07692308 , 4130.76923077 , 4129.23076923 , 4185.64102564 , 4133.84615385 , 4134.87179487 , 4184.61538462 , 4910.25641026 , 4127.69230769 , 4134.35897436 , 2043.0 , 2035.0 , 112.508 , 0.0 , 0.0 , 0.0 , 0.0 , 

94.0 , 4126.66666667 , 4125.12820513 , 4126.15384615 , 4126.15384615 , 4124.61538462 , 4119.48717949 , 4117.94871795 , 4166.15384615 , 4127.17948718 , 4136.41025641 , 4180.51282051 , 4905.64102564 , 4116.41025641 , 4135.38461538 , 2044.0 , 2035.0 , 112.517 , 0.0 , 0.0 , 0.0 , 0.0 , 

95.0 , 4127.17948718 , 4131.79487179 , 4120.51282051 , 4135.38461538 , 4128.71794872 , 4127.69230769 , 4131.28205128 , 4168.71794872 , 4128.71794872 , 4137.43589744 , 4185.64102564 , 4901.02564103 , 4133.33333333 , 4133.33333333 , 2043.0 , 2035.0 , 112.525 , 0.0 , 0.0 , 0.0 , 0.0 , 

96.0 , 4126.15384615 , 4128.20512821 , 4127.17948718 , 4133.33333333 , 4124.1025641 , 4124.1025641 , 4123.58974359 , 4161.53846154 , 4120.0 , 4131.79487179 , 4183.58974359 , 4911.79487179 , 4131.28205128 , 4133.84615385 , 2046.0 , 2034.0 , 112.533 , 0.0 , 0.0 , 0.0 , 0.0 , 

97.0 , 4124.61538462 , 4129.74358974 , 4123.07692308 , 4134.87179487 , 4124.61538462 , 4123.58974359 , 4124.61538462 , 4165.12820513 , 4120.51282051 , 4132.30769231 , 4185.64102564 , 4906.66666667 , 4128.71794872 , 4133.84615385 , 2046.0 , 2034.0 , 112.541 , 0.0 , 0.0 , 0.0 , 0.0 , 

98.0 , 4126.15384615 , 4123.07692308 , 4122.05128205 , 4126.66666667 , 4126.15384615 , 4116.92307692 , 4116.92307692 , 4161.02564103 , 4114.35897436 , 4132.30769231 , 4182.05128205 , 4903.58974359 , 4125.64102564 , 4133.33333333 , 2045.0 , 2033.0 , 112.548 , 0.0 , 0.0 , 0.0 , 0.0 , 

99.0 , 4128.71794872 , 4122.56410256 , 4120.51282051 , 4128.20512821 , 4126.66666667 , 4116.41025641 , 4112.30769231 , 4168.20512821 , 4116.41025641 , 4130.76923077 , 4184.61538462 , 4905.12820513 , 4131.79487179 , 4133.33333333 , 2046.0 , 2034.0 , 112.557 , 0.0 , 0.0 , 0.0 , 0.0 , 

100.0 , 4125.64102564 , 4120.51282051 , 4124.61538462 , 4126.15384615 , 4124.61538462 , 4115.38461538 , 4112.30769231 , 4170.76923077 , 4123.58974359 , 4128.20512821 , 4187.69230769 , 4907.17948718 , 4129.74358974 , 4134.35897436 , 2046.0 , 2034.0 , 112.564 , 0.0 , 0.0 , 0.0 , 0.0 , 

101.0 , 4125.12820513 , 4122.56410256 , 4124.61538462 , 4124.1025641 , 4126.15384615 , 4118.97435897 , 4118.46153846 , 4174.87179487 , 4122.56410256 , 4130.76923077 , 4186.15384615 , 4904.1025641 , 4125.12820513 , 4134.87179487 , 2046.0 , 2036.0 , 112.572 , 0.0 , 0.0 , 0.0 , 0.0 , 

102.0 , 4121.53846154 , 4120.51282051 , 4123.07692308 , 4125.12820513 , 4124.1025641 , 4121.53846154 , 4118.46153846 , 4190.25641026 , 4133.33333333 , 4135.38461538 , 4184.61538462 , 4899.48717949 , 4127.69230769 , 4131.79487179 , 2045.0 , 2034.0 , 112.58 , 0.0 , 0.0 , 0.0 , 0.0 , 

103.0 , 4124.61538462 , 4121.53846154 , 4132.30769231 , 4121.02564103 , 4122.56410256 , 4120.51282051 , 4116.92307692 , 4186.66666667 , 4134.35897436 , 4136.92307692 , 4184.1025641 , 4900.51282051 , 4118.46153846 , 4133.84615385 , 2044.0 , 2034.0 , 112.589 , 0.0 , 0.0 , 0.0 , 0.0 , 

104.0 , 4124.1025641 , 4126.15384615 , 4131.79487179 , 4126.15384615 , 4123.58974359 , 4128.20512821 , 4132.82051282 , 4195.38461538 , 4139.48717949 , 4139.48717949 , 4185.64102564 , 4904.1025641 , 4124.61538462 , 4135.38461538 , 2044.0 , 2034.0 , 112.595 , 0.0 , 0.0 , 0.0 , 0.0 , 

105.0 , 4129.23076923 , 4122.56410256 , 4132.82051282 , 4126.66666667 , 4127.69230769 , 4126.66666667 , 4129.23076923 , 4184.61538462 , 4123.07692308 , 4136.41025641 , 4178.46153846 , 4907.69230769 , 4118.46153846 , 4135.8974359 , 2045.0 , 2034.0 , 112.604 , 0.0 , 0.0 , 0.0 , 0.0 , 

106.0 , 4127.17948718 , 4129.74358974 , 4127.69230769 , 4132.30769231 , 4128.71794872 , 4131.79487179 , 4131.28205128 , 4182.05128205 , 4128.20512821 , 4133.84615385 , 4181.02564103 , 4902.05128205 , 4127.17948718 , 4131.79487179 , 2046.0 , 2035.0 , 112.611 , 0.0 , 0.0 , 0.0 , 0.0 , 

107.0 , 4128.71794872 , 4129.23076923 , 4135.8974359 , 4122.05128205 , 4128.20512821 , 4125.64102564 , 4123.58974359 , 4159.48717949 , 4115.8974359 , 4133.33333333 , 4180.0 , 4910.76923077 , 4117.94871795 , 4132.82051282 , 2046.0 , 2035.0 , 112.621 , 0.0 , 0.0 , 0.0 , 0.0 , 

108.0 , 4125.12820513 , 4128.71794872 , 4127.17948718 , 4129.74358974 , 4129.23076923 , 4126.15384615 , 4127.17948718 , 4173.33333333 , 4121.53846154 , 4136.92307692 , 4184.61538462 , 4911.28205128 , 4129.74358974 , 4132.82051282 , 2045.0 , 2033.0 , 112.626 , 0.0 , 0.0 , 0.0 , 0.0 , 

109.0 , 4131.28205128 , 4120.51282051 , 4130.76923077 , 4126.15384615 , 4128.20512821 , 4117.43589744 , 4112.82051282 , 4159.48717949 , 4108.20512821 , 4131.28205128 , 4179.48717949 , 4907.17948718 , 4120.51282051 , 4136.41025641 , 2044.0 , 2034.0 , 112.634 , 0.0 , 0.0 , 0.0 , 0.0 , 

110.0 , 4129.23076923 , 4129.74358974 , 4124.61538462 , 4131.79487179 , 4125.64102564 , 4128.20512821 , 4125.64102564 , 4165.12820513 , 4119.48717949 , 4129.23076923 , 4184.61538462 , 4900.0 , 4134.87179487 , 4134.35897436 , 2044.0 , 2032.0 , 112.643 , 0.0 , 0.0 , 0.0 , 0.0 , 

111.0 , 4123.07692308 , 4121.02564103 , 4127.69230769 , 4126.66666667 , 4124.61538462 , 4123.07692308 , 4118.97435897 , 4155.8974359 , 4115.8974359 , 4129.23076923 , 4182.56410256 , 4908.71794872 , 4128.71794872 , 4133.33333333 , 2045.0 , 2031.0 , 112.653 , 0.0 , 0.0 , 0.0 , 0.0 , 

112.0 , 4121.02564103 , 4124.1025641 , 4119.48717949 , 4135.8974359 , 4126.66666667 , 4123.58974359 , 4122.56410256 , 4171.79487179 , 4127.69230769 , 4134.87179487 , 4189.23076923 , 4903.58974359 , 4135.8974359 , 4131.28205128 , 2045.0 , 2033.0 , 112.659 , 0.0 , 0.0 , 0.0 , 0.0 , 

113.0 , 4127.69230769 , 4123.07692308 , 4126.15384615 , 4125.12820513 , 4125.64102564 , 4115.38461538 , 4112.82051282 , 4166.66666667 , 4123.07692308 , 4132.30769231 , 4189.23076923 , 4903.07692308 , 4124.61538462 , 4133.33333333 , 2044.0 , 2033.0 , 112.666 , 0.0 , 0.0 , 0.0 , 0.0 , 

114.0 , 4127.17948718 , 4127.69230769 , 4123.07692308 , 4130.25641026 , 4125.64102564 , 4120.51282051 , 4123.07692308 , 4184.1025641 , 4134.35897436 , 4134.87179487 , 4191.79487179 , 4902.56410256 , 4132.30769231 , 4134.35897436 , 2044.0 , 2030.0 , 112.673 , 0.0 , 0.0 , 0.0 , 0.0 , 

115.0 , 4124.1025641 , 4116.92307692 , 4126.15384615 , 4127.17948718 , 4125.64102564 , 4117.94871795 , 4120.51282051 , 4182.56410256 , 4132.30769231 , 4135.8974359 , 4184.1025641 , 4905.12820513 , 4125.64102564 , 4136.92307692 , 2043.0 , 2031.0 , 112.683 , 0.0 , 0.0 , 0.0 , 0.0 , 

116.0 , 4127.17948718 , 4118.46153846 , 4128.71794872 , 4123.07692308 , 4124.1025641 , 4123.58974359 , 4124.61538462 , 4186.66666667 , 4129.74358974 , 4136.41025641 , 4185.64102564 , 4900.0 , 4123.07692308 , 4135.8974359 , 2043.0 , 2032.0 , 112.689 , 0.0 , 0.0 , 0.0 , 0.0 , 

117.0 , 4126.66666667 , 4117.94871795 , 4133.84615385 , 4114.35897436 , 4120.51282051 , 4121.02564103 , 4120.0 , 4186.66666667 , 4128.20512821 , 4135.38461538 , 4184.61538462 , 4905.12820513 , 4116.92307692 , 4134.87179487 , 2043.0 , 2031.0 , 112.698 , 0.0 , 0.0 , 0.0 , 0.0 , 

118.0 , 4126.15384615 , 4122.05128205 , 4131.79487179 , 4121.02564103 , 4125.64102564 , 4122.05128205 , 4125.12820513 , 4185.12820513 , 4131.79487179 , 4135.38461538 , 4182.56410256 , 4905.12820513 , 4117.43589744 , 4135.8974359 , 2043.0 , 2030.0 , 112.706 , 0.0 , 0.0 , 0.0 , 0.0 , 

119.0 , 4125.64102564 , 4124.1025641 , 4131.79487179 , 4125.12820513 , 4125.12820513 , 4124.1025641 , 4128.71794872 , 4178.97435897 , 4130.76923077 , 4133.84615385 , 4182.05128205 , 4904.61538462 , 4119.48717949 , 4133.84615385 , 2042.0 , 2030.0 , 112.716 , 0.0 , 0.0 , 0.0 , 0.0 , 

120.0 , 4130.25641026 , 4126.15384615 , 4133.33333333 , 4125.12820513 , 4123.58974359 , 4125.12820513 , 4124.1025641 , 4168.20512821 , 4123.07692308 , 4134.35897436 , 4182.05128205 , 4908.71794872 , 4119.48717949 , 4133.33333333 , 2043.0 , 2031.0 , 112.722 , 0.0 , 0.0 , 0.0 , 0.0 , 

121.0 , 4127.17948718 , 4127.69230769 , 4126.15384615 , 4132.30769231 , 4125.12820513 , 4126.15384615 , 4122.56410256 , 4169.23076923 , 4130.25641026 , 4134.87179487 , 4181.02564103 , 4907.69230769 , 4130.25641026 , 4134.87179487 , 2044.0 , 2031.0 , 112.73 , 0.0 , 0.0 , 0.0 , 0.0 , 

122.0 , 4129.23076923 , 4128.71794872 , 4124.61538462 , 4133.84615385 , 4129.23076923 , 4124.61538462 , 4123.07692308 , 4158.97435897 , 4115.38461538 , 4131.28205128 , 4177.94871795 , 4904.61538462 , 4124.1025641 , 4135.8974359 , 2044.0 , 2031.0 , 112.738 , 0.0 , 0.0 , 0.0 , 0.0 , 

123.0 , 4129.23076923 , 4130.25641026 , 4118.46153846 , 4139.48717949 , 4127.17948718 , 4128.20512821 , 4127.17948718 , 4170.76923077 , 4116.92307692 , 4132.82051282 , 4185.64102564 , 4903.07692308 , 4133.33333333 , 4131.28205128 , 2043.0 , 2033.0 , 112.747 , 0.0 , 0.0 , 0.0 , 0.0 , 

124.0 , 4132.30769231 , 4122.05128205 , 4124.61538462 , 4130.76923077 , 4125.12820513 , 4121.02564103 , 4112.30769231 , 4163.58974359 , 4116.92307692 , 4132.82051282 , 4186.15384615 , 4909.23076923 , 4131.28205128 , 4132.82051282 , 2043.0 , 2033.0 , 112.752 , 0.0 , 0.0 , 0.0 , 0.0 , 

125.0 , 4127.17948718 , 4124.1025641 , 4122.05128205 , 4128.20512821 , 4124.61538462 , 4124.61538462 , 4117.94871795 , 4175.8974359 , 4131.28205128 , 4133.33333333 , 4189.23076923 , 4905.12820513 , 4137.94871795 , 4132.30769231 , 2042.0 , 2033.0 , 112.761 , 0.0 , 0.0 , 0.0 , 0.0 , 

126.0 , 4127.69230769 , 4116.92307692 , 4129.23076923 , 4117.43589744 , 4124.61538462 , 4114.87179487 , 4109.74358974 , 4166.15384615 , 4115.8974359 , 4130.76923077 , 4184.1025641 , 4906.66666667 , 4122.05128205 , 4132.82051282 , 2043.0 , 2033.0 , 112.769 , 0.0 , 0.0 , 0.0 , 0.0 , 

127.0 , 4124.61538462 , 4120.0 , 4123.58974359 , 4126.15384615 , 4122.56410256 , 4117.43589744 , 4113.33333333 , 4187.17948718 , 4131.28205128 , 4133.84615385 , 4188.20512821 , 4903.58974359 , 4132.82051282 , 4133.33333333 , 2044.0 , 2033.0 , 112.778 , 0.0 , 0.0 , 0.0 , 0.0 , 

128.0 , 4127.17948718 , 4118.46153846 , 4132.30769231 , 4118.97435897 , 4121.02564103 , 4115.38461538 , 4108.71794872 , 4184.1025641 , 4128.71794872 , 4134.35897436 , 4182.56410256 , 4905.64102564 , 4117.94871795 , 4136.92307692 , 2044.0 , 2033.0 , 112.785 , 0.0 , 0.0 , 0.0 , 0.0 , 

0.0 , 4124.1025641 , 4125.12820513 , 4125.64102564 , 4124.61538462 , 4125.12820513 , 4126.66666667 , 4129.74358974 , 4198.46153846 , 4135.38461538 , 4138.97435897 , 4186.66666667 , 4900.0 , 4126.15384615 , 4132.30769231 , 2041.0 , 2034.0 , 112.792 , 0.0 , 0.0 , 0.0 , 0.0 , 

1.0 , 4124.61538462 , 4114.35897436 , 4130.76923077 , 4119.48717949 , 4125.12820513 , 4119.48717949 , 4121.53846154 , 4185.64102564 , 4128.20512821 , 4136.41025641 , 4182.56410256 , 4907.17948718 , 4121.02564103 , 4133.33333333 , 2043.0 , 2035.0 , 112.801 , 0.0 , 0.0 , 0.0 , 0.0 , 

2.0 , 4125.12820513 , 4121.02564103 , 4129.23076923 , 4127.69230769 , 4122.56410256 , 4126.66666667 , 4125.12820513 , 4192.30769231 , 4138.46153846 , 4136.41025641 , 4186.15384615 , 4905.12820513 , 4129.23076923 , 4134.87179487 , 2043.0 , 2035.0 , 112.81 , 0.0 , 0.0 , 0.0 , 0.0 , 

3.0 , 4127.69230769 , 4124.1025641 , 4134.35897436 , 4122.56410256 , 4124.61538462 , 4126.66666667 , 4122.05128205 , 4179.48717949 , 4126.15384615 , 4131.79487179 , 4183.58974359 , 4906.66666667 , 4121.53846154 , 4135.8974359 , 2043.0 , 2034.0 , 112.817 , 0.0 , 0.0 , 0.0 , 0.0 , 

4.0 , 4127.17948718 , 4132.30769231 , 4128.20512821 , 4130.25641026 , 4130.25641026 , 4131.28205128 , 4130.25641026 , 4182.56410256 , 4125.64102564 , 4132.82051282 , 4187.17948718 , 4907.69230769 , 4130.25641026 , 4134.35897436 , 2043.0 , 2035.0 , 112.824 , 0.0 , 0.0 , 0.0 , 0.0 , 

5.0 , 4127.69230769 , 4128.20512821 , 4132.30769231 , 4130.25641026 , 4126.15384615 , 4125.64102564 , 4120.0 , 4167.17948718 , 4121.02564103 , 4133.84615385 , 4181.53846154 , 4912.30769231 , 4122.56410256 , 4133.84615385 , 2044.0 , 2035.0 , 112.832 , 0.0 , 0.0 , 0.0 , 0.0 , 

6.0 , 4132.30769231 , 4130.76923077 , 4129.74358974 , 4134.87179487 , 4123.58974359 , 4126.15384615 , 4119.48717949 , 4161.02564103 , 4116.92307692 , 4132.82051282 , 4180.0 , 4906.66666667 , 4125.64102564 , 4133.84615385 , 2044.0 , 2036.0 , 112.841 , 0.0 , 0.0 , 0.0 , 0.0 , 

7.0 , 4129.23076923 , 4124.61538462 , 4125.12820513 , 4132.30769231 , 4124.1025641 , 4120.51282051 , 4117.43589744 , 4161.53846154 , 4114.87179487 , 4130.76923077 , 4181.02564103 , 4906.15384615 , 4130.76923077 , 4135.38461538 , 2044.0 , 2035.0 , 112.848 , 0.0 , 0.0 , 0.0 , 0.0 , 

8.0 , 4127.17948718 , 4123.07692308 , 4122.05128205 , 4133.84615385 , 4126.66666667 , 4117.43589744 , 4119.48717949 , 4161.53846154 , 4117.94871795 , 4132.30769231 , 4185.64102564 , 4906.66666667 , 4129.74358974 , 4134.35897436 , 2043.0 , 2035.0 , 112.856 , 0.0 , 0.0 , 0.0 , 0.0 , 

9.0 , 4123.58974359 , 4121.53846154 , 4121.53846154 , 4129.74358974 , 4122.56410256 , 4117.43589744 , 4116.41025641 , 4161.53846154 , 4123.07692308 , 4132.30769231 , 4186.66666667 , 4905.12820513 , 4132.30769231 , 4131.28205128 , 2046.0 , 2036.0 , 112.863 , 0.0 , 0.0 , 0.0 , 0.0 , 

10.0 , 4126.15384615 , 4118.46153846 , 4124.1025641 , 4127.17948718 , 4121.53846154 , 4117.94871795 , 4112.30769231 , 4166.15384615 , 4119.48717949 , 4129.74358974 , 4187.17948718 , 4903.58974359 , 4131.79487179 , 4133.33333333 , 2046.0 , 2036.0 , 112.873 , 0.0 , 0.0 , 0.0 , 0.0 , 

11.0 , 4123.58974359 , 4118.46153846 , 4124.61538462 , 4133.33333333 , 4122.05128205 , 4121.53846154 , 4119.48717949 , 4182.56410256 , 4133.84615385 , 4132.30769231 , 4188.71794872 , 4901.02564103 , 4135.38461538 , 4133.33333333 , 2049.0 , 2036.0 , 112.878 , 0.0 , 0.0 , 0.0 , 0.0 , 

12.0 , 4125.64102564 , 4118.46153846 , 4127.69230769 , 4126.15384615 , 4123.07692308 , 4117.94871795 , 4116.92307692 , 4176.41025641 , 4131.79487179 , 4136.41025641 , 4183.58974359 , 4903.58974359 , 4124.61538462 , 4132.30769231 , 2050.0 , 2035.0 , 112.886 , 0.0 , 0.0 , 0.0 , 0.0 , 

13.0 , 4123.58974359 , 4120.0 , 4121.02564103 , 4124.1025641 , 4123.07692308 , 4123.58974359 , 4122.05128205 , 4195.8974359 , 4139.48717949 , 4137.94871795 , 4187.17948718 , 4904.1025641 , 4131.79487179 , 4131.28205128 , 2049.0 , 2032.0 , 112.895 , 0.0 , 0.0 , 0.0 , 0.0 , 

14.0 , 4128.20512821 , 4116.92307692 , 4133.84615385 , 4120.0 , 4126.66666667 , 4123.07692308 , 4120.0 , 4188.71794872 , 4128.71794872 , 4133.84615385 , 4184.1025641 , 4909.74358974 , 4116.92307692 , 4135.38461538 , 2048.0 , 2032.0 , 112.905 , 0.0 , 0.0 , 0.0 , 0.0 , 

15.0 , 4126.15384615 , 4123.07692308 , 4133.33333333 , 4125.12820513 , 4125.64102564 , 4128.20512821 , 4133.84615385 , 4190.76923077 , 4136.92307692 , 4136.41025641 , 4182.05128205 , 4907.69230769 , 4121.02564103 , 4132.82051282 , 2047.0 , 2034.0 , 112.911 , 0.0 , 0.0 , 0.0 , 0.0 , 

16.0 , 4129.23076923 , 4116.92307692 , 4133.84615385 , 4114.87179487 , 4122.56410256 , 4118.46153846 , 4123.07692308 , 4172.82051282 , 4123.58974359 , 4135.38461538 , 4174.87179487 , 4910.76923077 , 4113.84615385 , 4133.84615385 , 2047.0 , 2035.0 , 112.918 , 0.0 , 0.0 , 0.0 , 0.0 , 

17.0 , 4127.69230769 , 4125.64102564 , 4125.12820513 , 4126.66666667 , 4124.61538462 , 4125.64102564 , 4127.69230769 , 4184.61538462 , 4132.82051282 , 4134.35897436 , 4183.07692308 , 4907.17948718 , 4126.15384615 , 4131.79487179 , 2046.0 , 2036.0 , 112.927 , 0.0 , 0.0 , 0.0 , 0.0 , 

18.0 , 4129.23076923 , 4127.17948718 , 4135.38461538 , 4125.12820513 , 4126.66666667 , 4123.58974359 , 4117.94871795 , 4164.1025641 , 4120.51282051 , 4131.79487179 , 4178.97435897 , 4911.79487179 , 4116.41025641 , 4133.84615385 , 2047.0 , 2036.0 , 112.935 , 0.0 , 0.0 , 0.0 , 0.0 , 

19.0 , 4126.66666667 , 4130.76923077 , 4125.64102564 , 4133.84615385 , 4128.71794872 , 4127.69230769 , 4126.15384615 , 4168.20512821 , 4127.17948718 , 4136.92307692 , 4182.56410256 , 4905.64102564 , 4134.35897436 , 4132.30769231 , 2047.0 , 2037.0 , 112.941 , 0.0 , 0.0 , 0.0 , 0.0 , 

20.0 , 4126.66666667 , 4121.02564103 , 4125.64102564 , 4129.74358974 , 4127.17948718 , 4118.46153846 , 4117.94871795 , 4158.97435897 , 4122.05128205 , 4134.35897436 , 4182.56410256 , 4905.64102564 , 4129.74358974 , 4134.35897436 , 2044.0 , 2036.0 , 112.949 , 0.0 , 0.0 , 0.0 , 0.0 , 

21.0 , 4124.1025641 , 4130.25641026 , 4122.56410256 , 4134.87179487 , 4124.61538462 , 4127.17948718 , 4127.17948718 , 4170.25641026 , 4128.71794872 , 4131.79487179 , 4188.71794872 , 4900.51282051 , 4134.87179487 , 4134.35897436 , 2044.0 , 2035.0 , 112.958 , 0.0 , 0.0 , 0.0 , 0.0 , 

22.0 , 4122.56410256 , 4124.61538462 , 4125.12820513 , 4126.15384615 , 4123.07692308 , 4121.53846154 , 4116.92307692 , 4166.15384615 , 4120.51282051 , 4130.76923077 , 4185.64102564 , 4904.1025641 , 4129.23076923 , 4134.87179487 , 2043.0 , 2034.0 , 112.967 , 0.0 , 0.0 , 0.0 , 0.0 , 

23.0 , 4126.15384615 , 4123.58974359 , 4120.0 , 4128.71794872 , 4123.58974359 , 4116.92307692 , 4120.0 , 4177.43589744 , 4125.64102564 , 4135.38461538 , 4188.20512821 , 4902.56410256 , 4132.30769231 , 4132.82051282 , 2044.0 , 2033.0 , 112.974 , 0.0 , 0.0 , 0.0 , 0.0 , 

24.0 , 4129.23076923 , 4117.43589744 , 4127.17948718 , 4119.48717949 , 4121.02564103 , 4113.33333333 , 4116.92307692 , 4176.41025641 , 4125.64102564 , 4134.35897436 , 4185.12820513 , 4903.58974359 , 4120.0 , 4132.82051282 , 2041.0 , 2034.0 , 112.982 , 0.0 , 0.0 , 0.0 , 0.0 , 

25.0 , 4126.66666667 , 4118.97435897 , 4128.20512821 , 4117.43589744 , 4122.05128205 , 4118.46153846 , 4120.0 , 4183.07692308 , 4128.20512821 , 4133.84615385 , 4186.15384615 , 4901.53846154 , 4124.61538462 , 4134.87179487 , 2041.0 , 2034.0 , 112.99 , 0.0 , 0.0 , 0.0 , 0.0 , 

26.0 , 4121.02564103 , 4116.41025641 , 4128.71794872 , 4116.92307692 , 4124.61538462 , 4117.43589744 , 4117.43589744 , 4189.23076923 , 4134.87179487 , 4134.87179487 , 4186.15384615 , 4907.69230769 , 4129.74358974 , 4136.92307692 , 2041.0 , 2034.0 , 112.998 , 0.0 , 0.0 , 0.0 , 0.0 , 

27.0 , 4124.1025641 , 4118.97435897 , 4130.76923077 , 4119.48717949 , 4124.61538462 , 4121.02564103 , 4120.0 , 4185.64102564 , 4132.82051282 , 4135.8974359 , 4185.64102564 , 4907.69230769 , 4120.0 , 4136.41025641 , 2041.0 , 2033.0 , 113.005 , 0.0 , 0.0 , 0.0 , 0.0 , 

28.0 , 4124.1025641 , 4121.53846154 , 4129.23076923 , 4123.07692308 , 4120.51282051 , 4128.20512821 , 4128.20512821 , 4187.69230769 , 4130.76923077 , 4134.35897436 , 4185.12820513 , 4903.07692308 , 4122.05128205 , 4131.28205128 , 2041.0 , 2032.0 , 113.013 , 0.0 , 0.0 , 0.0 , 0.0 , 

29.0 , 4127.69230769 , 4125.64102564 , 4131.28205128 , 4126.66666667 , 4122.05128205 , 4128.20512821 , 4130.76923077 , 4182.05128205 , 4121.53846154 , 4134.35897436 , 4181.53846154 , 4903.07692308 , 4121.02564103 , 4133.33333333 , 2042.0 , 2033.0 , 113.022 , 0.0 , 0.0 , 0.0 , 0.0 , 

30.0 , 4126.15384615 , 4130.76923077 , 4127.69230769 , 4131.28205128 , 4123.58974359 , 4130.76923077 , 4131.28205128 , 4180.51282051 , 4128.71794872 , 4135.38461538 , 4184.1025641 , 4905.12820513 , 4125.12820513 , 4134.35897436 , 2042.0 , 2032.0 , 113.03 , 0.0 , 0.0 , 0.0 , 0.0 , 

31.0 , 4128.20512821 , 4125.64102564 , 4126.15384615 , 4126.15384615 , 4124.1025641 , 4125.64102564 , 4121.53846154 , 4163.58974359 , 4117.43589744 , 4133.33333333 , 4183.07692308 , 4909.74358974 , 4117.43589744 , 4134.87179487 , 2042.0 , 2032.0 , 113.036 , 0.0 , 0.0 , 0.0 , 0.0 , 

32.0 , 4126.66666667 , 4126.66666667 , 4119.48717949 , 4135.38461538 , 4123.07692308 , 4125.12820513 , 4127.69230769 , 4176.92307692 , 4124.61538462 , 4136.92307692 , 4182.56410256 , 4906.15384615 , 4132.82051282 , 4133.33333333 , 2044.0 , 2032.0 , 113.045 , 0.0 , 0.0 , 0.0 , 0.0 , 

33.0 , 4133.84615385 , 4125.12820513 , 4128.71794872 , 4129.74358974 , 4124.61538462 , 4117.43589744 , 4114.35897436 , 4160.51282051 , 4116.92307692 , 4135.38461538 , 4176.92307692 , 4908.20512821 , 4124.1025641 , 4136.41025641 , 2044.0 , 2032.0 , 113.053 , 0.0 , 0.0 , 0.0 , 0.0 , 

34.0 , 4129.74358974 , 4127.17948718 , 4121.53846154 , 4130.25641026 , 4124.61538462 , 4123.07692308 , 4115.8974359 , 4166.66666667 , 4125.64102564 , 4132.82051282 , 4187.17948718 , 4904.61538462 , 4135.38461538 , 4133.84615385 , 2043.0 , 2032.0 , 113.063 , 0.0 , 0.0 , 0.0 , 0.0 , 

35.0 , 4127.17948718 , 4117.94871795 , 4124.1025641 , 4124.61538462 , 4123.07692308 , 4114.35897436 , 4106.15384615 , 4163.07692308 , 4112.30769231 , 4131.28205128 , 4186.66666667 , 4907.69230769 , 4128.71794872 , 4134.35897436 , 2044.0 , 2031.0 , 113.068 , 0.0 , 0.0 , 0.0 , 0.0 , 

36.0 , 4125.12820513 , 4126.15384615 , 4119.48717949 , 4131.79487179 , 4123.58974359 , 4120.0 , 4115.38461538 , 4176.92307692 , 4125.64102564 , 4134.87179487 , 4187.17948718 , 4900.0 , 4135.38461538 , 4131.28205128 , 2044.0 , 2032.0 , 113.075 , 0.0 , 0.0 , 0.0 , 0.0 , 

37.0 , 4128.71794872 , 4121.02564103 , 4127.17948718 , 4120.51282051 , 4124.61538462 , 4114.35897436 , 4108.71794872 , 4160.51282051 , 4123.07692308 , 4131.79487179 , 4182.05128205 , 4903.07692308 , 4122.56410256 , 4130.76923077 , 2044.0 , 2033.0 , 113.084 , 0.0 , 0.0 , 0.0 , 0.0 , 

38.0 , 4124.1025641 , 4121.53846154 , 4120.0 , 4129.74358974 , 4124.61538462 , 4120.51282051 , 4120.51282051 , 4184.61538462 , 4137.43589744 , 4134.35897436 , 4188.71794872 , 4901.02564103 , 4135.8974359 , 4132.30769231 , 2044.0 , 2033.0 , 113.093 , 0.0 , 0.0 , 0.0 , 0.0 , 

39.0 , 4123.58974359 , 4116.92307692 , 4125.12820513 , 4124.1025641 , 4121.02564103 , 4115.8974359 , 4114.35897436 , 4185.64102564 , 4135.38461538 , 4133.33333333 , 4185.64102564 , 4905.12820513 , 4125.12820513 , 4135.8974359 , 2044.0 , 2033.0 , 113.099 , 0.0 , 0.0 , 0.0 , 0.0 , 

40.0 , 4127.17948718 , 4123.58974359 , 4125.12820513 , 4124.1025641 , 4123.07692308 , 4124.61538462 , 4126.15384615 , 4193.84615385 , 4141.53846154 , 4134.35897436 , 4187.69230769 , 4901.02564103 , 4123.58974359 , 4134.35897436 , 2043.0 , 2032.0 , 113.108 , 0.0 , 0.0 , 0.0 , 0.0 , 

41.0 , 4128.20512821 , 4118.46153846 , 4133.33333333 , 4120.51282051 , 4125.64102564 , 4121.02564103 , 4126.15384615 , 4187.69230769 , 4132.30769231 , 4133.84615385 , 4183.58974359 , 4904.1025641 , 4117.43589744 , 4133.84615385 , 2043.0 , 2033.0 , 113.115 , 0.0 , 0.0 , 0.0 , 0.0 , 

42.0 , 4127.69230769 , 4126.66666667 , 4132.30769231 , 4126.66666667 , 4128.71794872 , 4126.15384615 , 4130.25641026 , 4185.64102564 , 4130.76923077 , 4135.8974359 , 4182.56410256 , 4905.12820513 , 4122.56410256 , 4130.76923077 , 2043.0 , 2031.0 , 113.125 , 0.0 , 0.0 , 0.0 , 0.0 , 

43.0 , 4127.17948718 , 4128.20512821 , 4133.33333333 , 4121.02564103 , 4126.15384615 , 4127.69230769 , 4121.53846154 , 4171.28205128 , 4124.61538462 , 4133.33333333 , 4178.46153846 , 4911.79487179 , 4119.48717949 , 4131.79487179 , 2045.0 , 2031.0 , 113.131 , 0.0 , 0.0 , 0.0 , 0.0 , 

44.0 , 4128.20512821 , 4128.20512821 , 4129.23076923 , 4127.69230769 , 4122.56410256 , 4128.20512821 , 4122.56410256 , 4169.23076923 , 4121.02564103 , 4133.33333333 , 4180.51282051 , 4910.25641026 , 4122.56410256 , 4135.38461538 , 2044.0 , 2034.0 , 113.139 , 0.0 , 0.0 , 0.0 , 0.0 , 

45.0 , 4127.17948718 , 4125.64102564 , 4126.66666667 , 4134.87179487 , 4122.56410256 , 4124.1025641 , 4120.0 , 4165.64102564 , 4124.1025641 , 4132.82051282 , 4181.02564103 , 4906.66666667 , 4126.15384615 , 4135.38461538 , 2044.0 , 2034.0 , 113.147 , 0.0 , 0.0 , 0.0 , 0.0 , 

46.0 , 4129.23076923 , 4128.20512821 , 4128.71794872 , 4131.79487179 , 4126.66666667 , 4125.64102564 , 4119.48717949 , 4155.8974359 , 4118.46153846 , 4130.76923077 , 4180.51282051 , 4905.64102564 , 4125.12820513 , 4131.28205128 , 2044.0 , 2033.0 , 113.156 , 0.0 , 0.0 , 0.0 , 0.0 , 

47.0 , 4125.12820513 , 4126.66666667 , 4124.61538462 , 4129.23076923 , 4122.56410256 , 4126.66666667 , 4122.05128205 , 4166.15384615 , 4126.15384615 , 4132.30769231 , 4184.61538462 , 4905.12820513 , 4134.87179487 , 4128.71794872 , 2045.0 , 2033.0 , 113.162 , 0.0 , 0.0 , 0.0 , 0.0 , 

48.0 , 4129.23076923 , 4124.1025641 , 4124.1025641 , 4129.74358974 , 4121.02564103 , 4118.97435897 , 4113.84615385 , 4167.17948718 , 4125.12820513 , 4134.87179487 , 4186.15384615 , 4904.61538462 , 4133.33333333 , 4132.82051282 , 2045.0 , 2031.0 , 113.171 , 0.0 , 0.0 , 0.0 , 0.0 , 

49.0 , 4127.17948718 , 4127.69230769 , 4121.02564103 , 4132.82051282 , 4124.61538462 , 4122.05128205 , 4118.46153846 , 4177.43589744 , 4131.79487179 , 4134.87179487 , 4187.17948718 , 4901.02564103 , 4138.46153846 , 4131.28205128 , 2044.0 , 2032.0 , 113.179 , 0.0 , 0.0 , 0.0 , 0.0 , 

50.0 , 4126.15384615 , 4119.48717949 , 4129.74358974 , 4122.05128205 , 4124.61538462 , 4116.92307692 , 4115.8974359 , 4169.74358974 , 4122.05128205 , 4131.28205128 , 4181.53846154 , 4904.61538462 , 4124.61538462 , 4131.28205128 , 2046.0 , 2033.0 , 113.188 , 0.0 , 0.0 , 0.0 , 0.0 , 

51.0 , 4122.56410256 , 4120.0 , 4124.1025641 , 4124.1025641 , 4122.05128205 , 4118.46153846 , 4120.51282051 , 4187.69230769 , 4138.46153846 , 4133.33333333 , 4184.61538462 , 4902.56410256 , 4128.20512821 , 4132.82051282 , 2046.0 , 2034.0 , 113.194 , 0.0 , 0.0 , 0.0 , 0.0 , 

52.0 , 4128.20512821 , 4118.97435897 , 4130.76923077 , 4115.8974359 , 4123.58974359 , 4116.41025641 , 4108.20512821 , 4178.97435897 , 4129.74358974 , 4130.25641026 , 4179.48717949 , 4906.15384615 , 4114.87179487 , 4136.92307692 , 2045.0 , 2033.0 , 113.203 , 0.0 , 0.0 , 0.0 , 0.0 , 

53.0 , 4123.07692308 , 4122.05128205 , 4127.17948718 , 4122.05128205 , 4122.05128205 , 4127.17948718 , 4123.07692308 , 4195.8974359 , 4135.8974359 , 4133.33333333 , 4183.58974359 , 4903.58974359 , 4123.58974359 , 4132.30769231 , 2044.0 , 2032.0 , 113.21 , 0.0 , 0.0 , 0.0 , 0.0 , 

54.0 , 4124.1025641 , 4112.82051282 , 4133.84615385 , 4118.46153846 , 4120.0 , 4117.94871795 , 4120.0 , 4186.15384615 , 4128.20512821 , 4135.8974359 , 4179.48717949 , 4907.17948718 , 4112.30769231 , 4132.30769231 , 2046.0 , 2032.0 , 113.219 , 0.0 , 0.0 , 0.0 , 0.0 , 

55.0 , 4125.12820513 , 4124.1025641 , 4126.66666667 , 4126.15384615 , 4125.64102564 , 4125.64102564 , 4126.15384615 , 4192.82051282 , 4136.41025641 , 4138.46153846 , 4184.1025641 , 4902.56410256 , 4123.07692308 , 4132.30769231 , 2044.0 , 2031.0 , 113.225 , 0.0 , 0.0 , 0.0 , 0.0 , 

56.0 , 4125.64102564 , 4125.12820513 , 4133.33333333 , 4117.43589744 , 4127.69230769 , 4125.64102564 , 4118.97435897 , 4173.84615385 , 4123.07692308 , 4133.84615385 , 4180.0 , 4909.23076923 , 4118.46153846 , 4134.87179487 , 2045.0 , 2030.0 , 113.234 , 0.0 , 0.0 , 0.0 , 0.0 , 

57.0 , 4124.1025641 , 4131.79487179 , 4124.61538462 , 4128.71794872 , 4124.61538462 , 4130.76923077 , 4129.74358974 , 4178.97435897 , 4132.82051282 , 4134.35897436 , 4184.1025641 , 4905.64102564 , 4131.28205128 , 4133.33333333 , 2045.0 , 2030.0 , 113.241 , 0.0 , 0.0 , 0.0 , 0.0 , 

58.0 , 4128.20512821 , 4127.17948718 , 4126.15384615 , 4129.23076923 , 4121.53846154 , 4123.58974359 , 4120.0 , 4163.07692308 , 4123.07692308 , 4132.30769231 , 4182.05128205 , 4905.64102564 , 4124.61538462 , 4134.35897436 , 2045.0 , 2031.0 , 113.251 , 0.0 , 0.0 , 0.0 , 0.0 , 

59.0 , 4127.17948718 , 4131.28205128 , 4124.1025641 , 4134.87179487 , 4121.53846154 , 4128.20512821 , 4124.1025641 , 4166.15384615 , 4117.94871795 , 4132.30769231 , 4186.66666667 , 4902.56410256 , 4133.33333333 , 4135.38461538 , 2044.0 , 2030.0 , 113.259 , 0.0 , 0.0 , 0.0 , 0.0 , 

60.0 , 4124.1025641 , 4126.15384615 , 4126.66666667 , 4130.25641026 , 4121.02564103 , 4120.0 , 4116.92307692 , 4161.53846154 , 4114.35897436 , 4129.23076923 , 4182.56410256 , 4907.17948718 , 4130.25641026 , 4136.41025641 , 2043.0 , 2032.0 , 113.265 , 0.0 , 0.0 , 0.0 , 0.0 , 

61.0 , 4129.23076923 , 4126.15384615 , 4121.53846154 , 4131.79487179 , 4123.07692308 , 4118.46153846 , 4114.87179487 , 4164.1025641 , 4121.53846154 , 4129.74358974 , 4182.05128205 , 4905.64102564 , 4131.28205128 , 4133.84615385 , 2044.0 , 2031.0 , 113.273 , 0.0 , 0.0 , 0.0 , 0.0 , 

62.0 , 4128.71794872 , 4116.41025641 , 4123.07692308 , 4123.58974359 , 4122.56410256 , 4115.8974359 , 4110.76923077 , 4164.61538462 , 4122.05128205 , 4130.76923077 , 4183.07692308 , 4906.15384615 , 4129.23076923 , 4132.82051282 , 2043.0 , 2032.0 , 113.283 , 0.0 , 0.0 , 0.0 , 0.0 , 

63.0 , 4126.15384615 , 4117.43589744 , 4124.1025641 , 4125.64102564 , 4124.61538462 , 4117.94871795 , 4114.87179487 , 4170.76923077 , 4126.15384615 , 4134.35897436 , 4184.1025641 , 4904.61538462 , 4129.74358974 , 4134.35897436 , 2043.0 , 2032.0 , 113.289 , 0.0 , 0.0 , 0.0 , 0.0 , 

64.0 , 4123.07692308 , 4121.53846154 , 4121.53846154 , 4129.74358974 , 4123.58974359 , 4118.97435897 , 4112.30769231 , 4175.8974359 , 4134.87179487 , 4135.38461538 , 4182.05128205 , 4904.61538462 , 4129.23076923 , 4132.82051282 , 2044.0 , 2032.0 , 113.297 , 0.0 , 0.0 , 0.0 , 0.0 , 

65.0 , 4124.1025641 , 4121.02564103 , 4125.64102564 , 4123.58974359 , 4121.53846154 , 4117.43589744 , 4109.74358974 , 4177.43589744 , 4128.71794872 , 4134.35897436 , 4183.07692308 , 4905.12820513 , 4124.61538462 , 4132.30769231 , 2042.0 , 2031.0 , 113.305 , 0.0 , 0.0 , 0.0 , 0.0 , 

66.0 , 4122.56410256 , 4119.48717949 , 4126.15384615 , 4122.56410256 , 4121.53846154 , 4119.48717949 , 4121.02564103 , 4195.38461538 , 4136.41025641 , 4135.38461538 , 4187.69230769 , 4902.56410256 , 4128.71794872 , 4132.82051282 , 2043.0 , 2030.0 , 113.315 , 0.0 , 0.0 , 0.0 , 0.0 , 

67.0 , 4129.74358974 , 4121.02564103 , 4128.71794872 , 4122.05128205 , 4127.69230769 , 4118.97435897 , 4121.02564103 , 4190.76923077 , 4131.28205128 , 4135.38461538 , 4184.1025641 , 4903.07692308 , 4116.41025641 , 4134.87179487 , 2042.0 , 2031.0 , 113.32 , 0.0 , 0.0 , 0.0 , 0.0 , 

68.0 , 4125.12820513 , 4126.15384615 , 4124.61538462 , 4128.71794872 , 4127.17948718 , 4129.23076923 , 4128.71794872 , 4196.41025641 , 4133.84615385 , 4136.41025641 , 4184.61538462 , 4902.56410256 , 4125.12820513 , 4131.79487179 , 2042.0 , 2032.0 , 113.329 , 0.0 , 0.0 , 0.0 , 0.0 , 

69.0 , 4126.66666667 , 4123.07692308 , 4132.30769231 , 4124.61538462 , 4125.12820513 , 4127.69230769 , 4124.1025641 , 4175.38461538 , 4118.97435897 , 4134.35897436 , 4178.46153846 , 4910.25641026 , 4121.02564103 , 4133.33333333 , 2042.0 , 2033.0 , 113.336 , 0.0 , 0.0 , 0.0 , 0.0 , 

70.0 , 4127.69230769 , 4128.71794872 , 4128.20512821 , 4131.79487179 , 4126.15384615 , 4130.25641026 , 4125.12820513 , 4176.41025641 , 4128.20512821 , 4134.87179487 , 4178.46153846 , 4909.74358974 , 4126.15384615 , 4132.82051282 , 2042.0 , 2033.0 , 113.344 , 0.0 , 0.0 , 0.0 , 0.0 , 

71.0 , 4132.82051282 , 4125.64102564 , 4135.8974359 , 4124.1025641 , 4127.69230769 , 4120.51282051 , 4112.30769231 , 4160.0 , 4111.79487179 , 4128.20512821 , 4174.87179487 , 4911.79487179 , 4113.33333333 , 4135.38461538 , 2043.0 , 2035.0 , 113.351 , 0.0 , 0.0 , 0.0 , 0.0 , 

72.0 , 4129.23076923 , 4128.71794872 , 4128.20512821 , 4130.76923077 , 4127.17948718 , 4125.64102564 , 4123.58974359 , 4171.28205128 , 4118.46153846 , 4130.76923077 , 4182.56410256 , 4907.17948718 , 4129.74358974 , 4131.28205128 , 2043.0 , 2036.0 , 113.359 , 0.0 , 0.0 , 0.0 , 0.0 , 

73.0 , 4127.69230769 , 4121.53846154 , 4128.71794872 , 4128.20512821 , 4125.64102564 , 4120.51282051 , 4114.35897436 , 4157.94871795 , 4114.87179487 , 4132.82051282 , 4181.02564103 , 4911.28205128 , 4123.07692308 , 4132.30769231 , 2042.0 , 2037.0 , 113.367 , 0.0 , 0.0 , 0.0 , 0.0 , 

74.0 , 4123.07692308 , 4130.25641026 , 4121.53846154 , 4135.38461538 , 4125.64102564 , 4125.12820513 , 4120.51282051 , 4167.17948718 , 4127.69230769 , 4133.84615385 , 4188.20512821 , 4905.64102564 , 4134.35897436 , 4133.84615385 , 2044.0 , 2038.0 , 113.376 , 0.0 , 0.0 , 0.0 , 0.0 , 

75.0 , 4125.64102564 , 4121.53846154 , 4129.23076923 , 4124.1025641 , 4123.07692308 , 4117.94871795 , 4114.35897436 , 4157.43589744 , 4118.97435897 , 4129.74358974 , 4184.61538462 , 4903.58974359 , 4129.74358974 , 4135.8974359 , 2044.0 , 2039.0 , 113.383 , 0.0 , 0.0 , 0.0 , 0.0 , 

76.0 , 4125.64102564 , 4122.05128205 , 4121.53846154 , 4131.79487179 , 4124.61538462 , 4122.56410256 , 4122.05128205 , 4175.8974359 , 4130.76923077 , 4132.30769231 , 4188.20512821 , 4895.8974359 , 4137.94871795 , 4134.35897436 , 2044.0 , 2039.0 , 113.391 , 0.0 , 0.0 , 0.0 , 0.0 , 

77.0 , 4124.61538462 , 4118.46153846 , 4125.64102564 , 4129.74358974 , 4124.61538462 , 4116.92307692 , 4111.79487179 , 4173.84615385 , 4130.76923077 , 4131.79487179 , 4185.12820513 , 4902.05128205 , 4124.1025641 , 4133.84615385 , 2043.0 , 2037.0 , 113.399 , 0.0 , 0.0 , 0.0 , 0.0 , 

78.0 , 4125.12820513 , 4124.1025641 , 4127.17948718 , 4129.23076923 , 4122.05128205 , 4121.02564103 , 4120.0 , 4182.05128205 , 4132.82051282 , 4134.87179487 , 4186.66666667 , 4901.53846154 , 4126.66666667 , 4129.74358974 , 2043.0 , 2037.0 , 113.409 , 0.0 , 0.0 , 0.0 , 0.0 , 

79.0 , 4125.12820513 , 4116.41025641 , 4133.33333333 , 4118.97435897 , 4118.97435897 , 4118.97435897 , 4119.48717949 , 4183.07692308 , 4127.69230769 , 4134.87179487 , 4182.56410256 , 4902.56410256 , 4121.02564103 , 4130.25641026 , 2044.0 , 2037.0 , 113.414 , 0.0 , 0.0 , 0.0 , 0.0 , 

80.0 , 4125.12820513 , 4120.0 , 4131.79487179 , 4122.05128205 , 4125.12820513 , 4124.1025641 , 4124.1025641 , 4190.25641026 , 4131.79487179 , 4134.35897436 , 4182.05128205 , 4902.05128205 , 4116.92307692 , 4134.35897436 , 2044.0 , 2036.0 , 113.423 , 0.0 , 0.0 , 0.0 , 0.0 , 

81.0 , 4123.58974359 , 4123.07692308 , 4133.84615385 , 4123.07692308 , 4125.12820513 , 4124.61538462 , 4123.58974359 , 4188.20512821 , 4133.84615385 , 4134.35897436 , 4177.94871795 , 4907.69230769 , 4115.38461538 , 4132.82051282 , 2045.0 , 2035.0 , 113.43 , 0.0 , 0.0 , 0.0 , 0.0 , 

82.0 , 4124.61538462 , 4126.66666667 , 4133.33333333 , 4125.12820513 , 4124.1025641 , 4126.15384615 , 4123.07692308 , 4183.58974359 , 4128.20512821 , 4137.43589744 , 4177.43589744 , 4908.20512821 , 4117.43589744 , 4131.79487179 , 2043.0 , 2034.0 , 113.44 , 0.0 , 0.0 , 0.0 , 0.0 , 

83.0 , 4121.02564103 , 4127.69230769 , 4130.25641026 , 4127.17948718 , 4126.15384615 , 4125.12820513 , 4121.53846154 , 4181.53846154 , 4131.79487179 , 4135.8974359 , 4181.53846154 , 4905.64102564 , 4122.56410256 , 4133.33333333 , 2045.0 , 2033.0 , 113.446 , 0.0 , 0.0 , 0.0 , 0.0 , 

84.0 , 4126.15384615 , 4126.66666667 , 4132.30769231 , 4124.61538462 , 4129.23076923 , 4121.53846154 , 4119.48717949 , 4166.66666667 , 4126.15384615 , 4132.82051282 , 4182.56410256 , 4906.15384615 , 4121.02564103 , 4134.87179487 , 2046.0 , 2035.0 , 113.455 , 0.0 , 0.0 , 0.0 , 0.0 , 

85.0 , 4126.15384615 , 4127.69230769 , 4125.64102564 , 4129.74358974 , 4127.17948718 , 4127.17948718 , 4125.64102564 , 4172.30769231 , 4129.74358974 , 4131.79487179 , 4185.64102564 , 4906.66666667 , 4132.82051282 , 4132.30769231 , 2047.0 , 2035.0 , 113.462 , 0.0 , 0.0 , 0.0 , 0.0 , 

86.0 , 4129.23076923 , 4128.20512821 , 4126.66666667 , 4131.79487179 , 4125.64102564 , 4125.64102564 , 4116.92307692 , 4165.12820513 , 4117.94871795 , 4129.74358974 , 4184.61538462 , 4909.23076923 , 4125.64102564 , 4134.87179487 , 2046.0 , 2034.0 , 113.471 , 0.0 , 0.0 , 0.0 , 0.0 , 

87.0 , 4123.58974359 , 4129.23076923 , 4120.51282051 , 4137.43589744 , 4124.61538462 , 4123.58974359 , 4119.48717949 , 4173.84615385 , 4125.12820513 , 4131.79487179 , 4187.17948718 , 4903.58974359 , 4133.84615385 , 4133.33333333 , 2045.0 , 2032.0 , 113.477 , 0.0 , 0.0 , 0.0 , 0.0 , 

88.0 , 4125.64102564 , 4117.94871795 , 4125.64102564 , 4127.17948718 , 4123.58974359 , 4110.25641026 , 4110.25641026 , 4160.51282051 , 4113.84615385 , 4130.76923077 , 4182.56410256 , 4907.69230769 , 4126.15384615 , 4131.28205128 , 2046.0 , 2032.0 , 113.485 , 0.0 , 0.0 , 0.0 , 0.0 , 

89.0 , 4126.15384615 , 4122.05128205 , 4122.56410256 , 4129.23076923 , 4123.07692308 , 4118.97435897 , 4114.87179487 , 4176.92307692 , 4127.17948718 , 4130.76923077 , 4185.12820513 , 4904.1025641 , 4133.33333333 , 4128.71794872 , 2047.0 , 2031.0 , 113.494 , 0.0 , 0.0 , 0.0 , 0.0 , 

90.0 , 4128.71794872 , 4116.41025641 , 4131.79487179 , 4118.46153846 , 4125.12820513 , 4116.92307692 , 4107.69230769 , 4172.30769231 , 4120.51282051 , 4130.25641026 , 4180.0 , 4905.12820513 , 4119.48717949 , 4134.87179487 , 2046.0 , 2032.0 , 113.502 , 0.0 , 0.0 , 0.0 , 0.0 , 

91.0 , 4121.53846154 , 4118.97435897 , 4124.1025641 , 4126.66666667 , 4125.12820513 , 4118.97435897 , 4123.07692308 , 4192.82051282 , 4133.33333333 , 4134.87179487 , 4186.15384615 , 4904.61538462 , 4130.76923077 , 4136.41025641 , 2044.0 , 2034.0 , 113.509 , 0.0 , 0.0 , 0.0 , 0.0 , 

92.0 , 4123.58974359 , 4116.92307692 , 4128.71794872 , 4122.56410256 , 4123.58974359 , 4112.30769231 , 4117.43589744 , 4183.58974359 , 4131.79487179 , 4131.79487179 , 4184.61538462 , 4909.74358974 , 4119.48717949 , 4135.38461538 , 2045.0 , 2035.0 , 113.517 , 0.0 , 0.0 , 0.0 , 0.0 , 

93.0 , 4126.66666667 , 4127.17948718 , 4124.1025641 , 4127.69230769 , 4122.56410256 , 4125.12820513 , 4126.15384615 , 4193.33333333 , 4142.56410256 , 4133.33333333 , 4188.71794872 , 4901.53846154 , 4127.17948718 , 4131.79487179 , 2044.0 , 2036.0 , 113.526 , 0.0 , 0.0 , 0.0 , 0.0 , 

94.0 , 4127.17948718 , 4120.0 , 4131.28205128 , 4119.48717949 , 4123.07692308 , 4123.58974359 , 4118.97435897 , 4186.15384615 , 4130.76923077 , 4133.84615385 , 4182.05128205 , 4904.1025641 , 4122.05128205 , 4132.82051282 , 2046.0 , 2036.0 , 113.535 , 0.0 , 0.0 , 0.0 , 0.0 , 

95.0 , 4125.64102564 , 4125.12820513 , 4128.20512821 , 4127.69230769 , 4126.66666667 , 4130.76923077 , 4129.74358974 , 4193.33333333 , 4133.84615385 , 4134.87179487 , 4183.07692308 , 4903.07692308 , 4126.66666667 , 4130.25641026 , 2044.0 , 2036.0 , 113.541 , 0.0 , 0.0 , 0.0 , 0.0 , 

96.0 , 4128.20512821 , 4127.17948718 , 4132.30769231 , 4124.1025641 , 4127.69230769 , 4129.23076923 , 4125.64102564 , 4174.87179487 , 4122.56410256 , 4131.79487179 , 4179.48717949 , 4905.64102564 , 4115.38461538 , 4131.28205128 , 2044.0 , 2035.0 , 113.549 , 0.0 , 0.0 , 0.0 , 0.0 , 

97.0 , 4127.69230769 , 4132.82051282 , 4127.17948718 , 4129.23076923 , 4126.15384615 , 4129.74358974 , 4125.64102564 , 4170.25641026 , 4117.94871795 , 4132.30769231 , 4183.07692308 , 4906.15384615 , 4125.64102564 , 4133.33333333 , 2043.0 , 2035.0 , 113.557 , 0.0 , 0.0 , 0.0 , 0.0 , 

98.0 , 4124.1025641 , 4125.12820513 , 4128.20512821 , 4126.15384615 , 4121.53846154 , 4120.0 , 4116.92307692 , 4164.61538462 , 4114.87179487 , 4131.79487179 , 4181.02564103 , 4912.30769231 , 4127.17948718 , 4134.35897436 , 2043.0 , 2033.0 , 113.566 , 0.0 , 0.0 , 0.0 , 0.0 , 

99.0 , 4126.15384615 , 4126.15384615 , 4126.66666667 , 4126.15384615 , 4124.1025641 , 4122.05128205 , 4122.05128205 , 4163.58974359 , 4115.38461538 , 4129.74358974 , 4181.02564103 , 4909.23076923 , 4125.64102564 , 4135.8974359 , 2042.0 , 2034.0 , 113.573 , 0.0 , 0.0 , 0.0 , 0.0 , 

100.0 , 4125.12820513 , 4122.56410256 , 4125.64102564 , 4126.66666667 , 4123.07692308 , 4122.05128205 , 4120.0 , 4165.12820513 , 4118.97435897 , 4128.20512821 , 4183.07692308 , 4907.69230769 , 4130.25641026 , 4135.8974359 , 2042.0 , 2035.0 , 113.581 , 0.0 , 0.0 , 0.0 , 0.0 , 

101.0 , 4126.15384615 , 4118.97435897 , 4123.07692308 , 4130.25641026 , 4123.07692308 , 4117.94871795 , 4112.30769231 , 4166.15384615 , 4120.0 , 4128.71794872 , 4185.64102564 , 4907.17948718 , 4132.82051282 , 4133.33333333 , 2040.0 , 2034.0 , 113.589 , 0.0 , 0.0 , 0.0 , 0.0 , 

102.0 , 4123.07692308 , 4121.02564103 , 4121.02564103 , 4129.74358974 , 4124.61538462 , 4120.0 , 4114.35897436 , 4170.76923077 , 4125.12820513 , 4130.25641026 , 4187.17948718 , 4904.1025641 , 4132.82051282 , 4130.25641026 , 2039.0 , 2034.0 , 113.597 , 0.0 , 0.0 , 0.0 , 0.0 , 

103.0 , 4125.64102564 , 4123.58974359 , 4128.20512821 , 4126.15384615 , 4126.15384615 , 4120.51282051 , 4112.82051282 , 4169.74358974 , 4120.0 , 4131.28205128 , 4186.15384615 , 4902.05128205 , 4124.61538462 , 4134.87179487 , 2039.0 , 2034.0 , 113.604 , 0.0 , 0.0 , 0.0 , 0.0 , 

104.0 , 4122.56410256 , 4124.1025641 , 4125.12820513 , 4133.33333333 , 4122.05128205 , 4121.53846154 , 4117.43589744 , 4190.25641026 , 4136.92307692 , 4135.8974359 , 4189.74358974 , 4898.97435897 , 4135.38461538 , 4135.8974359 , 2040.0 , 2033.0 , 113.611 , 0.0 , 0.0 , 0.0 , 0.0 , 

105.0 , 4125.12820513 , 4120.0 , 4127.69230769 , 4123.07692308 , 4121.02564103 , 4117.94871795 , 4115.38461538 , 4182.05128205 , 4132.82051282 , 4136.92307692 , 4185.12820513 , 4904.1025641 , 4124.1025641 , 4135.8974359 , 2039.0 , 2034.0 , 113.619 , 0.0 , 0.0 , 0.0 , 0.0 , 

106.0 , 4124.1025641 , 4121.53846154 , 4126.66666667 , 4120.0 , 4125.12820513 , 4126.66666667 , 4126.15384615 , 4191.28205128 , 4138.97435897 , 4137.43589744 , 4187.69230769 , 4906.66666667 , 4125.64102564 , 4133.33333333 , 2041.0 , 2033.0 , 113.628 , 0.0 , 0.0 , 0.0 , 0.0 , 

107.0 , 4129.23076923 , 4114.87179487 , 4136.92307692 , 4114.87179487 , 4127.69230769 , 4120.0 , 4117.94871795 , 4181.53846154 , 4125.12820513 , 4132.30769231 , 4183.07692308 , 4910.25641026 , 4112.82051282 , 4135.8974359 , 2041.0 , 2033.0 , 113.636 , 0.0 , 0.0 , 0.0 , 0.0 , 

108.0 , 4126.15384615 , 4123.07692308 , 4130.25641026 , 4125.12820513 , 4127.17948718 , 4127.69230769 , 4127.17948718 , 4190.25641026 , 4130.76923077 , 4132.30769231 , 4184.1025641 , 4903.07692308 , 4121.53846154 , 4133.84615385 , 2039.0 , 2032.0 , 113.643 , 0.0 , 0.0 , 0.0 , 0.0 , 

109.0 , 4128.20512821 , 4120.51282051 , 4135.38461538 , 4117.94871795 , 4128.20512821 , 4126.66666667 , 4119.48717949 , 4169.23076923 , 4116.41025641 , 4132.30769231 , 4178.97435897 , 4908.71794872 , 4113.33333333 , 4134.35897436 , 2041.0 , 2032.0 , 113.651 , 0.0 , 0.0 , 0.0 , 0.0 , 

110.0 , 4128.71794872 , 4129.74358974 , 4128.20512821 , 4129.23076923 , 4129.23076923 , 4131.79487179 , 4125.64102564 , 4175.38461538 , 4129.74358974 , 4137.43589744 , 4185.64102564 , 4909.23076923 , 4127.69230769 , 4134.35897436 , 2042.0 , 2031.0 , 113.66 , 0.0 , 0.0 , 0.0 , 0.0 , 

111.0 , 4131.28205128 , 4129.23076923 , 4132.30769231 , 4126.66666667 , 4123.07692308 , 4122.56410256 , 4114.87179487 , 4158.46153846 , 4122.56410256 , 4132.30769231 , 4181.53846154 , 4909.74358974 , 4117.94871795 , 4134.87179487 , 2042.0 , 2033.0 , 113.666 , 0.0 , 0.0 , 0.0 , 0.0 , 

112.0 , 4126.15384615 , 4132.30769231 , 4124.61538462 , 4133.33333333 , 4122.56410256 , 4130.25641026 , 4126.15384615 , 4167.17948718 , 4126.15384615 , 4132.82051282 , 4185.12820513 , 4903.58974359 , 4129.74358974 , 4131.28205128 , 2041.0 , 2034.0 , 113.674 , 0.0 , 0.0 , 0.0 , 0.0 , 

113.0 , 4125.12820513 , 4122.56410256 , 4126.66666667 , 4129.23076923 , 4126.15384615 , 4125.12820513 , 4118.97435897 , 4163.07692308 , 4116.92307692 , 4132.30769231 , 4185.12820513 , 4910.25641026 , 4130.25641026 , 4135.38461538 , 2042.0 , 2034.0 , 113.682 , 0.0 , 0.0 , 0.0 , 0.0 , 

114.0 , 4127.69230769 , 4129.74358974 , 4120.0 , 4136.92307692 , 4127.17948718 , 4125.12820513 , 4120.51282051 , 4172.82051282 , 4121.53846154 , 4133.33333333 , 4190.25641026 , 4906.15384615 , 4138.46153846 , 4134.87179487 , 2043.0 , 2034.0 , 113.691 , 0.0 , 0.0 , 0.0 , 0.0 , 

115.0 , 4126.15384615 , 4125.12820513 , 4125.12820513 , 4128.20512821 , 4123.58974359 , 4116.41025641 , 4110.25641026 , 4167.69230769 , 4116.92307692 , 4130.25641026 , 4185.12820513 , 4904.61538462 , 4130.76923077 , 4130.25641026 , 2044.0 , 2034.0 , 113.698 , 0.0 , 0.0 , 0.0 , 0.0 , 

116.0 , 4122.05128205 , 4121.53846154 , 4125.64102564 , 4126.15384615 , 4124.61538462 , 4114.87179487 , 4113.33333333 , 4180.51282051 , 4122.56410256 , 4131.79487179 , 4184.61538462 , 4903.07692308 , 4133.33333333 , 4131.28205128 , 2045.0 , 2034.0 , 113.706 , 0.0 , 0.0 , 0.0 , 0.0 , 

117.0 , 4122.05128205 , 4113.33333333 , 4128.71794872 , 4122.05128205 , 4123.07692308 , 4111.28205128 , 4107.17948718 , 4185.64102564 , 4128.71794872 , 4130.76923077 , 4183.07692308 , 4906.15384615 , 4125.64102564 , 4135.8974359 , 2046.0 , 2033.0 , 113.715 , 0.0 , 0.0 , 0.0 , 0.0 , 

118.0 , 4126.15384615 , 4115.8974359 , 4127.69230769 , 4121.02564103 , 4122.05128205 , 4117.43589744 , 4112.30769231 , 4185.64102564 , 4130.76923077 , 4130.25641026 , 4185.12820513 , 4903.58974359 , 4121.53846154 , 4134.87179487 , 2046.0 , 2035.0 , 113.724 , 0.0 , 0.0 , 0.0 , 0.0 , 

119.0 , 4123.07692308 , 4119.48717949 , 4128.20512821 , 4120.51282051 , 4122.56410256 , 4122.56410256 , 4122.56410256 , 4190.25641026 , 4132.82051282 , 4132.30769231 , 4185.12820513 , 4903.07692308 , 4123.58974359 , 4133.33333333 , 2046.0 , 2032.0 , 113.729 , 0.0 , 0.0 , 0.0 , 0.0 , 

120.0 , 4125.64102564 , 4122.05128205 , 4131.79487179 , 4123.07692308 , 4126.66666667 , 4122.05128205 , 4124.61538462 , 4188.71794872 , 4129.74358974 , 4132.82051282 , 4183.58974359 , 4904.61538462 , 4115.38461538 , 4134.35897436 , 2047.0 , 2032.0 , 113.739 , 0.0 , 0.0 , 0.0 , 0.0 , 

121.0 , 4126.66666667 , 4122.05128205 , 4129.74358974 , 4125.12820513 , 4126.15384615 , 4126.15384615 , 4127.17948718 , 4189.74358974 , 4134.35897436 , 4133.84615385 , 4185.64102564 , 4903.58974359 , 4118.97435897 , 4131.28205128 , 2046.0 , 2033.0 , 113.745 , 0.0 , 0.0 , 0.0 , 0.0 , 

122.0 , 4128.71794872 , 4123.07692308 , 4131.28205128 , 4124.61538462 , 4127.17948718 , 4128.20512821 , 4124.1025641 , 4175.8974359 , 4122.05128205 , 4134.87179487 , 4183.58974359 , 4908.20512821 , 4117.43589744 , 4132.82051282 , 2046.0 , 2033.0 , 113.755 , 0.0 , 0.0 , 0.0 , 0.0 , 

123.0 , 4125.12820513 , 4132.82051282 , 4125.64102564 , 4133.33333333 , 4126.15384615 , 4132.30769231 , 4129.23076923 , 4177.94871795 , 4127.69230769 , 4134.35897436 , 4184.61538462 , 4908.20512821 , 4129.23076923 , 4133.33333333 , 2046.0 , 2032.0 , 113.762 , 0.0 , 0.0 , 0.0 , 0.0 , 

124.0 , 4130.25641026 , 4129.74358974 , 4131.28205128 , 4126.66666667 , 4125.12820513 , 4123.58974359 , 4120.0 , 4156.41025641 , 4113.84615385 , 4128.20512821 , 4180.0 , 4909.23076923 , 4122.56410256 , 4134.35897436 , 2044.0 , 2032.0 , 113.77 , 0.0 , 0.0 , 0.0 , 0.0 , 

125.0 , 4126.15384615 , 4128.71794872 , 4123.58974359 , 4131.28205128 , 4126.66666667 , 4125.12820513 , 4123.58974359 , 4165.12820513 , 4117.43589744 , 4128.71794872 , 4183.58974359 , 4906.66666667 , 4134.87179487 , 4131.28205128 , 2045.0 , 2032.0 , 113.778 , 0.0 , 0.0 , 0.0 , 0.0 , 

126.0 , 4128.20512821 , 4124.1025641 , 4126.66666667 , 4129.23076923 , 4126.15384615 , 4116.41025641 , 4106.15384615 , 4158.46153846 , 4109.74358974 , 4129.23076923 , 4179.48717949 , 4911.28205128 , 4126.15384615 , 4132.82051282 , 2043.0 , 2033.0 , 113.786 , 0.0 , 0.0 , 0.0 , 0.0 , 

127.0 , 4128.20512821 , 4130.76923077 , 4121.02564103 , 4134.35897436 , 4122.05128205 , 4121.53846154 , 4110.25641026 , 4173.33333333 , 4124.1025641 , 4132.82051282 , 4185.64102564 , 4902.56410256 , 4137.94871795 , 4133.33333333 , 2043.0 , 2033.0 , 113.792 , 0.0 , 0.0 , 0.0 , 0.0 , 

128.0 , 4127.69230769 , 4119.48717949 , 4127.69230769 , 4120.51282051 , 4124.61538462 , 4114.35897436 , 4107.17948718 , 4163.58974359 , 4115.38461538 , 4132.30769231 , 4184.61538462 , 4901.02564103 , 4128.71794872 , 4135.38461538 , 2044.0 , 2031.0 , 113.801 , 0.0 , 0.0 , 0.0 , 0.0 , 

0.0 , 4122.56410256 , 4122.05128205 , 4118.97435897 , 4129.74358974 , 4127.17948718 , 4119.48717949 , 4119.48717949 , 4180.51282051 , 4128.71794872 , 4134.87179487 , 4190.25641026 , 4897.94871795 , 4137.94871795 , 4131.28205128 , 2044.0 , 2033.0 , 113.808 , 0.0 , 0.0 , 0.0 , 0.0 , 

1.0 , 4124.61538462 , 4117.94871795 , 4125.64102564 , 4124.1025641 , 4122.05128205 , 4115.8974359 , 4110.25641026 , 4172.82051282 , 4128.71794872 , 4132.30769231 , 4183.58974359 , 4904.1025641 , 4126.66666667 , 4131.79487179 , 2043.0 , 2032.0 , 113.817 , 0.0 , 0.0 , 0.0 , 0.0 , 

2.0 , 4123.58974359 , 4122.56410256 , 4125.12820513 , 4126.15384615 , 4122.05128205 , 4124.61538462 , 4122.05128205 , 4190.25641026 , 4138.97435897 , 4135.8974359 , 4187.17948718 , 4900.0 , 4133.33333333 , 4131.79487179 , 2042.0 , 2031.0 , 113.825 , 0.0 , 0.0 , 0.0 , 0.0 , 

3.0 , 4125.12820513 , 4118.97435897 , 4128.71794872 , 4120.0 , 4125.12820513 , 4119.48717949 , 4120.0 , 4188.20512821 , 4131.28205128 , 4133.84615385 , 4184.61538462 , 4903.07692308 , 4123.07692308 , 4132.82051282 , 2040.0 , 2032.0 , 113.833 , 0.0 , 0.0 , 0.0 , 0.0 , 

4.0 , 4129.74358974 , 4128.71794872 , 4124.1025641 , 4126.15384615 , 4124.61538462 , 4127.69230769 , 4126.66666667 , 4189.23076923 , 4133.84615385 , 4132.82051282 , 4185.12820513 , 4904.1025641 , 4124.61538462 , 4132.30769231 , 2042.0 , 2031.0 , 113.84 , 0.0 , 0.0 , 0.0 , 0.0 , 

5.0 , 4129.23076923 , 4123.07692308 , 4131.28205128 , 4120.0 , 4123.58974359 , 4129.74358974 , 4123.07692308 , 4179.48717949 , 4130.25641026 , 4132.30769231 , 4181.02564103 , 4909.23076923 , 4117.94871795 , 4133.84615385 , 2042.0 , 2032.0 , 113.849 , 0.0 , 0.0 , 0.0 , 0.0 , 

6.0 , 4127.17948718 , 4124.61538462 , 4129.74358974 , 4123.07692308 , 4129.23076923 , 4128.20512821 , 4128.20512821 , 4182.05128205 , 4128.71794872 , 4133.84615385 , 4181.53846154 , 4909.23076923 , 4121.53846154 , 4132.82051282 , 2042.0 , 2032.0 , 113.856 , 0.0 , 0.0 , 0.0 , 0.0 , 

7.0 , 4126.15384615 , 4127.69230769 , 4129.23076923 , 4124.61538462 , 4127.17948718 , 4122.05128205 , 4120.0 , 4175.38461538 , 4123.07692308 , 4129.74358974 , 4178.46153846 , 4909.74358974 , 4121.53846154 , 4131.79487179 , 2045.0 , 2034.0 , 113.863 , 0.0 , 0.0 , 0.0 , 0.0 , 

8.0 , 4130.76923077 , 4130.25641026 , 4132.30769231 , 4127.69230769 , 4125.64102564 , 4126.15384615 , 4117.43589744 , 4164.1025641 , 4115.38461538 , 4129.74358974 , 4179.48717949 , 4908.71794872 , 4121.02564103 , 4134.35897436 , 2044.0 , 2033.0 , 113.872 , 0.0 , 0.0 , 0.0 , 0.0 , 

9.0 , 4129.74358974 , 4126.66666667 , 4128.20512821 , 4134.87179487 , 4126.15384615 , 4127.69230769 , 4121.02564103 , 4163.58974359 , 4119.48717949 , 4131.79487179 , 4183.58974359 , 4907.69230769 , 4128.71794872 , 4134.35897436 , 2043.0 , 2033.0 , 113.88 , 0.0 , 0.0 , 0.0 , 0.0 , 

10.0 , 4128.20512821 , 4127.69230769 , 4123.58974359 , 4135.38461538 , 4128.71794872 , 4122.56410256 , 4121.02564103 , 4160.0 , 4116.41025641 , 4130.25641026 , 4183.07692308 , 4907.69230769 , 4131.28205128 , 4133.33333333 , 2042.0 , 2032.0 , 113.888 , 0.0 , 0.0 , 0.0 , 0.0 , 

11.0 , 4121.53846154 , 4130.25641026 , 4121.02564103 , 4131.28205128 , 4125.64102564 , 4124.1025641 , 4122.56410256 , 4171.28205128 , 4125.64102564 , 4132.82051282 , 4186.15384615 , 4904.1025641 , 4140.0 , 4130.25641026 , 2043.0 , 2032.0 , 113.895 , 0.0 , 0.0 , 0.0 , 0.0 , 

12.0 , 4125.64102564 , 4123.07692308 , 4126.15384615 , 4125.12820513 , 4123.58974359 , 4116.41025641 , 4112.82051282 , 4168.71794872 , 4119.48717949 , 4132.30769231 , 4186.66666667 , 4904.1025641 , 4131.79487179 , 4131.79487179 , 2043.0 , 2032.0 , 113.904 , 0.0 , 0.0 , 0.0 , 0.0 , 

13.0 , 4126.15384615 , 4121.53846154 , 4120.51282051 , 4132.30769231 , 4125.64102564 , 4118.46153846 , 4116.41025641 , 4184.61538462 , 4132.30769231 , 4130.25641026 , 4188.20512821 , 4902.05128205 , 4135.38461538 , 4130.76923077 , 2043.0 , 2034.0 , 113.912 , 0.0 , 0.0 , 0.0 , 0.0 , 

14.0 , 4128.20512821 , 4116.41025641 , 4129.74358974 , 4122.56410256 , 4126.66666667 , 4115.38461538 , 4107.17948718 , 4176.41025641 , 4125.12820513 , 4129.74358974 , 4182.56410256 , 4903.58974359 , 4121.02564103 , 4133.33333333 , 2043.0 , 2034.0 , 113.918 , 0.0 , 0.0 , 0.0 , 0.0 , 

15.0 , 4122.05128205 , 4119.48717949 , 4126.66666667 , 4121.53846154 , 4122.56410256 , 4122.05128205 , 4115.38461538 , 4193.84615385 , 4135.38461538 , 4135.8974359 , 4185.64102564 , 4898.97435897 , 4128.71794872 , 4133.33333333 , 2043.0 , 2036.0 , 113.926 , 0.0 , 0.0 , 0.0 , 0.0 , 

16.0 , 4125.64102564 , 4115.38461538 , 4131.79487179 , 4114.35897436 , 4121.02564103 , 4114.87179487 , 4109.74358974 , 4183.07692308 , 4125.12820513 , 4132.82051282 , 4181.02564103 , 4903.58974359 , 4117.94871795 , 4136.41025641 , 2043.0 , 2036.0 , 113.935 , 0.0 , 0.0 , 0.0 , 0.0 , 

17.0 , 4126.66666667 , 4126.15384615 , 4127.69230769 , 4122.56410256 , 4125.64102564 , 4124.61538462 , 4122.05128205 , 4192.82051282 , 4135.38461538 , 4133.33333333 , 4185.64102564 , 4903.07692308 , 4128.71794872 , 4135.38461538 , 2043.0 , 2036.0 , 113.943 , 0.0 , 0.0 , 0.0 , 0.0 , 

18.0 , 4127.69230769 , 4122.56410256 , 4136.41025641 , 4117.94871795 , 4125.64102564 , 4121.53846154 , 4118.97435897 , 4180.51282051 , 4127.69230769 , 4134.35897436 , 4180.51282051 , 4910.25641026 , 4117.94871795 , 4135.8974359 , 2043.0 , 2036.0 , 113.951 , 0.0 , 0.0 , 0.0 , 0.0 , 

19.0 , 4123.58974359 , 4130.76923077 , 4127.69230769 , 4130.25641026 , 4125.64102564 , 4129.23076923 , 4131.79487179 , 4189.23076923 , 4134.87179487 , 4135.38461538 , 4182.05128205 , 4906.15384615 , 4125.12820513 , 4132.30769231 , 2042.0 , 2037.0 , 113.958 , 0.0 , 0.0 , 0.0 , 0.0 , 

20.0 , 4127.17948718 , 4129.23076923 , 4132.30769231 , 4124.61538462 , 4125.64102564 , 4124.1025641 , 4123.07692308 , 4171.28205128 , 4122.56410256 , 4132.30769231 , 4181.02564103 , 4907.69230769 , 4117.43589744 , 4132.82051282 , 2044.0 , 2037.0 , 113.967 , 0.0 , 0.0 , 0.0 , 0.0 , 

21.0 , 4131.28205128 , 4131.79487179 , 4128.20512821 , 4130.76923077 , 4126.66666667 , 4126.15384615 , 4126.15384615 , 4175.38461538 , 4128.71794872 , 4136.92307692 , 4188.71794872 , 4906.66666667 , 4132.30769231 , 4133.33333333 , 2043.0 , 2039.0 , 113.976 , 0.0 , 0.0 , 0.0 , 0.0 , 

22.0 , 4129.74358974 , 4126.66666667 , 4129.74358974 , 4131.28205128 , 4124.61538462 , 4120.51282051 , 4117.43589744 , 4163.07692308 , 4123.58974359 , 4134.35897436 , 4183.07692308 , 4912.30769231 , 4129.23076923 , 4136.41025641 , 2043.0 , 2037.0 , 113.982 , 0.0 , 0.0 , 0.0 , 0.0 , 

23.0 , 4126.15384615 , 4132.82051282 , 4123.58974359 , 4135.38461538 , 4125.12820513 , 4125.12820513 , 4122.05128205 , 4160.51282051 , 4120.0 , 4131.79487179 , 4183.07692308 , 4907.17948718 , 4130.25641026 , 4135.8974359 , 2044.0 , 2038.0 , 113.99 , 0.0 , 0.0 , 0.0 , 0.0 , 

24.0 , 4126.66666667 , 4121.53846154 , 4126.15384615 , 4125.12820513 , 4125.12820513 , 4118.97435897 , 4113.84615385 , 4158.97435897 , 4114.35897436 , 4131.28205128 , 4184.1025641 , 4906.15384615 , 4128.71794872 , 4134.35897436 , 2044.0 , 2038.0 , 113.998 , 0.0 , 0.0 , 0.0 , 0.0 , 

25.0 , 4129.74358974 , 4119.48717949 , 4125.64102564 , 4126.15384615 , 4125.12820513 , 4116.92307692 , 4111.79487179 , 4168.20512821 , 4118.46153846 , 4133.33333333 , 4186.66666667 , 4906.15384615 , 4135.38461538 , 4133.33333333 , 2046.0 , 2038.0 , 114.008 , 0.0 , 0.0 , 0.0 , 0.0 , 

26.0 , 4125.64102564 , 4122.05128205 , 4125.12820513 , 4126.15384615 , 4121.02564103 , 4114.87179487 , 4109.74358974 , 4171.28205128 , 4123.58974359 , 4130.25641026 , 4185.12820513 , 4905.12820513 , 4132.82051282 , 4132.82051282 , 2047.0 , 2036.0 , 114.013 , 0.0 , 0.0 , 0.0 , 0.0 , 

27.0 , 4125.64102564 , 4122.56410256 , 4125.64102564 , 4124.61538462 , 4121.53846154 , 4114.87179487 , 4111.79487179 , 4177.43589744 , 4124.1025641 , 4131.28205128 , 4186.15384615 , 4903.07692308 , 4124.61538462 , 4133.33333333 , 2045.0 , 2036.0 , 114.022 , 0.0 , 0.0 , 0.0 , 0.0 , 

28.0 , 4123.58974359 , 4119.48717949 , 4123.07692308 , 4123.58974359 , 4122.56410256 , 4117.43589744 , 4116.92307692 , 4192.30769231 , 4136.41025641 , 4135.8974359 , 4186.66666667 , 4903.58974359 , 4128.20512821 , 4132.30769231 , 2046.0 , 2037.0 , 114.03 , 0.0 , 0.0 , 0.0 , 0.0 , 

29.0 , 4127.69230769 , 4121.02564103 , 4128.71794872 , 4120.0 , 4124.1025641 , 4119.48717949 , 4118.46153846 , 4187.69230769 , 4135.8974359 , 4136.92307692 , 4183.58974359 , 4903.58974359 , 4121.02564103 , 4133.33333333 , 2047.0 , 2036.0 , 114.039 , 0.0 , 0.0 , 0.0 , 0.0 , 

30.0 , 4124.1025641 , 4123.07692308 , 4128.71794872 , 4126.15384615 , 4126.15384615 , 4125.64102564 , 4127.69230769 , 4197.43589744 , 4143.07692308 , 4137.43589744 , 4186.66666667 , 4902.56410256 , 4126.66666667 , 4134.87179487 , 2046.0 , 2036.0 , 114.046 , 0.0 , 0.0 , 0.0 , 0.0 , 

31.0 , 4126.15384615 , 4120.0 , 4132.30769231 , 4123.07692308 , 4129.23076923 , 4123.58974359 , 4123.58974359 , 4185.64102564 , 4129.23076923 , 4133.84615385 , 4183.58974359 , 4907.69230769 , 4120.0 , 4137.94871795 , 2047.0 , 2035.0 , 114.054 , 0.0 , 0.0 , 0.0 , 0.0 , 

32.0 , 4124.61538462 , 4128.71794872 , 4127.69230769 , 4126.15384615 , 4126.15384615 , 4130.76923077 , 4131.28205128 , 4186.66666667 , 4132.82051282 , 4134.87179487 , 4184.61538462 , 4906.15384615 , 4127.69230769 , 4132.30769231 , 2047.0 , 2034.0 , 114.061 , 0.0 , 0.0 , 0.0 , 0.0 , 

33.0 , 4128.20512821 , 4129.23076923 , 4136.41025641 , 4122.05128205 , 4125.12820513 , 4126.66666667 , 4124.1025641 , 4165.12820513 , 4115.38461538 , 4132.30769231 , 4180.0 , 4910.25641026 , 4117.94871795 , 4133.33333333 , 2048.0 , 2031.0 , 114.07 , 0.0 , 0.0 , 0.0 , 0.0 , 

34.0 , 4125.12820513 , 4132.82051282 , 4127.69230769 , 4131.28205128 , 4126.66666667 , 4129.23076923 , 4128.20512821 , 4171.28205128 , 4123.07692308 , 4131.79487179 , 4183.58974359 , 4906.66666667 , 4130.25641026 , 4134.35897436 , 2047.0 , 2031.0 , 114.076 , 0.0 , 0.0 , 0.0 , 0.0 , 

35.0 , 4128.71794872 , 4127.17948718 , 4128.20512821 , 4125.64102564 , 4126.66666667 , 4121.53846154 , 4113.33333333 , 4156.41025641 , 4114.35897436 , 4127.17948718 , 4178.97435897 , 4908.71794872 , 4118.46153846 , 4134.35897436 , 2047.0 , 2030.0 , 114.084 , 0.0 , 0.0 , 0.0 , 0.0 , 

36.0 , 4127.17948718 , 4132.30769231 , 4121.53846154 , 4134.87179487 , 4123.58974359 , 4128.71794872 , 4123.58974359 , 4168.20512821 , 4122.05128205 , 4129.74358974 , 4185.12820513 , 4904.1025641 , 4130.76923077 , 4130.76923077 , 2045.0 , 2031.0 , 114.093 , 0.0 , 0.0 , 0.0 , 0.0 , 

37.0 , 4126.15384615 , 4122.56410256 , 4127.69230769 , 4129.74358974 , 4121.53846154 , 4121.53846154 , 4115.8974359 , 4158.46153846 , 4114.35897436 , 4130.76923077 , 4181.53846154 , 4908.20512821 , 4128.71794872 , 4134.87179487 , 2045.0 , 2032.0 , 114.101 , 0.0 , 0.0 , 0.0 , 0.0 , 

38.0 , 4124.1025641 , 4125.12820513 , 4118.97435897 , 4133.33333333 , 4125.12820513 , 4123.07692308 , 4118.97435897 , 4171.79487179 , 4129.23076923 , 4134.35897436 , 4186.15384615 , 4900.51282051 , 4138.97435897 , 4132.82051282 , 2044.0 , 2032.0 , 114.108 , 0.0 , 0.0 , 0.0 , 0.0 , 

39.0 , 4125.64102564 , 4121.53846154 , 4124.61538462 , 4121.53846154 , 4125.12820513 , 4112.82051282 , 4109.23076923 , 4167.17948718 , 4124.61538462 , 4132.82051282 , 4181.53846154 , 4902.05128205 , 4126.66666667 , 4130.25641026 , 2045.0 , 2034.0 , 114.116 , 0.0 , 0.0 , 0.0 , 0.0 , 

40.0 , 4123.58974359 , 4125.12820513 , 4121.53846154 , 4128.71794872 , 4122.56410256 , 4115.38461538 , 4119.48717949 , 4184.1025641 , 4130.76923077 , 4133.84615385 , 4185.12820513 , 4900.0 , 4133.33333333 , 4132.30769231 , 2043.0 , 2034.0 , 114.123 , 0.0 , 0.0 , 0.0 , 0.0 , 

41.0 , 4123.58974359 , 4116.41025641 , 4125.12820513 , 4125.64102564 , 4123.07692308 , 4113.84615385 , 4112.82051282 , 4180.51282051 , 4130.76923077 , 4133.33333333 , 4186.66666667 , 4903.07692308 , 4128.71794872 , 4134.87179487 , 2045.0 , 2034.0 , 114.132 , 0.0 , 0.0 , 0.0 , 0.0 , 

42.0 , 4125.64102564 , 4120.0 , 4126.15384615 , 4121.02564103 , 4125.12820513 , 4123.58974359 , 4117.94871795 , 4187.17948718 , 4134.87179487 , 4135.38461538 , 4190.25641026 , 4902.05128205 , 4124.61538462 , 4132.82051282 , 2044.0 , 2033.0 , 114.14 , 0.0 , 0.0 , 0.0 , 0.0 , 

43.0 , 4124.1025641 , 4120.0 , 4133.33333333 , 4114.35897436 , 4121.02564103 , 4123.58974359 , 4118.46153846 , 4190.76923077 , 4131.79487179 , 4133.84615385 , 4183.07692308 , 4905.64102564 , 4114.35897436 , 4134.35897436 , 2043.0 , 2033.0 , 114.147 , 0.0 , 0.0 , 0.0 , 0.0 , 

44.0 , 4126.15384615 , 4122.56410256 , 4133.84615385 , 4121.02564103 , 4122.56410256 , 4124.1025641 , 4122.56410256 , 4192.30769231 , 4129.74358974 , 4134.87179487 , 4180.51282051 , 4905.64102564 , 4114.35897436 , 4135.8974359 , 2044.0 , 2034.0 , 114.156 , 0.0 , 0.0 , 0.0 , 0.0 , 

45.0 , 4126.15384615 , 4121.53846154 , 4130.76923077 , 4121.02564103 , 4126.15384615 , 4125.64102564 , 4124.61538462 , 4185.64102564 , 4131.79487179 , 4133.84615385 , 4182.56410256 , 4905.64102564 , 4120.51282051 , 4133.33333333 , 2044.0 , 2034.0 , 114.166 , 0.0 , 0.0 , 0.0 , 0.0 , 

46.0 , 4128.20512821 , 4126.66666667 , 4129.23076923 , 4122.05128205 , 4129.23076923 , 4126.66666667 , 4122.56410256 , 4172.30769231 , 4128.71794872 , 4130.76923077 , 4181.02564103 , 4906.66666667 , 4121.02564103 , 4134.87179487 , 2042.0 , 2034.0 , 114.173 , 0.0 , 0.0 , 0.0 , 0.0 , 

47.0 , 4124.61538462 , 4132.30769231 , 4126.15384615 , 4129.23076923 , 4126.66666667 , 4127.69230769 , 4118.46153846 , 4173.33333333 , 4135.38461538 , 4131.28205128 , 4182.56410256 , 4906.66666667 , 4126.66666667 , 4131.28205128 , 2041.0 , 2035.0 , 114.18 , 0.0 , 0.0 , 0.0 , 0.0 , 

48.0 , 4127.69230769 , 4129.23076923 , 4128.71794872 , 4125.64102564 , 4126.15384615 , 4124.61538462 , 4117.94871795 , 4165.64102564 , 4122.56410256 , 4132.82051282 , 4181.53846154 , 4909.74358974 , 4120.51282051 , 4129.23076923 , 2040.0 , 2034.0 , 114.186 , 0.0 , 0.0 , 0.0 , 0.0 , 

49.0 , 4125.64102564 , 4128.71794872 , 4117.94871795 , 4131.79487179 , 4126.15384615 , 4127.17948718 , 4128.20512821 , 4170.76923077 , 4122.56410256 , 4133.84615385 , 4182.56410256 , 4909.74358974 , 4134.87179487 , 4133.33333333 , 2039.0 , 2034.0 , 114.195 , 0.0 , 0.0 , 0.0 , 0.0 , 

50.0 , 4129.23076923 , 4127.17948718 , 4120.0 , 4129.23076923 , 4127.17948718 , 4120.51282051 , 4115.8974359 , 4153.84615385 , 4109.74358974 , 4129.23076923 , 4179.48717949 , 4910.76923077 , 4131.79487179 , 4136.41025641 , 2039.0 , 2035.0 , 114.203 , 0.0 , 0.0 , 0.0 , 0.0 , 

51.0 , 4126.66666667 , 4131.28205128 , 4118.46153846 , 4129.74358974 , 4128.20512821 , 4124.1025641 , 4117.94871795 , 4168.71794872 , 4123.58974359 , 4130.76923077 , 4184.61538462 , 4903.07692308 , 4136.92307692 , 4131.28205128 , 2039.0 , 2035.0 , 114.21 , 0.0 , 0.0 , 0.0 , 0.0 , 

52.0 , 4125.64102564 , 4118.46153846 , 4128.71794872 , 4120.0 , 4126.66666667 , 4113.33333333 , 4109.23076923 , 4167.17948718 , 4120.51282051 , 4130.25641026 , 4181.53846154 , 4904.61538462 , 4122.56410256 , 4134.35897436 , 2040.0 , 2035.0 , 114.219 , 0.0 , 0.0 , 0.0 , 0.0 , 

53.0 , 4122.05128205 , 4119.48717949 , 4125.64102564 , 4127.69230769 , 4122.05128205 , 4113.84615385 , 4113.84615385 , 4186.15384615 , 4135.38461538 , 4134.87179487 , 4185.12820513 , 4900.51282051 , 4131.28205128 , 4133.33333333 , 2039.0 , 2034.0 , 114.227 , 0.0 , 0.0 , 0.0 , 0.0 , 

54.0 , 4126.15384615 , 4117.94871795 , 4134.35897436 , 4114.87179487 , 4120.51282051 , 4113.33333333 , 4109.23076923 , 4179.48717949 , 4128.20512821 , 4136.92307692 , 4181.02564103 , 4903.07692308 , 4115.8974359 , 4132.30769231 , 2042.0 , 2034.0 , 114.235 , 0.0 , 0.0 , 0.0 , 0.0 , 

55.0 , 4122.05128205 , 4124.1025641 , 4124.61538462 , 4120.0 , 4123.07692308 , 4127.69230769 , 4128.20512821 , 4196.41025641 , 4138.46153846 , 4138.97435897 , 4187.69230769 , 4900.51282051 , 4127.17948718 , 4132.82051282 , 2043.0 , 2033.0 , 114.242 , 0.0 , 0.0 , 0.0 , 0.0 , 

56.0 , 4124.1025641 , 4116.41025641 , 4128.71794872 , 4120.0 , 4121.53846154 , 4120.0 , 4118.46153846 , 4185.64102564 , 4131.28205128 , 4133.33333333 , 4185.64102564 , 4905.64102564 , 4121.02564103 , 4135.8974359 , 2042.0 , 2034.0 , 114.251 , 0.0 , 0.0 , 0.0 , 0.0 , 

57.0 , 4127.17948718 , 4124.61538462 , 4126.15384615 , 4128.20512821 , 4124.1025641 , 4125.12820513 , 4123.58974359 , 4193.84615385 , 4137.43589744 , 4135.38461538 , 4189.23076923 , 4902.05128205 , 4125.12820513 , 4131.79487179 , 2042.0 , 2035.0 , 114.26 , 0.0 , 0.0 , 0.0 , 0.0 , 

58.0 , 4127.69230769 , 4123.58974359 , 4128.71794872 , 4120.51282051 , 4126.15384615 , 4123.58974359 , 4122.05128205 , 4180.51282051 , 4126.15384615 , 4136.92307692 , 4182.05128205 , 4907.69230769 , 4115.38461538 , 4131.79487179 , 2043.0 , 2035.0 , 114.266 , 0.0 , 0.0 , 0.0 , 0.0 , 

59.0 , 4127.17948718 , 4131.28205128 , 4123.07692308 , 4130.25641026 , 4125.64102564 , 4130.25641026 , 4132.30769231 , 4180.0 , 4129.23076923 , 4135.8974359 , 4183.58974359 , 4907.17948718 , 4125.64102564 , 4131.79487179 , 2043.0 , 2034.0 , 114.274 , 0.0 , 0.0 , 0.0 , 0.0 , 

60.0 , 4128.20512821 , 4130.76923077 , 4132.30769231 , 4128.71794872 , 4123.07692308 , 4126.66666667 , 4122.56410256 , 4165.64102564 , 4123.58974359 , 4129.74358974 , 4183.58974359 , 4910.76923077 , 4123.58974359 , 4132.30769231 , 2043.0 , 2034.0 , 114.282 , 0.0 , 0.0 , 0.0 , 0.0 , 

61.0 , 4130.76923077 , 4129.74358974 , 4131.79487179 , 4128.20512821 , 4126.66666667 , 4126.66666667 , 4120.51282051 , 4161.02564103 , 4120.51282051 , 4129.74358974 , 4186.66666667 , 4910.25641026 , 4125.64102564 , 4134.35897436 , 2045.0 , 2034.0 , 114.291 , 0.0 , 0.0 , 0.0 , 0.0 , 

62.0 , 4129.74358974 , 4121.53846154 , 4128.71794872 , 4126.66666667 , 4128.20512821 , 4121.02564103 , 4116.92307692 , 4158.46153846 , 4118.46153846 , 4130.25641026 , 4183.07692308 , 4911.28205128 , 4126.66666667 , 4134.87179487 , 2046.0 , 2035.0 , 114.298 , 0.0 , 0.0 , 0.0 , 0.0 , 

63.0 , 4130.76923077 , 4129.23076923 , 4126.66666667 , 4132.30769231 , 4127.17948718 , 4121.53846154 , 4115.8974359 , 4160.0 , 4116.41025641 , 4130.25641026 , 4183.58974359 , 4907.17948718 , 4128.71794872 , 4131.79487179 , 2046.0 , 2032.0 , 114.306 , 0.0 , 0.0 , 0.0 , 0.0 , 

64.0 , 4122.56410256 , 4129.23076923 , 4125.64102564 , 4131.28205128 , 4121.53846154 , 4121.02564103 , 4111.28205128 , 4166.15384615 , 4120.0 , 4128.71794872 , 4187.69230769 , 4903.58974359 , 4136.41025641 , 4131.28205128 , 2046.0 , 2032.0 , 114.314 , 0.0 , 0.0 , 0.0 , 0.0 , 

65.0 , 4124.1025641 , 4120.51282051 , 4125.64102564 , 4127.69230769 , 4124.1025641 , 4114.35897436 , 4107.69230769 , 4168.71794872 , 4121.02564103 , 4128.71794872 , 4187.17948718 , 4900.51282051 , 4134.87179487 , 4134.87179487 , 2046.0 , 2031.0 , 114.323 , 0.0 , 0.0 , 0.0 , 0.0 , 

66.0 , 4126.66666667 , 4121.53846154 , 4120.51282051 , 4130.25641026 , 4127.17948718 , 4117.43589744 , 4115.8974359 , 4179.48717949 , 4134.35897436 , 4132.30769231 , 4187.69230769 , 4896.41025641 , 4134.87179487 , 4132.30769231 , 2046.0 , 2033.0 , 114.328 , 0.0 , 0.0 , 0.0 , 0.0 , 

67.0 , 4128.71794872 , 4125.12820513 , 4125.64102564 , 4123.58974359 , 4124.1025641 , 4121.02564103 , 4115.38461538 , 4174.35897436 , 4128.20512821 , 4134.35897436 , 4182.05128205 , 4900.0 , 4123.07692308 , 4133.84615385 , 2047.0 , 2033.0 , 114.337 , 0.0 , 0.0 , 0.0 , 0.0 , 

68.0 , 4122.56410256 , 4128.20512821 , 4123.58974359 , 4126.66666667 , 4122.05128205 , 4127.17948718 , 4124.1025641 , 4195.38461538 , 4139.48717949 , 4137.43589744 , 4183.58974359 , 4901.02564103 , 4130.76923077 , 4135.8974359 , 2046.0 , 2033.0 , 114.346 , 0.0 , 0.0 , 0.0 , 0.0 , 

69.0 , 4127.69230769 , 4122.05128205 , 4130.76923077 , 4120.0 , 4126.66666667 , 4118.97435897 , 4118.97435897 , 4189.23076923 , 4131.28205128 , 4133.84615385 , 4181.53846154 , 4904.61538462 , 4116.41025641 , 4136.41025641 , 2046.0 , 2032.0 , 114.354 , 0.0 , 0.0 , 0.0 , 0.0 , 

70.0 , 4126.66666667 , 4125.12820513 , 4128.20512821 , 4124.1025641 , 4126.66666667 , 4124.61538462 , 4126.15384615 , 4197.94871795 , 4136.41025641 , 4133.33333333 , 4184.61538462 , 4902.05128205 , 4121.02564103 , 4133.33333333 , 2046.0 , 2032.0 , 114.36 , 0.0 , 0.0 , 0.0 , 0.0 , 

71.0 , 4128.71794872 , 4118.46153846 , 4135.8974359 , 4118.97435897 , 4125.12820513 , 4122.05128205 , 4117.94871795 , 4181.53846154 , 4121.02564103 , 4131.28205128 , 4176.92307692 , 4907.69230769 , 4112.82051282 , 4137.43589744 , 2045.0 , 2033.0 , 114.368 , 0.0 , 0.0 , 0.0 , 0.0 , 

72.0 , 4126.15384615 , 4126.66666667 , 4128.71794872 , 4130.76923077 , 4127.69230769 , 4130.76923077 , 4128.71794872 , 4188.20512821 , 4129.74358974 , 4134.87179487 , 4181.02564103 , 4905.64102564 , 4127.69230769 , 4134.35897436 , 2045.0 , 2033.0 , 114.376 , 0.0 , 0.0 , 0.0 , 0.0 , 

73.0 , 4127.69230769 , 4128.20512821 , 4131.79487179 , 4126.15384615 , 4127.17948718 , 4124.61538462 , 4119.48717949 , 4164.61538462 , 4119.48717949 , 4132.82051282 , 4179.48717949 , 4910.25641026 , 4118.97435897 , 4133.84615385 , 2045.0 , 2032.0 , 114.385 , 0.0 , 0.0 , 0.0 , 0.0 , 

74.0 , 4127.17948718 , 4135.38461538 , 4122.05128205 , 4134.35897436 , 4125.12820513 , 4129.23076923 , 4126.66666667 , 4166.66666667 , 4127.69230769 , 4134.87179487 , 4185.12820513 , 4904.1025641 , 4130.76923077 , 4135.8974359 , 2044.0 , 2031.0 , 114.391 , 0.0 , 0.0 , 0.0 , 0.0 , 

75.0 , 4131.79487179 , 4126.15384615 , 4126.66666667 , 4128.71794872 , 4123.58974359 , 4120.0 , 4115.8974359 , 4156.92307692 , 4121.02564103 , 4133.33333333 , 4181.53846154 , 4905.12820513 , 4123.07692308 , 4136.92307692 , 2044.0 , 2032.0 , 114.399 , 0.0 , 0.0 , 0.0 , 0.0 , 

76.0 , 4128.20512821 , 4130.25641026 , 4122.56410256 , 4133.84615385 , 4127.17948718 , 4123.58974359 , 4123.07692308 , 4170.25641026 , 4126.15384615 , 4135.38461538 , 4187.17948718 , 4902.05128205 , 4131.79487179 , 4132.30769231 , 2044.0 , 2033.0 , 114.408 , 0.0 , 0.0 , 0.0 , 0.0 , 

77.0 , 4124.61538462 , 4124.61538462 , 4125.12820513 , 4128.20512821 , 4124.61538462 , 4117.43589744 , 4115.38461538 , 4163.07692308 , 4120.0 , 4133.33333333 , 4186.15384615 , 4905.64102564 , 4129.74358974 , 4132.30769231 , 2045.0 , 2032.0 , 114.417 , 0.0 , 0.0 , 0.0 , 0.0 , 

78.0 , 4125.64102564 , 4126.15384615 , 4122.56410256 , 4129.23076923 , 4123.07692308 , 4117.94871795 , 4117.43589744 , 4169.74358974 , 4125.64102564 , 4130.76923077 , 4188.20512821 , 4902.05128205 , 4133.84615385 , 4134.87179487 , 2044.0 , 2032.0 , 114.424 , 0.0 , 0.0 , 0.0 , 0.0 , 

79.0 , 4126.66666667 , 4121.53846154 , 4126.66666667 , 4121.02564103 , 4124.1025641 , 4113.84615385 , 4111.28205128 , 4171.79487179 , 4122.05128205 , 4127.17948718 , 4183.07692308 , 4904.1025641 , 4122.05128205 , 4136.92307692 , 2043.0 , 2032.0 , 114.431 , 0.0 , 0.0 , 0.0 , 0.0 , 

80.0 , 4126.66666667 , 4121.02564103 , 4125.64102564 , 4122.56410256 , 4127.17948718 , 4115.8974359 , 4116.92307692 , 4182.56410256 , 4123.58974359 , 4132.30769231 , 4185.12820513 , 4904.1025641 , 4122.56410256 , 4135.38461538 , 2044.0 , 2034.0 , 114.44 , 0.0 , 0.0 , 0.0 , 0.0 , 

81.0 , 4125.12820513 , 4115.38461538 , 4130.25641026 , 4119.48717949 , 4123.58974359 , 4114.35897436 , 4117.43589744 , 4187.17948718 , 4129.74358974 , 4135.8974359 , 4186.66666667 , 4903.58974359 , 4128.71794872 , 4133.33333333 , 2044.0 , 2032.0 , 114.449 , 0.0 , 0.0 , 0.0 , 0.0 , 

82.0 , 4125.12820513 , 4121.53846154 , 4131.79487179 , 4118.97435897 , 4126.15384615 , 4118.97435897 , 4116.92307692 , 4184.61538462 , 4126.66666667 , 4133.33333333 , 4185.64102564 , 4903.07692308 , 4127.69230769 , 4133.33333333 , 2043.0 , 2033.0 , 114.454 , 0.0 , 0.0 , 0.0 , 0.0 , 

83.0 , 4122.05128205 , 4125.12820513 , 4125.12820513 , 4123.07692308 , 4124.61538462 , 4124.1025641 , 4120.0 , 4190.25641026 , 4130.25641026 , 4134.87179487 , 4184.61538462 , 4904.1025641 , 4127.69230769 , 4131.79487179 , 2043.0 , 2033.0 , 114.463 , 0.0 , 0.0 , 0.0 , 0.0 , 

84.0 , 4127.17948718 , 4123.58974359 , 4128.71794872 , 4123.07692308 , 4122.05128205 , 4121.02564103 , 4123.07692308 , 4186.15384615 , 4128.20512821 , 4138.46153846 , 4182.56410256 , 4905.12820513 , 4120.51282051 , 4132.30769231 , 2043.0 , 2032.0 , 114.472 , 0.0 , 0.0 , 0.0 , 0.0 , 

85.0 , 4124.61538462 , 4130.76923077 , 4128.71794872 , 4125.64102564 , 4123.58974359 , 4127.17948718 , 4131.79487179 , 4184.61538462 , 4135.38461538 , 4136.41025641 , 4185.64102564 , 4904.1025641 , 4127.69230769 , 4131.79487179 , 2041.0 , 2032.0 , 114.481 , 0.0 , 0.0 , 0.0 , 0.0 , 

86.0 , 4127.69230769 , 4131.28205128 , 4130.25641026 , 4124.1025641 , 4128.20512821 , 4126.66666667 , 4123.58974359 , 4165.64102564 , 4120.0 , 4133.33333333 , 4182.05128205 , 4906.66666667 , 4123.07692308 , 4135.8974359 , 2042.0 , 2031.0 , 114.486 , 0.0 , 0.0 , 0.0 , 0.0 , 

87.0 , 4127.17948718 , 4130.76923077 , 4124.1025641 , 4135.38461538 , 4127.17948718 , 4126.66666667 , 4124.1025641 , 4177.43589744 , 4126.15384615 , 4136.41025641 , 4182.05128205 , 4903.07692308 , 4132.82051282 , 4134.87179487 , 2042.0 , 2033.0 , 114.495 , 0.0 , 0.0 , 0.0 , 0.0 , 

88.0 , 4130.25641026 , 4127.69230769 , 4129.74358974 , 4131.28205128 , 4127.17948718 , 4119.48717949 , 4115.8974359 , 4161.02564103 , 4113.33333333 , 4131.79487179 , 4178.46153846 , 4907.17948718 , 4123.07692308 , 4135.8974359 , 2042.0 , 2034.0 , 114.503 , 0.0 , 0.0 , 0.0 , 0.0 , 

89.0 , 4124.1025641 , 4131.79487179 , 4122.05128205 , 4133.33333333 , 4127.17948718 , 4125.12820513 , 4121.53846154 , 4166.66666667 , 4118.97435897 , 4131.79487179 , 4187.17948718 , 4905.64102564 , 4136.41025641 , 4133.33333333 , 2043.0 , 2036.0 , 114.513 , 0.0 , 0.0 , 0.0 , 0.0 , 

90.0 , 4126.15384615 , 4119.48717949 , 4129.74358974 , 4124.61538462 , 4124.61538462 , 4112.30769231 , 4104.1025641 , 4162.05128205 , 4112.30769231 , 4133.33333333 , 4184.61538462 , 4908.20512821 , 4129.74358974 , 4133.33333333 , 2042.0 , 2036.0 , 114.517 , 0.0 , 0.0 , 0.0 , 0.0 , 

91.0 , 4126.66666667 , 4125.12820513 , 4124.61538462 , 4130.76923077 , 4123.58974359 , 4115.8974359 , 4111.28205128 , 4177.43589744 , 4126.66666667 , 4134.35897436 , 4187.69230769 , 4902.05128205 , 4138.97435897 , 4130.25641026 , 2041.0 , 2037.0 , 114.525 , 0.0 , 0.0 , 0.0 , 0.0 , 

92.0 , 4127.17948718 , 4120.0 , 4127.17948718 , 4122.56410256 , 4122.05128205 , 4111.79487179 , 4107.69230769 , 4160.51282051 , 4118.46153846 , 4130.25641026 , 4185.12820513 , 4904.61538462 , 4127.69230769 , 4131.79487179 , 2043.0 , 2037.0 , 114.534 , 0.0 , 0.0 , 0.0 , 0.0 , 

93.0 , 4121.53846154 , 4122.05128205 , 4118.97435897 , 4132.82051282 , 4122.56410256 , 4116.41025641 , 4116.92307692 , 4180.0 , 4131.79487179 , 4137.94871795 , 4190.25641026 , 4898.97435897 , 4136.92307692 , 4132.82051282 , 2042.0 , 2036.0 , 114.544 , 0.0 , 0.0 , 0.0 , 0.0 , 

94.0 , 4124.1025641 , 4118.46153846 , 4127.17948718 , 4126.15384615 , 4125.64102564 , 4111.28205128 , 4108.71794872 , 4182.05128205 , 4133.33333333 , 4138.46153846 , 4184.1025641 , 4902.56410256 , 4125.64102564 , 4134.35897436 , 2043.0 , 2039.0 , 114.549 , 0.0 , 0.0 , 0.0 , 0.0 , 

95.0 , 4127.69230769 , 4127.69230769 , 4127.17948718 , 4126.66666667 , 4127.69230769 , 4121.53846154 , 4123.07692308 , 4193.33333333 , 4137.94871795 , 4134.87179487 , 4186.15384615 , 4899.48717949 , 4129.74358974 , 4133.33333333 , 2042.0 , 2040.0 , 114.558 , 0.0 , 0.0 , 0.0 , 0.0 , 

96.0 , 4126.15384615 , 4120.51282051 , 4133.33333333 , 4122.05128205 , 4125.64102564 , 4118.46153846 , 4124.1025641 , 4189.23076923 , 4127.17948718 , 4132.30769231 , 4183.07692308 , 4905.12820513 , 4121.53846154 , 4135.38461538 , 2041.0 , 2039.0 , 114.566 , 0.0 , 0.0 , 0.0 , 0.0 , 

97.0 , 4125.64102564 , 4123.58974359 , 4131.79487179 , 4126.66666667 , 4126.66666667 , 4123.58974359 , 4129.23076923 , 4189.23076923 , 4127.17948718 , 4136.92307692 , 4182.56410256 , 4908.20512821 , 4121.53846154 , 4135.38461538 , 2042.0 , 2039.0 , 114.576 , 0.0 , 0.0 , 0.0 , 0.0 , 

98.0 , 4126.66666667 , 4124.61538462 , 4132.30769231 , 4117.94871795 , 4124.61538462 , 4124.1025641 , 4121.53846154 , 4174.87179487 , 4123.07692308 , 4133.84615385 , 4178.97435897 , 4911.28205128 , 4118.97435897 , 4135.38461538 , 2042.0 , 2039.0 , 114.581 , 0.0 , 0.0 , 0.0 , 0.0 , 

99.0 , 4128.20512821 , 4130.25641026 , 4129.74358974 , 4122.05128205 , 4125.64102564 , 4127.17948718 , 4121.02564103 , 4169.23076923 , 4123.07692308 , 4131.28205128 , 4181.53846154 , 4908.20512821 , 4123.07692308 , 4135.38461538 , 2043.0 , 2040.0 , 114.589 , 0.0 , 0.0 , 0.0 , 0.0 , 

100.0 , 4124.61538462 , 4131.28205128 , 4126.66666667 , 4131.28205128 , 4126.15384615 , 4125.64102564 , 4120.51282051 , 4168.20512821 , 4126.15384615 , 4132.82051282 , 4180.0 , 4908.20512821 , 4126.15384615 , 4133.84615385 , 2042.0 , 2039.0 , 114.597 , 0.0 , 0.0 , 0.0 , 0.0 , 

101.0 , 4126.15384615 , 4133.33333333 , 4127.17948718 , 4132.82051282 , 4126.66666667 , 4124.61538462 , 4123.58974359 , 4162.05128205 , 4117.43589744 , 4134.35897436 , 4178.97435897 , 4908.71794872 , 4125.64102564 , 4132.82051282 , 2041.0 , 2040.0 , 114.605 , 0.0 , 0.0 , 0.0 , 0.0 , 

102.0 , 4126.15384615 , 4131.28205128 , 4124.61538462 , 4134.87179487 , 4124.1025641 , 4125.12820513 , 4124.1025641 , 4167.69230769 , 4119.48717949 , 4134.87179487 , 4182.56410256 , 4907.69230769 , 4134.87179487 , 4133.33333333 , 2043.0 , 2039.0 , 114.613 , 0.0 , 0.0 , 0.0 , 0.0 , 

103.0 , 4130.25641026 , 4128.71794872 , 4124.61538462 , 4132.82051282 , 4126.15384615 , 4120.51282051 , 4114.87179487 , 4164.1025641 , 4117.94871795 , 4131.79487179 , 4183.07692308 , 4908.71794872 , 4131.28205128 , 4135.8974359 , 2042.0 , 2037.0 , 114.622 , 0.0 , 0.0 , 0.0 , 0.0 , 

104.0 , 4124.61538462 , 4129.74358974 , 4120.51282051 , 4130.76923077 , 4126.66666667 , 4120.51282051 , 4120.0 , 4175.8974359 , 4131.79487179 , 4129.74358974 , 4187.69230769 , 4904.1025641 , 4137.43589744 , 4134.87179487 , 2041.0 , 2036.0 , 114.628 , 0.0 , 0.0 , 0.0 , 0.0 , 

105.0 , 4125.64102564 , 4121.02564103 , 4128.20512821 , 4121.53846154 , 4124.61538462 , 4112.82051282 , 4115.8974359 , 4170.76923077 , 4123.07692308 , 4129.23076923 , 4188.71794872 , 4902.56410256 , 4127.69230769 , 4134.87179487 , 2041.0 , 2037.0 , 114.637 , 0.0 , 0.0 , 0.0 , 0.0 , 

106.0 , 4123.58974359 , 4123.07692308 , 4125.12820513 , 4130.25641026 , 4124.1025641 , 4119.48717949 , 4118.46153846 , 4186.66666667 , 4133.84615385 , 4134.87179487 , 4191.28205128 , 4898.97435897 , 4134.35897436 , 4132.30769231 , 2043.0 , 2037.0 , 114.644 , 0.0 , 0.0 , 0.0 , 0.0 , 

107.0 , 4124.1025641 , 4117.94871795 , 4133.33333333 , 4122.05128205 , 4123.07692308 , 4116.92307692 , 4105.12820513 , 4176.41025641 , 4126.15384615 , 4132.30769231 , 4181.02564103 , 4904.1025641 , 4120.0 , 4133.84615385 , 2043.0 , 2037.0 , 114.652 , 0.0 , 0.0 , 0.0 , 0.0 , 

108.0 , 4121.02564103 , 4118.46153846 , 4129.74358974 , 4120.51282051 , 4124.1025641 , 4121.02564103 , 4119.48717949 , 4194.87179487 , 4140.0 , 4133.33333333 , 4184.61538462 , 4903.07692308 , 4126.66666667 , 4132.82051282 , 2044.0 , 2034.0 , 114.66 , 0.0 , 0.0 , 0.0 , 0.0 , 

109.0 , 4127.69230769 , 4112.82051282 , 4135.38461538 , 4113.33333333 , 4128.20512821 , 4113.33333333 , 4120.0 , 4189.74358974 , 4132.82051282 , 4133.84615385 , 4183.58974359 , 4905.64102564 , 4113.84615385 , 4134.87179487 , 2045.0 , 2033.0 , 114.669 , 0.0 , 0.0 , 0.0 , 0.0 , 

110.0 , 4127.17948718 , 4125.64102564 , 4129.23076923 , 4126.66666667 , 4130.25641026 , 4125.12820513 , 4131.28205128 , 4196.92307692 , 4136.92307692 , 4138.97435897 , 4187.17948718 , 4900.51282051 , 4123.07692308 , 4133.33333333 , 2046.0 , 2032.0 , 114.675 , 0.0 , 0.0 , 0.0 , 0.0 , 

111.0 , 4125.12820513 , 4124.61538462 , 4135.38461538 , 4120.0 , 4127.69230769 , 4124.61538462 , 4123.58974359 , 4174.87179487 , 4120.51282051 , 4137.43589744 , 4181.53846154 , 4907.17948718 , 4115.38461538 , 4135.38461538 , 2046.0 , 2033.0 , 114.683 , 0.0 , 0.0 , 0.0 , 0.0 , 

112.0 , 4125.12820513 , 4131.79487179 , 4126.15384615 , 4125.64102564 , 4127.69230769 , 4129.23076923 , 4132.30769231 , 4180.51282051 , 4130.25641026 , 4135.8974359 , 4184.61538462 , 4905.12820513 , 4127.17948718 , 4132.30769231 , 2046.0 , 2036.0 , 114.692 , 0.0 , 0.0 , 0.0 , 0.0 , 

113.0 , 4129.23076923 , 4129.74358974 , 4130.25641026 , 4126.66666667 , 4127.69230769 , 4124.61538462 , 4123.07692308 , 4166.15384615 , 4124.61538462 , 4132.82051282 , 4181.02564103 , 4906.15384615 , 4120.0 , 4133.33333333 , 2045.0 , 2040.0 , 114.701 , 0.0 , 0.0 , 0.0 , 0.0 , 

114.0 , 4128.20512821 , 4135.38461538 , 4125.64102564 , 4137.43589744 , 4127.69230769 , 4131.79487179 , 4127.69230769 , 4169.74358974 , 4124.1025641 , 4135.38461538 , 4184.1025641 , 4902.56410256 , 4128.71794872 , 4134.87179487 , 2046.0 , 2040.0 , 114.708 , 0.0 , 0.0 , 0.0 , 0.0 , 

115.0 , 4124.1025641 , 4127.17948718 , 4125.12820513 , 4129.23076923 , 4124.1025641 , 4123.58974359 , 4120.51282051 , 4163.58974359 , 4120.51282051 , 4129.74358974 , 4182.05128205 , 4908.71794872 , 4129.74358974 , 4135.8974359 , 2043.0 , 2040.0 , 114.715 , 0.0 , 0.0 , 0.0 , 0.0 , 

116.0 , 4124.61538462 , 4128.20512821 , 4124.61538462 , 4126.66666667 , 4124.61538462 , 4121.02564103 , 4117.94871795 , 4162.05128205 , 4121.53846154 , 4126.66666667 , 4185.64102564 , 4907.69230769 , 4133.33333333 , 4132.30769231 , 2042.0 , 2039.0 , 114.723 , 0.0 , 0.0 , 0.0 , 0.0 , 

