['COUNTER', 'AF3', 'F7', 'F3', 'FC5', 'T7', 'P7', 'O1', 'O2', 'P8', 'T8', 'FC6', 'F4', 'F8', 'AF4', 'GYROX', 'GYROY', 'TIMESTAMP', 'FUNC_ID', 'FUNC_VALUE', 'MARKER', 'SYNC_SIGNAL']
112.0 , 4115.8974359 , 4111.28205128 , 4119.48717949 , 4113.33333333 , 4112.82051282 , 4107.17948718 , 4106.15384615 , 4116.92307692 , 4116.41025641 , 4119.48717949 , 4172.30769231 , 4898.46153846 , 4116.41025641 , 4120.51282051 , 2056.0 , 2028.0 , 38.449 , 0.0 , 0.0 , 0.0 , 0.0 , 

113.0 , 4117.94871795 , 4110.76923077 , 4114.87179487 , 4112.30769231 , 4112.82051282 , 4109.23076923 , 4108.20512821 , 4115.38461538 , 4114.35897436 , 4118.97435897 , 4171.28205128 , 4895.8974359 , 4112.82051282 , 4118.46153846 , 2059.0 , 2028.0 , 38.457 , 0.0 , 0.0 , 0.0 , 0.0 , 

114.0 , 4113.33333333 , 4112.30769231 , 4113.84615385 , 4114.35897436 , 4110.25641026 , 4109.74358974 , 4107.17948718 , 4107.17948718 , 4111.28205128 , 4119.48717949 , 4168.20512821 , 4893.84615385 , 4110.76923077 , 4122.05128205 , 2059.0 , 2030.0 , 38.466 , 0.0 , 0.0 , 0.0 , 0.0 , 

115.0 , 4114.87179487 , 4113.33333333 , 4119.48717949 , 4116.41025641 , 4112.82051282 , 4110.25641026 , 4106.66666667 , 4108.20512821 , 4111.79487179 , 4121.02564103 , 4170.25641026 , 4894.87179487 , 4113.33333333 , 4121.02564103 , 2059.0 , 2033.0 , 38.473 , 0.0 , 0.0 , 0.0 , 0.0 , 

116.0 , 4115.8974359 , 4111.28205128 , 4118.46153846 , 4114.87179487 , 4116.41025641 , 4111.28205128 , 4106.66666667 , 4113.84615385 , 4115.38461538 , 4122.05128205 , 4173.33333333 , 4893.33333333 , 4115.8974359 , 4117.43589744 , 2058.0 , 2033.0 , 38.481 , 0.0 , 0.0 , 0.0 , 0.0 , 

117.0 , 4115.38461538 , 4110.25641026 , 4113.84615385 , 4113.84615385 , 4113.84615385 , 4111.28205128 , 4105.12820513 , 4109.23076923 , 4111.79487179 , 4122.05128205 , 4172.30769231 , 4889.74358974 , 4113.84615385 , 4123.58974359 , 2056.0 , 2031.0 , 38.489 , 0.0 , 0.0 , 0.0 , 0.0 , 

118.0 , 4113.33333333 , 4112.30769231 , 4113.33333333 , 4117.43589744 , 4110.25641026 , 4113.33333333 , 4110.25641026 , 4111.28205128 , 4115.38461538 , 4123.07692308 , 4170.76923077 , 4891.79487179 , 4117.94871795 , 4125.64102564 , 2054.0 , 2030.0 , 38.497 , 0.0 , 0.0 , 0.0 , 0.0 , 

119.0 , 4117.43589744 , 4114.87179487 , 4117.94871795 , 4116.92307692 , 4113.33333333 , 4110.76923077 , 4110.25641026 , 4109.74358974 , 4110.76923077 , 4123.07692308 , 4171.28205128 , 4896.41025641 , 4114.87179487 , 4122.56410256 , 2054.0 , 2028.0 , 38.504 , 0.0 , 0.0 , 0.0 , 0.0 , 

120.0 , 4114.35897436 , 4115.8974359 , 4112.30769231 , 4116.41025641 , 4113.84615385 , 4110.76923077 , 4110.76923077 , 4115.8974359 , 4114.35897436 , 4121.53846154 , 4175.38461538 , 4895.38461538 , 4120.0 , 4121.53846154 , 2051.0 , 2026.0 , 38.513 , 0.0 , 0.0 , 0.0 , 0.0 , 

121.0 , 4113.33333333 , 4110.25641026 , 4115.8974359 , 4112.30769231 , 4110.76923077 , 4109.23076923 , 4106.66666667 , 4105.12820513 , 4111.28205128 , 4118.97435897 , 4168.71794872 , 4897.43589744 , 4114.87179487 , 4120.0 , 2049.0 , 2026.0 , 38.52 , 0.0 , 0.0 , 0.0 , 0.0 , 

122.0 , 4112.82051282 , 4112.30769231 , 4117.94871795 , 4114.87179487 , 4111.28205128 , 4112.30769231 , 4111.79487179 , 4111.79487179 , 4116.41025641 , 4119.48717949 , 4168.20512821 , 4897.94871795 , 4120.51282051 , 4117.43589744 , 2046.0 , 2027.0 , 38.529 , 0.0 , 0.0 , 0.0 , 0.0 , 

123.0 , 4116.41025641 , 4111.79487179 , 4123.07692308 , 4110.76923077 , 4113.33333333 , 4107.69230769 , 4105.12820513 , 4107.17948718 , 4107.17948718 , 4117.94871795 , 4168.20512821 , 4898.97435897 , 4113.33333333 , 4118.97435897 , 2044.0 , 2029.0 , 38.536 , 0.0 , 0.0 , 0.0 , 0.0 , 

124.0 , 4115.38461538 , 4111.79487179 , 4115.8974359 , 4114.87179487 , 4112.30769231 , 4111.79487179 , 4107.69230769 , 4116.92307692 , 4115.38461538 , 4120.51282051 , 4171.79487179 , 4895.38461538 , 4115.38461538 , 4120.0 , 2040.0 , 2033.0 , 38.544 , 0.0 , 0.0 , 0.0 , 0.0 , 

125.0 , 4114.87179487 , 4111.28205128 , 4119.48717949 , 4113.33333333 , 4113.84615385 , 4107.69230769 , 4106.66666667 , 4111.28205128 , 4115.38461538 , 4120.0 , 4169.23076923 , 4895.38461538 , 4110.76923077 , 4122.05128205 , 2039.0 , 2037.0 , 38.553 , 0.0 , 0.0 , 0.0 , 0.0 , 

126.0 , 4114.35897436 , 4117.94871795 , 4118.46153846 , 4117.43589744 , 4116.92307692 , 4107.17948718 , 4113.33333333 , 4121.53846154 , 4119.48717949 , 4121.02564103 , 4172.82051282 , 4895.38461538 , 4117.94871795 , 4123.58974359 , 2037.0 , 2039.0 , 38.559 , 0.0 , 0.0 , 0.0 , 0.0 , 

127.0 , 4115.8974359 , 4110.25641026 , 4119.48717949 , 4113.33333333 , 4115.38461538 , 4107.69230769 , 4107.17948718 , 4119.48717949 , 4115.38461538 , 4122.56410256 , 4170.76923077 , 4900.51282051 , 4111.28205128 , 4123.58974359 , 2035.0 , 2040.0 , 38.568 , 0.0 , 0.0 , 0.0 , 0.0 , 

128.0 , 4115.8974359 , 4110.25641026 , 4112.30769231 , 4116.41025641 , 4113.33333333 , 4114.87179487 , 4108.71794872 , 4121.02564103 , 4118.97435897 , 4124.1025641 , 4172.30769231 , 4897.43589744 , 4114.87179487 , 4125.12820513 , 2034.0 , 2041.0 , 38.575 , 0.0 , 0.0 , 0.0 , 0.0 , 

0.0 , 4115.8974359 , 4111.79487179 , 4114.35897436 , 4114.35897436 , 4115.8974359 , 4110.76923077 , 4107.69230769 , 4110.25641026 , 4113.84615385 , 4122.05128205 , 4170.25641026 , 4892.82051282 , 4114.35897436 , 4125.64102564 , 2032.0 , 2040.0 , 38.584 , 0.0 , 0.0 , 0.0 , 0.0 , 

1.0 , 4116.41025641 , 4113.33333333 , 4113.84615385 , 4115.38461538 , 4118.46153846 , 4110.76923077 , 4109.23076923 , 4114.35897436 , 4114.35897436 , 4122.56410256 , 4171.28205128 , 4891.79487179 , 4118.97435897 , 4123.07692308 , 2029.0 , 2041.0 , 38.591 , 0.0 , 0.0 , 0.0 , 0.0 , 

2.0 , 4115.8974359 , 4110.76923077 , 4114.35897436 , 4112.82051282 , 4114.35897436 , 4110.76923077 , 4105.12820513 , 4114.87179487 , 4113.33333333 , 4119.48717949 , 4170.76923077 , 4895.38461538 , 4115.8974359 , 4122.05128205 , 2025.0 , 2041.0 , 38.6 , 0.0 , 0.0 , 0.0 , 0.0 , 

3.0 , 4116.41025641 , 4114.35897436 , 4113.84615385 , 4115.38461538 , 4112.30769231 , 4109.23076923 , 4106.15384615 , 4113.84615385 , 4113.33333333 , 4119.48717949 , 4170.76923077 , 4893.84615385 , 4114.87179487 , 4122.05128205 , 2024.0 , 2041.0 , 38.607 , 0.0 , 0.0 , 0.0 , 0.0 , 

4.0 , 4114.87179487 , 4111.79487179 , 4114.35897436 , 4114.35897436 , 4113.84615385 , 4106.15384615 , 4106.66666667 , 4112.82051282 , 4113.33333333 , 4120.0 , 4169.74358974 , 4893.33333333 , 4115.38461538 , 4119.48717949 , 2023.0 , 2041.0 , 38.615 , 0.0 , 0.0 , 0.0 , 0.0 , 

5.0 , 4115.38461538 , 4109.74358974 , 4113.84615385 , 4111.28205128 , 4113.33333333 , 4108.71794872 , 4110.25641026 , 4112.82051282 , 4109.74358974 , 4120.0 , 4171.28205128 , 4894.35897436 , 4115.38461538 , 4118.46153846 , 2026.0 , 2041.0 , 38.623 , 0.0 , 0.0 , 0.0 , 0.0 , 

6.0 , 4114.35897436 , 4111.28205128 , 4115.8974359 , 4112.82051282 , 4109.74358974 , 4111.28205128 , 4111.28205128 , 4116.92307692 , 4113.84615385 , 4121.02564103 , 4173.33333333 , 4894.87179487 , 4117.43589744 , 4118.97435897 , 2027.0 , 2039.0 , 38.631 , 0.0 , 0.0 , 0.0 , 0.0 , 

7.0 , 4114.35897436 , 4110.76923077 , 4117.94871795 , 4113.33333333 , 4111.79487179 , 4109.74358974 , 4106.15384615 , 4114.35897436 , 4115.8974359 , 4120.0 , 4169.74358974 , 4896.41025641 , 4113.33333333 , 4120.0 , 2031.0 , 2035.0 , 38.638 , 0.0 , 0.0 , 0.0 , 0.0 , 

8.0 , 4112.30769231 , 4112.82051282 , 4113.33333333 , 4115.8974359 , 4115.8974359 , 4111.28205128 , 4108.20512821 , 4118.46153846 , 4117.94871795 , 4120.51282051 , 4169.23076923 , 4894.87179487 , 4115.8974359 , 4120.0 , 2032.0 , 2035.0 , 38.646 , 0.0 , 0.0 , 0.0 , 0.0 , 

9.0 , 4115.38461538 , 4112.82051282 , 4116.41025641 , 4115.8974359 , 4117.94871795 , 4110.25641026 , 4109.23076923 , 4109.74358974 , 4111.28205128 , 4122.56410256 , 4170.25641026 , 4895.8974359 , 4112.82051282 , 4119.48717949 , 2037.0 , 2036.0 , 38.654 , 0.0 , 0.0 , 0.0 , 0.0 , 

10.0 , 4113.84615385 , 4112.30769231 , 4114.35897436 , 4117.94871795 , 4116.41025641 , 4110.76923077 , 4111.79487179 , 4114.87179487 , 4118.46153846 , 4124.1025641 , 4174.35897436 , 4897.43589744 , 4118.97435897 , 4122.05128205 , 2037.0 , 2037.0 , 38.666 , 0.0 , 0.0 , 0.0 , 0.0 , 

11.0 , 4111.79487179 , 4110.25641026 , 4116.41025641 , 4114.35897436 , 4114.87179487 , 4107.17948718 , 4106.66666667 , 4106.15384615 , 4112.30769231 , 4120.51282051 , 4170.25641026 , 4896.92307692 , 4111.79487179 , 4121.53846154 , 2040.0 , 2039.0 , 38.67 , 0.0 , 0.0 , 0.0 , 0.0 , 

12.0 , 4111.79487179 , 4114.87179487 , 4115.38461538 , 4119.48717949 , 4112.30769231 , 4109.74358974 , 4111.28205128 , 4114.35897436 , 4113.84615385 , 4122.05128205 , 4170.25641026 , 4892.30769231 , 4115.38461538 , 4116.92307692 , 2044.0 , 2040.0 , 38.679 , 0.0 , 0.0 , 0.0 , 0.0 , 

13.0 , 4116.92307692 , 4113.33333333 , 4118.46153846 , 4114.87179487 , 4111.79487179 , 4106.66666667 , 4104.1025641 , 4110.25641026 , 4110.25641026 , 4120.0 , 4168.71794872 , 4895.8974359 , 4111.28205128 , 4117.94871795 , 2044.0 , 2038.0 , 38.685 , 0.0 , 0.0 , 0.0 , 0.0 , 

14.0 , 4116.92307692 , 4113.33333333 , 4112.30769231 , 4113.33333333 , 4112.30769231 , 4111.79487179 , 4107.17948718 , 4115.8974359 , 4115.8974359 , 4118.46153846 , 4174.35897436 , 4895.38461538 , 4117.94871795 , 4123.58974359 , 2046.0 , 2039.0 , 38.693 , 0.0 , 0.0 , 0.0 , 0.0 , 

15.0 , 4115.38461538 , 4109.74358974 , 4117.94871795 , 4113.33333333 , 4111.79487179 , 4110.76923077 , 4106.66666667 , 4107.17948718 , 4112.30769231 , 4118.46153846 , 4171.79487179 , 4895.38461538 , 4112.30769231 , 4124.1025641 , 2046.0 , 2040.0 , 38.702 , 0.0 , 0.0 , 0.0 , 0.0 , 

16.0 , 4113.33333333 , 4115.8974359 , 4115.38461538 , 4121.53846154 , 4111.79487179 , 4111.28205128 , 4111.79487179 , 4117.43589744 , 4121.53846154 , 4121.53846154 , 4171.79487179 , 4894.87179487 , 4120.0 , 4120.0 , 2045.0 , 2037.0 , 38.709 , 0.0 , 0.0 , 0.0 , 0.0 , 

17.0 , 4114.35897436 , 4114.35897436 , 4117.94871795 , 4114.35897436 , 4112.82051282 , 4108.20512821 , 4107.17948718 , 4111.28205128 , 4118.46153846 , 4117.94871795 , 4172.82051282 , 4897.43589744 , 4117.94871795 , 4121.53846154 , 2045.0 , 2036.0 , 38.718 , 0.0 , 0.0 , 0.0 , 0.0 , 

18.0 , 4114.87179487 , 4115.38461538 , 4113.84615385 , 4111.79487179 , 4112.30769231 , 4114.35897436 , 4111.79487179 , 4113.33333333 , 4117.43589744 , 4118.97435897 , 4177.94871795 , 4894.35897436 , 4118.97435897 , 4125.12820513 , 2046.0 , 2032.0 , 38.726 , 0.0 , 0.0 , 0.0 , 0.0 , 

19.0 , 4113.84615385 , 4111.28205128 , 4113.33333333 , 4113.33333333 , 4110.76923077 , 4111.79487179 , 4109.23076923 , 4111.79487179 , 4113.84615385 , 4121.53846154 , 4171.28205128 , 4893.84615385 , 4115.8974359 , 4122.56410256 , 2045.0 , 2032.0 , 38.734 , 0.0 , 0.0 , 0.0 , 0.0 , 

20.0 , 4114.87179487 , 4112.82051282 , 4114.35897436 , 4118.97435897 , 4113.33333333 , 4111.28205128 , 4111.79487179 , 4116.41025641 , 4116.92307692 , 4121.53846154 , 4168.71794872 , 4893.33333333 , 4120.0 , 4117.43589744 , 2045.0 , 2032.0 , 38.742 , 0.0 , 0.0 , 0.0 , 0.0 , 

21.0 , 4114.87179487 , 4111.79487179 , 4117.94871795 , 4110.76923077 , 4113.33333333 , 4108.71794872 , 4108.71794872 , 4111.79487179 , 4114.35897436 , 4121.02564103 , 4170.76923077 , 4895.38461538 , 4114.35897436 , 4115.8974359 , 2042.0 , 2032.0 , 38.75 , 0.0 , 0.0 , 0.0 , 0.0 , 

22.0 , 4112.30769231 , 4113.84615385 , 4114.87179487 , 4110.25641026 , 4112.82051282 , 4109.74358974 , 4109.23076923 , 4113.33333333 , 4113.84615385 , 4123.58974359 , 4172.82051282 , 4894.35897436 , 4111.28205128 , 4120.0 , 2043.0 , 2032.0 , 38.757 , 0.0 , 0.0 , 0.0 , 0.0 , 

23.0 , 4111.79487179 , 4113.84615385 , 4114.87179487 , 4116.92307692 , 4112.82051282 , 4109.23076923 , 4110.25641026 , 4115.8974359 , 4118.46153846 , 4121.53846154 , 4170.76923077 , 4895.8974359 , 4112.82051282 , 4121.53846154 , 2042.0 , 2033.0 , 38.765 , 0.0 , 0.0 , 0.0 , 0.0 , 

24.0 , 4117.43589744 , 4113.33333333 , 4117.43589744 , 4120.0 , 4112.82051282 , 4108.20512821 , 4108.71794872 , 4110.25641026 , 4114.35897436 , 4117.43589744 , 4169.74358974 , 4896.41025641 , 4111.79487179 , 4119.48717949 , 2041.0 , 2033.0 , 38.772 , 0.0 , 0.0 , 0.0 , 0.0 , 

25.0 , 4115.8974359 , 4112.30769231 , 4117.43589744 , 4117.94871795 , 4111.79487179 , 4110.25641026 , 4107.69230769 , 4113.84615385 , 4114.35897436 , 4119.48717949 , 4169.74358974 , 4894.35897436 , 4115.8974359 , 4121.02564103 , 2040.0 , 2035.0 , 38.795 , 0.0 , 0.0 , 0.0 , 0.0 , 

26.0 , 4117.43589744 , 4113.33333333 , 4120.0 , 4114.35897436 , 4112.82051282 , 4112.82051282 , 4108.71794872 , 4114.35897436 , 4114.35897436 , 4123.07692308 , 4168.71794872 , 4894.35897436 , 4115.38461538 , 4125.12820513 , 2041.0 , 2035.0 , 38.798 , 0.0 , 0.0 , 0.0 , 0.0 , 

27.0 , 4119.48717949 , 4118.46153846 , 4115.8974359 , 4116.92307692 , 4113.33333333 , 4114.35897436 , 4111.79487179 , 4116.92307692 , 4119.48717949 , 4122.56410256 , 4173.33333333 , 4895.8974359 , 4120.51282051 , 4122.56410256 , 2041.0 , 2034.0 , 38.798 , 0.0 , 0.0 , 0.0 , 0.0 , 

28.0 , 4117.43589744 , 4114.87179487 , 4115.38461538 , 4118.46153846 , 4112.82051282 , 4107.17948718 , 4106.66666667 , 4106.66666667 , 4110.76923077 , 4116.92307692 , 4173.33333333 , 4897.43589744 , 4115.38461538 , 4117.43589744 , 2042.0 , 2035.0 , 38.804 , 0.0 , 0.0 , 0.0 , 0.0 , 

29.0 , 4113.33333333 , 4110.76923077 , 4113.84615385 , 4121.53846154 , 4110.76923077 , 4109.74358974 , 4108.71794872 , 4116.41025641 , 4114.87179487 , 4118.97435897 , 4174.35897436 , 4893.84615385 , 4119.48717949 , 4117.94871795 , 2042.0 , 2036.0 , 38.813 , 0.0 , 0.0 , 0.0 , 0.0 , 

30.0 , 4116.41025641 , 4108.71794872 , 4120.0 , 4113.33333333 , 4112.30769231 , 4110.25641026 , 4105.12820513 , 4111.28205128 , 4110.76923077 , 4124.1025641 , 4171.79487179 , 4893.84615385 , 4112.30769231 , 4119.48717949 , 2043.0 , 2036.0 , 38.82 , 0.0 , 0.0 , 0.0 , 0.0 , 

31.0 , 4113.84615385 , 4113.33333333 , 4116.41025641 , 4114.35897436 , 4115.8974359 , 4112.30769231 , 4110.25641026 , 4114.35897436 , 4114.35897436 , 4124.61538462 , 4173.33333333 , 4894.87179487 , 4116.92307692 , 4118.46153846 , 2042.0 , 2035.0 , 38.827 , 0.0 , 0.0 , 0.0 , 0.0 , 

32.0 , 4115.8974359 , 4109.74358974 , 4117.43589744 , 4112.82051282 , 4113.84615385 , 4109.23076923 , 4105.64102564 , 4107.69230769 , 4109.23076923 , 4121.02564103 , 4167.17948718 , 4898.46153846 , 4112.82051282 , 4118.97435897 , 2044.0 , 2035.0 , 38.835 , 0.0 , 0.0 , 0.0 , 0.0 , 

33.0 , 4116.92307692 , 4110.76923077 , 4111.28205128 , 4116.41025641 , 4109.23076923 , 4111.79487179 , 4108.20512821 , 4121.53846154 , 4116.92307692 , 4124.1025641 , 4171.28205128 , 4892.30769231 , 4118.97435897 , 4121.02564103 , 2045.0 , 2033.0 , 38.843 , 0.0 , 0.0 , 0.0 , 0.0 , 

34.0 , 4113.33333333 , 4107.69230769 , 4115.8974359 , 4112.30769231 , 4111.28205128 , 4108.71794872 , 4106.15384615 , 4115.8974359 , 4115.38461538 , 4122.56410256 , 4175.8974359 , 4892.30769231 , 4111.79487179 , 4121.53846154 , 2045.0 , 2033.0 , 38.852 , 0.0 , 0.0 , 0.0 , 0.0 , 

35.0 , 4110.76923077 , 4110.76923077 , 4114.87179487 , 4116.41025641 , 4115.38461538 , 4112.82051282 , 4113.33333333 , 4120.0 , 4120.0 , 4120.51282051 , 4177.94871795 , 4896.41025641 , 4116.92307692 , 4119.48717949 , 2044.0 , 2033.0 , 38.86 , 0.0 , 0.0 , 0.0 , 0.0 , 

36.0 , 4114.35897436 , 4109.23076923 , 4115.38461538 , 4116.41025641 , 4113.84615385 , 4110.76923077 , 4107.17948718 , 4116.41025641 , 4115.8974359 , 4120.51282051 , 4171.79487179 , 4896.92307692 , 4114.87179487 , 4117.94871795 , 2044.0 , 2034.0 , 38.867 , 0.0 , 0.0 , 0.0 , 0.0 , 

37.0 , 4113.84615385 , 4112.82051282 , 4112.82051282 , 4118.46153846 , 4113.33333333 , 4111.28205128 , 4111.28205128 , 4117.94871795 , 4115.8974359 , 4122.56410256 , 4175.8974359 , 4890.25641026 , 4116.41025641 , 4121.53846154 , 2045.0 , 2036.0 , 38.875 , 0.0 , 0.0 , 0.0 , 0.0 , 

38.0 , 4112.82051282 , 4111.28205128 , 4120.0 , 4115.38461538 , 4113.33333333 , 4109.74358974 , 4112.30769231 , 4108.71794872 , 4113.84615385 , 4120.51282051 , 4175.38461538 , 4894.35897436 , 4111.28205128 , 4126.15384615 , 2043.0 , 2036.0 , 38.883 , 0.0 , 0.0 , 0.0 , 0.0 , 

39.0 , 4115.38461538 , 4113.84615385 , 4120.51282051 , 4115.38461538 , 4112.30769231 , 4111.28205128 , 4110.76923077 , 4111.28205128 , 4113.33333333 , 4120.51282051 , 4172.30769231 , 4896.92307692 , 4114.87179487 , 4123.07692308 , 2045.0 , 2037.0 , 38.89 , 0.0 , 0.0 , 0.0 , 0.0 , 

40.0 , 4114.35897436 , 4111.79487179 , 4115.8974359 , 4111.79487179 , 4113.84615385 , 4109.23076923 , 4103.07692308 , 4109.23076923 , 4109.74358974 , 4120.0 , 4170.25641026 , 4893.84615385 , 4114.35897436 , 4118.97435897 , 2045.0 , 2034.0 , 38.898 , 0.0 , 0.0 , 0.0 , 0.0 , 

41.0 , 4114.87179487 , 4112.82051282 , 4113.84615385 , 4113.84615385 , 4115.8974359 , 4110.25641026 , 4104.61538462 , 4108.20512821 , 4109.23076923 , 4120.51282051 , 4172.82051282 , 4891.28205128 , 4114.87179487 , 4124.61538462 , 2045.0 , 2034.0 , 38.906 , 0.0 , 0.0 , 0.0 , 0.0 , 

42.0 , 4113.84615385 , 4112.82051282 , 4115.38461538 , 4116.92307692 , 4111.28205128 , 4111.28205128 , 4107.17948718 , 4116.92307692 , 4114.87179487 , 4118.46153846 , 4172.82051282 , 4893.84615385 , 4117.43589744 , 4126.66666667 , 2045.0 , 2033.0 , 38.914 , 0.0 , 0.0 , 0.0 , 0.0 , 

43.0 , 4115.8974359 , 4111.79487179 , 4115.38461538 , 4117.43589744 , 4110.25641026 , 4111.79487179 , 4104.1025641 , 4115.38461538 , 4111.79487179 , 4117.43589744 , 4172.82051282 , 4895.8974359 , 4114.87179487 , 4120.0 , 2045.0 , 2033.0 , 38.922 , 0.0 , 0.0 , 0.0 , 0.0 , 

44.0 , 4115.38461538 , 4111.28205128 , 4111.28205128 , 4117.43589744 , 4112.82051282 , 4113.84615385 , 4106.15384615 , 4112.30769231 , 4113.84615385 , 4122.56410256 , 4174.87179487 , 4896.41025641 , 4120.0 , 4116.92307692 , 2047.0 , 2029.0 , 38.931 , 0.0 , 0.0 , 0.0 , 0.0 , 

45.0 , 4113.33333333 , 4109.74358974 , 4113.84615385 , 4114.87179487 , 4113.84615385 , 4111.28205128 , 4108.71794872 , 4109.23076923 , 4114.35897436 , 4126.15384615 , 4172.30769231 , 4895.8974359 , 4117.94871795 , 4123.07692308 , 2047.0 , 2030.0 , 38.938 , 0.0 , 0.0 , 0.0 , 0.0 , 

46.0 , 4107.69230769 , 4113.33333333 , 4113.84615385 , 4116.92307692 , 4112.30769231 , 4113.84615385 , 4111.79487179 , 4120.51282051 , 4118.46153846 , 4124.1025641 , 4172.82051282 , 4894.35897436 , 4118.46153846 , 4125.12820513 , 2047.0 , 2030.0 , 38.946 , 0.0 , 0.0 , 0.0 , 0.0 , 

47.0 , 4112.30769231 , 4111.79487179 , 4117.94871795 , 4115.8974359 , 4113.33333333 , 4110.76923077 , 4106.15384615 , 4106.66666667 , 4108.71794872 , 4119.48717949 , 4172.30769231 , 4897.94871795 , 4109.74358974 , 4120.51282051 , 2048.0 , 2033.0 , 38.953 , 0.0 , 0.0 , 0.0 , 0.0 , 

48.0 , 4115.38461538 , 4112.82051282 , 4116.92307692 , 4119.48717949 , 4111.28205128 , 4109.23076923 , 4107.69230769 , 4109.74358974 , 4111.79487179 , 4121.02564103 , 4175.38461538 , 4896.92307692 , 4114.87179487 , 4118.46153846 , 2049.0 , 2035.0 , 38.962 , 0.0 , 0.0 , 0.0 , 0.0 , 

49.0 , 4116.41025641 , 4110.25641026 , 4120.0 , 4115.38461538 , 4110.76923077 , 4107.17948718 , 4102.56410256 , 4108.20512821 , 4106.66666667 , 4120.0 , 4172.82051282 , 4895.8974359 , 4109.74358974 , 4123.07692308 , 2050.0 , 2034.0 , 38.969 , 0.0 , 0.0 , 0.0 , 0.0 , 

50.0 , 4115.38461538 , 4112.82051282 , 4111.79487179 , 4116.41025641 , 4114.35897436 , 4114.87179487 , 4108.71794872 , 4114.35897436 , 4113.33333333 , 4119.48717949 , 4173.33333333 , 4893.84615385 , 4117.94871795 , 4125.64102564 , 2050.0 , 2036.0 , 38.977 , 0.0 , 0.0 , 0.0 , 0.0 , 

51.0 , 4115.8974359 , 4111.28205128 , 4111.79487179 , 4111.79487179 , 4113.84615385 , 4110.76923077 , 4107.17948718 , 4104.61538462 , 4112.30769231 , 4118.97435897 , 4169.23076923 , 4894.87179487 , 4114.35897436 , 4120.0 , 2048.0 , 2036.0 , 38.985 , 0.0 , 0.0 , 0.0 , 0.0 , 

52.0 , 4113.33333333 , 4117.43589744 , 4111.79487179 , 4117.94871795 , 4113.33333333 , 4112.82051282 , 4110.25641026 , 4114.87179487 , 4114.87179487 , 4123.07692308 , 4175.38461538 , 4891.79487179 , 4121.02564103 , 4119.48717949 , 2048.0 , 2037.0 , 38.993 , 0.0 , 0.0 , 0.0 , 0.0 , 

53.0 , 4114.35897436 , 4116.41025641 , 4117.94871795 , 4116.92307692 , 4114.87179487 , 4114.35897436 , 4105.12820513 , 4108.71794872 , 4107.69230769 , 4123.07692308 , 4174.87179487 , 4895.8974359 , 4117.43589744 , 4123.58974359 , 2048.0 , 2038.0 , 39.001 , 0.0 , 0.0 , 0.0 , 0.0 , 

54.0 , 4116.41025641 , 4118.97435897 , 4112.82051282 , 4120.0 , 4114.87179487 , 4115.8974359 , 4110.76923077 , 4115.38461538 , 4114.87179487 , 4122.05128205 , 4173.33333333 , 4895.8974359 , 4120.0 , 4123.58974359 , 2048.0 , 2039.0 , 39.009 , 0.0 , 0.0 , 0.0 , 0.0 , 

55.0 , 4115.8974359 , 4114.87179487 , 4116.41025641 , 4116.41025641 , 4112.30769231 , 4109.23076923 , 4106.15384615 , 4114.87179487 , 4116.41025641 , 4123.07692308 , 4170.25641026 , 4893.33333333 , 4113.33333333 , 4120.0 , 2046.0 , 2035.0 , 39.017 , 0.0 , 0.0 , 0.0 , 0.0 , 

56.0 , 4112.30769231 , 4114.87179487 , 4117.94871795 , 4115.8974359 , 4112.82051282 , 4113.84615385 , 4108.20512821 , 4116.92307692 , 4117.94871795 , 4124.1025641 , 4172.82051282 , 4890.25641026 , 4115.38461538 , 4120.0 , 2045.0 , 2034.0 , 39.025 , 0.0 , 0.0 , 0.0 , 0.0 , 

57.0 , 4111.79487179 , 4112.82051282 , 4117.43589744 , 4112.30769231 , 4110.25641026 , 4112.82051282 , 4106.15384615 , 4109.23076923 , 4112.82051282 , 4121.53846154 , 4170.76923077 , 4896.41025641 , 4115.8974359 , 4120.51282051 , 2044.0 , 2031.0 , 39.032 , 0.0 , 0.0 , 0.0 , 0.0 , 

58.0 , 4116.41025641 , 4113.33333333 , 4114.35897436 , 4115.38461538 , 4110.76923077 , 4110.25641026 , 4107.17948718 , 4110.76923077 , 4112.30769231 , 4124.1025641 , 4171.28205128 , 4898.46153846 , 4116.92307692 , 4120.0 , 2043.0 , 2028.0 , 39.04 , 0.0 , 0.0 , 0.0 , 0.0 , 

59.0 , 4115.38461538 , 4107.69230769 , 4117.43589744 , 4116.92307692 , 4114.35897436 , 4109.74358974 , 4106.15384615 , 4110.25641026 , 4114.87179487 , 4125.12820513 , 4172.82051282 , 4896.41025641 , 4112.30769231 , 4120.0 , 2043.0 , 2025.0 , 39.049 , 0.0 , 0.0 , 0.0 , 0.0 , 

60.0 , 4112.82051282 , 4109.74358974 , 4119.48717949 , 4116.41025641 , 4115.38461538 , 4112.82051282 , 4105.64102564 , 4110.25641026 , 4114.87179487 , 4124.1025641 , 4172.82051282 , 4896.41025641 , 4111.79487179 , 4121.53846154 , 2042.0 , 2029.0 , 39.115 , 0.0 , 0.0 , 0.0 , 0.0 , 

61.0 , 4112.30769231 , 4113.84615385 , 4115.8974359 , 4115.38461538 , 4113.33333333 , 4114.35897436 , 4109.23076923 , 4117.94871795 , 4117.94871795 , 4124.1025641 , 4172.82051282 , 4897.94871795 , 4115.8974359 , 4122.56410256 , 2041.0 , 2030.0 , 39.117 , 0.0 , 0.0 , 0.0 , 0.0 , 

62.0 , 4116.41025641 , 4112.82051282 , 4116.41025641 , 4115.38461538 , 4115.38461538 , 4111.79487179 , 4111.28205128 , 4114.35897436 , 4114.87179487 , 4122.05128205 , 4170.76923077 , 4895.8974359 , 4111.28205128 , 4123.07692308 , 2041.0 , 2029.0 , 39.117 , 0.0 , 0.0 , 0.0 , 0.0 , 

63.0 , 4115.38461538 , 4114.35897436 , 4114.87179487 , 4118.46153846 , 4115.38461538 , 4111.28205128 , 4112.30769231 , 4115.38461538 , 4117.94871795 , 4121.02564103 , 4172.30769231 , 4893.33333333 , 4115.38461538 , 4122.05128205 , 2038.0 , 2029.0 , 39.117 , 0.0 , 0.0 , 0.0 , 0.0 , 

64.0 , 4116.41025641 , 4115.38461538 , 4115.38461538 , 4114.35897436 , 4113.33333333 , 4111.79487179 , 4107.17948718 , 4108.71794872 , 4113.84615385 , 4121.53846154 , 4173.33333333 , 4895.38461538 , 4117.43589744 , 4122.56410256 , 2038.0 , 2027.0 , 39.117 , 0.0 , 0.0 , 0.0 , 0.0 , 

65.0 , 4113.33333333 , 4114.35897436 , 4111.79487179 , 4114.35897436 , 4114.87179487 , 4114.87179487 , 4113.33333333 , 4113.84615385 , 4118.46153846 , 4121.53846154 , 4174.87179487 , 4895.38461538 , 4117.94871795 , 4122.05128205 , 2039.0 , 2028.0 , 39.117 , 0.0 , 0.0 , 0.0 , 0.0 , 

66.0 , 4114.87179487 , 4112.82051282 , 4117.43589744 , 4111.79487179 , 4116.92307692 , 4109.23076923 , 4109.23076923 , 4105.12820513 , 4112.30769231 , 4121.02564103 , 4171.28205128 , 4895.8974359 , 4107.69230769 , 4122.56410256 , 2039.0 , 2028.0 , 39.117 , 0.0 , 0.0 , 0.0 , 0.0 , 

67.0 , 4116.92307692 , 4117.43589744 , 4114.87179487 , 4115.38461538 , 4112.82051282 , 4110.76923077 , 4107.17948718 , 4113.33333333 , 4112.82051282 , 4122.56410256 , 4172.82051282 , 4894.87179487 , 4118.46153846 , 4123.07692308 , 2039.0 , 2031.0 , 39.117 , 0.0 , 0.0 , 0.0 , 0.0 , 

68.0 , 4116.92307692 , 4111.28205128 , 4115.38461538 , 4114.35897436 , 4110.76923077 , 4107.69230769 , 4103.07692308 , 4107.69230769 , 4104.61538462 , 4117.94871795 , 4170.76923077 , 4898.97435897 , 4114.87179487 , 4120.51282051 , 2040.0 , 2032.0 , 39.122 , 0.0 , 0.0 , 0.0 , 0.0 , 

69.0 , 4113.84615385 , 4111.79487179 , 4111.28205128 , 4118.46153846 , 4114.35897436 , 4109.74358974 , 4110.76923077 , 4113.33333333 , 4114.35897436 , 4121.02564103 , 4173.84615385 , 4896.92307692 , 4116.92307692 , 4119.48717949 , 2042.0 , 2035.0 , 39.128 , 0.0 , 0.0 , 0.0 , 0.0 , 

70.0 , 4114.87179487 , 4112.30769231 , 4117.94871795 , 4113.33333333 , 4114.35897436 , 4108.20512821 , 4109.23076923 , 4106.66666667 , 4114.35897436 , 4126.66666667 , 4171.79487179 , 4897.94871795 , 4111.28205128 , 4120.51282051 , 2043.0 , 2036.0 , 39.136 , 0.0 , 0.0 , 0.0 , 0.0 , 

71.0 , 4114.87179487 , 4115.38461538 , 4113.84615385 , 4116.92307692 , 4111.79487179 , 4112.30769231 , 4113.33333333 , 4116.41025641 , 4118.46153846 , 4123.58974359 , 4176.92307692 , 4895.8974359 , 4118.97435897 , 4120.51282051 , 2043.0 , 2039.0 , 39.143 , 0.0 , 0.0 , 0.0 , 0.0 , 

72.0 , 4114.87179487 , 4111.28205128 , 4114.87179487 , 4114.87179487 , 4113.33333333 , 4109.23076923 , 4107.17948718 , 4110.25641026 , 4115.38461538 , 4116.41025641 , 4173.84615385 , 4894.87179487 , 4114.35897436 , 4118.97435897 , 2047.0 , 2040.0 , 39.15 , 0.0 , 0.0 , 0.0 , 0.0 , 

73.0 , 4113.84615385 , 4114.35897436 , 4114.87179487 , 4115.38461538 , 4114.35897436 , 4112.82051282 , 4110.76923077 , 4119.48717949 , 4120.0 , 4122.05128205 , 4174.35897436 , 4890.76923077 , 4117.43589744 , 4118.97435897 , 2047.0 , 2038.0 , 39.158 , 0.0 , 0.0 , 0.0 , 0.0 , 

74.0 , 4114.87179487 , 4109.23076923 , 4117.43589744 , 4112.82051282 , 4110.25641026 , 4111.28205128 , 4108.20512821 , 4118.97435897 , 4112.30769231 , 4124.1025641 , 4172.82051282 , 4892.82051282 , 4112.82051282 , 4120.0 , 2050.0 , 2038.0 , 39.166 , 0.0 , 0.0 , 0.0 , 0.0 , 

75.0 , 4116.41025641 , 4109.74358974 , 4114.87179487 , 4115.38461538 , 4113.33333333 , 4109.23076923 , 4110.25641026 , 4115.38461538 , 4110.76923077 , 4119.48717949 , 4173.84615385 , 4895.38461538 , 4115.38461538 , 4121.02564103 , 2050.0 , 2037.0 , 39.174 , 0.0 , 0.0 , 0.0 , 0.0 , 

76.0 , 4113.84615385 , 4109.23076923 , 4118.46153846 , 4111.79487179 , 4115.8974359 , 4106.15384615 , 4108.71794872 , 4108.20512821 , 4113.84615385 , 4117.94871795 , 4172.30769231 , 4897.43589744 , 4114.87179487 , 4123.58974359 , 2049.0 , 2038.0 , 39.182 , 0.0 , 0.0 , 0.0 , 0.0 , 

77.0 , 4112.82051282 , 4111.79487179 , 4117.94871795 , 4112.82051282 , 4112.30769231 , 4110.76923077 , 4110.76923077 , 4112.30769231 , 4114.35897436 , 4120.51282051 , 4172.82051282 , 4895.38461538 , 4115.38461538 , 4126.15384615 , 2049.0 , 2037.0 , 39.19 , 0.0 , 0.0 , 0.0 , 0.0 , 

78.0 , 4114.87179487 , 4112.82051282 , 4114.87179487 , 4113.33333333 , 4109.23076923 , 4112.30769231 , 4108.20512821 , 4113.84615385 , 4113.33333333 , 4117.43589744 , 4172.30769231 , 4895.38461538 , 4116.92307692 , 4125.64102564 , 2049.0 , 2036.0 , 39.198 , 0.0 , 0.0 , 0.0 , 0.0 , 

79.0 , 4116.92307692 , 4111.79487179 , 4114.87179487 , 4113.84615385 , 4113.84615385 , 4108.71794872 , 4108.20512821 , 4112.30769231 , 4114.35897436 , 4116.41025641 , 4172.30769231 , 4895.8974359 , 4116.41025641 , 4123.07692308 , 2045.0 , 2037.0 , 39.223 , 0.0 , 0.0 , 0.0 , 0.0 , 

80.0 , 4111.28205128 , 4110.76923077 , 4114.35897436 , 4114.87179487 , 4116.41025641 , 4110.25641026 , 4111.28205128 , 4116.41025641 , 4119.48717949 , 4122.56410256 , 4173.33333333 , 4894.35897436 , 4118.46153846 , 4121.02564103 , 2044.0 , 2036.0 , 39.229 , 0.0 , 0.0 , 0.0 , 0.0 , 

81.0 , 4111.79487179 , 4113.84615385 , 4116.41025641 , 4114.35897436 , 4114.87179487 , 4112.82051282 , 4106.15384615 , 4111.79487179 , 4113.33333333 , 4123.07692308 , 4170.76923077 , 4896.41025641 , 4113.33333333 , 4122.05128205 , 2043.0 , 2035.0 , 39.229 , 0.0 , 0.0 , 0.0 , 0.0 , 

82.0 , 4113.84615385 , 4115.38461538 , 4113.84615385 , 4116.92307692 , 4112.30769231 , 4113.84615385 , 4105.12820513 , 4116.92307692 , 4115.38461538 , 4122.05128205 , 4172.82051282 , 4897.94871795 , 4116.41025641 , 4123.07692308 , 2043.0 , 2035.0 , 39.231 , 0.0 , 0.0 , 0.0 , 0.0 , 

83.0 , 4116.41025641 , 4111.79487179 , 4115.38461538 , 4114.35897436 , 4113.84615385 , 4110.76923077 , 4105.12820513 , 4109.23076923 , 4111.28205128 , 4121.53846154 , 4174.35897436 , 4896.92307692 , 4112.82051282 , 4123.07692308 , 2041.0 , 2033.0 , 39.237 , 0.0 , 0.0 , 0.0 , 0.0 , 

84.0 , 4110.76923077 , 4114.87179487 , 4112.82051282 , 4115.8974359 , 4114.35897436 , 4111.79487179 , 4110.76923077 , 4111.28205128 , 4113.33333333 , 4120.51282051 , 4175.38461538 , 4893.84615385 , 4118.46153846 , 4122.05128205 , 2041.0 , 2032.0 , 39.246 , 0.0 , 0.0 , 0.0 , 0.0 , 

85.0 , 4110.76923077 , 4112.30769231 , 4117.43589744 , 4112.30769231 , 4112.82051282 , 4108.71794872 , 4106.15384615 , 4106.15384615 , 4106.15384615 , 4119.48717949 , 4171.79487179 , 4898.46153846 , 4113.84615385 , 4120.51282051 , 2043.0 , 2032.0 , 39.254 , 0.0 , 0.0 , 0.0 , 0.0 , 

86.0 , 4114.35897436 , 4113.33333333 , 4113.84615385 , 4115.38461538 , 4111.28205128 , 4112.82051282 , 4107.69230769 , 4119.48717949 , 4115.38461538 , 4122.05128205 , 4174.35897436 , 4899.48717949 , 4120.0 , 4118.97435897 , 2045.0 , 2032.0 , 39.263 , 0.0 , 0.0 , 0.0 , 0.0 , 

87.0 , 4117.43589744 , 4111.28205128 , 4116.92307692 , 4113.33333333 , 4114.35897436 , 4110.25641026 , 4105.12820513 , 4108.71794872 , 4114.87179487 , 4118.46153846 , 4172.82051282 , 4899.48717949 , 4113.33333333 , 4121.02564103 , 2044.0 , 2032.0 , 39.27 , 0.0 , 0.0 , 0.0 , 0.0 , 

88.0 , 4114.35897436 , 4114.35897436 , 4114.35897436 , 4116.92307692 , 4116.41025641 , 4111.28205128 , 4110.76923077 , 4113.84615385 , 4122.56410256 , 4120.51282051 , 4174.87179487 , 4897.43589744 , 4114.87179487 , 4123.58974359 , 2046.0 , 2034.0 , 39.278 , 0.0 , 0.0 , 0.0 , 0.0 , 

89.0 , 4114.35897436 , 4110.25641026 , 4122.05128205 , 4112.30769231 , 4114.35897436 , 4108.71794872 , 4105.64102564 , 4110.25641026 , 4116.92307692 , 4124.61538462 , 4173.33333333 , 4899.48717949 , 4110.25641026 , 4121.53846154 , 2045.0 , 2034.0 , 39.285 , 0.0 , 0.0 , 0.0 , 0.0 , 

90.0 , 4113.33333333 , 4114.35897436 , 4120.0 , 4116.92307692 , 4115.38461538 , 4114.35897436 , 4110.25641026 , 4115.8974359 , 4116.41025641 , 4126.66666667 , 4175.8974359 , 4895.8974359 , 4118.46153846 , 4121.02564103 , 2045.0 , 2035.0 , 39.293 , 0.0 , 0.0 , 0.0 , 0.0 , 

91.0 , 4114.35897436 , 4113.84615385 , 4117.94871795 , 4116.92307692 , 4112.82051282 , 4109.74358974 , 4108.20512821 , 4109.23076923 , 4114.87179487 , 4124.61538462 , 4171.79487179 , 4895.38461538 , 4113.33333333 , 4125.64102564 , 2045.0 , 2037.0 , 39.301 , 0.0 , 0.0 , 0.0 , 0.0 , 

92.0 , 4116.41025641 , 4116.92307692 , 4114.87179487 , 4117.94871795 , 4111.79487179 , 4111.79487179 , 4109.23076923 , 4114.87179487 , 4120.0 , 4123.07692308 , 4171.79487179 , 4893.84615385 , 4115.8974359 , 4126.66666667 , 2045.0 , 2036.0 , 39.309 , 0.0 , 0.0 , 0.0 , 0.0 , 

93.0 , 4114.87179487 , 4113.33333333 , 4119.48717949 , 4112.82051282 , 4114.35897436 , 4113.33333333 , 4104.1025641 , 4107.69230769 , 4112.82051282 , 4120.51282051 , 4171.28205128 , 4897.43589744 , 4115.38461538 , 4122.56410256 , 2046.0 , 2036.0 , 39.316 , 0.0 , 0.0 , 0.0 , 0.0 , 

94.0 , 4114.87179487 , 4111.28205128 , 4116.41025641 , 4112.30769231 , 4113.84615385 , 4113.84615385 , 4111.28205128 , 4108.71794872 , 4112.30769231 , 4124.1025641 , 4172.82051282 , 4898.46153846 , 4117.94871795 , 4120.51282051 , 2045.0 , 2035.0 , 39.325 , 0.0 , 0.0 , 0.0 , 0.0 , 

95.0 , 4114.87179487 , 4108.71794872 , 4114.35897436 , 4111.79487179 , 4109.23076923 , 4108.20512821 , 4110.25641026 , 4112.30769231 , 4114.35897436 , 4125.64102564 , 4171.79487179 , 4900.0 , 4113.84615385 , 4121.02564103 , 2046.0 , 2035.0 , 39.332 , 0.0 , 0.0 , 0.0 , 0.0 , 

96.0 , 4115.38461538 , 4112.30769231 , 4115.8974359 , 4114.35897436 , 4111.79487179 , 4110.25641026 , 4106.66666667 , 4112.82051282 , 4115.38461538 , 4123.07692308 , 4171.28205128 , 4897.94871795 , 4113.33333333 , 4124.1025641 , 2045.0 , 2036.0 , 39.34 , 0.0 , 0.0 , 0.0 , 0.0 , 

97.0 , 4115.38461538 , 4112.82051282 , 4116.92307692 , 4112.82051282 , 4114.35897436 , 4113.84615385 , 4107.69230769 , 4111.79487179 , 4120.0 , 4121.53846154 , 4170.76923077 , 4896.41025641 , 4115.38461538 , 4124.1025641 , 2041.0 , 2037.0 , 39.348 , 0.0 , 0.0 , 0.0 , 0.0 , 

98.0 , 4120.0 , 4110.76923077 , 4116.41025641 , 4111.28205128 , 4113.33333333 , 4112.30769231 , 4107.17948718 , 4112.30769231 , 4118.46153846 , 4123.58974359 , 4171.79487179 , 4896.41025641 , 4114.87179487 , 4123.07692308 , 2040.0 , 2037.0 , 39.356 , 0.0 , 0.0 , 0.0 , 0.0 , 

99.0 , 4117.43589744 , 4112.82051282 , 4114.35897436 , 4117.43589744 , 4112.30769231 , 4111.79487179 , 4105.64102564 , 4117.94871795 , 4116.41025641 , 4126.15384615 , 4174.87179487 , 4894.87179487 , 4117.94871795 , 4123.58974359 , 2036.0 , 2038.0 , 39.364 , 0.0 , 0.0 , 0.0 , 0.0 , 

100.0 , 4116.41025641 , 4116.41025641 , 4118.46153846 , 4116.92307692 , 4112.30769231 , 4110.25641026 , 4106.15384615 , 4110.25641026 , 4112.30769231 , 4125.64102564 , 4173.84615385 , 4892.82051282 , 4113.33333333 , 4124.1025641 , 2034.0 , 2040.0 , 39.372 , 0.0 , 0.0 , 0.0 , 0.0 , 

101.0 , 4115.8974359 , 4118.46153846 , 4117.43589744 , 4116.92307692 , 4113.33333333 , 4112.82051282 , 4111.28205128 , 4115.8974359 , 4120.51282051 , 4123.58974359 , 4174.87179487 , 4892.82051282 , 4118.97435897 , 4121.53846154 , 2033.0 , 2040.0 , 39.38 , 0.0 , 0.0 , 0.0 , 0.0 , 

102.0 , 4114.87179487 , 4113.84615385 , 4117.43589744 , 4114.35897436 , 4114.87179487 , 4109.74358974 , 4106.66666667 , 4107.69230769 , 4110.25641026 , 4119.48717949 , 4172.30769231 , 4898.97435897 , 4116.41025641 , 4120.0 , 2031.0 , 2042.0 , 39.388 , 0.0 , 0.0 , 0.0 , 0.0 , 

103.0 , 4112.82051282 , 4113.84615385 , 4113.33333333 , 4116.41025641 , 4110.76923077 , 4110.25641026 , 4111.28205128 , 4109.23076923 , 4110.76923077 , 4120.51282051 , 4174.35897436 , 4897.94871795 , 4117.43589744 , 4123.07692308 , 2030.0 , 2041.0 , 39.396 , 0.0 , 0.0 , 0.0 , 0.0 , 

104.0 , 4118.97435897 , 4110.76923077 , 4119.48717949 , 4112.30769231 , 4110.25641026 , 4108.71794872 , 4105.12820513 , 4103.58974359 , 4109.23076923 , 4123.07692308 , 4170.76923077 , 4894.35897436 , 4107.69230769 , 4125.64102564 , 2031.0 , 2039.0 , 39.403 , 0.0 , 0.0 , 0.0 , 0.0 , 

105.0 , 4115.8974359 , 4113.33333333 , 4117.94871795 , 4116.92307692 , 4113.84615385 , 4113.84615385 , 4105.12820513 , 4114.35897436 , 4119.48717949 , 4127.17948718 , 4173.84615385 , 4892.82051282 , 4117.43589744 , 4123.58974359 , 2031.0 , 2038.0 , 39.41 , 0.0 , 0.0 , 0.0 , 0.0 , 

106.0 , 4112.30769231 , 4110.76923077 , 4121.02564103 , 4114.35897436 , 4114.87179487 , 4108.20512821 , 4103.07692308 , 4106.15384615 , 4111.28205128 , 4123.58974359 , 4171.28205128 , 4898.97435897 , 4116.41025641 , 4122.05128205 , 2033.0 , 2036.0 , 39.419 , 0.0 , 0.0 , 0.0 , 0.0 , 

107.0 , 4114.35897436 , 4113.84615385 , 4115.38461538 , 4117.94871795 , 4111.79487179 , 4110.76923077 , 4108.20512821 , 4116.41025641 , 4114.35897436 , 4122.05128205 , 4173.84615385 , 4896.41025641 , 4120.0 , 4122.05128205 , 2034.0 , 2034.0 , 39.427 , 0.0 , 0.0 , 0.0 , 0.0 , 

108.0 , 4116.92307692 , 4111.79487179 , 4116.92307692 , 4115.8974359 , 4110.76923077 , 4110.25641026 , 4103.07692308 , 4114.87179487 , 4115.8974359 , 4123.58974359 , 4171.28205128 , 4894.35897436 , 4112.82051282 , 4120.51282051 , 2036.0 , 2034.0 , 39.434 , 0.0 , 0.0 , 0.0 , 0.0 , 

109.0 , 4113.84615385 , 4115.38461538 , 4113.33333333 , 4119.48717949 , 4113.84615385 , 4112.30769231 , 4109.23076923 , 4119.48717949 , 4123.58974359 , 4125.12820513 , 4173.84615385 , 4892.82051282 , 4119.48717949 , 4122.05128205 , 2039.0 , 2033.0 , 39.442 , 0.0 , 0.0 , 0.0 , 0.0 , 

110.0 , 4114.87179487 , 4115.8974359 , 4117.43589744 , 4116.41025641 , 4115.8974359 , 4110.25641026 , 4106.66666667 , 4113.33333333 , 4116.92307692 , 4122.05128205 , 4170.76923077 , 4896.92307692 , 4117.43589744 , 4126.66666667 , 2040.0 , 2034.0 , 39.45 , 0.0 , 0.0 , 0.0 , 0.0 , 

111.0 , 4116.41025641 , 4118.46153846 , 4114.35897436 , 4117.43589744 , 4115.8974359 , 4113.33333333 , 4107.17948718 , 4118.97435897 , 4116.92307692 , 4124.1025641 , 4172.30769231 , 4895.8974359 , 4118.46153846 , 4125.64102564 , 2044.0 , 2034.0 , 39.459 , 0.0 , 0.0 , 0.0 , 0.0 , 

112.0 , 4115.38461538 , 4113.33333333 , 4113.84615385 , 4111.79487179 , 4112.30769231 , 4110.25641026 , 4105.64102564 , 4112.82051282 , 4114.87179487 , 4126.15384615 , 4172.30769231 , 4894.35897436 , 4113.33333333 , 4120.51282051 , 2046.0 , 2032.0 , 39.466 , 0.0 , 0.0 , 0.0 , 0.0 , 

113.0 , 4115.38461538 , 4114.87179487 , 4114.87179487 , 4114.35897436 , 4114.35897436 , 4110.25641026 , 4108.20512821 , 4112.82051282 , 4114.35897436 , 4124.1025641 , 4169.74358974 , 4893.33333333 , 4113.84615385 , 4122.05128205 , 2048.0 , 2034.0 , 39.473 , 0.0 , 0.0 , 0.0 , 0.0 , 

114.0 , 4114.35897436 , 4115.8974359 , 4116.41025641 , 4114.35897436 , 4114.35897436 , 4108.20512821 , 4105.64102564 , 4114.87179487 , 4117.43589744 , 4122.05128205 , 4166.66666667 , 4895.8974359 , 4110.76923077 , 4123.58974359 , 2049.0 , 2034.0 , 39.482 , 0.0 , 0.0 , 0.0 , 0.0 , 

115.0 , 4115.8974359 , 4116.41025641 , 4114.87179487 , 4114.35897436 , 4112.82051282 , 4109.74358974 , 4106.15384615 , 4113.84615385 , 4119.48717949 , 4124.1025641 , 4169.23076923 , 4894.35897436 , 4110.25641026 , 4123.58974359 , 2049.0 , 2033.0 , 39.49 , 0.0 , 0.0 , 0.0 , 0.0 , 

116.0 , 4116.41025641 , 4114.87179487 , 4114.87179487 , 4118.46153846 , 4113.33333333 , 4112.82051282 , 4107.69230769 , 4112.30769231 , 4119.48717949 , 4124.1025641 , 4171.79487179 , 4892.30769231 , 4117.43589744 , 4124.1025641 , 2050.0 , 2033.0 , 39.498 , 0.0 , 0.0 , 0.0 , 0.0 , 

117.0 , 4117.43589744 , 4113.84615385 , 4116.92307692 , 4120.0 , 4113.33333333 , 4112.30769231 , 4107.17948718 , 4108.71794872 , 4113.84615385 , 4120.51282051 , 4171.28205128 , 4892.30769231 , 4117.94871795 , 4122.56410256 , 2050.0 , 2032.0 , 39.506 , 0.0 , 0.0 , 0.0 , 0.0 , 

118.0 , 4115.38461538 , 4114.35897436 , 4112.82051282 , 4115.8974359 , 4110.76923077 , 4112.30769231 , 4110.25641026 , 4116.41025641 , 4118.46153846 , 4121.53846154 , 4174.87179487 , 4893.33333333 , 4117.43589744 , 4121.02564103 , 2049.0 , 2030.0 , 39.514 , 0.0 , 0.0 , 0.0 , 0.0 , 

119.0 , 4117.94871795 , 4113.84615385 , 4113.84615385 , 4111.79487179 , 4111.79487179 , 4112.82051282 , 4109.74358974 , 4111.28205128 , 4116.41025641 , 4123.07692308 , 4174.35897436 , 4894.87179487 , 4111.28205128 , 4123.58974359 , 2049.0 , 2028.0 , 39.521 , 0.0 , 0.0 , 0.0 , 0.0 , 

120.0 , 4117.43589744 , 4116.41025641 , 4114.87179487 , 4118.97435897 , 4111.28205128 , 4115.38461538 , 4111.79487179 , 4117.43589744 , 4121.02564103 , 4123.58974359 , 4172.82051282 , 4894.35897436 , 4118.46153846 , 4124.1025641 , 2049.0 , 2029.0 , 39.53 , 0.0 , 0.0 , 0.0 , 0.0 , 

121.0 , 4117.43589744 , 4113.33333333 , 4121.02564103 , 4114.35897436 , 4110.25641026 , 4110.76923077 , 4106.66666667 , 4110.76923077 , 4115.38461538 , 4122.56410256 , 4168.71794872 , 4896.92307692 , 4111.28205128 , 4122.05128205 , 2048.0 , 2027.0 , 39.538 , 0.0 , 0.0 , 0.0 , 0.0 , 

122.0 , 4114.87179487 , 4114.35897436 , 4115.8974359 , 4112.82051282 , 4113.33333333 , 4114.35897436 , 4109.74358974 , 4115.8974359 , 4120.51282051 , 4125.64102564 , 4173.33333333 , 4897.94871795 , 4116.41025641 , 4123.07692308 , 2047.0 , 2031.0 , 39.544 , 0.0 , 0.0 , 0.0 , 0.0 , 

123.0 , 4117.43589744 , 4111.79487179 , 4116.41025641 , 4112.82051282 , 4112.82051282 , 4110.76923077 , 4105.64102564 , 4108.20512821 , 4113.84615385 , 4124.1025641 , 4172.30769231 , 4900.0 , 4114.35897436 , 4124.1025641 , 2045.0 , 2030.0 , 39.552 , 0.0 , 0.0 , 0.0 , 0.0 , 

124.0 , 4115.38461538 , 4115.38461538 , 4115.38461538 , 4116.92307692 , 4108.20512821 , 4111.79487179 , 4112.82051282 , 4120.0 , 4117.94871795 , 4122.05128205 , 4174.35897436 , 4893.84615385 , 4118.46153846 , 4121.53846154 , 2046.0 , 2031.0 , 39.561 , 0.0 , 0.0 , 0.0 , 0.0 , 

125.0 , 4114.87179487 , 4112.30769231 , 4120.51282051 , 4109.23076923 , 4110.76923077 , 4110.76923077 , 4110.25641026 , 4112.30769231 , 4113.33333333 , 4118.46153846 , 4170.76923077 , 4893.84615385 , 4108.71794872 , 4121.53846154 , 2043.0 , 2035.0 , 39.568 , 0.0 , 0.0 , 0.0 , 0.0 , 

126.0 , 4114.35897436 , 4114.87179487 , 4115.8974359 , 4113.33333333 , 4113.33333333 , 4115.38461538 , 4112.82051282 , 4117.43589744 , 4117.94871795 , 4121.53846154 , 4171.79487179 , 4893.33333333 , 4114.87179487 , 4124.1025641 , 2042.0 , 2035.0 , 39.576 , 0.0 , 0.0 , 0.0 , 0.0 , 

127.0 , 4114.87179487 , 4115.38461538 , 4117.94871795 , 4116.41025641 , 4110.25641026 , 4110.25641026 , 4109.23076923 , 4113.33333333 , 4113.33333333 , 4122.05128205 , 4171.28205128 , 4895.38461538 , 4113.84615385 , 4122.56410256 , 2042.0 , 2034.0 , 39.584 , 0.0 , 0.0 , 0.0 , 0.0 , 

128.0 , 4114.35897436 , 4119.48717949 , 4114.35897436 , 4120.51282051 , 4111.79487179 , 4112.30769231 , 4114.35897436 , 4118.97435897 , 4117.43589744 , 4121.53846154 , 4176.92307692 , 4895.38461538 , 4117.43589744 , 4119.48717949 , 2043.0 , 2035.0 , 39.592 , 0.0 , 0.0 , 0.0 , 0.0 , 

0.0 , 4116.41025641 , 4113.84615385 , 4116.92307692 , 4115.8974359 , 4112.82051282 , 4109.74358974 , 4107.69230769 , 4110.25641026 , 4116.41025641 , 4121.02564103 , 4173.33333333 , 4895.8974359 , 4112.30769231 , 4117.43589744 , 2039.0 , 2036.0 , 39.6 , 0.0 , 0.0 , 0.0 , 0.0 , 

1.0 , 4118.46153846 , 4114.35897436 , 4117.43589744 , 4117.43589744 , 4111.28205128 , 4112.82051282 , 4110.25641026 , 4108.71794872 , 4118.46153846 , 4123.58974359 , 4171.28205128 , 4892.82051282 , 4114.87179487 , 4120.51282051 , 2041.0 , 2036.0 , 39.608 , 0.0 , 0.0 , 0.0 , 0.0 , 

2.0 , 4116.41025641 , 4113.33333333 , 4115.8974359 , 4114.35897436 , 4112.82051282 , 4112.82051282 , 4109.74358974 , 4107.69230769 , 4115.38461538 , 4121.53846154 , 4169.74358974 , 4893.84615385 , 4113.33333333 , 4123.58974359 , 2041.0 , 2035.0 , 39.615 , 0.0 , 0.0 , 0.0 , 0.0 , 

3.0 , 4115.8974359 , 4115.38461538 , 4112.30769231 , 4114.87179487 , 4116.92307692 , 4110.76923077 , 4106.66666667 , 4113.33333333 , 4112.30769231 , 4121.02564103 , 4174.35897436 , 4894.35897436 , 4115.38461538 , 4122.56410256 , 2041.0 , 2034.0 , 39.624 , 0.0 , 0.0 , 0.0 , 0.0 , 

4.0 , 4115.38461538 , 4114.35897436 , 4115.8974359 , 4112.82051282 , 4113.33333333 , 4110.25641026 , 4103.58974359 , 4114.35897436 , 4112.30769231 , 4123.58974359 , 4174.35897436 , 4894.87179487 , 4116.41025641 , 4118.97435897 , 2040.0 , 2035.0 , 39.631 , 0.0 , 0.0 , 0.0 , 0.0 , 

5.0 , 4114.87179487 , 4112.82051282 , 4118.46153846 , 4111.28205128 , 4113.33333333 , 4111.79487179 , 4105.12820513 , 4109.23076923 , 4114.87179487 , 4126.15384615 , 4172.30769231 , 4895.38461538 , 4114.87179487 , 4118.97435897 , 2042.0 , 2034.0 , 39.64 , 0.0 , 0.0 , 0.0 , 0.0 , 

6.0 , 4113.33333333 , 4113.33333333 , 4114.35897436 , 4114.87179487 , 4114.87179487 , 4109.23076923 , 4107.69230769 , 4112.82051282 , 4123.07692308 , 4125.12820513 , 4174.87179487 , 4893.84615385 , 4116.41025641 , 4122.56410256 , 2041.0 , 2034.0 , 39.647 , 0.0 , 0.0 , 0.0 , 0.0 , 

7.0 , 4114.87179487 , 4115.8974359 , 4113.84615385 , 4115.38461538 , 4114.35897436 , 4107.69230769 , 4107.17948718 , 4116.41025641 , 4117.94871795 , 4123.07692308 , 4176.41025641 , 4892.82051282 , 4112.82051282 , 4124.61538462 , 2041.0 , 2033.0 , 39.655 , 0.0 , 0.0 , 0.0 , 0.0 , 

8.0 , 4111.28205128 , 4116.41025641 , 4113.84615385 , 4112.30769231 , 4113.84615385 , 4113.33333333 , 4110.25641026 , 4124.1025641 , 4118.46153846 , 4124.61538462 , 4174.87179487 , 4894.87179487 , 4117.94871795 , 4122.56410256 , 2042.0 , 2033.0 , 39.663 , 0.0 , 0.0 , 0.0 , 0.0 , 

9.0 , 4113.33333333 , 4112.30769231 , 4118.46153846 , 4108.71794872 , 4114.87179487 , 4110.76923077 , 4108.20512821 , 4110.76923077 , 4115.8974359 , 4124.61538462 , 4169.74358974 , 4898.46153846 , 4114.87179487 , 4120.0 , 2044.0 , 2036.0 , 39.671 , 0.0 , 0.0 , 0.0 , 0.0 , 

10.0 , 4116.92307692 , 4115.8974359 , 4115.8974359 , 4117.43589744 , 4113.33333333 , 4110.25641026 , 4112.30769231 , 4112.82051282 , 4122.05128205 , 4122.05128205 , 4172.30769231 , 4894.35897436 , 4118.46153846 , 4121.53846154 , 2045.0 , 2034.0 , 39.679 , 0.0 , 0.0 , 0.0 , 0.0 , 

11.0 , 4116.41025641 , 4114.87179487 , 4117.43589744 , 4115.8974359 , 4111.28205128 , 4109.23076923 , 4107.69230769 , 4108.71794872 , 4113.84615385 , 4121.02564103 , 4170.25641026 , 4894.35897436 , 4110.76923077 , 4122.56410256 , 2046.0 , 2033.0 , 39.686 , 0.0 , 0.0 , 0.0 , 0.0 , 

12.0 , 4112.30769231 , 4115.8974359 , 4112.82051282 , 4115.8974359 , 4113.33333333 , 4110.25641026 , 4110.25641026 , 4116.92307692 , 4116.92307692 , 4124.1025641 , 4173.84615385 , 4898.46153846 , 4116.92307692 , 4118.46153846 , 2046.0 , 2033.0 , 39.695 , 0.0 , 0.0 , 0.0 , 0.0 , 

13.0 , 4116.92307692 , 4111.79487179 , 4116.92307692 , 4114.87179487 , 4116.92307692 , 4106.66666667 , 4107.69230769 , 4106.66666667 , 4112.82051282 , 4120.0 , 4173.33333333 , 4902.05128205 , 4113.33333333 , 4117.43589744 , 2045.0 , 2033.0 , 39.703 , 0.0 , 0.0 , 0.0 , 0.0 , 

14.0 , 4114.87179487 , 4114.87179487 , 4113.84615385 , 4120.51282051 , 4114.87179487 , 4113.33333333 , 4112.82051282 , 4114.87179487 , 4116.41025641 , 4117.94871795 , 4175.38461538 , 4894.35897436 , 4121.53846154 , 4118.97435897 , 2047.0 , 2033.0 , 39.711 , 0.0 , 0.0 , 0.0 , 0.0 , 

15.0 , 4112.30769231 , 4114.35897436 , 4114.87179487 , 4114.87179487 , 4112.82051282 , 4109.23076923 , 4106.66666667 , 4108.71794872 , 4107.69230769 , 4121.02564103 , 4170.25641026 , 4893.84615385 , 4116.41025641 , 4123.07692308 , 2047.0 , 2033.0 , 39.718 , 0.0 , 0.0 , 0.0 , 0.0 , 

16.0 , 4113.84615385 , 4118.46153846 , 4111.79487179 , 4117.43589744 , 4118.46153846 , 4111.28205128 , 4107.69230769 , 4116.41025641 , 4112.82051282 , 4123.07692308 , 4171.79487179 , 4894.35897436 , 4119.48717949 , 4126.66666667 , 2047.0 , 2033.0 , 39.727 , 0.0 , 0.0 , 0.0 , 0.0 , 

17.0 , 4115.8974359 , 4115.38461538 , 4116.92307692 , 4116.41025641 , 4121.53846154 , 4111.79487179 , 4103.58974359 , 4108.71794872 , 4113.84615385 , 4119.48717949 , 4171.28205128 , 4893.84615385 , 4117.94871795 , 4127.17948718 , 2047.0 , 2033.0 , 39.735 , 0.0 , 0.0 , 0.0 , 0.0 , 

18.0 , 4112.82051282 , 4116.41025641 , 4113.84615385 , 4118.97435897 , 4116.41025641 , 4112.82051282 , 4111.28205128 , 4112.30769231 , 4117.43589744 , 4124.1025641 , 4172.30769231 , 4892.30769231 , 4123.07692308 , 4124.1025641 , 2046.0 , 2033.0 , 39.741 , 0.0 , 0.0 , 0.0 , 0.0 , 

19.0 , 4114.87179487 , 4114.35897436 , 4116.41025641 , 4114.35897436 , 4112.30769231 , 4109.23076923 , 4111.28205128 , 4114.35897436 , 4114.35897436 , 4123.58974359 , 4168.71794872 , 4895.8974359 , 4114.87179487 , 4122.56410256 , 2047.0 , 2032.0 , 39.749 , 0.0 , 0.0 , 0.0 , 0.0 , 

20.0 , 4118.46153846 , 4114.87179487 , 4117.43589744 , 4113.84615385 , 4113.84615385 , 4112.82051282 , 4111.28205128 , 4118.46153846 , 4117.43589744 , 4118.97435897 , 4174.35897436 , 4895.38461538 , 4114.87179487 , 4123.07692308 , 2048.0 , 2033.0 , 39.757 , 0.0 , 0.0 , 0.0 , 0.0 , 

21.0 , 4114.35897436 , 4110.76923077 , 4115.8974359 , 4110.25641026 , 4113.84615385 , 4109.23076923 , 4106.66666667 , 4110.25641026 , 4115.8974359 , 4118.46153846 , 4175.8974359 , 4895.8974359 , 4115.8974359 , 4122.56410256 , 2048.0 , 2033.0 , 39.766 , 0.0 , 0.0 , 0.0 , 0.0 , 

22.0 , 4112.30769231 , 4109.23076923 , 4116.92307692 , 4112.82051282 , 4112.82051282 , 4105.64102564 , 4109.23076923 , 4112.82051282 , 4113.84615385 , 4123.07692308 , 4171.79487179 , 4892.82051282 , 4114.35897436 , 4122.56410256 , 2049.0 , 2032.0 , 39.774 , 0.0 , 0.0 , 0.0 , 0.0 , 

23.0 , 4113.33333333 , 4108.20512821 , 4119.48717949 , 4114.87179487 , 4112.82051282 , 4109.74358974 , 4112.30769231 , 4120.51282051 , 4114.87179487 , 4123.07692308 , 4170.25641026 , 4890.76923077 , 4111.28205128 , 4123.58974359 , 2050.0 , 2032.0 , 39.781 , 0.0 , 0.0 , 0.0 , 0.0 , 

24.0 , 4117.43589744 , 4112.82051282 , 4116.92307692 , 4114.87179487 , 4114.35897436 , 4114.35897436 , 4110.25641026 , 4117.43589744 , 4112.30769231 , 4122.05128205 , 4171.28205128 , 4894.35897436 , 4112.30769231 , 4122.05128205 , 2047.0 , 2034.0 , 39.789 , 0.0 , 0.0 , 0.0 , 0.0 , 

25.0 , 4112.82051282 , 4117.43589744 , 4115.38461538 , 4113.84615385 , 4112.30769231 , 4112.82051282 , 4108.71794872 , 4121.53846154 , 4118.97435897 , 4124.1025641 , 4172.30769231 , 4895.8974359 , 4119.48717949 , 4119.48717949 , 2047.0 , 2035.0 , 39.798 , 0.0 , 0.0 , 0.0 , 0.0 , 

26.0 , 4112.30769231 , 4115.38461538 , 4120.0 , 4110.76923077 , 4112.82051282 , 4111.28205128 , 4108.71794872 , 4118.46153846 , 4116.92307692 , 4124.1025641 , 4171.79487179 , 4893.84615385 , 4115.8974359 , 4121.53846154 , 2045.0 , 2035.0 , 39.805 , 0.0 , 0.0 , 0.0 , 0.0 , 

27.0 , 4114.35897436 , 4115.38461538 , 4115.8974359 , 4114.87179487 , 4115.38461538 , 4113.84615385 , 4111.28205128 , 4118.97435897 , 4115.8974359 , 4122.05128205 , 4173.84615385 , 4892.82051282 , 4118.46153846 , 4123.58974359 , 2044.0 , 2035.0 , 39.813 , 0.0 , 0.0 , 0.0 , 0.0 , 

28.0 , 4115.8974359 , 4115.38461538 , 4116.41025641 , 4113.33333333 , 4116.41025641 , 4109.23076923 , 4105.64102564 , 4110.25641026 , 4109.23076923 , 4119.48717949 , 4169.23076923 , 4895.8974359 , 4116.41025641 , 4123.07692308 , 2043.0 , 2035.0 , 39.82 , 0.0 , 0.0 , 0.0 , 0.0 , 

29.0 , 4111.79487179 , 4116.92307692 , 4113.84615385 , 4114.35897436 , 4115.38461538 , 4111.28205128 , 4108.71794872 , 4115.38461538 , 4116.92307692 , 4121.53846154 , 4171.79487179 , 4893.33333333 , 4120.51282051 , 4123.07692308 , 2045.0 , 2035.0 , 39.829 , 0.0 , 0.0 , 0.0 , 0.0 , 

30.0 , 4115.38461538 , 4110.76923077 , 4116.92307692 , 4111.28205128 , 4116.92307692 , 4109.74358974 , 4104.61538462 , 4103.07692308 , 4111.28205128 , 4121.02564103 , 4171.79487179 , 4893.33333333 , 4109.74358974 , 4123.07692308 , 2043.0 , 2033.0 , 39.837 , 0.0 , 0.0 , 0.0 , 0.0 , 

31.0 , 4116.92307692 , 4112.30769231 , 4115.8974359 , 4117.94871795 , 4115.8974359 , 4111.79487179 , 4106.66666667 , 4113.84615385 , 4114.35897436 , 4123.58974359 , 4171.28205128 , 4893.33333333 , 4115.38461538 , 4122.05128205 , 2044.0 , 2033.0 , 39.845 , 0.0 , 0.0 , 0.0 , 0.0 , 

32.0 , 4116.92307692 , 4110.76923077 , 4121.53846154 , 4113.33333333 , 4112.82051282 , 4107.17948718 , 4104.61538462 , 4111.28205128 , 4110.25641026 , 4123.58974359 , 4167.69230769 , 4896.92307692 , 4111.79487179 , 4121.02564103 , 2044.0 , 2032.0 , 39.853 , 0.0 , 0.0 , 0.0 , 0.0 , 

33.0 , 4116.41025641 , 4113.84615385 , 4114.87179487 , 4114.35897436 , 4111.79487179 , 4112.30769231 , 4112.30769231 , 4114.35897436 , 4117.43589744 , 4122.56410256 , 4173.84615385 , 4894.35897436 , 4118.97435897 , 4124.1025641 , 2043.0 , 2033.0 , 39.86 , 0.0 , 0.0 , 0.0 , 0.0 , 

34.0 , 4117.43589744 , 4109.23076923 , 4116.92307692 , 4111.28205128 , 4110.76923077 , 4111.28205128 , 4107.17948718 , 4106.15384615 , 4113.84615385 , 4121.53846154 , 4174.87179487 , 4896.41025641 , 4114.87179487 , 4124.61538462 , 2042.0 , 2033.0 , 39.868 , 0.0 , 0.0 , 0.0 , 0.0 , 

35.0 , 4115.38461538 , 4113.84615385 , 4116.41025641 , 4115.38461538 , 4112.82051282 , 4112.30769231 , 4109.74358974 , 4117.94871795 , 4117.43589744 , 4125.64102564 , 4175.8974359 , 4897.43589744 , 4117.43589744 , 4121.02564103 , 2042.0 , 2034.0 , 39.875 , 0.0 , 0.0 , 0.0 , 0.0 , 

36.0 , 4114.87179487 , 4115.8974359 , 4118.46153846 , 4115.38461538 , 4115.8974359 , 4108.71794872 , 4108.20512821 , 4114.35897436 , 4113.84615385 , 4125.64102564 , 4171.79487179 , 4897.94871795 , 4111.79487179 , 4123.07692308 , 2042.0 , 2035.0 , 39.884 , 0.0 , 0.0 , 0.0 , 0.0 , 

37.0 , 4115.8974359 , 4117.43589744 , 4115.8974359 , 4118.97435897 , 4117.94871795 , 4111.28205128 , 4111.79487179 , 4117.94871795 , 4117.43589744 , 4124.1025641 , 4172.30769231 , 4894.87179487 , 4115.38461538 , 4126.15384615 , 2043.0 , 2034.0 , 39.891 , 0.0 , 0.0 , 0.0 , 0.0 , 

38.0 , 4115.8974359 , 4112.82051282 , 4118.46153846 , 4117.43589744 , 4115.38461538 , 4110.76923077 , 4107.17948718 , 4114.87179487 , 4117.43589744 , 4122.05128205 , 4171.28205128 , 4900.0 , 4111.79487179 , 4120.51282051 , 2042.0 , 2035.0 , 39.899 , 0.0 , 0.0 , 0.0 , 0.0 , 

39.0 , 4113.84615385 , 4115.8974359 , 4116.41025641 , 4115.8974359 , 4114.87179487 , 4112.30769231 , 4108.71794872 , 4111.79487179 , 4116.41025641 , 4121.53846154 , 4174.35897436 , 4900.51282051 , 4112.82051282 , 4121.53846154 , 2043.0 , 2034.0 , 39.907 , 0.0 , 0.0 , 0.0 , 0.0 , 

40.0 , 4111.28205128 , 4113.84615385 , 4115.38461538 , 4112.30769231 , 4114.87179487 , 4109.74358974 , 4107.17948718 , 4106.66666667 , 4112.30769231 , 4118.46153846 , 4173.84615385 , 4897.43589744 , 4114.35897436 , 4125.12820513 , 2043.0 , 2032.0 , 39.915 , 0.0 , 0.0 , 0.0 , 0.0 , 

41.0 , 4116.92307692 , 4111.79487179 , 4114.87179487 , 4115.8974359 , 4116.41025641 , 4111.28205128 , 4108.71794872 , 4107.17948718 , 4111.28205128 , 4117.94871795 , 4172.82051282 , 4895.38461538 , 4115.8974359 , 4122.05128205 , 2043.0 , 2032.0 , 39.923 , 0.0 , 0.0 , 0.0 , 0.0 , 

42.0 , 4117.94871795 , 4112.82051282 , 4113.84615385 , 4116.92307692 , 4116.41025641 , 4113.33333333 , 4110.76923077 , 4108.71794872 , 4115.38461538 , 4121.53846154 , 4173.33333333 , 4896.92307692 , 4116.41025641 , 4118.97435897 , 2044.0 , 2031.0 , 39.931 , 0.0 , 0.0 , 0.0 , 0.0 , 

43.0 , 4115.8974359 , 4114.35897436 , 4115.38461538 , 4113.84615385 , 4115.38461538 , 4109.23076923 , 4105.64102564 , 4106.66666667 , 4110.76923077 , 4123.58974359 , 4172.30769231 , 4895.8974359 , 4114.35897436 , 4120.0 , 2044.0 , 2032.0 , 39.938 , 0.0 , 0.0 , 0.0 , 0.0 , 

44.0 , 4114.87179487 , 4114.87179487 , 4115.38461538 , 4115.8974359 , 4112.82051282 , 4107.17948718 , 4105.12820513 , 4116.41025641 , 4115.38461538 , 4123.58974359 , 4174.35897436 , 4892.82051282 , 4118.46153846 , 4120.51282051 , 2045.0 , 2032.0 , 39.947 , 0.0 , 0.0 , 0.0 , 0.0 , 

45.0 , 4116.41025641 , 4113.84615385 , 4117.94871795 , 4116.41025641 , 4112.30769231 , 4109.23076923 , 4107.69230769 , 4115.38461538 , 4116.92307692 , 4124.1025641 , 4175.38461538 , 4893.84615385 , 4114.35897436 , 4124.61538462 , 2045.0 , 2032.0 , 39.955 , 0.0 , 0.0 , 0.0 , 0.0 , 

46.0 , 4112.30769231 , 4114.87179487 , 4115.8974359 , 4116.41025641 , 4113.84615385 , 4113.33333333 , 4109.74358974 , 4119.48717949 , 4118.46153846 , 4125.12820513 , 4176.41025641 , 4896.41025641 , 4120.0 , 4124.1025641 , 2044.0 , 2032.0 , 39.963 , 0.0 , 0.0 , 0.0 , 0.0 , 

47.0 , 4116.92307692 , 4114.35897436 , 4117.43589744 , 4113.33333333 , 4115.8974359 , 4109.74358974 , 4102.56410256 , 4109.74358974 , 4109.23076923 , 4124.61538462 , 4173.33333333 , 4900.0 , 4116.41025641 , 4117.94871795 , 2044.0 , 2033.0 , 39.97 , 0.0 , 0.0 , 0.0 , 0.0 , 

48.0 , 4117.94871795 , 4115.8974359 , 4113.33333333 , 4118.46153846 , 4115.38461538 , 4111.79487179 , 4108.71794872 , 4113.33333333 , 4116.41025641 , 4125.12820513 , 4174.35897436 , 4895.8974359 , 4118.46153846 , 4117.43589744 , 2045.0 , 2035.0 , 39.979 , 0.0 , 0.0 , 0.0 , 0.0 , 

49.0 , 4115.8974359 , 4111.79487179 , 4117.94871795 , 4114.87179487 , 4114.35897436 , 4104.61538462 , 4107.69230769 , 4104.61538462 , 4113.84615385 , 4121.53846154 , 4169.74358974 , 4897.43589744 , 4108.20512821 , 4120.51282051 , 2044.0 , 2035.0 , 39.987 , 0.0 , 0.0 , 0.0 , 0.0 , 

50.0 , 4113.33333333 , 4116.41025641 , 4115.8974359 , 4118.46153846 , 4114.87179487 , 4104.61538462 , 4109.23076923 , 4117.43589744 , 4119.48717949 , 4122.56410256 , 4172.82051282 , 4896.41025641 , 4114.87179487 , 4118.46153846 , 2046.0 , 2035.0 , 39.995 , 0.0 , 0.0 , 0.0 , 0.0 , 

51.0 , 4115.38461538 , 4112.82051282 , 4117.43589744 , 4114.87179487 , 4116.41025641 , 4106.66666667 , 4104.61538462 , 4109.23076923 , 4112.30769231 , 4123.58974359 , 4170.76923077 , 4894.87179487 , 4111.79487179 , 4117.94871795 , 2044.0 , 2031.0 , 40.003 , 0.0 , 0.0 , 0.0 , 0.0 , 

52.0 , 4113.84615385 , 4112.82051282 , 4113.84615385 , 4118.46153846 , 4116.92307692 , 4111.28205128 , 4113.33333333 , 4113.33333333 , 4114.35897436 , 4123.58974359 , 4170.76923077 , 4895.8974359 , 4117.43589744 , 4120.51282051 , 2045.0 , 2031.0 , 40.009 , 0.0 , 0.0 , 0.0 , 0.0 , 

53.0 , 4115.8974359 , 4111.28205128 , 4116.92307692 , 4117.43589744 , 4116.41025641 , 4107.69230769 , 4110.25641026 , 4112.82051282 , 4111.28205128 , 4121.53846154 , 4169.74358974 , 4900.0 , 4113.33333333 , 4120.51282051 , 2045.0 , 2029.0 , 40.018 , 0.0 , 0.0 , 0.0 , 0.0 , 

54.0 , 4116.92307692 , 4117.94871795 , 4111.28205128 , 4119.48717949 , 4113.84615385 , 4112.30769231 , 4110.25641026 , 4120.0 , 4116.92307692 , 4122.05128205 , 4176.41025641 , 4893.84615385 , 4120.51282051 , 4120.0 , 2044.0 , 2030.0 , 40.026 , 0.0 , 0.0 , 0.0 , 0.0 , 

55.0 , 4115.38461538 , 4116.41025641 , 4115.38461538 , 4112.82051282 , 4110.25641026 , 4110.25641026 , 4107.17948718 , 4110.76923077 , 4112.82051282 , 4120.0 , 4174.87179487 , 4894.87179487 , 4117.43589744 , 4122.05128205 , 2043.0 , 2030.0 , 40.034 , 0.0 , 0.0 , 0.0 , 0.0 , 

56.0 , 4114.87179487 , 4116.41025641 , 4116.41025641 , 4114.87179487 , 4113.84615385 , 4108.71794872 , 4110.25641026 , 4114.87179487 , 4114.87179487 , 4123.07692308 , 4175.38461538 , 4895.8974359 , 4117.43589744 , 4122.56410256 , 2043.0 , 2031.0 , 40.042 , 0.0 , 0.0 , 0.0 , 0.0 , 

57.0 , 4115.8974359 , 4114.35897436 , 4115.38461538 , 4116.41025641 , 4116.41025641 , 4107.69230769 , 4105.64102564 , 4112.82051282 , 4113.33333333 , 4122.05128205 , 4172.82051282 , 4894.87179487 , 4113.33333333 , 4120.51282051 , 2042.0 , 2033.0 , 40.05 , 0.0 , 0.0 , 0.0 , 0.0 , 

58.0 , 4115.8974359 , 4114.87179487 , 4115.8974359 , 4117.43589744 , 4114.87179487 , 4111.28205128 , 4106.66666667 , 4110.76923077 , 4112.82051282 , 4120.51282051 , 4172.30769231 , 4894.87179487 , 4115.8974359 , 4119.48717949 , 2042.0 , 2033.0 , 40.058 , 0.0 , 0.0 , 0.0 , 0.0 , 

59.0 , 4113.33333333 , 4112.82051282 , 4121.02564103 , 4113.33333333 , 4113.84615385 , 4110.76923077 , 4108.71794872 , 4113.84615385 , 4119.48717949 , 4123.58974359 , 4174.87179487 , 4895.8974359 , 4114.87179487 , 4119.48717949 , 2041.0 , 2035.0 , 40.065 , 0.0 , 0.0 , 0.0 , 0.0 , 

60.0 , 4115.38461538 , 4113.33333333 , 4119.48717949 , 4113.84615385 , 4113.84615385 , 4110.25641026 , 4107.17948718 , 4117.94871795 , 4121.02564103 , 4128.20512821 , 4175.38461538 , 4893.33333333 , 4111.79487179 , 4120.0 , 2043.0 , 2034.0 , 40.072 , 0.0 , 0.0 , 0.0 , 0.0 , 

61.0 , 4115.38461538 , 4113.84615385 , 4116.92307692 , 4115.38461538 , 4112.82051282 , 4112.30769231 , 4108.20512821 , 4118.46153846 , 4116.92307692 , 4124.1025641 , 4172.82051282 , 4895.38461538 , 4114.87179487 , 4121.53846154 , 2044.0 , 2035.0 , 40.081 , 0.0 , 0.0 , 0.0 , 0.0 , 

62.0 , 4115.38461538 , 4113.33333333 , 4122.56410256 , 4112.82051282 , 4116.41025641 , 4114.35897436 , 4111.28205128 , 4114.35897436 , 4112.30769231 , 4118.97435897 , 4173.33333333 , 4899.48717949 , 4111.28205128 , 4122.56410256 , 2044.0 , 2035.0 , 40.088 , 0.0 , 0.0 , 0.0 , 0.0 , 

63.0 , 4113.84615385 , 4115.38461538 , 4116.41025641 , 4114.87179487 , 4117.43589744 , 4112.82051282 , 4114.35897436 , 4118.97435897 , 4118.97435897 , 4118.97435897 , 4178.97435897 , 4898.97435897 , 4115.38461538 , 4125.12820513 , 2043.0 , 2034.0 , 40.097 , 0.0 , 0.0 , 0.0 , 0.0 , 

64.0 , 4117.94871795 , 4115.8974359 , 4113.33333333 , 4116.41025641 , 4112.30769231 , 4107.17948718 , 4108.71794872 , 4110.25641026 , 4112.30769231 , 4119.48717949 , 4176.41025641 , 4897.94871795 , 4115.38461538 , 4126.66666667 , 2043.0 , 2033.0 , 40.105 , 0.0 , 0.0 , 0.0 , 0.0 , 

65.0 , 4116.41025641 , 4116.92307692 , 4112.30769231 , 4118.46153846 , 4112.82051282 , 4112.82051282 , 4113.84615385 , 4113.84615385 , 4114.35897436 , 4123.07692308 , 4174.35897436 , 4895.8974359 , 4120.0 , 4123.07692308 , 2043.0 , 2030.0 , 40.113 , 0.0 , 0.0 , 0.0 , 0.0 , 

66.0 , 4113.84615385 , 4112.82051282 , 4118.46153846 , 4112.30769231 , 4117.43589744 , 4112.82051282 , 4109.74358974 , 4108.20512821 , 4110.25641026 , 4122.56410256 , 4170.25641026 , 4897.43589744 , 4111.79487179 , 4121.53846154 , 2043.0 , 2028.0 , 40.12 , 0.0 , 0.0 , 0.0 , 0.0 , 

67.0 , 4113.33333333 , 4113.84615385 , 4115.8974359 , 4114.87179487 , 4118.46153846 , 4114.35897436 , 4111.79487179 , 4114.87179487 , 4116.41025641 , 4121.53846154 , 4174.87179487 , 4895.8974359 , 4118.46153846 , 4121.53846154 , 2044.0 , 2028.0 , 40.129 , 0.0 , 0.0 , 0.0 , 0.0 , 

68.0 , 4117.43589744 , 4113.33333333 , 4120.0 , 4112.30769231 , 4117.43589744 , 4111.28205128 , 4107.69230769 , 4105.12820513 , 4112.30769231 , 4121.02564103 , 4172.82051282 , 4895.38461538 , 4114.35897436 , 4121.02564103 , 2043.0 , 2031.0 , 40.137 , 0.0 , 0.0 , 0.0 , 0.0 , 

69.0 , 4113.33333333 , 4116.41025641 , 4115.8974359 , 4116.41025641 , 4115.38461538 , 4113.84615385 , 4109.74358974 , 4115.38461538 , 4118.46153846 , 4122.56410256 , 4173.33333333 , 4893.84615385 , 4120.0 , 4123.58974359 , 2042.0 , 2033.0 , 40.143 , 0.0 , 0.0 , 0.0 , 0.0 , 

70.0 , 4114.35897436 , 4110.76923077 , 4115.38461538 , 4115.38461538 , 4115.38461538 , 4108.71794872 , 4103.07692308 , 4112.82051282 , 4113.33333333 , 4118.97435897 , 4170.76923077 , 4897.43589744 , 4114.35897436 , 4125.12820513 , 2043.0 , 2033.0 , 40.151 , 0.0 , 0.0 , 0.0 , 0.0 , 

71.0 , 4117.43589744 , 4113.84615385 , 4110.76923077 , 4117.43589744 , 4115.38461538 , 4112.82051282 , 4109.74358974 , 4120.0 , 4118.97435897 , 4121.02564103 , 4173.84615385 , 4896.92307692 , 4120.51282051 , 4122.56410256 , 2043.0 , 2032.0 , 40.159 , 0.0 , 0.0 , 0.0 , 0.0 , 

72.0 , 4114.87179487 , 4113.84615385 , 4116.92307692 , 4109.74358974 , 4112.30769231 , 4110.25641026 , 4108.20512821 , 4110.76923077 , 4114.35897436 , 4123.58974359 , 4171.28205128 , 4898.46153846 , 4118.97435897 , 4121.02564103 , 2042.0 , 2033.0 , 40.167 , 0.0 , 0.0 , 0.0 , 0.0 , 

73.0 , 4111.28205128 , 4114.87179487 , 4117.43589744 , 4112.30769231 , 4112.30769231 , 4111.79487179 , 4110.25641026 , 4115.8974359 , 4117.94871795 , 4124.1025641 , 4174.87179487 , 4895.38461538 , 4123.07692308 , 4124.1025641 , 2043.0 , 2032.0 , 40.175 , 0.0 , 0.0 , 0.0 , 0.0 , 

74.0 , 4113.33333333 , 4109.74358974 , 4118.97435897 , 4111.28205128 , 4114.35897436 , 4110.25641026 , 4107.69230769 , 4115.8974359 , 4118.46153846 , 4121.53846154 , 4172.82051282 , 4896.92307692 , 4114.87179487 , 4123.58974359 , 2044.0 , 2030.0 , 40.183 , 0.0 , 0.0 , 0.0 , 0.0 , 

75.0 , 4115.8974359 , 4115.38461538 , 4118.46153846 , 4114.35897436 , 4115.38461538 , 4113.33333333 , 4111.28205128 , 4119.48717949 , 4117.94871795 , 4123.07692308 , 4171.79487179 , 4896.41025641 , 4112.82051282 , 4119.48717949 , 2044.0 , 2030.0 , 40.192 , 0.0 , 0.0 , 0.0 , 0.0 , 

76.0 , 4116.92307692 , 4117.43589744 , 4122.56410256 , 4114.35897436 , 4113.84615385 , 4112.30769231 , 4109.23076923 , 4115.38461538 , 4112.82051282 , 4123.58974359 , 4172.30769231 , 4894.35897436 , 4112.30769231 , 4118.97435897 , 2045.0 , 2029.0 , 40.199 , 0.0 , 0.0 , 0.0 , 0.0 , 

77.0 , 4117.43589744 , 4116.92307692 , 4118.97435897 , 4113.33333333 , 4117.43589744 , 4111.28205128 , 4110.25641026 , 4111.79487179 , 4111.79487179 , 4121.53846154 , 4173.33333333 , 4894.35897436 , 4115.38461538 , 4123.58974359 , 2046.0 , 2030.0 , 40.207 , 0.0 , 0.0 , 0.0 , 0.0 , 

78.0 , 4113.84615385 , 4114.35897436 , 4116.41025641 , 4113.33333333 , 4118.46153846 , 4109.23076923 , 4109.23076923 , 4112.82051282 , 4116.41025641 , 4120.51282051 , 4170.76923077 , 4898.97435897 , 4114.87179487 , 4122.56410256 , 2046.0 , 2031.0 , 40.214 , 0.0 , 0.0 , 0.0 , 0.0 , 

79.0 , 4117.43589744 , 4115.38461538 , 4119.48717949 , 4116.92307692 , 4116.41025641 , 4110.25641026 , 4108.71794872 , 4112.30769231 , 4116.41025641 , 4122.56410256 , 4171.79487179 , 4897.43589744 , 4110.76923077 , 4118.46153846 , 2047.0 , 2033.0 , 40.223 , 0.0 , 0.0 , 0.0 , 0.0 , 

80.0 , 4118.46153846 , 4116.41025641 , 4116.92307692 , 4118.46153846 , 4113.33333333 , 4112.30769231 , 4111.28205128 , 4114.87179487 , 4116.92307692 , 4124.1025641 , 4175.38461538 , 4894.35897436 , 4115.8974359 , 4119.48717949 , 2048.0 , 2034.0 , 40.231 , 0.0 , 0.0 , 0.0 , 0.0 , 

81.0 , 4114.35897436 , 4115.38461538 , 4116.92307692 , 4113.33333333 , 4113.84615385 , 4109.74358974 , 4106.66666667 , 4108.71794872 , 4109.74358974 , 4121.53846154 , 4174.35897436 , 4896.92307692 , 4116.41025641 , 4121.02564103 , 2049.0 , 2036.0 , 40.239 , 0.0 , 0.0 , 0.0 , 0.0 , 

82.0 , 4112.30769231 , 4117.94871795 , 4115.38461538 , 4118.46153846 , 4115.38461538 , 4111.79487179 , 4105.64102564 , 4119.48717949 , 4115.8974359 , 4123.58974359 , 4174.87179487 , 4896.41025641 , 4119.48717949 , 4120.0 , 2050.0 , 2037.0 , 40.247 , 0.0 , 0.0 , 0.0 , 0.0 , 

83.0 , 4120.0 , 4115.38461538 , 4117.43589744 , 4118.46153846 , 4115.8974359 , 4112.82051282 , 4103.58974359 , 4115.8974359 , 4112.30769231 , 4124.1025641 , 4172.30769231 , 4896.41025641 , 4111.28205128 , 4121.53846154 , 2049.0 , 2040.0 , 40.254 , 0.0 , 0.0 , 0.0 , 0.0 , 

84.0 , 4118.46153846 , 4113.84615385 , 4114.87179487 , 4119.48717949 , 4115.8974359 , 4113.33333333 , 4109.74358974 , 4115.8974359 , 4114.87179487 , 4121.53846154 , 4172.82051282 , 4896.92307692 , 4116.41025641 , 4121.53846154 , 2048.0 , 2040.0 , 40.263 , 0.0 , 0.0 , 0.0 , 0.0 , 

85.0 , 4116.41025641 , 4110.25641026 , 4120.0 , 4114.87179487 , 4116.41025641 , 4106.66666667 , 4103.07692308 , 4106.15384615 , 4113.33333333 , 4121.02564103 , 4168.71794872 , 4900.0 , 4111.28205128 , 4119.48717949 , 2047.0 , 2041.0 , 40.27 , 0.0 , 0.0 , 0.0 , 0.0 , 

86.0 , 4115.38461538 , 4114.35897436 , 4118.46153846 , 4116.41025641 , 4114.35897436 , 4111.79487179 , 4106.66666667 , 4115.8974359 , 4122.56410256 , 4124.1025641 , 4174.35897436 , 4896.92307692 , 4115.8974359 , 4120.0 , 2045.0 , 2046.0 , 40.278 , 0.0 , 0.0 , 0.0 , 0.0 , 

87.0 , 4115.8974359 , 4114.35897436 , 4123.58974359 , 4110.76923077 , 4110.76923077 , 4111.28205128 , 4106.66666667 , 4109.23076923 , 4114.87179487 , 4120.0 , 4174.35897436 , 4897.94871795 , 4110.76923077 , 4124.61538462 , 2044.0 , 2047.0 , 40.285 , 0.0 , 0.0 , 0.0 , 0.0 , 

88.0 , 4114.35897436 , 4117.43589744 , 4119.48717949 , 4116.92307692 , 4110.25641026 , 4112.30769231 , 4114.35897436 , 4120.51282051 , 4118.97435897 , 4121.02564103 , 4172.82051282 , 4896.92307692 , 4118.46153846 , 4125.64102564 , 2042.0 , 2047.0 , 40.294 , 0.0 , 0.0 , 0.0 , 0.0 , 

89.0 , 4114.35897436 , 4113.84615385 , 4119.48717949 , 4115.8974359 , 4113.33333333 , 4107.69230769 , 4108.20512821 , 4115.8974359 , 4114.87179487 , 4123.58974359 , 4168.20512821 , 4898.46153846 , 4112.30769231 , 4123.58974359 , 2040.0 , 2045.0 , 40.306 , 0.0 , 0.0 , 0.0 , 0.0 , 

90.0 , 4113.33333333 , 4117.43589744 , 4114.87179487 , 4117.43589744 , 4116.92307692 , 4112.30769231 , 4109.74358974 , 4117.43589744 , 4118.46153846 , 4124.61538462 , 4174.35897436 , 4896.41025641 , 4116.92307692 , 4121.02564103 , 2040.0 , 2041.0 , 40.311 , 0.0 , 0.0 , 0.0 , 0.0 , 

91.0 , 4113.84615385 , 4115.38461538 , 4118.46153846 , 4114.87179487 , 4115.8974359 , 4111.79487179 , 4106.66666667 , 4111.28205128 , 4116.41025641 , 4119.48717949 , 4173.33333333 , 4895.38461538 , 4115.8974359 , 4122.05128205 , 2040.0 , 2038.0 , 40.318 , 0.0 , 0.0 , 0.0 , 0.0 , 

92.0 , 4115.38461538 , 4115.8974359 , 4115.8974359 , 4120.51282051 , 4114.35897436 , 4115.38461538 , 4111.79487179 , 4119.48717949 , 4121.02564103 , 4120.51282051 , 4173.84615385 , 4892.82051282 , 4121.53846154 , 4124.1025641 , 2041.0 , 2038.0 , 40.325 , 0.0 , 0.0 , 0.0 , 0.0 , 

93.0 , 4115.38461538 , 4114.35897436 , 4117.43589744 , 4118.97435897 , 4117.43589744 , 4113.33333333 , 4109.23076923 , 4113.33333333 , 4115.38461538 , 4121.53846154 , 4174.35897436 , 4898.97435897 , 4116.92307692 , 4124.61538462 , 2039.0 , 2037.0 , 40.334 , 0.0 , 0.0 , 0.0 , 0.0 , 

94.0 , 4115.38461538 , 4118.97435897 , 4116.41025641 , 4118.97435897 , 4117.43589744 , 4113.84615385 , 4107.69230769 , 4111.28205128 , 4114.87179487 , 4120.51282051 , 4174.35897436 , 4899.48717949 , 4113.84615385 , 4124.1025641 , 2039.0 , 2037.0 , 40.34 , 0.0 , 0.0 , 0.0 , 0.0 , 

95.0 , 4115.38461538 , 4114.87179487 , 4118.46153846 , 4114.87179487 , 4110.76923077 , 4111.28205128 , 4104.1025641 , 4111.28205128 , 4116.92307692 , 4117.94871795 , 4171.79487179 , 4895.38461538 , 4112.82051282 , 4122.05128205 , 2040.0 , 2037.0 , 40.349 , 0.0 , 0.0 , 0.0 , 0.0 , 

96.0 , 4116.92307692 , 4110.76923077 , 4117.94871795 , 4115.8974359 , 4112.30769231 , 4110.25641026 , 4105.64102564 , 4112.30769231 , 4114.35897436 , 4118.97435897 , 4173.84615385 , 4893.33333333 , 4117.43589744 , 4118.97435897 , 2041.0 , 2036.0 , 40.356 , 0.0 , 0.0 , 0.0 , 0.0 , 

97.0 , 4113.84615385 , 4112.30769231 , 4115.8974359 , 4114.35897436 , 4115.38461538 , 4110.76923077 , 4105.64102564 , 4116.92307692 , 4116.92307692 , 4122.56410256 , 4175.38461538 , 4895.38461538 , 4120.0 , 4117.43589744 , 2043.0 , 2034.0 , 40.364 , 0.0 , 0.0 , 0.0 , 0.0 , 

98.0 , 4115.38461538 , 4115.8974359 , 4119.48717949 , 4110.76923077 , 4113.33333333 , 4109.23076923 , 4105.12820513 , 4118.97435897 , 4118.46153846 , 4123.58974359 , 4174.87179487 , 4896.92307692 , 4114.87179487 , 4122.05128205 , 2044.0 , 2033.0 , 40.374 , 0.0 , 0.0 , 0.0 , 0.0 , 

99.0 , 4116.92307692 , 4114.87179487 , 4117.94871795 , 4115.8974359 , 4113.84615385 , 4108.20512821 , 4108.71794872 , 4122.05128205 , 4118.46153846 , 4122.56410256 , 4175.38461538 , 4895.38461538 , 4119.48717949 , 4126.15384615 , 2045.0 , 2032.0 , 40.381 , 0.0 , 0.0 , 0.0 , 0.0 , 

100.0 , 4117.43589744 , 4111.79487179 , 4116.92307692 , 4116.41025641 , 4117.94871795 , 4108.71794872 , 4110.25641026 , 4116.41025641 , 4110.25641026 , 4121.53846154 , 4171.79487179 , 4893.84615385 , 4116.41025641 , 4126.15384615 , 2047.0 , 2030.0 , 40.388 , 0.0 , 0.0 , 0.0 , 0.0 , 

101.0 , 4114.87179487 , 4115.8974359 , 4116.41025641 , 4114.87179487 , 4114.35897436 , 4116.41025641 , 4112.82051282 , 4125.64102564 , 4118.97435897 , 4124.1025641 , 4174.35897436 , 4893.84615385 , 4116.92307692 , 4122.05128205 , 2048.0 , 2028.0 , 40.397 , 0.0 , 0.0 , 0.0 , 0.0 , 

102.0 , 4118.46153846 , 4114.87179487 , 4122.56410256 , 4113.84615385 , 4112.82051282 , 4112.30769231 , 4108.20512821 , 4113.84615385 , 4113.84615385 , 4121.53846154 , 4172.30769231 , 4900.51282051 , 4109.23076923 , 4121.53846154 , 2048.0 , 2028.0 , 40.403 , 0.0 , 0.0 , 0.0 , 0.0 , 

103.0 , 4117.43589744 , 4113.84615385 , 4117.94871795 , 4119.48717949 , 4115.38461538 , 4109.23076923 , 4110.76923077 , 4113.33333333 , 4115.38461538 , 4121.02564103 , 4171.28205128 , 4898.46153846 , 4115.8974359 , 4122.56410256 , 2048.0 , 2030.0 , 40.411 , 0.0 , 0.0 , 0.0 , 0.0 , 

104.0 , 4117.43589744 , 4112.30769231 , 4120.0 , 4113.33333333 , 4113.84615385 , 4111.28205128 , 4105.12820513 , 4106.66666667 , 4109.74358974 , 4122.05128205 , 4168.20512821 , 4895.8974359 , 4111.28205128 , 4120.51282051 , 2048.0 , 2032.0 , 40.419 , 0.0 , 0.0 , 0.0 , 0.0 , 

105.0 , 4115.38461538 , 4117.43589744 , 4116.41025641 , 4114.87179487 , 4112.82051282 , 4118.97435897 , 4109.74358974 , 4115.8974359 , 4113.33333333 , 4123.58974359 , 4170.76923077 , 4895.38461538 , 4117.94871795 , 4118.97435897 , 2047.0 , 2035.0 , 40.427 , 0.0 , 0.0 , 0.0 , 0.0 , 

106.0 , 4114.87179487 , 4113.84615385 , 4118.97435897 , 4112.30769231 , 4115.8974359 , 4109.23076923 , 4106.66666667 , 4107.69230769 , 4108.20512821 , 4118.97435897 , 4168.71794872 , 4898.97435897 , 4114.87179487 , 4119.48717949 , 2046.0 , 2036.0 , 40.436 , 0.0 , 0.0 , 0.0 , 0.0 , 

107.0 , 4114.35897436 , 4118.97435897 , 4114.87179487 , 4115.38461538 , 4118.46153846 , 4108.71794872 , 4109.23076923 , 4115.38461538 , 4116.92307692 , 4121.02564103 , 4175.8974359 , 4895.8974359 , 4121.53846154 , 4120.51282051 , 2044.0 , 2040.0 , 40.443 , 0.0 , 0.0 , 0.0 , 0.0 , 

108.0 , 4113.84615385 , 4118.46153846 , 4116.41025641 , 4114.87179487 , 4116.92307692 , 4111.28205128 , 4102.05128205 , 4109.74358974 , 4112.30769231 , 4122.05128205 , 4172.82051282 , 4894.87179487 , 4114.87179487 , 4120.0 , 2042.0 , 2041.0 , 40.451 , 0.0 , 0.0 , 0.0 , 0.0 , 

109.0 , 4112.30769231 , 4116.92307692 , 4112.30769231 , 4122.05128205 , 4115.38461538 , 4115.38461538 , 4107.69230769 , 4117.94871795 , 4115.38461538 , 4123.58974359 , 4172.82051282 , 4891.28205128 , 4119.48717949 , 4119.48717949 , 2040.0 , 2041.0 , 40.459 , 0.0 , 0.0 , 0.0 , 0.0 , 

110.0 , 4116.41025641 , 4114.35897436 , 4117.94871795 , 4118.97435897 , 4114.87179487 , 4108.20512821 , 4107.69230769 , 4116.41025641 , 4114.87179487 , 4122.56410256 , 4174.87179487 , 4894.35897436 , 4116.41025641 , 4122.05128205 , 2039.0 , 2041.0 , 40.466 , 0.0 , 0.0 , 0.0 , 0.0 , 

111.0 , 4118.97435897 , 4121.02564103 , 4116.41025641 , 4117.43589744 , 4116.41025641 , 4109.74358974 , 4111.28205128 , 4116.92307692 , 4114.87179487 , 4123.07692308 , 4177.43589744 , 4896.92307692 , 4118.97435897 , 4124.61538462 , 2038.0 , 2037.0 , 40.474 , 0.0 , 0.0 , 0.0 , 0.0 , 

112.0 , 4115.8974359 , 4114.87179487 , 4116.41025641 , 4112.30769231 , 4116.92307692 , 4111.79487179 , 4108.20512821 , 4109.23076923 , 4110.76923077 , 4123.07692308 , 4170.25641026 , 4898.97435897 , 4115.8974359 , 4122.56410256 , 2036.0 , 2037.0 , 40.482 , 0.0 , 0.0 , 0.0 , 0.0 , 

113.0 , 4115.38461538 , 4114.35897436 , 4116.41025641 , 4115.8974359 , 4115.8974359 , 4113.84615385 , 4109.74358974 , 4111.79487179 , 4114.87179487 , 4121.53846154 , 4170.25641026 , 4896.41025641 , 4115.8974359 , 4123.07692308 , 2037.0 , 2034.0 , 40.491 , 0.0 , 0.0 , 0.0 , 0.0 , 

33.0 , 4116.41025641 , 4114.35897436 , 4113.33333333 , 4119.48717949 , 4112.82051282 , 4111.28205128 , 4109.74358974 , 4123.07692308 , 4119.48717949 , 4126.66666667 , 4174.87179487 , 4896.92307692 , 4117.43589744 , 4124.61538462 , 2045.0 , 2034.0 , 42.688 , 0.0 , 0.0 , 0.0 , 0.0 , 

34.0 , 4118.97435897 , 4113.84615385 , 4116.41025641 , 4114.87179487 , 4111.28205128 , 4108.20512821 , 4107.17948718 , 4109.74358974 , 4114.35897436 , 4126.66666667 , 4175.38461538 , 4896.92307692 , 4114.87179487 , 4122.56410256 , 2045.0 , 2035.0 , 42.688 , 0.0 , 0.0 , 0.0 , 0.0 , 

35.0 , 4115.38461538 , 4116.41025641 , 4113.84615385 , 4120.51282051 , 4112.82051282 , 4113.33333333 , 4112.30769231 , 4116.41025641 , 4118.97435897 , 4123.07692308 , 4177.43589744 , 4893.84615385 , 4120.51282051 , 4122.05128205 , 2046.0 , 2031.0 , 42.688 , 0.0 , 0.0 , 0.0 , 0.0 , 

36.0 , 4114.35897436 , 4112.30769231 , 4116.41025641 , 4118.46153846 , 4115.38461538 , 4110.25641026 , 4106.15384615 , 4115.8974359 , 4116.41025641 , 4122.05128205 , 4172.82051282 , 4897.43589744 , 4114.35897436 , 4127.17948718 , 2048.0 , 2031.0 , 42.688 , 0.0 , 0.0 , 0.0 , 0.0 , 

37.0 , 4117.43589744 , 4115.8974359 , 4114.87179487 , 4116.92307692 , 4115.8974359 , 4110.76923077 , 4109.74358974 , 4120.0 , 4121.53846154 , 4124.61538462 , 4172.30769231 , 4897.43589744 , 4116.92307692 , 4127.17948718 , 2047.0 , 2030.0 , 42.688 , 0.0 , 0.0 , 0.0 , 0.0 , 

38.0 , 4117.94871795 , 4115.8974359 , 4117.43589744 , 4113.84615385 , 4112.82051282 , 4110.25641026 , 4109.23076923 , 4113.33333333 , 4118.46153846 , 4120.51282051 , 4169.74358974 , 4895.38461538 , 4113.33333333 , 4122.05128205 , 2048.0 , 2029.0 , 42.688 , 0.0 , 0.0 , 0.0 , 0.0 , 

39.0 , 4116.92307692 , 4116.92307692 , 4114.87179487 , 4118.46153846 , 4113.33333333 , 4111.28205128 , 4109.23076923 , 4109.23076923 , 4111.79487179 , 4120.51282051 , 4171.79487179 , 4893.84615385 , 4112.82051282 , 4123.07692308 , 2048.0 , 2032.0 , 42.688 , 0.0 , 0.0 , 0.0 , 0.0 , 

40.0 , 4114.87179487 , 4115.8974359 , 4114.87179487 , 4119.48717949 , 4115.8974359 , 4109.74358974 , 4108.20512821 , 4108.20512821 , 4110.76923077 , 4123.58974359 , 4170.76923077 , 4898.46153846 , 4111.79487179 , 4124.1025641 , 2048.0 , 2034.0 , 42.688 , 0.0 , 0.0 , 0.0 , 0.0 , 

41.0 , 4115.38461538 , 4116.92307692 , 4114.35897436 , 4119.48717949 , 4114.87179487 , 4112.30769231 , 4110.76923077 , 4111.79487179 , 4112.82051282 , 4125.12820513 , 4168.71794872 , 4900.0 , 4113.84615385 , 4124.1025641 , 2048.0 , 2036.0 , 42.688 , 0.0 , 0.0 , 0.0 , 0.0 , 

42.0 , 4115.38461538 , 4115.38461538 , 4112.82051282 , 4119.48717949 , 4110.76923077 , 4112.82051282 , 4109.74358974 , 4111.79487179 , 4114.87179487 , 4123.58974359 , 4170.25641026 , 4894.87179487 , 4118.46153846 , 4122.56410256 , 2045.0 , 2040.0 , 42.688 , 0.0 , 0.0 , 0.0 , 0.0 , 

43.0 , 4117.94871795 , 4115.8974359 , 4115.8974359 , 4119.48717949 , 4113.33333333 , 4110.25641026 , 4108.71794872 , 4106.66666667 , 4113.84615385 , 4121.53846154 , 4172.30769231 , 4891.79487179 , 4116.92307692 , 4120.51282051 , 2044.0 , 2040.0 , 42.688 , 0.0 , 0.0 , 0.0 , 0.0 , 

44.0 , 4116.41025641 , 4119.48717949 , 4115.38461538 , 4121.02564103 , 4114.87179487 , 4112.30769231 , 4110.25641026 , 4117.43589744 , 4118.46153846 , 4122.56410256 , 4174.35897436 , 4895.38461538 , 4117.43589744 , 4119.48717949 , 2044.0 , 2039.0 , 42.688 , 0.0 , 0.0 , 0.0 , 0.0 , 

45.0 , 4116.41025641 , 4115.8974359 , 4116.92307692 , 4117.43589744 , 4112.82051282 , 4112.82051282 , 4105.64102564 , 4113.33333333 , 4111.79487179 , 4122.56410256 , 4172.30769231 , 4898.46153846 , 4114.87179487 , 4123.58974359 , 2044.0 , 2037.0 , 42.688 , 0.0 , 0.0 , 0.0 , 0.0 , 

46.0 , 4115.8974359 , 4113.33333333 , 4114.35897436 , 4116.41025641 , 4114.87179487 , 4114.87179487 , 4109.23076923 , 4118.97435897 , 4117.43589744 , 4122.05128205 , 4173.33333333 , 4896.41025641 , 4124.1025641 , 4125.12820513 , 2045.0 , 2039.0 , 42.688 , 0.0 , 0.0 , 0.0 , 0.0 , 

47.0 , 4120.0 , 4111.28205128 , 4117.94871795 , 4112.30769231 , 4116.92307692 , 4109.74358974 , 4108.20512821 , 4115.8974359 , 4115.8974359 , 4120.51282051 , 4173.33333333 , 4896.92307692 , 4115.38461538 , 4124.1025641 , 2043.0 , 2038.0 , 42.688 , 0.0 , 0.0 , 0.0 , 0.0 , 

48.0 , 4118.46153846 , 4113.33333333 , 4114.35897436 , 4113.33333333 , 4111.28205128 , 4112.30769231 , 4111.28205128 , 4120.51282051 , 4119.48717949 , 4120.51282051 , 4174.35897436 , 4895.38461538 , 4112.30769231 , 4126.15384615 , 2044.0 , 2037.0 , 42.688 , 0.0 , 0.0 , 0.0 , 0.0 , 

49.0 , 4117.43589744 , 4109.74358974 , 4120.0 , 4111.28205128 , 4110.25641026 , 4111.79487179 , 4107.69230769 , 4108.20512821 , 4110.25641026 , 4118.46153846 , 4169.74358974 , 4899.48717949 , 4105.64102564 , 4125.64102564 , 2043.0 , 2038.0 , 42.688 , 0.0 , 0.0 , 0.0 , 0.0 , 

50.0 , 4113.84615385 , 4114.35897436 , 4118.46153846 , 4116.92307692 , 4112.30769231 , 4113.84615385 , 4112.82051282 , 4120.0 , 4116.41025641 , 4120.0 , 4174.35897436 , 4898.46153846 , 4114.87179487 , 4124.1025641 , 2043.0 , 2037.0 , 42.688 , 0.0 , 0.0 , 0.0 , 0.0 , 

51.0 , 4113.84615385 , 4114.35897436 , 4120.0 , 4111.79487179 , 4111.28205128 , 4109.74358974 , 4107.69230769 , 4115.8974359 , 4115.8974359 , 4122.05128205 , 4172.82051282 , 4897.94871795 , 4110.76923077 , 4124.61538462 , 2043.0 , 2036.0 , 42.688 , 0.0 , 0.0 , 0.0 , 0.0 , 

52.0 , 4114.35897436 , 4117.43589744 , 4115.38461538 , 4114.87179487 , 4113.33333333 , 4113.33333333 , 4112.30769231 , 4123.07692308 , 4121.53846154 , 4125.12820513 , 4174.35897436 , 4894.35897436 , 4117.94871795 , 4123.58974359 , 2043.0 , 2036.0 , 42.688 , 0.0 , 0.0 , 0.0 , 0.0 , 

53.0 , 4115.8974359 , 4114.35897436 , 4117.43589744 , 4115.8974359 , 4115.38461538 , 4110.76923077 , 4109.23076923 , 4115.38461538 , 4116.41025641 , 4124.1025641 , 4171.79487179 , 4895.38461538 , 4114.35897436 , 4119.48717949 , 2044.0 , 2037.0 , 42.688 , 0.0 , 0.0 , 0.0 , 0.0 , 

54.0 , 4115.38461538 , 4117.43589744 , 4113.33333333 , 4122.05128205 , 4114.87179487 , 4113.84615385 , 4113.84615385 , 4115.38461538 , 4118.46153846 , 4124.1025641 , 4172.30769231 , 4896.92307692 , 4117.94871795 , 4121.53846154 , 2043.0 , 2037.0 , 42.688 , 0.0 , 0.0 , 0.0 , 0.0 , 

55.0 , 4113.33333333 , 4114.35897436 , 4117.43589744 , 4116.41025641 , 4114.35897436 , 4111.28205128 , 4109.74358974 , 4110.76923077 , 4113.84615385 , 4122.05128205 , 4168.71794872 , 4899.48717949 , 4114.87179487 , 4125.64102564 , 2043.0 , 2037.0 , 42.688 , 0.0 , 0.0 , 0.0 , 0.0 , 

56.0 , 4111.79487179 , 4117.94871795 , 4117.43589744 , 4115.38461538 , 4115.38461538 , 4111.28205128 , 4109.74358974 , 4117.43589744 , 4116.41025641 , 4123.07692308 , 4171.79487179 , 4895.38461538 , 4117.94871795 , 4124.1025641 , 2043.0 , 2038.0 , 42.688 , 0.0 , 0.0 , 0.0 , 0.0 , 

57.0 , 4113.33333333 , 4116.92307692 , 4116.41025641 , 4113.33333333 , 4112.82051282 , 4109.74358974 , 4107.17948718 , 4111.28205128 , 4115.38461538 , 4122.05128205 , 4171.79487179 , 4894.87179487 , 4112.30769231 , 4119.48717949 , 2043.0 , 2037.0 , 42.688 , 0.0 , 0.0 , 0.0 , 0.0 , 

58.0 , 4117.94871795 , 4114.87179487 , 4114.87179487 , 4113.84615385 , 4112.82051282 , 4111.28205128 , 4108.20512821 , 4112.30769231 , 4114.35897436 , 4121.02564103 , 4172.30769231 , 4896.41025641 , 4112.82051282 , 4121.53846154 , 2044.0 , 2036.0 , 42.688 , 0.0 , 0.0 , 0.0 , 0.0 , 

59.0 , 4116.41025641 , 4112.30769231 , 4118.46153846 , 4113.84615385 , 4114.87179487 , 4108.71794872 , 4105.64102564 , 4115.38461538 , 4115.38461538 , 4122.56410256 , 4172.82051282 , 4897.94871795 , 4115.8974359 , 4124.1025641 , 2044.0 , 2036.0 , 42.688 , 0.0 , 0.0 , 0.0 , 0.0 , 

60.0 , 4116.92307692 , 4114.35897436 , 4117.43589744 , 4114.87179487 , 4117.94871795 , 4109.74358974 , 4107.69230769 , 4114.35897436 , 4116.92307692 , 4124.61538462 , 4172.82051282 , 4895.38461538 , 4114.87179487 , 4120.51282051 , 2044.0 , 2035.0 , 42.688 , 0.0 , 0.0 , 0.0 , 0.0 , 

61.0 , 4115.38461538 , 4112.30769231 , 4114.87179487 , 4115.38461538 , 4115.38461538 , 4112.30769231 , 4111.28205128 , 4116.41025641 , 4117.94871795 , 4124.61538462 , 4174.35897436 , 4894.87179487 , 4115.38461538 , 4119.48717949 , 2042.0 , 2037.0 , 42.688 , 0.0 , 0.0 , 0.0 , 0.0 , 

62.0 , 4114.87179487 , 4111.28205128 , 4118.97435897 , 4114.35897436 , 4114.87179487 , 4111.79487179 , 4108.71794872 , 4115.38461538 , 4112.30769231 , 4124.61538462 , 4174.87179487 , 4897.94871795 , 4115.8974359 , 4122.56410256 , 2042.0 , 2037.0 , 42.688 , 0.0 , 0.0 , 0.0 , 0.0 , 

63.0 , 4114.35897436 , 4115.8974359 , 4117.43589744 , 4116.92307692 , 4117.94871795 , 4113.84615385 , 4111.28205128 , 4122.05128205 , 4118.46153846 , 4125.64102564 , 4177.43589744 , 4896.41025641 , 4122.05128205 , 4121.02564103 , 2043.0 , 2039.0 , 42.688 , 0.0 , 0.0 , 0.0 , 0.0 , 

64.0 , 4117.43589744 , 4115.38461538 , 4117.43589744 , 4116.92307692 , 4118.97435897 , 4109.74358974 , 4109.74358974 , 4111.79487179 , 4113.84615385 , 4121.53846154 , 4173.33333333 , 4896.41025641 , 4114.87179487 , 4119.48717949 , 2043.0 , 2038.0 , 42.688 , 0.0 , 0.0 , 0.0 , 0.0 , 

65.0 , 4114.35897436 , 4116.92307692 , 4113.84615385 , 4119.48717949 , 4113.33333333 , 4107.69230769 , 4109.23076923 , 4112.82051282 , 4116.92307692 , 4121.53846154 , 4172.30769231 , 4898.97435897 , 4117.43589744 , 4121.02564103 , 2042.0 , 2036.0 , 42.688 , 0.0 , 0.0 , 0.0 , 0.0 , 

66.0 , 4116.41025641 , 4114.35897436 , 4116.41025641 , 4116.41025641 , 4111.28205128 , 4106.66666667 , 4103.58974359 , 4106.66666667 , 4111.28205128 , 4123.07692308 , 4169.23076923 , 4901.53846154 , 4112.30769231 , 4123.58974359 , 2043.0 , 2036.0 , 42.688 , 0.0 , 0.0 , 0.0 , 0.0 , 

67.0 , 4117.43589744 , 4114.35897436 , 4113.33333333 , 4120.0 , 4116.92307692 , 4112.30769231 , 4111.79487179 , 4117.94871795 , 4115.38461538 , 4122.05128205 , 4172.82051282 , 4896.92307692 , 4119.48717949 , 4123.07692308 , 2043.0 , 2034.0 , 42.688 , 0.0 , 0.0 , 0.0 , 0.0 , 

68.0 , 4114.87179487 , 4109.23076923 , 4118.97435897 , 4113.33333333 , 4116.92307692 , 4108.20512821 , 4109.74358974 , 4110.25641026 , 4109.23076923 , 4118.97435897 , 4171.79487179 , 4896.41025641 , 4115.38461538 , 4123.07692308 , 2042.0 , 2032.0 , 42.688 , 0.0 , 0.0 , 0.0 , 0.0 , 

69.0 , 4112.30769231 , 4115.8974359 , 4115.38461538 , 4116.92307692 , 4109.74358974 , 4110.25641026 , 4109.23076923 , 4117.94871795 , 4116.92307692 , 4122.05128205 , 4175.38461538 , 4895.38461538 , 4120.0 , 4123.07692308 , 2043.0 , 2033.0 , 42.688 , 0.0 , 0.0 , 0.0 , 0.0 , 

70.0 , 4117.94871795 , 4115.38461538 , 4115.8974359 , 4117.94871795 , 4108.71794872 , 4109.74358974 , 4104.1025641 , 4111.79487179 , 4115.8974359 , 4121.53846154 , 4172.82051282 , 4900.0 , 4111.79487179 , 4121.02564103 , 2044.0 , 2032.0 , 42.688 , 0.0 , 0.0 , 0.0 , 0.0 , 

71.0 , 4118.46153846 , 4115.38461538 , 4112.30769231 , 4120.0 , 4114.35897436 , 4114.35897436 , 4110.25641026 , 4120.51282051 , 4120.0 , 4123.58974359 , 4174.87179487 , 4896.41025641 , 4118.46153846 , 4118.97435897 , 2044.0 , 2031.0 , 42.688 , 0.0 , 0.0 , 0.0 , 0.0 , 

72.0 , 4114.35897436 , 4113.33333333 , 4117.43589744 , 4110.25641026 , 4113.84615385 , 4107.69230769 , 4106.15384615 , 4116.41025641 , 4114.87179487 , 4121.53846154 , 4173.33333333 , 4893.33333333 , 4116.41025641 , 4119.48717949 , 2042.0 , 2032.0 , 42.688 , 0.0 , 0.0 , 0.0 , 0.0 , 

73.0 , 4111.28205128 , 4115.8974359 , 4114.87179487 , 4113.84615385 , 4113.84615385 , 4110.25641026 , 4110.76923077 , 4118.46153846 , 4118.97435897 , 4120.0 , 4175.38461538 , 4895.38461538 , 4121.02564103 , 4125.12820513 , 2043.0 , 2031.0 , 42.688 , 0.0 , 0.0 , 0.0 , 0.0 , 

74.0 , 4115.38461538 , 4109.23076923 , 4116.41025641 , 4116.41025641 , 4116.41025641 , 4112.82051282 , 4111.28205128 , 4111.79487179 , 4117.43589744 , 4120.51282051 , 4172.82051282 , 4903.07692308 , 4115.38461538 , 4125.12820513 , 2044.0 , 2030.0 , 42.688 , 0.0 , 0.0 , 0.0 , 0.0 , 

75.0 , 4119.48717949 , 4113.33333333 , 4117.94871795 , 4117.94871795 , 4115.8974359 , 4113.33333333 , 4113.33333333 , 4116.92307692 , 4117.43589744 , 4121.02564103 , 4171.79487179 , 4900.51282051 , 4110.76923077 , 4121.53846154 , 2045.0 , 2031.0 , 42.688 , 0.0 , 0.0 , 0.0 , 0.0 , 

76.0 , 4116.41025641 , 4116.41025641 , 4121.53846154 , 4115.8974359 , 4114.35897436 , 4109.74358974 , 4110.25641026 , 4114.35897436 , 4114.35897436 , 4117.43589744 , 4170.76923077 , 4896.92307692 , 4108.20512821 , 4122.05128205 , 2044.0 , 2033.0 , 42.688 , 0.0 , 0.0 , 0.0 , 0.0 , 

77.0 , 4115.38461538 , 4115.8974359 , 4118.97435897 , 4116.41025641 , 4118.46153846 , 4114.35897436 , 4109.74358974 , 4108.71794872 , 4114.35897436 , 4121.53846154 , 4174.87179487 , 4896.41025641 , 4113.84615385 , 4125.12820513 , 2045.0 , 2033.0 , 42.688 , 0.0 , 0.0 , 0.0 , 0.0 , 

78.0 , 4115.8974359 , 4114.35897436 , 4119.48717949 , 4117.43589744 , 4115.8974359 , 4113.84615385 , 4106.15384615 , 4109.74358974 , 4116.92307692 , 4125.64102564 , 4174.87179487 , 4897.43589744 , 4115.38461538 , 4123.58974359 , 2046.0 , 2034.0 , 42.688 , 0.0 , 0.0 , 0.0 , 0.0 , 

79.0 , 4117.43589744 , 4118.97435897 , 4118.46153846 , 4120.0 , 4112.82051282 , 4111.79487179 , 4108.20512821 , 4112.30769231 , 4115.38461538 , 4121.02564103 , 4171.28205128 , 4897.43589744 , 4112.82051282 , 4122.05128205 , 2046.0 , 2035.0 , 42.688 , 0.0 , 0.0 , 0.0 , 0.0 , 

80.0 , 4114.87179487 , 4120.0 , 4110.76923077 , 4120.51282051 , 4114.35897436 , 4113.33333333 , 4113.33333333 , 4116.92307692 , 4117.43589744 , 4118.97435897 , 4169.23076923 , 4896.92307692 , 4118.97435897 , 4125.12820513 , 2046.0 , 2034.0 , 42.688 , 0.0 , 0.0 , 0.0 , 0.0 , 

81.0 , 4117.94871795 , 4116.92307692 , 4113.84615385 , 4115.8974359 , 4116.41025641 , 4111.28205128 , 4107.17948718 , 4112.30769231 , 4113.84615385 , 4122.05128205 , 4169.74358974 , 4896.92307692 , 4119.48717949 , 4125.12820513 , 2047.0 , 2034.0 , 42.688 , 0.0 , 0.0 , 0.0 , 0.0 , 

82.0 , 4118.97435897 , 4117.43589744 , 4116.41025641 , 4115.38461538 , 4114.87179487 , 4112.82051282 , 4107.69230769 , 4116.41025641 , 4116.92307692 , 4123.58974359 , 4176.92307692 , 4894.35897436 , 4124.1025641 , 4121.53846154 , 2047.0 , 2034.0 , 42.688 , 0.0 , 0.0 , 0.0 , 0.0 , 

83.0 , 4118.97435897 , 4114.87179487 , 4115.8974359 , 4113.84615385 , 4115.8974359 , 4110.25641026 , 4106.15384615 , 4106.66666667 , 4111.79487179 , 4121.53846154 , 4174.87179487 , 4896.92307692 , 4117.43589744 , 4123.58974359 , 2047.0 , 2033.0 , 42.688 , 0.0 , 0.0 , 0.0 , 0.0 , 

84.0 , 4115.38461538 , 4115.38461538 , 4111.28205128 , 4116.92307692 , 4114.35897436 , 4110.25641026 , 4105.64102564 , 4114.87179487 , 4117.94871795 , 4121.53846154 , 4172.30769231 , 4897.94871795 , 4117.94871795 , 4123.58974359 , 2047.0 , 2034.0 , 42.688 , 0.0 , 0.0 , 0.0 , 0.0 , 

85.0 , 4116.41025641 , 4110.76923077 , 4119.48717949 , 4112.30769231 , 4112.30769231 , 4107.69230769 , 4101.53846154 , 4113.33333333 , 4114.35897436 , 4119.48717949 , 4171.28205128 , 4896.92307692 , 4110.76923077 , 4122.05128205 , 2048.0 , 2034.0 , 42.688 , 0.0 , 0.0 , 0.0 , 0.0 , 

86.0 , 4114.87179487 , 4110.76923077 , 4117.94871795 , 4112.82051282 , 4114.35897436 , 4111.79487179 , 4111.79487179 , 4118.46153846 , 4120.51282051 , 4120.51282051 , 4175.8974359 , 4894.87179487 , 4118.46153846 , 4125.12820513 , 2049.0 , 2033.0 , 42.688 , 0.0 , 0.0 , 0.0 , 0.0 , 

87.0 , 4115.38461538 , 4110.25641026 , 4120.0 , 4110.25641026 , 4115.38461538 , 4109.23076923 , 4107.69230769 , 4107.17948718 , 4114.87179487 , 4121.02564103 , 4169.23076923 , 4901.02564103 , 4113.33333333 , 4125.64102564 , 2048.0 , 2033.0 , 42.688 , 0.0 , 0.0 , 0.0 , 0.0 , 

88.0 , 4113.84615385 , 4116.41025641 , 4115.8974359 , 4116.92307692 , 4111.79487179 , 4113.33333333 , 4109.23076923 , 4119.48717949 , 4117.43589744 , 4123.07692308 , 4169.74358974 , 4897.94871795 , 4117.94871795 , 4122.05128205 , 2048.0 , 2035.0 , 42.688 , 0.0 , 0.0 , 0.0 , 0.0 , 

81.0 , 4117.94871795 , 4113.84615385 , 4114.35897436 , 4120.0 , 4115.38461538 , 4115.38461538 , 4109.74358974 , 4113.84615385 , 4110.76923077 , 4121.53846154 , 4172.82051282 , 4897.43589744 , 4118.46153846 , 4125.12820513 , 2043.0 , 2034.0 , 42.688 , 0.0 , 0.0 , 0.0 , 0.0 , 

82.0 , 4117.43589744 , 4116.41025641 , 4112.30769231 , 4119.48717949 , 4116.41025641 , 4113.33333333 , 4112.82051282 , 4119.48717949 , 4118.46153846 , 4120.51282051 , 4175.38461538 , 4900.0 , 4121.02564103 , 4122.56410256 , 2046.0 , 2035.0 , 42.688 , 0.0 , 0.0 , 0.0 , 0.0 , 

83.0 , 4117.94871795 , 4113.33333333 , 4117.43589744 , 4114.35897436 , 4118.97435897 , 4110.25641026 , 4109.23076923 , 4109.74358974 , 4113.84615385 , 4122.05128205 , 4176.92307692 , 4899.48717949 , 4115.38461538 , 4125.64102564 , 2045.0 , 2033.0 , 42.688 , 0.0 , 0.0 , 0.0 , 0.0 , 

84.0 , 4115.8974359 , 4109.23076923 , 4114.35897436 , 4115.38461538 , 4114.87179487 , 4113.84615385 , 4108.20512821 , 4117.43589744 , 4121.02564103 , 4123.58974359 , 4174.87179487 , 4896.41025641 , 4121.53846154 , 4126.15384615 , 2046.0 , 2034.0 , 42.688 , 0.0 , 0.0 , 0.0 , 0.0 , 

85.0 , 4115.38461538 , 4106.66666667 , 4117.43589744 , 4111.79487179 , 4112.82051282 , 4109.74358974 , 4104.1025641 , 4112.82051282 , 4114.87179487 , 4122.05128205 , 4168.20512821 , 4899.48717949 , 4113.33333333 , 4121.53846154 , 2045.0 , 2036.0 , 42.688 , 0.0 , 0.0 , 0.0 , 0.0 , 

86.0 , 4112.82051282 , 4114.87179487 , 4113.84615385 , 4116.41025641 , 4115.38461538 , 4114.35897436 , 4112.82051282 , 4117.94871795 , 4114.87179487 , 4123.07692308 , 4173.84615385 , 4897.94871795 , 4115.8974359 , 4122.05128205 , 2045.0 , 2034.0 , 42.688 , 0.0 , 0.0 , 0.0 , 0.0 , 

87.0 , 4113.84615385 , 4113.33333333 , 4119.48717949 , 4113.33333333 , 4113.84615385 , 4113.84615385 , 4109.74358974 , 4106.15384615 , 4110.76923077 , 4123.07692308 , 4174.35897436 , 4897.94871795 , 4112.30769231 , 4127.69230769 , 2046.0 , 2034.0 , 42.688 , 0.0 , 0.0 , 0.0 , 0.0 , 

88.0 , 4113.33333333 , 4113.33333333 , 4119.48717949 , 4117.94871795 , 4111.28205128 , 4115.38461538 , 4112.30769231 , 4117.94871795 , 4121.53846154 , 4124.1025641 , 4175.8974359 , 4897.43589744 , 4118.46153846 , 4126.66666667 , 2047.0 , 2036.0 , 42.688 , 0.0 , 0.0 , 0.0 , 0.0 , 

89.0 , 4117.43589744 , 4111.79487179 , 4122.05128205 , 4114.87179487 , 4114.87179487 , 4113.84615385 , 4107.69230769 , 4114.35897436 , 4114.87179487 , 4118.97435897 , 4172.30769231 , 4901.02564103 , 4108.71794872 , 4124.61538462 , 2046.0 , 2035.0 , 42.688 , 0.0 , 0.0 , 0.0 , 0.0 , 

90.0 , 4118.46153846 , 4117.94871795 , 4116.41025641 , 4116.41025641 , 4117.43589744 , 4120.0 , 4111.79487179 , 4119.48717949 , 4117.94871795 , 4120.51282051 , 4173.33333333 , 4898.46153846 , 4115.8974359 , 4126.15384615 , 2047.0 , 2035.0 , 42.688 , 0.0 , 0.0 , 0.0 , 0.0 , 

91.0 , 4115.38461538 , 4114.87179487 , 4118.46153846 , 4116.41025641 , 4115.38461538 , 4113.84615385 , 4108.20512821 , 4113.84615385 , 4116.41025641 , 4122.05128205 , 4173.33333333 , 4900.0 , 4118.46153846 , 4125.64102564 , 2047.0 , 2034.0 , 42.688 , 0.0 , 0.0 , 0.0 , 0.0 , 

92.0 , 4114.87179487 , 4115.8974359 , 4114.87179487 , 4121.02564103 , 4114.87179487 , 4114.35897436 , 4114.35897436 , 4117.43589744 , 4117.43589744 , 4120.0 , 4177.43589744 , 4897.43589744 , 4120.0 , 4123.58974359 , 2046.0 , 2035.0 , 42.688 , 0.0 , 0.0 , 0.0 , 0.0 , 

93.0 , 4114.35897436 , 4112.30769231 , 4114.35897436 , 4116.41025641 , 4114.87179487 , 4112.82051282 , 4109.23076923 , 4112.30769231 , 4113.33333333 , 4120.51282051 , 4173.84615385 , 4896.92307692 , 4113.84615385 , 4121.53846154 , 2047.0 , 2034.0 , 42.688 , 0.0 , 0.0 , 0.0 , 0.0 , 

94.0 , 4114.87179487 , 4113.33333333 , 4112.30769231 , 4117.43589744 , 4114.35897436 , 4111.79487179 , 4106.15384615 , 4114.35897436 , 4114.35897436 , 4125.64102564 , 4173.33333333 , 4898.97435897 , 4118.46153846 , 4118.97435897 , 2045.0 , 2032.0 , 42.688 , 0.0 , 0.0 , 0.0 , 0.0 , 

95.0 , 4114.87179487 , 4114.35897436 , 4114.87179487 , 4117.43589744 , 4114.35897436 , 4110.76923077 , 4106.15384615 , 4113.84615385 , 4112.30769231 , 4123.07692308 , 4172.82051282 , 4900.51282051 , 4120.51282051 , 4120.0 , 2046.0 , 2032.0 , 42.688 , 0.0 , 0.0 , 0.0 , 0.0 , 

96.0 , 4113.84615385 , 4115.38461538 , 4115.8974359 , 4114.35897436 , 4115.38461538 , 4111.28205128 , 4107.17948718 , 4113.84615385 , 4111.79487179 , 4121.02564103 , 4172.30769231 , 4898.97435897 , 4119.48717949 , 4123.07692308 , 2045.0 , 2032.0 , 42.688 , 0.0 , 0.0 , 0.0 , 0.0 , 

97.0 , 4112.82051282 , 4113.33333333 , 4116.41025641 , 4114.35897436 , 4112.30769231 , 4109.23076923 , 4102.56410256 , 4116.92307692 , 4118.46153846 , 4125.12820513 , 4172.30769231 , 4900.0 , 4119.48717949 , 4122.05128205 , 2044.0 , 2033.0 , 42.688 , 0.0 , 0.0 , 0.0 , 0.0 , 

98.0 , 4116.41025641 , 4114.35897436 , 4116.92307692 , 4116.92307692 , 4112.82051282 , 4109.74358974 , 4103.58974359 , 4115.38461538 , 4118.97435897 , 4125.12820513 , 4174.35897436 , 4900.51282051 , 4115.8974359 , 4123.58974359 , 2043.0 , 2034.0 , 42.688 , 0.0 , 0.0 , 0.0 , 0.0 , 

99.0 , 4113.33333333 , 4113.33333333 , 4114.35897436 , 4117.94871795 , 4114.35897436 , 4114.35897436 , 4112.30769231 , 4121.02564103 , 4120.0 , 4124.1025641 , 4174.35897436 , 4896.41025641 , 4120.51282051 , 4126.15384615 , 2043.0 , 2034.0 , 42.688 , 0.0 , 0.0 , 0.0 , 0.0 , 

100.0 , 4114.35897436 , 4111.28205128 , 4117.43589744 , 4114.35897436 , 4114.87179487 , 4113.33333333 , 4109.74358974 , 4115.38461538 , 4112.82051282 , 4123.58974359 , 4169.74358974 , 4896.41025641 , 4117.43589744 , 4127.17948718 , 2043.0 , 2034.0 , 42.688 , 0.0 , 0.0 , 0.0 , 0.0 , 

101.0 , 4115.8974359 , 4116.41025641 , 4116.92307692 , 4116.41025641 , 4114.87179487 , 4116.92307692 , 4109.23076923 , 4117.43589744 , 4117.43589744 , 4122.56410256 , 4173.33333333 , 4894.87179487 , 4117.94871795 , 4126.15384615 , 2044.0 , 2032.0 , 42.688 , 0.0 , 0.0 , 0.0 , 0.0 , 

102.0 , 4116.41025641 , 4115.8974359 , 4119.48717949 , 4114.35897436 , 4116.92307692 , 4114.35897436 , 4109.23076923 , 4109.23076923 , 4110.76923077 , 4122.56410256 , 4171.28205128 , 4894.87179487 , 4110.25641026 , 4123.07692308 , 2044.0 , 2033.0 , 42.688 , 0.0 , 0.0 , 0.0 , 0.0 , 

103.0 , 4114.35897436 , 4117.43589744 , 4114.35897436 , 4117.43589744 , 4117.43589744 , 4112.30769231 , 4114.35897436 , 4115.38461538 , 4112.82051282 , 4123.58974359 , 4170.25641026 , 4898.46153846 , 4118.46153846 , 4121.53846154 , 2044.0 , 2035.0 , 42.688 , 0.0 , 0.0 , 0.0 , 0.0 , 

104.0 , 4117.43589744 , 4115.38461538 , 4118.46153846 , 4115.8974359 , 4117.43589744 , 4109.23076923 , 4106.15384615 , 4103.58974359 , 4108.20512821 , 4120.0 , 4167.69230769 , 4903.07692308 , 4113.33333333 , 4125.64102564 , 2043.0 , 2035.0 , 42.688 , 0.0 , 0.0 , 0.0 , 0.0 , 

105.0 , 4116.41025641 , 4117.94871795 , 4117.94871795 , 4121.53846154 , 4117.94871795 , 4113.33333333 , 4110.25641026 , 4113.33333333 , 4116.92307692 , 4122.05128205 , 4170.76923077 , 4895.8974359 , 4117.94871795 , 4127.69230769 , 2043.0 , 2034.0 , 42.688 , 0.0 , 0.0 , 0.0 , 0.0 , 

106.0 , 4117.94871795 , 4113.84615385 , 4118.46153846 , 4118.46153846 , 4116.92307692 , 4106.66666667 , 4107.17948718 , 4112.82051282 , 4110.76923077 , 4124.61538462 , 4169.23076923 , 4895.38461538 , 4114.87179487 , 4124.1025641 , 2042.0 , 2036.0 , 42.688 , 0.0 , 0.0 , 0.0 , 0.0 , 

107.0 , 4118.97435897 , 4115.38461538 , 4109.74358974 , 4120.0 , 4116.41025641 , 4110.25641026 , 4109.23076923 , 4120.0 , 4112.30769231 , 4124.1025641 , 4175.8974359 , 4898.46153846 , 4123.58974359 , 4123.07692308 , 2044.0 , 2034.0 , 42.688 , 0.0 , 0.0 , 0.0 , 0.0 , 

108.0 , 4118.97435897 , 4111.28205128 , 4115.38461538 , 4115.38461538 , 4115.38461538 , 4112.30769231 , 4104.1025641 , 4110.76923077 , 4109.23076923 , 4120.51282051 , 4173.84615385 , 4897.94871795 , 4116.41025641 , 4124.61538462 , 2043.0 , 2034.0 , 42.688 , 0.0 , 0.0 , 0.0 , 0.0 , 

109.0 , 4115.8974359 , 4112.30769231 , 4116.41025641 , 4120.51282051 , 4115.38461538 , 4114.87179487 , 4109.74358974 , 4121.02564103 , 4115.8974359 , 4123.07692308 , 4173.84615385 , 4891.79487179 , 4120.0 , 4124.61538462 , 2043.0 , 2034.0 , 42.688 , 0.0 , 0.0 , 0.0 , 0.0 , 

110.0 , 4113.84615385 , 4112.82051282 , 4116.92307692 , 4118.46153846 , 4115.38461538 , 4109.23076923 , 4106.15384615 , 4118.46153846 , 4114.35897436 , 4121.53846154 , 4173.84615385 , 4896.92307692 , 4117.43589744 , 4125.12820513 , 2043.0 , 2032.0 , 42.688 , 0.0 , 0.0 , 0.0 , 0.0 , 

111.0 , 4112.30769231 , 4117.94871795 , 4115.38461538 , 4117.94871795 , 4117.94871795 , 4112.82051282 , 4109.23076923 , 4115.38461538 , 4116.92307692 , 4121.02564103 , 4176.41025641 , 4898.97435897 , 4120.0 , 4127.17948718 , 2042.0 , 2031.0 , 42.688 , 0.0 , 0.0 , 0.0 , 0.0 , 

112.0 , 4113.84615385 , 4112.30769231 , 4118.97435897 , 4111.79487179 , 4116.41025641 , 4112.82051282 , 4108.20512821 , 4108.71794872 , 4114.87179487 , 4121.02564103 , 4172.82051282 , 4898.46153846 , 4114.87179487 , 4124.61538462 , 2043.0 , 2031.0 , 42.688 , 0.0 , 0.0 , 0.0 , 0.0 , 

113.0 , 4117.94871795 , 4111.79487179 , 4118.46153846 , 4113.84615385 , 4113.33333333 , 4113.33333333 , 4109.23076923 , 4113.84615385 , 4116.41025641 , 4123.07692308 , 4174.35897436 , 4896.41025641 , 4113.33333333 , 4122.56410256 , 2044.0 , 2032.0 , 42.694 , 0.0 , 0.0 , 0.0 , 0.0 , 

114.0 , 4117.94871795 , 4115.38461538 , 4120.0 , 4115.38461538 , 4111.79487179 , 4113.33333333 , 4109.23076923 , 4114.35897436 , 4115.8974359 , 4122.56410256 , 4174.35897436 , 4899.48717949 , 4111.79487179 , 4124.1025641 , 2042.0 , 2035.0 , 42.694 , 0.0 , 0.0 , 0.0 , 0.0 , 

115.0 , 4118.46153846 , 4117.43589744 , 4120.51282051 , 4114.87179487 , 4115.38461538 , 4114.35897436 , 4111.28205128 , 4113.33333333 , 4113.84615385 , 4121.02564103 , 4172.30769231 , 4902.05128205 , 4111.79487179 , 4123.58974359 , 2043.0 , 2036.0 , 42.694 , 0.0 , 0.0 , 0.0 , 0.0 , 

116.0 , 4115.38461538 , 4112.30769231 , 4115.8974359 , 4115.38461538 , 4115.8974359 , 4113.33333333 , 4108.71794872 , 4118.97435897 , 4117.43589744 , 4121.53846154 , 4172.30769231 , 4901.02564103 , 4116.41025641 , 4123.07692308 , 2043.0 , 2037.0 , 42.694 , 0.0 , 0.0 , 0.0 , 0.0 , 

117.0 , 4115.8974359 , 4113.84615385 , 4116.41025641 , 4116.41025641 , 4115.38461538 , 4112.30769231 , 4107.69230769 , 4113.33333333 , 4114.87179487 , 4122.05128205 , 4171.79487179 , 4898.46153846 , 4116.41025641 , 4125.64102564 , 2044.0 , 2036.0 , 42.694 , 0.0 , 0.0 , 0.0 , 0.0 , 

118.0 , 4117.43589744 , 4117.43589744 , 4117.43589744 , 4118.97435897 , 4115.8974359 , 4115.8974359 , 4112.30769231 , 4115.38461538 , 4118.46153846 , 4123.07692308 , 4172.30769231 , 4898.46153846 , 4118.46153846 , 4125.64102564 , 2043.0 , 2034.0 , 42.694 , 0.0 , 0.0 , 0.0 , 0.0 , 

119.0 , 4118.97435897 , 4115.8974359 , 4117.94871795 , 4115.8974359 , 4115.38461538 , 4112.30769231 , 4107.69230769 , 4113.33333333 , 4112.82051282 , 4123.07692308 , 4172.30769231 , 4898.97435897 , 4115.38461538 , 4125.64102564 , 2043.0 , 2032.0 , 42.694 , 0.0 , 0.0 , 0.0 , 0.0 , 

120.0 , 4114.87179487 , 4118.97435897 , 4112.82051282 , 4115.8974359 , 4112.82051282 , 4114.35897436 , 4110.76923077 , 4119.48717949 , 4114.35897436 , 4121.02564103 , 4174.87179487 , 4895.38461538 , 4123.07692308 , 4124.61538462 , 2042.0 , 2032.0 , 42.694 , 0.0 , 0.0 , 0.0 , 0.0 , 

121.0 , 4117.43589744 , 4114.87179487 , 4116.41025641 , 4112.30769231 , 4114.87179487 , 4114.87179487 , 4108.20512821 , 4107.69230769 , 4109.74358974 , 4115.8974359 , 4170.76923077 , 4896.41025641 , 4116.41025641 , 4119.48717949 , 2043.0 , 2034.0 , 42.694 , 0.0 , 0.0 , 0.0 , 0.0 , 

122.0 , 4115.38461538 , 4113.33333333 , 4114.87179487 , 4116.41025641 , 4116.92307692 , 4115.38461538 , 4105.64102564 , 4116.41025641 , 4118.46153846 , 4121.02564103 , 4173.84615385 , 4896.41025641 , 4120.0 , 4120.51282051 , 2043.0 , 2034.0 , 42.694 , 0.0 , 0.0 , 0.0 , 0.0 , 

123.0 , 4112.82051282 , 4111.79487179 , 4119.48717949 , 4112.30769231 , 4115.38461538 , 4109.23076923 , 4099.48717949 , 4111.28205128 , 4112.82051282 , 4124.61538462 , 4172.82051282 , 4898.46153846 , 4114.87179487 , 4128.71794872 , 2042.0 , 2036.0 , 42.694 , 0.0 , 0.0 , 0.0 , 0.0 , 

124.0 , 4112.82051282 , 4113.33333333 , 4115.38461538 , 4115.38461538 , 4113.84615385 , 4115.38461538 , 4112.30769231 , 4117.43589744 , 4116.92307692 , 4121.53846154 , 4174.87179487 , 4896.41025641 , 4120.51282051 , 4125.12820513 , 2044.0 , 2036.0 , 42.694 , 0.0 , 0.0 , 0.0 , 0.0 , 

125.0 , 4116.41025641 , 4107.17948718 , 4120.0 , 4115.38461538 , 4114.87179487 , 4112.82051282 , 4110.25641026 , 4109.74358974 , 4114.87179487 , 4118.97435897 , 4172.30769231 , 4897.94871795 , 4112.82051282 , 4120.51282051 , 2044.0 , 2037.0 , 42.694 , 0.0 , 0.0 , 0.0 , 0.0 , 

126.0 , 4115.38461538 , 4113.84615385 , 4117.43589744 , 4120.0 , 4115.8974359 , 4113.84615385 , 4109.23076923 , 4120.51282051 , 4120.51282051 , 4124.61538462 , 4175.8974359 , 4896.41025641 , 4117.94871795 , 4125.64102564 , 2045.0 , 2037.0 , 42.694 , 0.0 , 0.0 , 0.0 , 0.0 , 

127.0 , 4115.38461538 , 4113.33333333 , 4118.46153846 , 4114.87179487 , 4115.38461538 , 4111.79487179 , 4107.69230769 , 4116.41025641 , 4112.82051282 , 4126.66666667 , 4174.35897436 , 4898.46153846 , 4113.33333333 , 4127.69230769 , 2046.0 , 2038.0 , 42.694 , 0.0 , 0.0 , 0.0 , 0.0 , 

128.0 , 4115.8974359 , 4114.87179487 , 4113.84615385 , 4118.46153846 , 4116.92307692 , 4115.8974359 , 4114.87179487 , 4118.97435897 , 4116.41025641 , 4125.64102564 , 4175.8974359 , 4896.92307692 , 4118.46153846 , 4126.66666667 , 2045.0 , 2039.0 , 42.694 , 0.0 , 0.0 , 0.0 , 0.0 , 

0.0 , 4116.41025641 , 4115.8974359 , 4118.97435897 , 4114.87179487 , 4117.43589744 , 4111.28205128 , 4109.23076923 , 4113.33333333 , 4115.38461538 , 4124.1025641 , 4173.33333333 , 4898.97435897 , 4115.8974359 , 4126.15384615 , 2045.0 , 2038.0 , 42.694 , 0.0 , 0.0 , 0.0 , 0.0 , 

1.0 , 4116.41025641 , 4116.41025641 , 4119.48717949 , 4113.84615385 , 4116.41025641 , 4111.28205128 , 4112.82051282 , 4114.87179487 , 4113.84615385 , 4126.66666667 , 4173.33333333 , 4898.46153846 , 4118.97435897 , 4123.07692308 , 2046.0 , 2037.0 , 42.694 , 0.0 , 0.0 , 0.0 , 0.0 , 

2.0 , 4114.35897436 , 4110.25641026 , 4116.92307692 , 4116.41025641 , 4114.35897436 , 4107.69230769 , 4111.79487179 , 4109.23076923 , 4108.20512821 , 4124.1025641 , 4172.30769231 , 4899.48717949 , 4117.94871795 , 4123.07692308 , 2043.0 , 2035.0 , 42.694 , 0.0 , 0.0 , 0.0 , 0.0 , 

3.0 , 4115.8974359 , 4115.38461538 , 4116.41025641 , 4120.51282051 , 4118.46153846 , 4107.69230769 , 4106.15384615 , 4111.28205128 , 4109.74358974 , 4122.05128205 , 4173.84615385 , 4898.46153846 , 4116.41025641 , 4126.66666667 , 2043.0 , 2033.0 , 42.694 , 0.0 , 0.0 , 0.0 , 0.0 , 

4.0 , 4114.87179487 , 4115.38461538 , 4117.94871795 , 4113.84615385 , 4120.51282051 , 4109.23076923 , 4102.05128205 , 4112.82051282 , 4113.84615385 , 4124.61538462 , 4173.84615385 , 4897.94871795 , 4115.38461538 , 4124.61538462 , 2042.0 , 2033.0 , 42.694 , 0.0 , 0.0 , 0.0 , 0.0 , 

5.0 , 4114.87179487 , 4108.71794872 , 4114.87179487 , 4110.76923077 , 4116.41025641 , 4110.25641026 , 4106.66666667 , 4112.30769231 , 4111.28205128 , 4125.12820513 , 4174.35897436 , 4898.46153846 , 4118.97435897 , 4122.56410256 , 2042.0 , 2034.0 , 42.694 , 0.0 , 0.0 , 0.0 , 0.0 , 

6.0 , 4114.87179487 , 4110.76923077 , 4113.84615385 , 4116.41025641 , 4113.84615385 , 4110.25641026 , 4108.71794872 , 4120.51282051 , 4116.92307692 , 4121.53846154 , 4176.41025641 , 4897.94871795 , 4121.02564103 , 4123.58974359 , 2041.0 , 2036.0 , 42.7 , 0.0 , 0.0 , 0.0 , 0.0 , 

7.0 , 4114.87179487 , 4115.8974359 , 4120.0 , 4115.38461538 , 4118.46153846 , 4110.76923077 , 4105.64102564 , 4119.48717949 , 4117.43589744 , 4121.53846154 , 4174.87179487 , 4897.94871795 , 4112.82051282 , 4122.56410256 , 2043.0 , 2034.0 , 42.705 , 0.0 , 0.0 , 0.0 , 0.0 , 

8.0 , 4112.30769231 , 4114.35897436 , 4117.43589744 , 4117.43589744 , 4116.41025641 , 4112.82051282 , 4109.74358974 , 4118.97435897 , 4117.43589744 , 4125.64102564 , 4174.35897436 , 4897.43589744 , 4119.48717949 , 4120.51282051 , 2043.0 , 2034.0 , 42.713 , 0.0 , 0.0 , 0.0 , 0.0 , 

9.0 , 4116.92307692 , 4112.30769231 , 4116.92307692 , 4120.0 , 4113.84615385 , 4109.23076923 , 4108.71794872 , 4110.76923077 , 4111.28205128 , 4122.56410256 , 4173.33333333 , 4895.8974359 , 4117.94871795 , 4122.05128205 , 2044.0 , 2034.0 , 42.72 , 0.0 , 0.0 , 0.0 , 0.0 , 

10.0 , 4116.92307692 , 4116.92307692 , 4116.92307692 , 4121.53846154 , 4117.43589744 , 4112.82051282 , 4111.28205128 , 4118.97435897 , 4118.97435897 , 4121.02564103 , 4178.46153846 , 4894.87179487 , 4117.43589744 , 4122.05128205 , 2044.0 , 2034.0 , 42.728 , 0.0 , 0.0 , 0.0 , 0.0 , 

11.0 , 4117.94871795 , 4114.35897436 , 4122.56410256 , 4114.35897436 , 4116.92307692 , 4114.87179487 , 4105.12820513 , 4109.23076923 , 4112.30769231 , 4118.46153846 , 4174.87179487 , 4901.53846154 , 4110.25641026 , 4120.0 , 2044.0 , 2036.0 , 42.736 , 0.0 , 0.0 , 0.0 , 0.0 , 

12.0 , 4114.87179487 , 4116.41025641 , 4115.38461538 , 4119.48717949 , 4113.33333333 , 4116.41025641 , 4109.74358974 , 4116.92307692 , 4114.87179487 , 4120.0 , 4172.82051282 , 4902.05128205 , 4120.51282051 , 4121.02564103 , 2044.0 , 2036.0 , 42.745 , 0.0 , 0.0 , 0.0 , 0.0 , 

13.0 , 4114.35897436 , 4114.35897436 , 4118.97435897 , 4116.41025641 , 4115.8974359 , 4111.28205128 , 4107.17948718 , 4109.23076923 , 4111.28205128 , 4123.58974359 , 4170.76923077 , 4900.0 , 4114.87179487 , 4124.61538462 , 2042.0 , 2039.0 , 42.752 , 0.0 , 0.0 , 0.0 , 0.0 , 

14.0 , 4114.35897436 , 4116.92307692 , 4117.43589744 , 4118.46153846 , 4118.97435897 , 4115.8974359 , 4111.28205128 , 4116.92307692 , 4118.46153846 , 4126.15384615 , 4176.41025641 , 4895.8974359 , 4118.46153846 , 4125.64102564 , 2044.0 , 2039.0 , 42.76 , 0.0 , 0.0 , 0.0 , 0.0 , 

15.0 , 4113.84615385 , 4115.38461538 , 4118.46153846 , 4114.87179487 , 4117.94871795 , 4111.28205128 , 4107.69230769 , 4112.82051282 , 4112.82051282 , 4120.0 , 4172.30769231 , 4896.41025641 , 4114.35897436 , 4124.1025641 , 2043.0 , 2039.0 , 42.768 , 0.0 , 0.0 , 0.0 , 0.0 , 

16.0 , 4111.79487179 , 4118.46153846 , 4111.79487179 , 4117.43589744 , 4116.41025641 , 4111.79487179 , 4109.74358974 , 4120.0 , 4115.8974359 , 4120.0 , 4172.30769231 , 4892.82051282 , 4123.07692308 , 4125.12820513 , 2044.0 , 2038.0 , 42.776 , 0.0 , 0.0 , 0.0 , 0.0 , 

17.0 , 4117.94871795 , 4114.35897436 , 4115.38461538 , 4113.33333333 , 4115.8974359 , 4110.76923077 , 4104.1025641 , 4109.23076923 , 4110.25641026 , 4122.56410256 , 4173.84615385 , 4895.38461538 , 4119.48717949 , 4125.12820513 , 2045.0 , 2037.0 , 42.784 , 0.0 , 0.0 , 0.0 , 0.0 , 

18.0 , 4122.05128205 , 4116.41025641 , 4113.84615385 , 4115.8974359 , 4115.8974359 , 4114.35897436 , 4109.74358974 , 4116.41025641 , 4114.35897436 , 4123.07692308 , 4175.8974359 , 4896.92307692 , 4121.02564103 , 4125.64102564 , 2045.0 , 2036.0 , 42.792 , 0.0 , 0.0 , 0.0 , 0.0 , 

19.0 , 4115.8974359 , 4111.28205128 , 4116.92307692 , 4114.35897436 , 4114.35897436 , 4110.76923077 , 4107.69230769 , 4121.53846154 , 4117.94871795 , 4122.05128205 , 4171.28205128 , 4898.97435897 , 4116.92307692 , 4124.61538462 , 2046.0 , 2034.0 , 42.8 , 0.0 , 0.0 , 0.0 , 0.0 , 

20.0 , 4111.28205128 , 4109.23076923 , 4118.46153846 , 4114.87179487 , 4114.87179487 , 4111.79487179 , 4109.23076923 , 4123.58974359 , 4122.56410256 , 4124.1025641 , 4174.87179487 , 4897.43589744 , 4117.43589744 , 4123.58974359 , 2044.0 , 2036.0 , 42.808 , 0.0 , 0.0 , 0.0 , 0.0 , 

21.0 , 4110.25641026 , 4109.23076923 , 4118.97435897 , 4111.79487179 , 4115.38461538 , 4111.28205128 , 4108.20512821 , 4118.46153846 , 4118.46153846 , 4121.53846154 , 4176.41025641 , 4897.94871795 , 4113.33333333 , 4124.1025641 , 2043.0 , 2036.0 , 42.816 , 0.0 , 0.0 , 0.0 , 0.0 , 

22.0 , 4113.33333333 , 4113.33333333 , 4117.94871795 , 4113.84615385 , 4114.35897436 , 4111.79487179 , 4110.25641026 , 4120.51282051 , 4115.38461538 , 4120.51282051 , 4175.8974359 , 4897.94871795 , 4113.33333333 , 4124.1025641 , 2042.0 , 2037.0 , 42.823 , 0.0 , 0.0 , 0.0 , 0.0 , 

23.0 , 4113.84615385 , 4111.28205128 , 4117.94871795 , 4113.33333333 , 4113.33333333 , 4113.84615385 , 4110.25641026 , 4121.02564103 , 4117.94871795 , 4121.53846154 , 4177.94871795 , 4898.46153846 , 4114.35897436 , 4123.58974359 , 2041.0 , 2038.0 , 42.832 , 0.0 , 0.0 , 0.0 , 0.0 , 

24.0 , 4114.35897436 , 4112.82051282 , 4116.92307692 , 4110.25641026 , 4113.84615385 , 4115.38461538 , 4109.23076923 , 4115.8974359 , 4116.92307692 , 4124.61538462 , 4177.43589744 , 4897.94871795 , 4111.28205128 , 4123.58974359 , 2040.0 , 2037.0 , 42.852 , 0.0 , 0.0 , 0.0 , 0.0 , 

25.0 , 4113.84615385 , 4118.46153846 , 4112.82051282 , 4114.87179487 , 4113.84615385 , 4113.33333333 , 4108.20512821 , 4121.02564103 , 4118.46153846 , 4124.61538462 , 4175.8974359 , 4895.38461538 , 4116.92307692 , 4123.58974359 , 2041.0 , 2036.0 , 42.853 , 0.0 , 0.0 , 0.0 , 0.0 , 

26.0 , 4117.94871795 , 4117.94871795 , 4117.43589744 , 4116.41025641 , 4114.87179487 , 4109.23076923 , 4105.64102564 , 4113.33333333 , 4111.79487179 , 4121.53846154 , 4176.92307692 , 4896.41025641 , 4116.92307692 , 4124.61538462 , 2040.0 , 2035.0 , 42.858 , 0.0 , 0.0 , 0.0 , 0.0 , 

27.0 , 4115.38461538 , 4115.38461538 , 4115.8974359 , 4116.41025641 , 4112.82051282 , 4113.84615385 , 4110.76923077 , 4110.76923077 , 4116.41025641 , 4123.58974359 , 4180.51282051 , 4898.46153846 , 4122.05128205 , 4124.1025641 , 2040.0 , 2034.0 , 42.862 , 0.0 , 0.0 , 0.0 , 0.0 , 

28.0 , 4113.84615385 , 4115.38461538 , 4115.8974359 , 4115.8974359 , 4110.76923077 , 4113.33333333 , 4108.71794872 , 4105.64102564 , 4112.30769231 , 4124.1025641 , 4173.84615385 , 4899.48717949 , 4115.8974359 , 4123.07692308 , 2040.0 , 2035.0 , 42.87 , 0.0 , 0.0 , 0.0 , 0.0 , 

29.0 , 4114.87179487 , 4118.97435897 , 4113.84615385 , 4121.53846154 , 4110.25641026 , 4113.84615385 , 4111.79487179 , 4115.8974359 , 4114.87179487 , 4123.07692308 , 4173.84615385 , 4895.38461538 , 4118.97435897 , 4123.58974359 , 2042.0 , 2033.0 , 42.878 , 0.0 , 0.0 , 0.0 , 0.0 , 

30.0 , 4118.46153846 , 4107.69230769 , 4118.97435897 , 4113.33333333 , 4112.30769231 , 4108.71794872 , 4104.1025641 , 4107.69230769 , 4109.23076923 , 4120.51282051 , 4174.87179487 , 4896.41025641 , 4111.79487179 , 4122.56410256 , 2043.0 , 2034.0 , 42.886 , 0.0 , 0.0 , 0.0 , 0.0 , 

31.0 , 4114.87179487 , 4106.66666667 , 4114.35897436 , 4115.38461538 , 4112.82051282 , 4110.25641026 , 4102.56410256 , 4120.0 , 4117.94871795 , 4122.56410256 , 4176.41025641 , 4895.38461538 , 4118.97435897 , 4122.05128205 , 2043.0 , 2031.0 , 42.894 , 0.0 , 0.0 , 0.0 , 0.0 , 

32.0 , 4114.35897436 , 4111.79487179 , 4121.02564103 , 4113.84615385 , 4112.82051282 , 4106.66666667 , 4102.05128205 , 4116.92307692 , 4113.33333333 , 4122.05128205 , 4172.30769231 , 4896.41025641 , 4113.84615385 , 4126.66666667 , 2042.0 , 2032.0 , 42.901 , 0.0 , 0.0 , 0.0 , 0.0 , 

33.0 , 4116.41025641 , 4115.8974359 , 4117.43589744 , 4115.8974359 , 4113.33333333 , 4111.79487179 , 4112.30769231 , 4117.94871795 , 4115.38461538 , 4123.58974359 , 4176.92307692 , 4896.41025641 , 4120.51282051 , 4128.20512821 , 2043.0 , 2032.0 , 42.909 , 0.0 , 0.0 , 0.0 , 0.0 , 

34.0 , 4117.94871795 , 4108.20512821 , 4115.8974359 , 4114.35897436 , 4111.79487179 , 4110.76923077 , 4106.15384615 , 4111.28205128 , 4111.28205128 , 4125.12820513 , 4175.38461538 , 4899.48717949 , 4115.8974359 , 4125.64102564 , 2045.0 , 2035.0 , 42.917 , 0.0 , 0.0 , 0.0 , 0.0 , 

35.0 , 4116.41025641 , 4112.82051282 , 4113.84615385 , 4121.02564103 , 4113.84615385 , 4115.38461538 , 4109.23076923 , 4125.12820513 , 4117.94871795 , 4127.69230769 , 4175.8974359 , 4895.8974359 , 4117.43589744 , 4126.15384615 , 2044.0 , 2038.0 , 42.925 , 0.0 , 0.0 , 0.0 , 0.0 , 

36.0 , 4116.92307692 , 4113.84615385 , 4120.0 , 4115.8974359 , 4115.38461538 , 4113.33333333 , 4110.25641026 , 4115.38461538 , 4115.38461538 , 4125.64102564 , 4173.84615385 , 4897.43589744 , 4113.84615385 , 4127.69230769 , 2043.0 , 2038.0 , 42.933 , 0.0 , 0.0 , 0.0 , 0.0 , 

37.0 , 4116.92307692 , 4115.8974359 , 4115.38461538 , 4116.41025641 , 4115.38461538 , 4115.38461538 , 4114.35897436 , 4113.84615385 , 4117.94871795 , 4125.12820513 , 4175.38461538 , 4900.51282051 , 4120.0 , 4127.17948718 , 2044.0 , 2037.0 , 42.941 , 0.0 , 0.0 , 0.0 , 0.0 , 

38.0 , 4115.8974359 , 4113.84615385 , 4115.38461538 , 4116.41025641 , 4115.38461538 , 4112.30769231 , 4109.23076923 , 4114.87179487 , 4116.41025641 , 4124.1025641 , 4171.28205128 , 4901.02564103 , 4114.35897436 , 4126.15384615 , 2044.0 , 2034.0 , 42.949 , 0.0 , 0.0 , 0.0 , 0.0 , 

39.0 , 4115.8974359 , 4114.87179487 , 4117.94871795 , 4117.43589744 , 4115.8974359 , 4113.33333333 , 4110.25641026 , 4116.92307692 , 4116.41025641 , 4124.1025641 , 4172.30769231 , 4896.41025641 , 4115.8974359 , 4128.20512821 , 2044.0 , 2034.0 , 42.957 , 0.0 , 0.0 , 0.0 , 0.0 , 

40.0 , 4114.35897436 , 4111.28205128 , 4120.51282051 , 4114.87179487 , 4114.87179487 , 4113.33333333 , 4108.20512821 , 4109.23076923 , 4115.38461538 , 4121.53846154 , 4173.84615385 , 4897.94871795 , 4120.0 , 4127.69230769 , 2044.0 , 2034.0 , 42.965 , 0.0 , 0.0 , 0.0 , 0.0 , 

41.0 , 4114.87179487 , 4114.35897436 , 4116.92307692 , 4114.87179487 , 4116.92307692 , 4114.35897436 , 4108.20512821 , 4108.71794872 , 4112.82051282 , 4120.51282051 , 4175.38461538 , 4897.94871795 , 4117.94871795 , 4126.66666667 , 2044.0 , 2032.0 , 42.972 , 0.0 , 0.0 , 0.0 , 0.0 , 

42.0 , 4114.35897436 , 4115.8974359 , 4113.33333333 , 4112.82051282 , 4115.8974359 , 4114.35897436 , 4108.20512821 , 4114.87179487 , 4114.35897436 , 4123.07692308 , 4175.38461538 , 4897.94871795 , 4115.8974359 , 4125.12820513 , 2044.0 , 2033.0 , 42.981 , 0.0 , 0.0 , 0.0 , 0.0 , 

43.0 , 4117.94871795 , 4113.84615385 , 4115.8974359 , 4114.87179487 , 4113.84615385 , 4110.25641026 , 4106.66666667 , 4113.84615385 , 4112.30769231 , 4124.61538462 , 4173.84615385 , 4899.48717949 , 4116.92307692 , 4123.07692308 , 2043.0 , 2033.0 , 42.988 , 0.0 , 0.0 , 0.0 , 0.0 , 

44.0 , 4118.46153846 , 4114.35897436 , 4116.41025641 , 4120.51282051 , 4114.35897436 , 4111.28205128 , 4110.76923077 , 4120.51282051 , 4117.94871795 , 4124.1025641 , 4174.35897436 , 4896.92307692 , 4121.02564103 , 4122.56410256 , 2043.0 , 2032.0 , 43.014 , 0.0 , 0.0 , 0.0 , 0.0 , 

45.0 , 4120.0 , 4112.82051282 , 4116.92307692 , 4114.35897436 , 4115.8974359 , 4112.30769231 , 4109.74358974 , 4115.8974359 , 4115.8974359 , 4122.56410256 , 4171.28205128 , 4894.87179487 , 4112.82051282 , 4125.64102564 , 2042.0 , 2033.0 , 43.016 , 0.0 , 0.0 , 0.0 , 0.0 , 

46.0 , 4115.38461538 , 4113.33333333 , 4114.35897436 , 4113.33333333 , 4115.38461538 , 4114.35897436 , 4112.30769231 , 4120.0 , 4123.07692308 , 4125.12820513 , 4174.35897436 , 4895.8974359 , 4118.46153846 , 4127.69230769 , 2044.0 , 2033.0 , 43.016 , 0.0 , 0.0 , 0.0 , 0.0 , 

47.0 , 4115.8974359 , 4112.30769231 , 4118.97435897 , 4114.35897436 , 4117.43589744 , 4110.76923077 , 4109.23076923 , 4113.84615385 , 4115.38461538 , 4125.12820513 , 4174.35897436 , 4900.0 , 4114.87179487 , 4125.12820513 , 2043.0 , 2030.0 , 43.023 , 0.0 , 0.0 , 0.0 , 0.0 , 

48.0 , 4115.8974359 , 4114.87179487 , 4116.41025641 , 4114.87179487 , 4116.92307692 , 4112.82051282 , 4113.33333333 , 4120.0 , 4116.92307692 , 4122.56410256 , 4177.43589744 , 4895.38461538 , 4115.38461538 , 4121.53846154 , 2045.0 , 2033.0 , 43.028 , 0.0 , 0.0 , 0.0 , 0.0 , 

49.0 , 4115.8974359 , 4110.76923077 , 4120.51282051 , 4107.17948718 , 4113.33333333 , 4108.71794872 , 4106.66666667 , 4108.71794872 , 4114.35897436 , 4123.07692308 , 4174.35897436 , 4895.8974359 , 4107.17948718 , 4121.02564103 , 2045.0 , 2033.0 , 43.035 , 0.0 , 0.0 , 0.0 , 0.0 , 

50.0 , 4114.87179487 , 4116.41025641 , 4116.92307692 , 4115.38461538 , 4113.33333333 , 4113.33333333 , 4109.23076923 , 4118.97435897 , 4122.05128205 , 4127.69230769 , 4175.8974359 , 4896.41025641 , 4116.41025641 , 4124.1025641 , 2044.0 , 2034.0 , 43.043 , 0.0 , 0.0 , 0.0 , 0.0 , 

51.0 , 4120.0 , 4116.92307692 , 4119.48717949 , 4116.41025641 , 4117.43589744 , 4114.35897436 , 4108.20512821 , 4112.82051282 , 4110.25641026 , 4121.02564103 , 4173.33333333 , 4900.0 , 4113.84615385 , 4126.66666667 , 2044.0 , 2033.0 , 43.051 , 0.0 , 0.0 , 0.0 , 0.0 , 

52.0 , 4118.97435897 , 4116.92307692 , 4116.92307692 , 4116.41025641 , 4117.94871795 , 4117.43589744 , 4114.35897436 , 4118.97435897 , 4114.87179487 , 4120.0 , 4174.35897436 , 4898.97435897 , 4118.97435897 , 4125.64102564 , 2045.0 , 2032.0 , 43.059 , 0.0 , 0.0 , 0.0 , 0.0 , 

53.0 , 4115.8974359 , 4111.28205128 , 4120.0 , 4112.82051282 , 4115.8974359 , 4112.30769231 , 4108.71794872 , 4114.87179487 , 4118.97435897 , 4124.1025641 , 4170.25641026 , 4900.51282051 , 4114.35897436 , 4123.58974359 , 2044.0 , 2032.0 , 43.067 , 0.0 , 0.0 , 0.0 , 0.0 , 

54.0 , 4115.38461538 , 4116.92307692 , 4115.8974359 , 4118.97435897 , 4115.8974359 , 4115.38461538 , 4112.82051282 , 4119.48717949 , 4121.53846154 , 4123.07692308 , 4173.84615385 , 4895.8974359 , 4120.0 , 4124.1025641 , 2042.0 , 2032.0 , 43.075 , 0.0 , 0.0 , 0.0 , 0.0 , 

55.0 , 4115.38461538 , 4116.41025641 , 4119.48717949 , 4114.87179487 , 4115.38461538 , 4113.33333333 , 4110.25641026 , 4111.79487179 , 4114.35897436 , 4118.97435897 , 4175.38461538 , 4894.35897436 , 4115.8974359 , 4125.12820513 , 2043.0 , 2034.0 , 43.083 , 0.0 , 0.0 , 0.0 , 0.0 , 

56.0 , 4116.41025641 , 4115.8974359 , 4118.97435897 , 4114.35897436 , 4115.38461538 , 4114.35897436 , 4112.30769231 , 4115.8974359 , 4119.48717949 , 4122.56410256 , 4175.8974359 , 4894.35897436 , 4115.8974359 , 4125.12820513 , 2043.0 , 2034.0 , 43.091 , 0.0 , 0.0 , 0.0 , 0.0 , 

57.0 , 4116.92307692 , 4113.84615385 , 4118.46153846 , 4114.87179487 , 4113.84615385 , 4111.28205128 , 4110.25641026 , 4112.30769231 , 4117.94871795 , 4121.02564103 , 4172.30769231 , 4898.97435897 , 4113.33333333 , 4125.12820513 , 2043.0 , 2035.0 , 43.099 , 0.0 , 0.0 , 0.0 , 0.0 , 

58.0 , 4115.8974359 , 4115.38461538 , 4116.41025641 , 4115.8974359 , 4112.82051282 , 4112.82051282 , 4110.25641026 , 4111.28205128 , 4114.87179487 , 4117.94871795 , 4172.82051282 , 4900.51282051 , 4117.43589744 , 4124.1025641 , 2044.0 , 2036.0 , 43.107 , 0.0 , 0.0 , 0.0 , 0.0 , 

59.0 , 4113.33333333 , 4110.76923077 , 4117.94871795 , 4112.30769231 , 4113.33333333 , 4112.82051282 , 4106.66666667 , 4112.82051282 , 4114.87179487 , 4122.56410256 , 4172.82051282 , 4898.97435897 , 4117.94871795 , 4124.1025641 , 2043.0 , 2037.0 , 43.115 , 0.0 , 0.0 , 0.0 , 0.0 , 

60.0 , 4116.92307692 , 4111.28205128 , 4118.97435897 , 4113.84615385 , 4117.94871795 , 4111.28205128 , 4108.20512821 , 4111.79487179 , 4114.35897436 , 4126.66666667 , 4173.84615385 , 4893.84615385 , 4115.38461538 , 4127.17948718 , 2041.0 , 2035.0 , 43.123 , 0.0 , 0.0 , 0.0 , 0.0 , 

61.0 , 4116.92307692 , 4115.38461538 , 4116.41025641 , 4116.92307692 , 4117.94871795 , 4113.84615385 , 4109.74358974 , 4114.87179487 , 4116.41025641 , 4122.05128205 , 4176.41025641 , 4894.35897436 , 4116.92307692 , 4125.12820513 , 2042.0 , 2034.0 , 43.131 , 0.0 , 0.0 , 0.0 , 0.0 , 

