['COUNTER', 'AF3', 'F7', 'F3', 'FC5', 'T7', 'P7', 'O1', 'O2', 'P8', 'T8', 'FC6', 'F4', 'F8', 'AF4', 'GYROX', 'GYROY', 'TIMESTAMP', 'FUNC_ID', 'FUNC_VALUE', 'MARKER', 'SYNC_SIGNAL']
70.0 , 4140.0 , 4133.33333333 , 4133.84615385 , 4134.87179487 , 4135.8974359 , 4129.74358974 , 4128.20512821 , 4131.79487179 , 4137.43589744 , 4145.12820513 , 4193.33333333 , 4913.33333333 , 4137.94871795 , 4141.02564103 , 2047.0 , 2037.0 , 338.973 , 0.0 , 0.0 , 0.0 , 0.0 , 

71.0 , 4131.79487179 , 4133.84615385 , 4131.28205128 , 4136.41025641 , 4134.87179487 , 4132.82051282 , 4130.25641026 , 4138.97435897 , 4137.94871795 , 4142.05128205 , 4192.82051282 , 4911.28205128 , 4137.94871795 , 4139.48717949 , 2047.0 , 2040.0 , 338.979 , 0.0 , 0.0 , 0.0 , 0.0 , 

72.0 , 4129.74358974 , 4132.82051282 , 4135.38461538 , 4136.41025641 , 4133.84615385 , 4135.8974359 , 4132.30769231 , 4136.41025641 , 4134.87179487 , 4138.46153846 , 4194.35897436 , 4909.23076923 , 4138.46153846 , 4137.94871795 , 2046.0 , 2043.0 , 338.983 , 0.0 , 0.0 , 0.0 , 0.0 , 

73.0 , 4134.87179487 , 4131.28205128 , 4135.38461538 , 4133.33333333 , 4134.35897436 , 4134.87179487 , 4131.28205128 , 4129.74358974 , 4130.25641026 , 4138.97435897 , 4191.28205128 , 4908.71794872 , 4138.97435897 , 4138.97435897 , 2045.0 , 2045.0 , 338.989 , 0.0 , 0.0 , 0.0 , 0.0 , 

74.0 , 4134.35897436 , 4130.76923077 , 4133.33333333 , 4134.35897436 , 4134.35897436 , 4135.38461538 , 4128.71794872 , 4130.76923077 , 4131.28205128 , 4140.0 , 4189.23076923 , 4913.33333333 , 4135.8974359 , 4141.53846154 , 2046.0 , 2046.0 , 339.003 , 0.0 , 0.0 , 0.0 , 0.0 , 

75.0 , 4131.79487179 , 4130.25641026 , 4134.35897436 , 4137.94871795 , 4134.35897436 , 4135.8974359 , 4129.23076923 , 4137.43589744 , 4135.8974359 , 4140.51282051 , 4193.84615385 , 4914.35897436 , 4130.76923077 , 4141.02564103 , 2046.0 , 2046.0 , 339.012 , 0.0 , 0.0 , 0.0 , 0.0 , 

76.0 , 4132.30769231 , 4128.71794872 , 4132.82051282 , 4132.82051282 , 4134.35897436 , 4135.8974359 , 4129.23076923 , 4138.46153846 , 4134.87179487 , 4140.0 , 4195.8974359 , 4911.79487179 , 4131.79487179 , 4136.92307692 , 2045.0 , 2044.0 , 339.015 , 0.0 , 0.0 , 0.0 , 0.0 , 

77.0 , 4133.84615385 , 4130.25641026 , 4131.28205128 , 4127.69230769 , 4134.35897436 , 4136.92307692 , 4129.74358974 , 4136.92307692 , 4134.87179487 , 4139.48717949 , 4194.35897436 , 4912.82051282 , 4137.43589744 , 4138.46153846 , 2046.0 , 2045.0 , 339.022 , 0.0 , 0.0 , 0.0 , 0.0 , 

78.0 , 4134.35897436 , 4132.30769231 , 4132.82051282 , 4131.79487179 , 4134.35897436 , 4135.38461538 , 4130.25641026 , 4137.94871795 , 4137.43589744 , 4139.48717949 , 4194.87179487 , 4915.8974359 , 4139.48717949 , 4145.12820513 , 2045.0 , 2045.0 , 339.032 , 0.0 , 0.0 , 0.0 , 0.0 , 

79.0 , 4131.79487179 , 4130.76923077 , 4132.82051282 , 4135.38461538 , 4134.35897436 , 4128.71794872 , 4129.74358974 , 4137.94871795 , 4138.97435897 , 4140.51282051 , 4195.8974359 , 4914.35897436 , 4137.43589744 , 4145.12820513 , 2046.0 , 2044.0 , 339.042 , 0.0 , 0.0 , 0.0 , 0.0 , 

80.0 , 4130.25641026 , 4128.71794872 , 4131.79487179 , 4135.38461538 , 4134.35897436 , 4129.74358974 , 4127.69230769 , 4137.94871795 , 4139.48717949 , 4139.48717949 , 4195.8974359 , 4913.33333333 , 4137.43589744 , 4140.0 , 2047.0 , 2042.0 , 339.046 , 0.0 , 0.0 , 0.0 , 0.0 , 

81.0 , 4132.30769231 , 4130.25641026 , 4134.35897436 , 4136.92307692 , 4134.35897436 , 4136.92307692 , 4129.23076923 , 4138.97435897 , 4138.97435897 , 4138.97435897 , 4194.35897436 , 4914.87179487 , 4137.94871795 , 4139.48717949 , 2047.0 , 2041.0 , 339.054 , 0.0 , 0.0 , 0.0 , 0.0 , 

82.0 , 4131.79487179 , 4130.76923077 , 4133.84615385 , 4137.43589744 , 4134.35897436 , 4137.43589744 , 4128.71794872 , 4135.38461538 , 4137.94871795 , 4139.48717949 , 4191.28205128 , 4912.82051282 , 4136.41025641 , 4140.0 , 2046.0 , 2041.0 , 339.068 , 0.0 , 0.0 , 0.0 , 0.0 , 

83.0 , 4130.25641026 , 4131.79487179 , 4132.30769231 , 4135.8974359 , 4134.35897436 , 4134.87179487 , 4128.20512821 , 4136.41025641 , 4138.97435897 , 4140.0 , 4193.84615385 , 4910.76923077 , 4136.41025641 , 4137.43589744 , 2049.0 , 2039.0 , 339.078 , 0.0 , 0.0 , 0.0 , 0.0 , 

84.0 , 4130.76923077 , 4130.76923077 , 4135.38461538 , 4136.41025641 , 4134.35897436 , 4133.33333333 , 4130.76923077 , 4138.97435897 , 4138.46153846 , 4138.46153846 , 4191.79487179 , 4912.30769231 , 4135.8974359 , 4137.94871795 , 2048.0 , 2037.0 , 339.081 , 0.0 , 0.0 , 0.0 , 0.0 , 

85.0 , 4132.82051282 , 4129.23076923 , 4137.43589744 , 4137.43589744 , 4134.35897436 , 4134.87179487 , 4131.28205128 , 4135.8974359 , 4136.41025641 , 4136.92307692 , 4185.12820513 , 4913.33333333 , 4135.38461538 , 4138.46153846 , 2047.0 , 2034.0 , 339.09 , 0.0 , 0.0 , 0.0 , 0.0 , 

94.0 , 4136.41025641 , 4133.84615385 , 4136.92307692 , 4138.97435897 , 4136.41025641 , 4130.25641026 , 4130.76923077 , 4129.74358974 , 4132.30769231 , 4138.97435897 , 4192.30769231 , 4908.71794872 , 4135.8974359 , 4141.53846154 , 2027.0 , 2031.0 , 339.109 , 0.0 , 0.0 , 0.0 , 0.0 , 

95.0 , 4137.94871795 , 4133.33333333 , 4138.46153846 , 4139.48717949 , 4135.8974359 , 4128.71794872 , 4130.76923077 , 4129.74358974 , 4131.28205128 , 4141.53846154 , 4193.33333333 , 4910.25641026 , 4135.8974359 , 4137.43589744 , 2027.0 , 2033.0 , 339.113 , 0.0 , 0.0 , 0.0 , 0.0 , 

96.0 , 4138.46153846 , 4133.33333333 , 4139.48717949 , 4137.94871795 , 4136.41025641 , 4129.74358974 , 4129.74358974 , 4129.74358974 , 4135.8974359 , 4140.0 , 4190.76923077 , 4910.25641026 , 4132.82051282 , 4138.97435897 , 2027.0 , 2035.0 , 339.117 , 0.0 , 0.0 , 0.0 , 0.0 , 

97.0 , 4138.97435897 , 4131.79487179 , 4139.48717949 , 4137.43589744 , 4135.8974359 , 4131.79487179 , 4128.20512821 , 4130.25641026 , 4138.97435897 , 4135.38461538 , 4191.28205128 , 4908.20512821 , 4132.30769231 , 4140.0 , 2030.0 , 2036.0 , 339.124 , 0.0 , 0.0 , 0.0 , 0.0 , 

98.0 , 4143.07692308 , 4130.76923077 , 4136.92307692 , 4138.46153846 , 4134.35897436 , 4130.76923077 , 4128.71794872 , 4131.28205128 , 4134.87179487 , 4136.92307692 , 4192.30769231 , 4909.23076923 , 4136.92307692 , 4139.48717949 , 2031.0 , 2036.0 , 339.136 , 0.0 , 0.0 , 0.0 , 0.0 , 

99.0 , 4144.61538462 , 4129.74358974 , 4137.43589744 , 4136.92307692 , 4133.84615385 , 4127.69230769 , 4129.23076923 , 4131.79487179 , 4134.35897436 , 4141.02564103 , 4194.35897436 , 4910.25641026 , 4139.48717949 , 4143.07692308 , 2036.0 , 2038.0 , 339.143 , 0.0 , 0.0 , 0.0 , 0.0 , 

100.0 , 4143.58974359 , 4130.76923077 , 4140.0 , 4130.25641026 , 4134.35897436 , 4127.17948718 , 4129.74358974 , 4136.92307692 , 4138.46153846 , 4139.48717949 , 4193.33333333 , 4908.20512821 , 4137.94871795 , 4146.66666667 , 2038.0 , 2036.0 , 339.146 , 0.0 , 0.0 , 0.0 , 0.0 , 

101.0 , 4140.0 , 4132.82051282 , 4140.0 , 4130.76923077 , 4134.87179487 , 4130.76923077 , 4129.74358974 , 4140.51282051 , 4140.0 , 4141.02564103 , 4190.25641026 , 4910.76923077 , 4135.38461538 , 4144.61538462 , 2043.0 , 2034.0 , 339.154 , 0.0 , 0.0 , 0.0 , 0.0 , 

102.0 , 4135.8974359 , 4132.82051282 , 4141.53846154 , 4138.46153846 , 4134.35897436 , 4133.84615385 , 4128.71794872 , 4138.97435897 , 4139.48717949 , 4147.17948718 , 4194.87179487 , 4914.87179487 , 4135.38461538 , 4142.56410256 , 2045.0 , 2033.0 , 339.172 , 0.0 , 0.0 , 0.0 , 0.0 , 

103.0 , 4136.92307692 , 4132.30769231 , 4142.05128205 , 4138.46153846 , 4134.35897436 , 4133.84615385 , 4129.23076923 , 4137.43589744 , 4139.48717949 , 4145.12820513 , 4200.51282051 , 4914.35897436 , 4137.94871795 , 4143.07692308 , 2048.0 , 2033.0 , 339.176 , 0.0 , 0.0 , 0.0 , 0.0 , 

104.0 , 4139.48717949 , 4134.35897436 , 4138.97435897 , 4135.8974359 , 4134.35897436 , 4131.28205128 , 4131.79487179 , 4138.46153846 , 4141.53846154 , 4136.92307692 , 4196.41025641 , 4912.82051282 , 4137.94871795 , 4142.56410256 , 2048.0 , 2031.0 , 339.179 , 0.0 , 0.0 , 0.0 , 0.0 , 

105.0 , 4136.92307692 , 4133.33333333 , 4133.84615385 , 4136.92307692 , 4134.35897436 , 4131.28205128 , 4130.76923077 , 4137.94871795 , 4137.94871795 , 4140.0 , 4189.74358974 , 4914.35897436 , 4137.94871795 , 4138.46153846 , 2049.0 , 2031.0 , 339.198 , 0.0 , 0.0 , 0.0 , 0.0 , 

106.0 , 4135.38461538 , 4131.79487179 , 4136.41025641 , 4136.41025641 , 4134.35897436 , 4133.33333333 , 4128.20512821 , 4138.97435897 , 4133.84615385 , 4145.12820513 , 4190.25641026 , 4912.30769231 , 4136.41025641 , 4136.41025641 , 2051.0 , 2033.0 , 339.209 , 0.0 , 0.0 , 0.0 , 0.0 , 

107.0 , 4133.33333333 , 4132.82051282 , 4135.8974359 , 4135.8974359 , 4134.35897436 , 4132.30769231 , 4130.25641026 , 4138.46153846 , 4136.41025641 , 4142.05128205 , 4195.38461538 , 4907.69230769 , 4133.33333333 , 4138.97435897 , 2052.0 , 2033.0 , 339.221 , 0.0 , 0.0 , 0.0 , 0.0 , 

108.0 , 4132.30769231 , 4133.84615385 , 4131.28205128 , 4137.43589744 , 4134.87179487 , 4134.35897436 , 4130.76923077 , 4137.43589744 , 4139.48717949 , 4139.48717949 , 4195.38461538 , 4912.30769231 , 4135.8974359 , 4140.51282051 , 2051.0 , 2036.0 , 339.229 , 0.0 , 0.0 , 0.0 , 0.0 , 

109.0 , 4133.33333333 , 4131.79487179 , 4130.76923077 , 4137.94871795 , 4134.35897436 , 4134.87179487 , 4128.20512821 , 4137.43589744 , 4136.92307692 , 4138.46153846 , 4193.33333333 , 4914.35897436 , 4138.97435897 , 4137.43589744 , 2050.0 , 2038.0 , 339.234 , 0.0 , 0.0 , 0.0 , 0.0 , 

110.0 , 4130.25641026 , 4130.76923077 , 4131.79487179 , 4135.8974359 , 4134.35897436 , 4133.84615385 , 4129.23076923 , 4132.82051282 , 4134.35897436 , 4137.43589744 , 4190.76923077 , 4909.23076923 , 4135.38461538 , 4137.43589744 , 2051.0 , 2040.0 , 339.246 , 0.0 , 0.0 , 0.0 , 0.0 , 

111.0 , 4130.25641026 , 4132.30769231 , 4132.82051282 , 4135.38461538 , 4135.38461538 , 4136.41025641 , 4132.82051282 , 4131.79487179 , 4135.38461538 , 4136.92307692 , 4193.33333333 , 4911.79487179 , 4134.87179487 , 4139.48717949 , 2049.0 , 2039.0 , 339.252 , 0.0 , 0.0 , 0.0 , 0.0 , 

112.0 , 4135.8974359 , 4132.82051282 , 4133.84615385 , 4135.38461538 , 4135.8974359 , 4136.92307692 , 4131.79487179 , 4132.30769231 , 4136.41025641 , 4138.46153846 , 4197.43589744 , 4915.8974359 , 4138.46153846 , 4140.0 , 2049.0 , 2037.0 , 339.26 , 0.0 , 0.0 , 0.0 , 0.0 , 

113.0 , 4133.84615385 , 4131.79487179 , 4132.30769231 , 4134.35897436 , 4134.87179487 , 4130.25641026 , 4128.71794872 , 4131.79487179 , 4137.43589744 , 4138.97435897 , 4192.82051282 , 4911.79487179 , 4137.43589744 , 4141.53846154 , 2048.0 , 2038.0 , 339.266 , 0.0 , 0.0 , 0.0 , 0.0 , 

114.0 , 4128.71794872 , 4132.30769231 , 4131.28205128 , 4134.87179487 , 4134.35897436 , 4131.79487179 , 4128.71794872 , 4133.84615385 , 4138.46153846 , 4138.97435897 , 4189.74358974 , 4909.74358974 , 4135.8974359 , 4143.07692308 , 2049.0 , 2037.0 , 339.276 , 0.0 , 0.0 , 0.0 , 0.0 , 

115.0 , 4131.28205128 , 4135.38461538 , 4133.84615385 , 4137.43589744 , 4134.35897436 , 4140.51282051 , 4130.76923077 , 4138.46153846 , 4140.0 , 4140.0 , 4198.97435897 , 4910.76923077 , 4138.46153846 , 4142.05128205 , 2048.0 , 2039.0 , 339.283 , 0.0 , 0.0 , 0.0 , 0.0 , 

116.0 , 4132.82051282 , 4132.82051282 , 4133.84615385 , 4136.92307692 , 4133.84615385 , 4135.8974359 , 4129.74358974 , 4138.46153846 , 4141.02564103 , 4142.05128205 , 4202.05128205 , 4909.23076923 , 4140.0 , 4142.05128205 , 2048.0 , 2039.0 , 339.299 , 0.0 , 0.0 , 0.0 , 0.0 , 

117.0 , 4131.79487179 , 4130.25641026 , 4130.76923077 , 4137.43589744 , 4134.87179487 , 4129.23076923 , 4128.20512821 , 4136.41025641 , 4140.0 , 4142.56410256 , 4196.92307692 , 4913.33333333 , 4137.94871795 , 4142.56410256 , 2048.0 , 2040.0 , 339.314 , 0.0 , 0.0 , 0.0 , 0.0 , 

118.0 , 4132.82051282 , 4132.82051282 , 4130.76923077 , 4137.94871795 , 4136.41025641 , 4131.28205128 , 4130.25641026 , 4135.38461538 , 4139.48717949 , 4137.94871795 , 4197.43589744 , 4916.92307692 , 4137.94871795 , 4138.46153846 , 2049.0 , 2040.0 , 339.327 , 0.0 , 0.0 , 0.0 , 0.0 , 

119.0 , 4132.82051282 , 4134.35897436 , 4131.28205128 , 4135.8974359 , 4135.8974359 , 4133.84615385 , 4132.82051282 , 4136.41025641 , 4140.0 , 4137.43589744 , 4197.94871795 , 4910.25641026 , 4138.97435897 , 4136.41025641 , 2053.0 , 2041.0 , 339.333 , 0.0 , 0.0 , 0.0 , 0.0 , 

120.0 , 4131.28205128 , 4132.30769231 , 4130.76923077 , 4134.87179487 , 4134.35897436 , 4133.33333333 , 4131.28205128 , 4138.46153846 , 4137.94871795 , 4142.56410256 , 4189.74358974 , 4907.69230769 , 4136.92307692 , 4137.94871795 , 2052.0 , 2041.0 , 339.343 , 0.0 , 0.0 , 0.0 , 0.0 , 

121.0 , 4131.28205128 , 4132.30769231 , 4133.33333333 , 4137.94871795 , 4134.87179487 , 4131.28205128 , 4129.74358974 , 4138.97435897 , 4136.92307692 , 4142.05128205 , 4188.71794872 , 4913.84615385 , 4135.8974359 , 4138.46153846 , 2054.0 , 2039.0 , 339.346 , 0.0 , 0.0 , 0.0 , 0.0 , 

122.0 , 4131.28205128 , 4133.84615385 , 4134.87179487 , 4138.46153846 , 4135.38461538 , 4130.25641026 , 4129.74358974 , 4136.92307692 , 4140.51282051 , 4140.0 , 4191.79487179 , 4915.8974359 , 4137.43589744 , 4137.43589744 , 2054.0 , 2032.0 , 339.372 , 0.0 , 0.0 , 0.0 , 0.0 , 

123.0 , 4131.28205128 , 4133.84615385 , 4132.30769231 , 4137.43589744 , 4134.87179487 , 4134.87179487 , 4130.25641026 , 4137.43589744 , 4141.02564103 , 4141.53846154 , 4186.15384615 , 4910.76923077 , 4136.41025641 , 4138.46153846 , 2054.0 , 2028.0 , 339.376 , 0.0 , 0.0 , 0.0 , 0.0 , 

3.0 , 4136.41025641 , 4131.79487179 , 4132.82051282 , 4130.25641026 , 4136.41025641 , 4134.35897436 , 4129.74358974 , 4131.79487179 , 4128.20512821 , 4136.92307692 , 4194.35897436 , 4909.74358974 , 4133.84615385 , 4140.0 , 2025.0 , 2029.0 , 339.407 , 0.0 , 0.0 , 0.0 , 0.0 , 

4.0 , 4132.82051282 , 4132.30769231 , 4134.35897436 , 4133.84615385 , 4135.8974359 , 4133.33333333 , 4128.20512821 , 4134.87179487 , 4128.71794872 , 4137.43589744 , 4192.30769231 , 4911.28205128 , 4134.35897436 , 4137.43589744 , 2025.0 , 2031.0 , 339.41 , 0.0 , 0.0 , 0.0 , 0.0 , 

5.0 , 4132.82051282 , 4133.84615385 , 4140.0 , 4139.48717949 , 4135.8974359 , 4130.25641026 , 4127.17948718 , 4135.8974359 , 4136.41025641 , 4137.94871795 , 4193.84615385 , 4909.74358974 , 4133.84615385 , 4137.43589744 , 2027.0 , 2031.0 , 339.421 , 0.0 , 0.0 , 0.0 , 0.0 , 

6.0 , 4136.92307692 , 4131.79487179 , 4141.53846154 , 4136.92307692 , 4135.8974359 , 4129.23076923 , 4128.71794872 , 4136.41025641 , 4138.97435897 , 4137.94871795 , 4194.87179487 , 4908.20512821 , 4132.82051282 , 4139.48717949 , 2029.0 , 2032.0 , 339.427 , 0.0 , 0.0 , 0.0 , 0.0 , 

7.0 , 4141.02564103 , 4133.33333333 , 4137.94871795 , 4136.92307692 , 4135.8974359 , 4129.74358974 , 4131.28205128 , 4137.43589744 , 4136.92307692 , 4138.97435897 , 4190.76923077 , 4908.71794872 , 4136.41025641 , 4142.05128205 , 2032.0 , 2033.0 , 339.431 , 0.0 , 0.0 , 0.0 , 0.0 , 

8.0 , 4141.02564103 , 4134.35897436 , 4140.0 , 4138.97435897 , 4135.38461538 , 4128.20512821 , 4129.74358974 , 4137.43589744 , 4137.43589744 , 4139.48717949 , 4189.23076923 , 4910.25641026 , 4140.0 , 4142.05128205 , 2035.0 , 2034.0 , 339.438 , 0.0 , 0.0 , 0.0 , 0.0 , 

9.0 , 4139.48717949 , 4131.28205128 , 4143.58974359 , 4136.41025641 , 4135.38461538 , 4129.23076923 , 4128.20512821 , 4137.43589744 , 4140.51282051 , 4137.43589744 , 4195.38461538 , 4913.84615385 , 4137.43589744 , 4140.51282051 , 2040.0 , 2037.0 , 339.46 , 0.0 , 0.0 , 0.0 , 0.0 , 

10.0 , 4138.46153846 , 4130.25641026 , 4141.53846154 , 4134.87179487 , 4135.8974359 , 4131.79487179 , 4129.74358974 , 4135.38461538 , 4138.97435897 , 4137.94871795 , 4196.92307692 , 4916.41025641 , 4136.41025641 , 4143.58974359 , 2043.0 , 2038.0 , 339.464 , 0.0 , 0.0 , 0.0 , 0.0 , 

11.0 , 4139.48717949 , 4133.33333333 , 4141.53846154 , 4138.46153846 , 4136.41025641 , 4130.76923077 , 4132.82051282 , 4138.46153846 , 4137.43589744 , 4140.51282051 , 4191.79487179 , 4912.30769231 , 4138.97435897 , 4146.15384615 , 2049.0 , 2041.0 , 339.471 , 0.0 , 0.0 , 0.0 , 0.0 , 

12.0 , 4138.97435897 , 4132.82051282 , 4140.51282051 , 4138.97435897 , 4135.8974359 , 4131.28205128 , 4131.79487179 , 4140.0 , 4136.41025641 , 4142.05128205 , 4191.79487179 , 4908.71794872 , 4138.46153846 , 4140.51282051 , 2050.0 , 2041.0 , 339.478 , 0.0 , 0.0 , 0.0 , 0.0 , 

13.0 , 4138.46153846 , 4130.76923077 , 4135.8974359 , 4137.43589744 , 4135.38461538 , 4133.84615385 , 4130.25641026 , 4136.92307692 , 4136.92307692 , 4139.48717949 , 4193.84615385 , 4912.30769231 , 4137.94871795 , 4138.46153846 , 2052.0 , 2041.0 , 339.496 , 0.0 , 0.0 , 0.0 , 0.0 , 

13.0 , 4138.46153846 , 4130.76923077 , 4135.8974359 , 4137.43589744 , 4135.38461538 , 4133.84615385 , 4130.25641026 , 4136.92307692 , 4136.92307692 , 4139.48717949 , 4193.84615385 , 4912.30769231 , 4137.94871795 , 4138.46153846 , 2052.0 , 2041.0 , 339.506 , 0.0 , 0.0 , 0.0 , 0.0 , 

14.0 , 4138.46153846 , 4131.28205128 , 4132.30769231 , 4137.94871795 , 4134.35897436 , 4133.33333333 , 4129.23076923 , 4137.43589744 , 4137.94871795 , 4137.94871795 , 4194.35897436 , 4913.84615385 , 4137.94871795 , 4141.53846154 , 2054.0 , 2040.0 , 339.512 , 0.0 , 0.0 , 0.0 , 0.0 , 

15.0 , 4137.43589744 , 4133.33333333 , 4134.35897436 , 4136.92307692 , 4133.84615385 , 4131.79487179 , 4128.71794872 , 4139.48717949 , 4136.92307692 , 4138.97435897 , 4195.38461538 , 4911.79487179 , 4136.92307692 , 4138.97435897 , 2054.0 , 2041.0 , 339.529 , 0.0 , 0.0 , 0.0 , 0.0 , 

16.0 , 4134.35897436 , 4132.30769231 , 4132.82051282 , 4134.35897436 , 4134.87179487 , 4133.33333333 , 4127.69230769 , 4137.43589744 , 4135.8974359 , 4137.94871795 , 4194.35897436 , 4912.30769231 , 4136.41025641 , 4136.92307692 , 2053.0 , 2041.0 , 339.543 , 0.0 , 0.0 , 0.0 , 0.0 , 

17.0 , 4132.30769231 , 4130.25641026 , 4130.25641026 , 4134.87179487 , 4135.38461538 , 4132.82051282 , 4127.69230769 , 4135.38461538 , 4135.8974359 , 4136.41025641 , 4189.74358974 , 4913.84615385 , 4137.43589744 , 4142.05128205 , 2054.0 , 2042.0 , 339.543 , 0.0 , 0.0 , 0.0 , 0.0 , 

18.0 , 4131.79487179 , 4130.25641026 , 4132.30769231 , 4136.92307692 , 4134.87179487 , 4128.71794872 , 4130.25641026 , 4136.92307692 , 4135.8974359 , 4137.94871795 , 4189.74358974 , 4911.79487179 , 4137.94871795 , 4142.05128205 , 2051.0 , 2045.0 , 339.547 , 0.0 , 0.0 , 0.0 , 0.0 , 

19.0 , 4132.30769231 , 4132.82051282 , 4134.35897436 , 4136.92307692 , 4134.35897436 , 4132.82051282 , 4132.30769231 , 4136.41025641 , 4135.8974359 , 4138.97435897 , 4194.87179487 , 4910.76923077 , 4136.92307692 , 4138.97435897 , 2049.0 , 2045.0 , 339.558 , 0.0 , 0.0 , 0.0 , 0.0 , 

20.0 , 4130.76923077 , 4132.82051282 , 4132.82051282 , 4136.92307692 , 4134.35897436 , 4136.41025641 , 4131.79487179 , 4137.94871795 , 4136.41025641 , 4137.94871795 , 4192.30769231 , 4910.76923077 , 4134.35897436 , 4138.46153846 , 2047.0 , 2045.0 , 339.569 , 0.0 , 0.0 , 0.0 , 0.0 , 

21.0 , 4128.71794872 , 4129.74358974 , 4130.25641026 , 4137.94871795 , 4134.87179487 , 4130.76923077 , 4130.25641026 , 4138.97435897 , 4134.87179487 , 4137.43589744 , 4186.66666667 , 4911.28205128 , 4133.84615385 , 4137.94871795 , 2047.0 , 2046.0 , 339.575 , 0.0 , 0.0 , 0.0 , 0.0 , 

22.0 , 4130.76923077 , 4131.28205128 , 4132.30769231 , 4137.94871795 , 4134.35897436 , 4128.20512821 , 4129.74358974 , 4131.79487179 , 4135.38461538 , 4137.43589744 , 4186.66666667 , 4910.76923077 , 4135.38461538 , 4136.92307692 , 2047.0 , 2045.0 , 339.585 , 0.0 , 0.0 , 0.0 , 0.0 , 

23.0 , 4133.33333333 , 4134.35897436 , 4134.87179487 , 4135.38461538 , 4134.35897436 , 4131.79487179 , 4130.25641026 , 4127.69230769 , 4137.43589744 , 4136.92307692 , 4187.69230769 , 4912.30769231 , 4135.8974359 , 4137.43589744 , 2045.0 , 2041.0 , 339.589 , 0.0 , 0.0 , 0.0 , 0.0 , 

24.0 , 4130.76923077 , 4132.82051282 , 4133.84615385 , 4133.33333333 , 4135.38461538 , 4132.30769231 , 4130.25641026 , 4134.87179487 , 4135.38461538 , 4136.92307692 , 4186.66666667 , 4915.8974359 , 4135.38461538 , 4138.46153846 , 2045.0 , 2040.0 , 339.601 , 0.0 , 0.0 , 0.0 , 0.0 , 

25.0 , 4127.69230769 , 4130.76923077 , 4134.35897436 , 4136.41025641 , 4136.41025641 , 4130.25641026 , 4129.23076923 , 4138.97435897 , 4134.35897436 , 4137.94871795 , 4188.71794872 , 4913.84615385 , 4136.41025641 , 4137.43589744 , 2042.0 , 2034.0 , 339.605 , 0.0 , 0.0 , 0.0 , 0.0 , 

26.0 , 4130.76923077 , 4131.28205128 , 4135.38461538 , 4136.41025641 , 4134.87179487 , 4130.76923077 , 4130.25641026 , 4133.84615385 , 4137.43589744 , 4139.48717949 , 4191.28205128 , 4911.79487179 , 4137.43589744 , 4138.46153846 , 2040.0 , 2032.0 , 339.61 , 0.0 , 0.0 , 0.0 , 0.0 , 

27.0 , 4132.30769231 , 4131.28205128 , 4133.33333333 , 4132.30769231 , 4132.82051282 , 4132.82051282 , 4130.25641026 , 4132.82051282 , 4138.46153846 , 4138.97435897 , 4191.79487179 , 4915.38461538 , 4136.92307692 , 4141.53846154 , 2039.0 , 2028.0 , 339.619 , 0.0 , 0.0 , 0.0 , 0.0 , 

28.0 , 4133.84615385 , 4130.25641026 , 4133.84615385 , 4136.41025641 , 4132.82051282 , 4132.30769231 , 4129.74358974 , 4137.43589744 , 4136.92307692 , 4137.94871795 , 4192.30769231 , 4915.8974359 , 4136.41025641 , 4142.56410256 , 2035.0 , 2020.0 , 339.633 , 0.0 , 0.0 , 0.0 , 0.0 , 

29.0 , 4134.35897436 , 4131.28205128 , 4133.84615385 , 4138.97435897 , 4132.82051282 , 4129.74358974 , 4131.28205128 , 4138.46153846 , 4137.43589744 , 4139.48717949 , 4192.82051282 , 4911.28205128 , 4138.46153846 , 4138.97435897 , 2033.0 , 2017.0 , 339.637 , 0.0 , 0.0 , 0.0 , 0.0 , 

30.0 , 4133.84615385 , 4133.84615385 , 4132.82051282 , 4131.28205128 , 4132.82051282 , 4135.38461538 , 4132.82051282 , 4134.87179487 , 4137.94871795 , 4140.0 , 4189.74358974 , 4909.23076923 , 4138.46153846 , 4137.43589744 , 2032.0 , 2016.0 , 339.642 , 0.0 , 0.0 , 0.0 , 0.0 , 

31.0 , 4133.84615385 , 4133.33333333 , 4134.35897436 , 4129.23076923 , 4132.30769231 , 4139.48717949 , 4130.25641026 , 4135.38461538 , 4137.94871795 , 4139.48717949 , 4189.74358974 , 4908.71794872 , 4136.41025641 , 4137.94871795 , 2032.0 , 2014.0 , 339.652 , 0.0 , 0.0 , 0.0 , 0.0 , 

32.0 , 4134.87179487 , 4131.28205128 , 4137.43589744 , 4136.41025641 , 4133.33333333 , 4131.28205128 , 4129.74358974 , 4135.38461538 , 4136.92307692 , 4140.0 , 4189.23076923 , 4908.20512821 , 4134.87179487 , 4136.92307692 , 2032.0 , 2019.0 , 339.663 , 0.0 , 0.0 , 0.0 , 0.0 , 

33.0 , 4134.35897436 , 4129.74358974 , 4136.41025641 , 4137.43589744 , 4135.8974359 , 4126.66666667 , 4130.76923077 , 4132.30769231 , 4134.87179487 , 4138.46153846 , 4187.17948718 , 4909.23076923 , 4134.35897436 , 4137.94871795 , 2033.0 , 2021.0 , 339.669 , 0.0 , 0.0 , 0.0 , 0.0 , 

34.0 , 4135.8974359 , 4131.28205128 , 4136.92307692 , 4135.8974359 , 4137.43589744 , 4130.76923077 , 4129.23076923 , 4133.33333333 , 4134.87179487 , 4135.8974359 , 4192.82051282 , 4908.20512821 , 4134.87179487 , 4141.02564103 , 2034.0 , 2028.0 , 339.673 , 0.0 , 0.0 , 0.0 , 0.0 , 

35.0 , 4140.51282051 , 4132.82051282 , 4137.43589744 , 4137.43589744 , 4137.43589744 , 4130.76923077 , 4129.23076923 , 4133.84615385 , 4136.41025641 , 4136.92307692 , 4197.94871795 , 4908.71794872 , 4136.41025641 , 4142.56410256 , 2036.0 , 2029.0 , 339.682 , 0.0 , 0.0 , 0.0 , 0.0 , 

36.0 , 4141.02564103 , 4132.30769231 , 4137.43589744 , 4135.8974359 , 4137.43589744 , 4126.66666667 , 4129.23076923 , 4133.84615385 , 4136.41025641 , 4137.94871795 , 4191.28205128 , 4911.79487179 , 4135.8974359 , 4141.02564103 , 2037.0 , 2029.0 , 339.695 , 0.0 , 0.0 , 0.0 , 0.0 , 

37.0 , 4139.48717949 , 4131.79487179 , 4137.94871795 , 4133.84615385 , 4137.43589744 , 4127.69230769 , 4127.17948718 , 4136.92307692 , 4135.8974359 , 4136.92307692 , 4186.15384615 , 4911.28205128 , 4135.8974359 , 4140.51282051 , 2040.0 , 2030.0 , 339.736 , 0.0 , 0.0 , 0.0 , 0.0 , 

38.0 , 4138.97435897 , 4131.79487179 , 4136.41025641 , 4136.92307692 , 4136.92307692 , 4129.74358974 , 4127.17948718 , 4136.92307692 , 4137.43589744 , 4135.8974359 , 4192.82051282 , 4909.74358974 , 4135.8974359 , 4141.53846154 , 2040.0 , 2029.0 , 339.739 , 0.0 , 0.0 , 0.0 , 0.0 , 

39.0 , 4136.41025641 , 4131.28205128 , 4134.35897436 , 4138.46153846 , 4137.43589744 , 4130.76923077 , 4130.76923077 , 4134.87179487 , 4138.46153846 , 4136.92307692 , 4194.35897436 , 4910.76923077 , 4134.87179487 , 4140.0 , 2044.0 , 2029.0 , 339.739 , 0.0 , 0.0 , 0.0 , 0.0 , 

40.0 , 4133.33333333 , 4131.28205128 , 4136.92307692 , 4137.43589744 , 4136.92307692 , 4128.71794872 , 4130.76923077 , 4137.43589744 , 4137.43589744 , 4137.94871795 , 4186.66666667 , 4913.33333333 , 4134.35897436 , 4138.46153846 , 2045.0 , 2031.0 , 339.739 , 0.0 , 0.0 , 0.0 , 0.0 , 

41.0 , 4135.38461538 , 4132.82051282 , 4137.94871795 , 4136.92307692 , 4134.87179487 , 4127.17948718 , 4130.76923077 , 4140.0 , 4136.41025641 , 4139.48717949 , 4188.71794872 , 4912.30769231 , 4137.94871795 , 4138.97435897 , 2048.0 , 2033.0 , 339.739 , 0.0 , 0.0 , 0.0 , 0.0 , 

42.0 , 4135.38461538 , 4131.28205128 , 4132.82051282 , 4135.8974359 , 4134.87179487 , 4129.74358974 , 4131.79487179 , 4138.46153846 , 4137.94871795 , 4141.02564103 , 4191.79487179 , 4910.25641026 , 4137.94871795 , 4137.94871795 , 2047.0 , 2034.0 , 339.739 , 0.0 , 0.0 , 0.0 , 0.0 , 

43.0 , 4131.28205128 , 4128.71794872 , 4131.79487179 , 4136.41025641 , 4135.38461538 , 4132.30769231 , 4130.76923077 , 4138.46153846 , 4139.48717949 , 4139.48717949 , 4189.23076923 , 4910.76923077 , 4135.38461538 , 4137.94871795 , 2050.0 , 2034.0 , 339.748 , 0.0 , 0.0 , 0.0 , 0.0 , 

44.0 , 4131.28205128 , 4130.25641026 , 4134.35897436 , 4137.94871795 , 4134.35897436 , 4130.76923077 , 4130.25641026 , 4137.43589744 , 4138.46153846 , 4137.43589744 , 4191.79487179 , 4911.79487179 , 4135.8974359 , 4140.0 , 2053.0 , 2036.0 , 339.755 , 0.0 , 0.0 , 0.0 , 0.0 , 

45.0 , 4135.38461538 , 4132.82051282 , 4135.8974359 , 4137.94871795 , 4134.35897436 , 4128.20512821 , 4130.25641026 , 4136.92307692 , 4136.41025641 , 4138.46153846 , 4194.87179487 , 4910.76923077 , 4137.94871795 , 4139.48717949 , 2053.0 , 2036.0 , 339.762 , 0.0 , 0.0 , 0.0 , 0.0 , 

46.0 , 4133.84615385 , 4131.28205128 , 4135.38461538 , 4135.8974359 , 4134.35897436 , 4130.25641026 , 4128.71794872 , 4137.43589744 , 4136.92307692 , 4138.97435897 , 4191.28205128 , 4910.25641026 , 4137.94871795 , 4138.46153846 , 2053.0 , 2039.0 , 339.771 , 0.0 , 0.0 , 0.0 , 0.0 , 

47.0 , 4132.30769231 , 4129.74358974 , 4134.87179487 , 4137.94871795 , 4134.87179487 , 4136.41025641 , 4128.20512821 , 4136.92307692 , 4138.97435897 , 4139.48717949 , 4191.79487179 , 4911.28205128 , 4137.43589744 , 4140.51282051 , 2053.0 , 2041.0 , 339.788 , 0.0 , 0.0 , 0.0 , 0.0 , 

48.0 , 4132.30769231 , 4131.28205128 , 4132.82051282 , 4139.48717949 , 4135.38461538 , 4136.41025641 , 4130.76923077 , 4135.8974359 , 4138.46153846 , 4140.51282051 , 4191.28205128 , 4909.74358974 , 4138.46153846 , 4138.97435897 , 2053.0 , 2042.0 , 339.79 , 0.0 , 0.0 , 0.0 , 0.0 , 

49.0 , 4130.76923077 , 4135.38461538 , 4131.79487179 , 4137.43589744 , 4135.38461538 , 4129.74358974 , 4130.76923077 , 4135.8974359 , 4136.92307692 , 4140.51282051 , 4186.15384615 , 4908.20512821 , 4138.46153846 , 4136.41025641 , 2052.0 , 2043.0 , 339.793 , 0.0 , 0.0 , 0.0 , 0.0 , 

50.0 , 4130.76923077 , 4134.35897436 , 4131.79487179 , 4136.41025641 , 4135.38461538 , 4129.74358974 , 4128.71794872 , 4136.92307692 , 4136.92307692 , 4139.48717949 , 4186.15384615 , 4910.76923077 , 4137.43589744 , 4136.92307692 , 2051.0 , 2044.0 , 339.801 , 0.0 , 0.0 , 0.0 , 0.0 , 

51.0 , 4131.79487179 , 4130.25641026 , 4130.25641026 , 4138.97435897 , 4134.87179487 , 4131.79487179 , 4128.20512821 , 4136.41025641 , 4136.41025641 , 4138.46153846 , 4187.17948718 , 4914.87179487 , 4137.94871795 , 4139.48717949 , 2051.0 , 2042.0 , 339.815 , 0.0 , 0.0 , 0.0 , 0.0 , 

52.0 , 4128.71794872 , 4129.74358974 , 4131.79487179 , 4137.94871795 , 4135.38461538 , 4129.74358974 , 4129.23076923 , 4135.38461538 , 4135.8974359 , 4138.97435897 , 4186.66666667 , 4914.87179487 , 4137.94871795 , 4138.46153846 , 2050.0 , 2042.0 , 339.818 , 0.0 , 0.0 , 0.0 , 0.0 , 

53.0 , 4128.71794872 , 4133.33333333 , 4133.33333333 , 4134.87179487 , 4136.92307692 , 4132.82051282 , 4133.84615385 , 4136.92307692 , 4136.41025641 , 4141.02564103 , 4190.76923077 , 4911.28205128 , 4136.92307692 , 4137.43589744 , 2049.0 , 2039.0 , 339.824 , 0.0 , 0.0 , 0.0 , 0.0 , 

54.0 , 4131.28205128 , 4132.30769231 , 4131.28205128 , 4135.38461538 , 4137.43589744 , 4137.94871795 , 4136.41025641 , 4137.94871795 , 4136.41025641 , 4140.51282051 , 4195.8974359 , 4909.74358974 , 4136.41025641 , 4137.43589744 , 2049.0 , 2037.0 , 339.832 , 0.0 , 0.0 , 0.0 , 0.0 , 

55.0 , 4129.74358974 , 4129.74358974 , 4131.79487179 , 4132.30769231 , 4135.8974359 , 4131.79487179 , 4131.79487179 , 4136.92307692 , 4137.43589744 , 4137.94871795 , 4193.84615385 , 4910.25641026 , 4137.43589744 , 4137.43589744 , 2047.0 , 2032.0 , 339.845 , 0.0 , 0.0 , 0.0 , 0.0 , 

56.0 , 4129.74358974 , 4130.76923077 , 4133.33333333 , 4131.28205128 , 4134.87179487 , 4128.71794872 , 4130.25641026 , 4136.92307692 , 4138.97435897 , 4138.46153846 , 4191.79487179 , 4910.76923077 , 4138.46153846 , 4138.46153846 , 2045.0 , 2030.0 , 339.851 , 0.0 , 0.0 , 0.0 , 0.0 , 

57.0 , 4132.82051282 , 4131.79487179 , 4132.30769231 , 4133.84615385 , 4135.38461538 , 4132.30769231 , 4132.30769231 , 4138.46153846 , 4137.94871795 , 4137.94871795 , 4186.15384615 , 4911.79487179 , 4137.43589744 , 4138.46153846 , 2043.0 , 2027.0 , 339.855 , 0.0 , 0.0 , 0.0 , 0.0 , 

58.0 , 4132.30769231 , 4130.25641026 , 4133.33333333 , 4131.79487179 , 4135.8974359 , 4131.79487179 , 4131.79487179 , 4138.46153846 , 4139.48717949 , 4138.46153846 , 4184.61538462 , 4915.38461538 , 4134.87179487 , 4137.94871795 , 2039.0 , 2022.0 , 339.864 , 0.0 , 0.0 , 0.0 , 0.0 , 

59.0 , 4128.71794872 , 4130.25641026 , 4134.87179487 , 4131.79487179 , 4134.87179487 , 4129.74358974 , 4128.71794872 , 4137.43589744 , 4137.43589744 , 4140.0 , 4191.28205128 , 4916.41025641 , 4133.84615385 , 4138.97435897 , 2038.0 , 2020.0 , 339.877 , 0.0 , 0.0 , 0.0 , 0.0 , 

60.0 , 4130.25641026 , 4132.30769231 , 4131.28205128 , 4137.43589744 , 4135.38461538 , 4134.35897436 , 4127.69230769 , 4138.97435897 , 4130.76923077 , 4138.46153846 , 4192.82051282 , 4912.82051282 , 4135.8974359 , 4140.51282051 , 2033.0 , 2019.0 , 339.881 , 0.0 , 0.0 , 0.0 , 0.0 , 

61.0 , 4132.30769231 , 4132.30769231 , 4131.79487179 , 4137.94871795 , 4135.8974359 , 4134.35897436 , 4128.71794872 , 4137.94871795 , 4131.28205128 , 4136.41025641 , 4186.15384615 , 4909.23076923 , 4137.94871795 , 4140.51282051 , 2031.0 , 2020.0 , 339.887 , 0.0 , 0.0 , 0.0 , 0.0 , 

62.0 , 4133.84615385 , 4133.33333333 , 4137.94871795 , 4135.38461538 , 4135.8974359 , 4128.71794872 , 4129.74358974 , 4130.25641026 , 4136.92307692 , 4136.92307692 , 4185.12820513 , 4909.23076923 , 4135.8974359 , 4142.56410256 , 2030.0 , 2023.0 , 339.895 , 0.0 , 0.0 , 0.0 , 0.0 , 

63.0 , 4133.84615385 , 4133.84615385 , 4135.38461538 , 4137.94871795 , 4135.8974359 , 4128.71794872 , 4129.23076923 , 4130.25641026 , 4135.8974359 , 4138.46153846 , 4190.76923077 , 4909.74358974 , 4133.84615385 , 4139.48717949 , 2030.0 , 2025.0 , 339.907 , 0.0 , 0.0 , 0.0 , 0.0 , 

64.0 , 4134.35897436 , 4130.25641026 , 4132.30769231 , 4138.46153846 , 4135.8974359 , 4132.30769231 , 4128.20512821 , 4134.35897436 , 4133.33333333 , 4139.48717949 , 4190.76923077 , 4908.71794872 , 4135.38461538 , 4136.92307692 , 2029.0 , 2028.0 , 339.912 , 0.0 , 0.0 , 0.0 , 0.0 , 

65.0 , 4135.8974359 , 4130.25641026 , 4137.43589744 , 4135.8974359 , 4135.8974359 , 4131.28205128 , 4129.74358974 , 4131.28205128 , 4135.38461538 , 4142.05128205 , 4190.25641026 , 4909.74358974 , 4138.46153846 , 4144.1025641 , 2032.0 , 2031.0 , 339.919 , 0.0 , 0.0 , 0.0 , 0.0 , 

66.0 , 4136.41025641 , 4133.33333333 , 4140.51282051 , 4137.94871795 , 4136.41025641 , 4127.69230769 , 4130.25641026 , 4130.76923077 , 4135.38461538 , 4142.05128205 , 4191.28205128 , 4911.28205128 , 4138.97435897 , 4146.15384615 , 2031.0 , 2033.0 , 339.988 , 0.0 , 0.0 , 0.0 , 0.0 , 

67.0 , 4135.8974359 , 4131.28205128 , 4139.48717949 , 4136.92307692 , 4135.8974359 , 4128.20512821 , 4128.20512821 , 4137.43589744 , 4134.35897436 , 4137.94871795 , 4190.76923077 , 4910.25641026 , 4137.43589744 , 4142.56410256 , 2034.0 , 2034.0 , 339.999 , 0.0 , 0.0 , 0.0 , 0.0 , 

68.0 , 4141.02564103 , 4129.74358974 , 4138.46153846 , 4134.35897436 , 4134.87179487 , 4129.74358974 , 4128.20512821 , 4137.43589744 , 4137.43589744 , 4136.92307692 , 4191.28205128 , 4907.69230769 , 4137.94871795 , 4141.53846154 , 2037.0 , 2033.0 , 339.999 , 0.0 , 0.0 , 0.0 , 0.0 , 

69.0 , 4143.58974359 , 4131.79487179 , 4136.41025641 , 4134.35897436 , 4134.87179487 , 4125.64102564 , 4129.23076923 , 4136.41025641 , 4138.97435897 , 4142.56410256 , 4195.8974359 , 4909.74358974 , 4137.94871795 , 4145.12820513 , 2041.0 , 2032.0 , 339.999 , 0.0 , 0.0 , 0.0 , 0.0 , 

70.0 , 4137.94871795 , 4131.28205128 , 4137.94871795 , 4131.79487179 , 4135.8974359 , 4123.58974359 , 4131.28205128 , 4138.97435897 , 4137.43589744 , 4144.61538462 , 4194.87179487 , 4911.79487179 , 4137.43589744 , 4146.15384615 , 2044.0 , 2033.0 , 339.999 , 0.0 , 0.0 , 0.0 , 0.0 , 

71.0 , 4134.87179487 , 4130.25641026 , 4139.48717949 , 4131.28205128 , 4135.38461538 , 4127.17948718 , 4131.28205128 , 4136.41025641 , 4136.92307692 , 4140.0 , 4190.76923077 , 4910.25641026 , 4137.43589744 , 4144.61538462 , 2044.0 , 2035.0 , 339.999 , 0.0 , 0.0 , 0.0 , 0.0 , 

72.0 , 4136.92307692 , 4131.28205128 , 4134.87179487 , 4134.35897436 , 4134.87179487 , 4130.76923077 , 4128.20512821 , 4135.38461538 , 4138.97435897 , 4138.97435897 , 4193.84615385 , 4909.23076923 , 4138.46153846 , 4143.58974359 , 2047.0 , 2037.0 , 339.999 , 0.0 , 0.0 , 0.0 , 0.0 , 

73.0 , 4135.8974359 , 4130.25641026 , 4131.28205128 , 4137.43589744 , 4134.87179487 , 4130.76923077 , 4129.74358974 , 4137.94871795 , 4137.94871795 , 4145.12820513 , 4194.35897436 , 4911.79487179 , 4135.38461538 , 4141.02564103 , 2049.0 , 2039.0 , 339.999 , 0.0 , 0.0 , 0.0 , 0.0 , 

74.0 , 4132.30769231 , 4130.76923077 , 4133.33333333 , 4137.43589744 , 4135.38461538 , 4129.74358974 , 4132.82051282 , 4138.46153846 , 4137.43589744 , 4146.15384615 , 4189.74358974 , 4912.82051282 , 4132.82051282 , 4138.46153846 , 2050.0 , 2041.0 , 339.999 , 0.0 , 0.0 , 0.0 , 0.0 , 

75.0 , 4133.33333333 , 4131.79487179 , 4135.38461538 , 4137.94871795 , 4134.87179487 , 4130.76923077 , 4132.30769231 , 4139.48717949 , 4140.0 , 4140.51282051 , 4190.76923077 , 4910.25641026 , 4136.41025641 , 4137.94871795 , 2050.0 , 2040.0 , 340.01 , 0.0 , 0.0 , 0.0 , 0.0 , 

76.0 , 4136.41025641 , 4129.74358974 , 4135.38461538 , 4137.94871795 , 4134.87179487 , 4131.79487179 , 4129.23076923 , 4139.48717949 , 4140.51282051 , 4138.97435897 , 4193.33333333 , 4909.74358974 , 4137.43589744 , 4140.0 , 2051.0 , 2041.0 , 340.01 , 0.0 , 0.0 , 0.0 , 0.0 , 

77.0 , 4136.41025641 , 4129.74358974 , 4133.33333333 , 4136.92307692 , 4134.87179487 , 4130.76923077 , 4129.23076923 , 4137.43589744 , 4138.46153846 , 4141.02564103 , 4189.23076923 , 4909.74358974 , 4135.38461538 , 4140.0 , 2050.0 , 2041.0 , 340.017 , 0.0 , 0.0 , 0.0 , 0.0 , 

78.0 , 4132.82051282 , 4129.74358974 , 4132.82051282 , 4136.41025641 , 4134.87179487 , 4127.69230769 , 4131.28205128 , 4136.92307692 , 4138.97435897 , 4140.0 , 4188.71794872 , 4909.23076923 , 4136.92307692 , 4141.02564103 , 2051.0 , 2041.0 , 340.021 , 0.0 , 0.0 , 0.0 , 0.0 , 

79.0 , 4129.23076923 , 4130.25641026 , 4134.35897436 , 4134.87179487 , 4134.87179487 , 4131.28205128 , 4131.79487179 , 4138.97435897 , 4140.0 , 4139.48717949 , 4194.35897436 , 4908.71794872 , 4137.43589744 , 4142.05128205 , 2049.0 , 2041.0 , 340.033 , 0.0 , 0.0 , 0.0 , 0.0 , 

80.0 , 4129.23076923 , 4131.28205128 , 4133.33333333 , 4134.35897436 , 4134.87179487 , 4134.87179487 , 4129.23076923 , 4138.46153846 , 4138.46153846 , 4142.56410256 , 4195.38461538 , 4910.25641026 , 4134.35897436 , 4139.48717949 , 2049.0 , 2041.0 , 340.035 , 0.0 , 0.0 , 0.0 , 0.0 , 

81.0 , 4131.28205128 , 4132.30769231 , 4134.35897436 , 4134.87179487 , 4134.87179487 , 4130.25641026 , 4128.71794872 , 4136.92307692 , 4137.43589744 , 4143.07692308 , 4192.30769231 , 4913.33333333 , 4135.8974359 , 4139.48717949 , 2049.0 , 2042.0 , 340.049 , 0.0 , 0.0 , 0.0 , 0.0 , 

82.0 , 4129.23076923 , 4130.76923077 , 4136.92307692 , 4133.33333333 , 4134.87179487 , 4125.64102564 , 4128.20512821 , 4135.38461538 , 4138.97435897 , 4141.02564103 , 4192.82051282 , 4915.8974359 , 4138.97435897 , 4140.51282051 , 2049.0 , 2041.0 , 340.053 , 0.0 , 0.0 , 0.0 , 0.0 , 

83.0 , 4128.71794872 , 4131.79487179 , 4133.84615385 , 4134.87179487 , 4134.87179487 , 4129.74358974 , 4127.69230769 , 4136.41025641 , 4138.97435897 , 4142.05128205 , 4192.82051282 , 4913.84615385 , 4135.38461538 , 4139.48717949 , 2049.0 , 2038.0 , 340.064 , 0.0 , 0.0 , 0.0 , 0.0 , 

84.0 , 4130.76923077 , 4132.82051282 , 4130.76923077 , 4135.38461538 , 4134.87179487 , 4132.30769231 , 4128.71794872 , 4138.97435897 , 4137.94871795 , 4143.07692308 , 4190.76923077 , 4910.76923077 , 4132.82051282 , 4137.43589744 , 2049.0 , 2036.0 , 340.07 , 0.0 , 0.0 , 0.0 , 0.0 , 

85.0 , 4130.76923077 , 4131.28205128 , 4134.35897436 , 4132.82051282 , 4134.87179487 , 4130.25641026 , 4130.25641026 , 4138.46153846 , 4138.46153846 , 4139.48717949 , 4190.25641026 , 4913.33333333 , 4135.8974359 , 4138.46153846 , 2049.0 , 2033.0 , 340.076 , 0.0 , 0.0 , 0.0 , 0.0 , 

86.0 , 4129.23076923 , 4129.74358974 , 4134.87179487 , 4131.79487179 , 4134.87179487 , 4129.23076923 , 4129.74358974 , 4135.38461538 , 4137.94871795 , 4137.43589744 , 4192.82051282 , 4915.38461538 , 4138.97435897 , 4141.02564103 , 2048.0 , 2030.0 , 340.084 , 0.0 , 0.0 , 0.0 , 0.0 , 

87.0 , 4131.28205128 , 4128.71794872 , 4133.33333333 , 4131.79487179 , 4134.87179487 , 4128.71794872 , 4129.23076923 , 4135.38461538 , 4137.43589744 , 4140.51282051 , 4192.30769231 , 4914.87179487 , 4138.46153846 , 4141.53846154 , 2047.0 , 2029.0 , 340.095 , 0.0 , 0.0 , 0.0 , 0.0 , 

88.0 , 4129.74358974 , 4129.23076923 , 4133.33333333 , 4132.30769231 , 4134.87179487 , 4129.23076923 , 4129.74358974 , 4137.94871795 , 4138.46153846 , 4140.51282051 , 4190.76923077 , 4914.35897436 , 4136.92307692 , 4141.02564103 , 2045.0 , 2024.0 , 340.105 , 0.0 , 0.0 , 0.0 , 0.0 , 

89.0 , 4128.71794872 , 4130.76923077 , 4133.84615385 , 4136.92307692 , 4134.87179487 , 4130.76923077 , 4132.30769231 , 4137.43589744 , 4138.97435897 , 4138.46153846 , 4192.82051282 , 4911.28205128 , 4137.94871795 , 4141.53846154 , 2043.0 , 2022.0 , 340.108 , 0.0 , 0.0 , 0.0 , 0.0 , 

90.0 , 4131.79487179 , 4131.79487179 , 4132.82051282 , 4139.48717949 , 4134.87179487 , 4130.25641026 , 4132.30769231 , 4138.46153846 , 4138.97435897 , 4138.97435897 , 4193.84615385 , 4908.71794872 , 4137.43589744 , 4141.02564103 , 2042.0 , 2018.0 , 340.117 , 0.0 , 0.0 , 0.0 , 0.0 , 

91.0 , 4131.79487179 , 4130.25641026 , 4133.33333333 , 4135.38461538 , 4135.38461538 , 4131.79487179 , 4127.69230769 , 4137.94871795 , 4138.46153846 , 4140.0 , 4192.30769231 , 4910.76923077 , 4137.94871795 , 4140.0 , 2040.0 , 2017.0 , 340.127 , 0.0 , 0.0 , 0.0 , 0.0 , 

92.0 , 4131.79487179 , 4128.20512821 , 4135.8974359 , 4132.82051282 , 4135.8974359 , 4132.30769231 , 4127.17948718 , 4136.92307692 , 4137.94871795 , 4139.48717949 , 4191.79487179 , 4911.79487179 , 4138.97435897 , 4140.0 , 2038.0 , 2019.0 , 340.13 , 0.0 , 0.0 , 0.0 , 0.0 , 

93.0 , 4133.33333333 , 4130.25641026 , 4136.92307692 , 4136.92307692 , 4136.41025641 , 4127.17948718 , 4129.74358974 , 4135.38461538 , 4137.43589744 , 4138.97435897 , 4187.69230769 , 4911.79487179 , 4135.38461538 , 4139.48717949 , 2036.0 , 2024.0 , 340.138 , 0.0 , 0.0 , 0.0 , 0.0 , 

94.0 , 4134.87179487 , 4134.87179487 , 4135.38461538 , 4136.92307692 , 4135.8974359 , 4126.15384615 , 4129.23076923 , 4131.79487179 , 4137.43589744 , 4138.97435897 , 4186.15384615 , 4912.30769231 , 4135.38461538 , 4140.0 , 2036.0 , 2027.0 , 340.147 , 0.0 , 0.0 , 0.0 , 0.0 , 

95.0 , 4134.35897436 , 4133.84615385 , 4134.35897436 , 4135.8974359 , 4135.8974359 , 4131.28205128 , 4127.69230769 , 4129.74358974 , 4137.43589744 , 4136.92307692 , 4190.25641026 , 4910.76923077 , 4137.43589744 , 4143.07692308 , 2037.0 , 2035.0 , 340.159 , 0.0 , 0.0 , 0.0 , 0.0 , 

96.0 , 4136.92307692 , 4131.28205128 , 4135.38461538 , 4137.43589744 , 4136.41025641 , 4130.76923077 , 4130.76923077 , 4129.74358974 , 4135.38461538 , 4135.8974359 , 4192.82051282 , 4908.20512821 , 4133.84615385 , 4142.05128205 , 2037.0 , 2039.0 , 340.161 , 0.0 , 0.0 , 0.0 , 0.0 , 

97.0 , 4137.94871795 , 4132.30769231 , 4136.92307692 , 4136.92307692 , 4135.8974359 , 4125.64102564 , 4131.28205128 , 4131.79487179 , 4133.84615385 , 4137.43589744 , 4190.76923077 , 4908.71794872 , 4131.79487179 , 4136.92307692 , 2037.0 , 2041.0 , 340.171 , 0.0 , 0.0 , 0.0 , 0.0 , 

98.0 , 4137.43589744 , 4134.87179487 , 4136.41025641 , 4134.35897436 , 4134.35897436 , 4126.66666667 , 4128.20512821 , 4134.35897436 , 4136.92307692 , 4139.48717949 , 4190.76923077 , 4910.25641026 , 4135.8974359 , 4137.94871795 , 2039.0 , 2042.0 , 340.179 , 0.0 , 0.0 , 0.0 , 0.0 , 

99.0 , 4136.41025641 , 4134.35897436 , 4136.41025641 , 4133.84615385 , 4134.35897436 , 4131.28205128 , 4126.15384615 , 4133.84615385 , 4138.97435897 , 4139.48717949 , 4187.69230769 , 4911.79487179 , 4136.92307692 , 4141.53846154 , 2044.0 , 2039.0 , 340.191 , 0.0 , 0.0 , 0.0 , 0.0 , 

100.0 , 4136.92307692 , 4132.82051282 , 4138.46153846 , 4138.97435897 , 4135.38461538 , 4131.79487179 , 4127.69230769 , 4133.84615385 , 4137.94871795 , 4140.51282051 , 4186.66666667 , 4910.25641026 , 4135.38461538 , 4141.02564103 , 2046.0 , 2038.0 , 340.193 , 0.0 , 0.0 , 0.0 , 0.0 , 

101.0 , 4134.87179487 , 4129.74358974 , 4136.41025641 , 4136.41025641 , 4135.38461538 , 4129.23076923 , 4128.20512821 , 4136.92307692 , 4140.51282051 , 4140.51282051 , 4188.20512821 , 4908.71794872 , 4136.41025641 , 4139.48717949 , 2048.0 , 2038.0 , 340.203 , 0.0 , 0.0 , 0.0 , 0.0 , 

102.0 , 4132.82051282 , 4129.23076923 , 4133.84615385 , 4128.71794872 , 4134.87179487 , 4129.74358974 , 4129.74358974 , 4138.97435897 , 4141.53846154 , 4138.97435897 , 4186.15384615 , 4911.79487179 , 4136.41025641 , 4140.51282051 , 2049.0 , 2037.0 , 340.209 , 0.0 , 0.0 , 0.0 , 0.0 , 

103.0 , 4135.38461538 , 4129.74358974 , 4134.87179487 , 4129.23076923 , 4135.8974359 , 4131.79487179 , 4129.74358974 , 4138.46153846 , 4137.43589744 , 4137.94871795 , 4187.69230769 , 4914.35897436 , 4136.92307692 , 4142.56410256 , 2051.0 , 2037.0 , 340.221 , 0.0 , 0.0 , 0.0 , 0.0 , 

104.0 , 4134.87179487 , 4128.71794872 , 4134.87179487 , 4132.82051282 , 4136.41025641 , 4132.82051282 , 4128.71794872 , 4138.97435897 , 4137.43589744 , 4138.46153846 , 4191.28205128 , 4913.33333333 , 4137.43589744 , 4140.51282051 , 2050.0 , 2038.0 , 340.23 , 0.0 , 0.0 , 0.0 , 0.0 , 

105.0 , 4129.23076923 , 4128.20512821 , 4133.84615385 , 4132.30769231 , 4135.8974359 , 4132.82051282 , 4128.20512821 , 4137.43589744 , 4141.02564103 , 4139.48717949 , 4191.28205128 , 4912.82051282 , 4133.84615385 , 4137.94871795 , 2049.0 , 2039.0 , 340.234 , 0.0 , 0.0 , 0.0 , 0.0 , 

106.0 , 4129.74358974 , 4132.82051282 , 4135.38461538 , 4132.82051282 , 4136.41025641 , 4134.35897436 , 4130.25641026 , 4137.43589744 , 4137.43589744 , 4139.48717949 , 4188.20512821 , 4911.79487179 , 4134.87179487 , 4138.46153846 , 2048.0 , 2037.0 , 340.241 , 0.0 , 0.0 , 0.0 , 0.0 , 

107.0 , 4131.28205128 , 4134.35897436 , 4133.33333333 , 4135.38461538 , 4136.41025641 , 4135.38461538 , 4132.82051282 , 4138.97435897 , 4133.33333333 , 4139.48717949 , 4189.23076923 , 4909.74358974 , 4138.46153846 , 4137.94871795 , 2047.0 , 2038.0 , 340.252 , 0.0 , 0.0 , 0.0 , 0.0 , 

108.0 , 4128.71794872 , 4131.28205128 , 4130.76923077 , 4132.30769231 , 4134.87179487 , 4133.33333333 , 4132.82051282 , 4137.43589744 , 4138.46153846 , 4139.48717949 , 4193.33333333 , 4909.23076923 , 4136.92307692 , 4137.43589744 , 2047.0 , 2035.0 , 340.262 , 0.0 , 0.0 , 0.0 , 0.0 , 

109.0 , 4127.69230769 , 4129.23076923 , 4130.76923077 , 4133.84615385 , 4133.84615385 , 4131.28205128 , 4130.25641026 , 4137.94871795 , 4140.0 , 4139.48717949 , 4195.8974359 , 4910.25641026 , 4134.87179487 , 4138.97435897 , 2046.0 , 2035.0 , 340.265 , 0.0 , 0.0 , 0.0 , 0.0 , 

110.0 , 4130.76923077 , 4130.25641026 , 4129.23076923 , 4133.33333333 , 4134.35897436 , 4130.25641026 , 4131.79487179 , 4138.97435897 , 4134.87179487 , 4138.97435897 , 4191.79487179 , 4910.25641026 , 4135.8974359 , 4138.46153846 , 2045.0 , 2035.0 , 340.273 , 0.0 , 0.0 , 0.0 , 0.0 , 

111.0 , 4131.28205128 , 4129.23076923 , 4130.25641026 , 4130.76923077 , 4134.87179487 , 4128.20512821 , 4135.38461538 , 4137.94871795 , 4135.38461538 , 4137.43589744 , 4187.17948718 , 4909.74358974 , 4136.92307692 , 4138.46153846 , 2042.0 , 2035.0 , 340.284 , 0.0 , 0.0 , 0.0 , 0.0 , 

112.0 , 4129.23076923 , 4128.20512821 , 4134.35897436 , 4133.33333333 , 4134.87179487 , 4130.76923077 , 4131.28205128 , 4136.92307692 , 4140.0 , 4136.92307692 , 4193.33333333 , 4911.28205128 , 4136.41025641 , 4143.07692308 , 2043.0 , 2034.0 , 340.294 , 0.0 , 0.0 , 0.0 , 0.0 , 

113.0 , 4129.74358974 , 4128.20512821 , 4134.35897436 , 4133.84615385 , 4135.38461538 , 4135.8974359 , 4128.71794872 , 4139.48717949 , 4139.48717949 , 4137.94871795 , 4196.92307692 , 4911.79487179 , 4137.94871795 , 4142.05128205 , 2043.0 , 2035.0 , 340.297 , 0.0 , 0.0 , 0.0 , 0.0 , 

114.0 , 4130.76923077 , 4127.69230769 , 4132.82051282 , 4133.33333333 , 4135.38461538 , 4132.30769231 , 4131.28205128 , 4140.0 , 4136.92307692 , 4138.46153846 , 4193.33333333 , 4911.79487179 , 4139.48717949 , 4136.92307692 , 2044.0 , 2035.0 , 340.306 , 0.0 , 0.0 , 0.0 , 0.0 , 

115.0 , 4132.82051282 , 4129.74358974 , 4134.35897436 , 4137.43589744 , 4133.84615385 , 4128.71794872 , 4129.74358974 , 4133.33333333 , 4138.46153846 , 4138.46153846 , 4192.82051282 , 4915.8974359 , 4137.94871795 , 4139.48717949 , 2047.0 , 2036.0 , 340.318 , 0.0 , 0.0 , 0.0 , 0.0 , 

116.0 , 4132.30769231 , 4131.28205128 , 4133.33333333 , 4138.46153846 , 4132.82051282 , 4129.23076923 , 4127.69230769 , 4128.71794872 , 4137.94871795 , 4141.02564103 , 4194.35897436 , 4916.92307692 , 4136.92307692 , 4140.51282051 , 2047.0 , 2037.0 , 340.32 , 0.0 , 0.0 , 0.0 , 0.0 , 

117.0 , 4133.33333333 , 4132.30769231 , 4132.82051282 , 4134.87179487 , 4132.82051282 , 4131.28205128 , 4128.20512821 , 4135.8974359 , 4136.41025641 , 4141.53846154 , 4192.30769231 , 4909.74358974 , 4137.94871795 , 4138.97435897 , 2048.0 , 2039.0 , 340.329 , 0.0 , 0.0 , 0.0 , 0.0 , 

118.0 , 4132.30769231 , 4132.30769231 , 4135.8974359 , 4135.38461538 , 4132.82051282 , 4131.79487179 , 4127.17948718 , 4140.51282051 , 4137.94871795 , 4138.97435897 , 4190.76923077 , 4906.66666667 , 4137.43589744 , 4141.02564103 , 2049.0 , 2039.0 , 340.336 , 0.0 , 0.0 , 0.0 , 0.0 , 

119.0 , 4131.28205128 , 4130.25641026 , 4136.92307692 , 4138.46153846 , 4132.82051282 , 4130.76923077 , 4126.66666667 , 4132.30769231 , 4137.43589744 , 4138.97435897 , 4192.30769231 , 4910.25641026 , 4135.38461538 , 4140.0 , 2049.0 , 2039.0 , 340.347 , 0.0 , 0.0 , 0.0 , 0.0 , 

120.0 , 4131.28205128 , 4127.17948718 , 4132.82051282 , 4137.94871795 , 4132.82051282 , 4128.71794872 , 4130.76923077 , 4127.17948718 , 4135.8974359 , 4138.46153846 , 4187.69230769 , 4912.30769231 , 4136.41025641 , 4136.92307692 , 2050.0 , 2032.0 , 340.358 , 0.0 , 0.0 , 0.0 , 0.0 , 

121.0 , 4133.33333333 , 4129.23076923 , 4132.30769231 , 4137.94871795 , 4132.82051282 , 4129.74358974 , 4131.79487179 , 4134.35897436 , 4137.94871795 , 4136.41025641 , 4183.07692308 , 4910.76923077 , 4137.94871795 , 4138.46153846 , 2049.0 , 2029.0 , 340.361 , 0.0 , 0.0 , 0.0 , 0.0 , 

122.0 , 4133.33333333 , 4131.79487179 , 4133.84615385 , 4136.41025641 , 4132.82051282 , 4129.74358974 , 4128.20512821 , 4141.02564103 , 4136.92307692 , 4136.41025641 , 4188.20512821 , 4914.35897436 , 4136.92307692 , 4138.97435897 , 2047.0 , 2022.0 , 340.368 , 0.0 , 0.0 , 0.0 , 0.0 , 

123.0 , 4131.79487179 , 4130.76923077 , 4134.87179487 , 4133.33333333 , 4132.82051282 , 4132.30769231 , 4127.17948718 , 4137.43589744 , 4134.87179487 , 4136.41025641 , 4192.30769231 , 4920.0 , 4136.41025641 , 4138.46153846 , 2044.0 , 2017.0 , 340.381 , 0.0 , 0.0 , 0.0 , 0.0 , 

124.0 , 4132.30769231 , 4130.76923077 , 4134.87179487 , 4133.33333333 , 4132.82051282 , 4132.30769231 , 4129.23076923 , 4132.30769231 , 4138.97435897 , 4138.46153846 , 4192.30769231 , 4918.97435897 , 4137.43589744 , 4140.0 , 2042.0 , 2015.0 , 340.383 , 0.0 , 0.0 , 0.0 , 0.0 , 

125.0 , 4132.82051282 , 4132.30769231 , 4135.38461538 , 4132.30769231 , 4133.33333333 , 4128.20512821 , 4129.74358974 , 4133.33333333 , 4135.8974359 , 4140.51282051 , 4190.25641026 , 4912.82051282 , 4136.92307692 , 4141.02564103 , 2038.0 , 2014.0 , 340.392 , 0.0 , 0.0 , 0.0 , 0.0 , 

126.0 , 4133.33333333 , 4130.25641026 , 4137.94871795 , 4132.30769231 , 4135.8974359 , 4128.71794872 , 4129.23076923 , 4136.41025641 , 4128.20512821 , 4138.97435897 , 4189.74358974 , 4910.25641026 , 4136.41025641 , 4140.0 , 2033.0 , 2012.0 , 340.399 , 0.0 , 0.0 , 0.0 , 0.0 , 

127.0 , 4135.38461538 , 4129.74358974 , 4140.0 , 4133.84615385 , 4137.43589744 , 4132.82051282 , 4127.17948718 , 4133.84615385 , 4127.17948718 , 4136.92307692 , 4190.76923077 , 4912.82051282 , 4134.87179487 , 4139.48717949 , 2030.0 , 2017.0 , 340.412 , 0.0 , 0.0 , 0.0 , 0.0 , 

128.0 , 4136.92307692 , 4133.84615385 , 4137.43589744 , 4134.87179487 , 4137.43589744 , 4130.25641026 , 4126.15384615 , 4127.69230769 , 4131.79487179 , 4138.97435897 , 4190.76923077 , 4913.33333333 , 4133.84615385 , 4143.07692308 , 2028.0 , 2018.0 , 340.414 , 0.0 , 0.0 , 0.0 , 0.0 , 

0.0 , 4134.35897436 , 4134.35897436 , 4135.8974359 , 4134.87179487 , 4136.92307692 , 4127.17948718 , 4127.17948718 , 4121.53846154 , 4130.25641026 , 4140.0 , 4189.23076923 , 4911.79487179 , 4132.30769231 , 4144.61538462 , 2026.0 , 2025.0 , 340.423 , 0.0 , 0.0 , 0.0 , 0.0 , 

1.0 , 4133.33333333 , 4131.79487179 , 4136.92307692 , 4135.8974359 , 4136.92307692 , 4130.76923077 , 4128.71794872 , 4124.1025641 , 4128.71794872 , 4139.48717949 , 4188.20512821 , 4908.20512821 , 4134.87179487 , 4141.53846154 , 2026.0 , 2028.0 , 340.435 , 0.0 , 0.0 , 0.0 , 0.0 , 

2.0 , 4135.8974359 , 4132.30769231 , 4138.46153846 , 4135.8974359 , 4137.43589744 , 4130.25641026 , 4128.20512821 , 4130.25641026 , 4132.82051282 , 4138.97435897 , 4188.20512821 , 4907.69230769 , 4135.8974359 , 4140.0 , 2028.0 , 2030.0 , 340.442 , 0.0 , 0.0 , 0.0 , 0.0 , 

3.0 , 4138.46153846 , 4135.38461538 , 4140.51282051 , 4135.38461538 , 4136.92307692 , 4128.71794872 , 4129.23076923 , 4129.74358974 , 4133.84615385 , 4138.46153846 , 4187.17948718 , 4910.25641026 , 4131.79487179 , 4141.53846154 , 2029.0 , 2032.0 , 340.451 , 0.0 , 0.0 , 0.0 , 0.0 , 

4.0 , 4140.0 , 4133.84615385 , 4142.05128205 , 4137.43589744 , 4135.38461538 , 4131.79487179 , 4130.25641026 , 4130.25641026 , 4132.30769231 , 4138.97435897 , 4187.17948718 , 4910.76923077 , 4132.30769231 , 4138.46153846 , 2031.0 , 2035.0 , 340.456 , 0.0 , 0.0 , 0.0 , 0.0 , 

5.0 , 4142.56410256 , 4130.25641026 , 4143.07692308 , 4137.94871795 , 4134.87179487 , 4131.79487179 , 4126.66666667 , 4132.30769231 , 4132.30769231 , 4140.0 , 4189.23076923 , 4910.25641026 , 4137.43589744 , 4139.48717949 , 2035.0 , 2039.0 , 340.463 , 0.0 , 0.0 , 0.0 , 0.0 , 

6.0 , 4142.05128205 , 4129.23076923 , 4143.58974359 , 4136.92307692 , 4135.38461538 , 4127.69230769 , 4122.56410256 , 4132.30769231 , 4136.92307692 , 4138.97435897 , 4186.15384615 , 4910.25641026 , 4139.48717949 , 4144.61538462 , 2038.0 , 2041.0 , 340.474 , 0.0 , 0.0 , 0.0 , 0.0 , 

7.0 , 4138.97435897 , 4132.82051282 , 4138.97435897 , 4136.92307692 , 4133.84615385 , 4127.69230769 , 4124.61538462 , 4135.38461538 , 4139.48717949 , 4138.46153846 , 4184.1025641 , 4910.76923077 , 4137.94871795 , 4144.1025641 , 2046.0 , 2041.0 , 340.482 , 0.0 , 0.0 , 0.0 , 0.0 , 

8.0 , 4137.43589744 , 4132.82051282 , 4134.35897436 , 4135.8974359 , 4132.30769231 , 4129.23076923 , 4127.17948718 , 4138.46153846 , 4137.94871795 , 4137.94871795 , 4190.25641026 , 4910.25641026 , 4138.46153846 , 4143.58974359 , 2047.0 , 2041.0 , 340.488 , 0.0 , 0.0 , 0.0 , 0.0 , 

9.0 , 4135.8974359 , 4130.76923077 , 4138.97435897 , 4134.87179487 , 4134.35897436 , 4127.17948718 , 4126.15384615 , 4135.8974359 , 4136.92307692 , 4137.43589744 , 4193.33333333 , 4911.79487179 , 4138.46153846 , 4144.1025641 , 2051.0 , 2041.0 , 340.494 , 0.0 , 0.0 , 0.0 , 0.0 , 

10.0 , 4134.35897436 , 4130.25641026 , 4136.92307692 , 4134.35897436 , 4135.38461538 , 4127.17948718 , 4124.61538462 , 4134.87179487 , 4138.46153846 , 4137.43589744 , 4191.28205128 , 4914.87179487 , 4137.94871795 , 4141.53846154 , 2057.0 , 2041.0 , 340.506 , 0.0 , 0.0 , 0.0 , 0.0 , 

11.0 , 4134.35897436 , 4132.30769231 , 4130.25641026 , 4136.41025641 , 4134.87179487 , 4128.71794872 , 4128.20512821 , 4139.48717949 , 4141.02564103 , 4140.0 , 4190.76923077 , 4914.35897436 , 4138.46153846 , 4140.51282051 , 2058.0 , 2040.0 , 340.509 , 0.0 , 0.0 , 0.0 , 0.0 , 

12.0 , 4132.30769231 , 4132.82051282 , 4131.28205128 , 4137.94871795 , 4134.87179487 , 4129.74358974 , 4131.28205128 , 4138.46153846 , 4139.48717949 , 4143.07692308 , 4191.28205128 , 4911.28205128 , 4137.94871795 , 4140.0 , 2062.0 , 2041.0 , 340.539 , 0.0 , 0.0 , 0.0 , 0.0 , 

13.0 , 4131.79487179 , 4131.79487179 , 4134.87179487 , 4137.94871795 , 4135.38461538 , 4135.8974359 , 4131.79487179 , 4136.41025641 , 4138.46153846 , 4141.53846154 , 4191.79487179 , 4910.76923077 , 4137.94871795 , 4138.97435897 , 2064.0 , 2041.0 , 340.542 , 0.0 , 0.0 , 0.0 , 0.0 , 

14.0 , 4130.25641026 , 4130.76923077 , 4133.33333333 , 4137.43589744 , 4135.38461538 , 4137.43589744 , 4131.28205128 , 4137.43589744 , 4139.48717949 , 4141.53846154 , 4194.87179487 , 4910.25641026 , 4136.92307692 , 4139.48717949 , 2063.0 , 2042.0 , 340.553 , 0.0 , 0.0 , 0.0 , 0.0 , 

23.0 , 4122.05128205 , 4132.82051282 , 4127.17948718 , 4133.84615385 , 4135.8974359 , 4135.38461538 , 4132.82051282 , 4138.46153846 , 4140.51282051 , 4140.51282051 , 4190.25641026 , 4909.74358974 , 4136.92307692 , 4136.41025641 , 2043.0 , 2031.0 , 340.579 , 0.0 , 0.0 , 0.0 , 0.0 , 

24.0 , 4122.56410256 , 4129.74358974 , 4129.23076923 , 4132.30769231 , 4135.8974359 , 4127.17948718 , 4131.28205128 , 4137.43589744 , 4140.51282051 , 4137.94871795 , 4189.74358974 , 4908.20512821 , 4137.94871795 , 4137.43589744 , 2040.0 , 2028.0 , 340.583 , 0.0 , 0.0 , 0.0 , 0.0 , 

25.0 , 4126.15384615 , 4130.76923077 , 4131.79487179 , 4131.79487179 , 4135.8974359 , 4129.23076923 , 4128.71794872 , 4138.46153846 , 4139.48717949 , 4137.94871795 , 4190.25641026 , 4909.23076923 , 4137.94871795 , 4138.46153846 , 2039.0 , 2025.0 , 340.589 , 0.0 , 0.0 , 0.0 , 0.0 , 

26.0 , 4127.69230769 , 4133.33333333 , 4132.30769231 , 4132.30769231 , 4135.8974359 , 4135.38461538 , 4131.79487179 , 4138.46153846 , 4139.48717949 , 4141.02564103 , 4193.33333333 , 4909.74358974 , 4137.43589744 , 4138.97435897 , 2038.0 , 2020.0 , 340.599 , 0.0 , 0.0 , 0.0 , 0.0 , 

27.0 , 4127.69230769 , 4131.28205128 , 4132.82051282 , 4135.8974359 , 4135.8974359 , 4134.87179487 , 4133.84615385 , 4140.51282051 , 4139.48717949 , 4143.07692308 , 4189.23076923 , 4909.74358974 , 4137.43589744 , 4137.94871795 , 2035.0 , 2018.0 , 340.604 , 0.0 , 0.0 , 0.0 , 0.0 , 

28.0 , 4131.28205128 , 4130.25641026 , 4132.82051282 , 4137.43589744 , 4135.8974359 , 4131.79487179 , 4130.25641026 , 4143.07692308 , 4138.97435897 , 4143.58974359 , 4184.61538462 , 4909.23076923 , 4135.38461538 , 4139.48717949 , 2031.0 , 2020.0 , 340.612 , 0.0 , 0.0 , 0.0 , 0.0 , 

29.0 , 4132.30769231 , 4131.28205128 , 4133.84615385 , 4132.30769231 , 4135.8974359 , 4130.76923077 , 4128.20512821 , 4141.02564103 , 4138.97435897 , 4142.56410256 , 4186.66666667 , 4909.23076923 , 4133.84615385 , 4139.48717949 , 2030.0 , 2020.0 , 340.62 , 0.0 , 0.0 , 0.0 , 0.0 , 

30.0 , 4134.35897436 , 4130.25641026 , 4137.94871795 , 4131.79487179 , 4135.8974359 , 4128.20512821 , 4128.20512821 , 4136.41025641 , 4137.43589744 , 4140.51282051 , 4187.17948718 , 4910.76923077 , 4135.38461538 , 4141.02564103 , 2029.0 , 2023.0 , 340.632 , 0.0 , 0.0 , 0.0 , 0.0 , 

31.0 , 4138.97435897 , 4130.25641026 , 4140.51282051 , 4137.43589744 , 4135.8974359 , 4129.74358974 , 4127.17948718 , 4136.92307692 , 4135.8974359 , 4138.97435897 , 4189.74358974 , 4913.33333333 , 4136.92307692 , 4145.64102564 , 2029.0 , 2024.0 , 340.635 , 0.0 , 0.0 , 0.0 , 0.0 , 

32.0 , 4141.53846154 , 4134.35897436 , 4141.53846154 , 4137.43589744 , 4135.8974359 , 4131.28205128 , 4128.71794872 , 4132.82051282 , 4133.84615385 , 4140.0 , 4194.35897436 , 4912.82051282 , 4136.92307692 , 4145.12820513 , 2030.0 , 2024.0 , 340.648 , 0.0 , 0.0 , 0.0 , 0.0 , 

33.0 , 4141.02564103 , 4136.41025641 , 4142.05128205 , 4133.84615385 , 4135.8974359 , 4130.76923077 , 4129.23076923 , 4128.20512821 , 4129.74358974 , 4140.51282051 , 4190.76923077 , 4908.71794872 , 4136.92307692 , 4141.02564103 , 2030.0 , 2023.0 , 340.652 , 0.0 , 0.0 , 0.0 , 0.0 , 

34.0 , 4143.07692308 , 4132.30769231 , 4141.02564103 , 4136.41025641 , 4135.8974359 , 4129.74358974 , 4127.17948718 , 4130.25641026 , 4127.69230769 , 4138.97435897 , 4189.23076923 , 4910.76923077 , 4136.92307692 , 4139.48717949 , 2032.0 , 2022.0 , 340.663 , 0.0 , 0.0 , 0.0 , 0.0 , 

35.0 , 4145.12820513 , 4130.76923077 , 4140.51282051 , 4137.43589744 , 4135.8974359 , 4128.20512821 , 4126.66666667 , 4131.79487179 , 4133.33333333 , 4139.48717949 , 4192.30769231 , 4914.35897436 , 4136.92307692 , 4142.56410256 , 2033.0 , 2021.0 , 340.666 , 0.0 , 0.0 , 0.0 , 0.0 , 

36.0 , 4144.1025641 , 4132.30769231 , 4142.56410256 , 4132.82051282 , 4135.8974359 , 4127.69230769 , 4128.20512821 , 4128.20512821 , 4136.41025641 , 4142.05128205 , 4191.28205128 , 4914.35897436 , 4135.8974359 , 4144.1025641 , 2032.0 , 2024.0 , 340.676 , 0.0 , 0.0 , 0.0 , 0.0 , 

37.0 , 4142.05128205 , 4133.33333333 , 4141.53846154 , 4130.25641026 , 4135.38461538 , 4127.17948718 , 4128.20512821 , 4129.74358974 , 4133.33333333 , 4140.0 , 4187.17948718 , 4912.82051282 , 4136.92307692 , 4143.58974359 , 2034.0 , 2027.0 , 340.684 , 0.0 , 0.0 , 0.0 , 0.0 , 

38.0 , 4143.58974359 , 4133.33333333 , 4142.56410256 , 4130.25641026 , 4134.35897436 , 4127.69230769 , 4126.15384615 , 4131.79487179 , 4132.82051282 , 4138.46153846 , 4186.15384615 , 4912.30769231 , 4137.43589744 , 4140.51282051 , 2036.0 , 2031.0 , 340.695 , 0.0 , 0.0 , 0.0 , 0.0 , 

39.0 , 4147.69230769 , 4132.82051282 , 4144.61538462 , 4131.79487179 , 4134.35897436 , 4127.17948718 , 4127.17948718 , 4130.25641026 , 4135.38461538 , 4138.46153846 , 4187.17948718 , 4914.35897436 , 4131.28205128 , 4141.02564103 , 2037.0 , 2036.0 , 340.705 , 0.0 , 0.0 , 0.0 , 0.0 , 

40.0 , 4144.1025641 , 4132.30769231 , 4143.58974359 , 4131.28205128 , 4134.35897436 , 4124.61538462 , 4127.17948718 , 4129.23076923 , 4135.8974359 , 4136.41025641 , 4185.64102564 , 4918.46153846 , 4128.71794872 , 4144.1025641 , 2039.0 , 2036.0 , 340.708 , 0.0 , 0.0 , 0.0 , 0.0 , 

41.0 , 4141.02564103 , 4131.79487179 , 4143.07692308 , 4131.79487179 , 4134.35897436 , 4125.64102564 , 4126.66666667 , 4128.71794872 , 4133.84615385 , 4138.46153846 , 4184.61538462 , 4917.94871795 , 4136.92307692 , 4143.07692308 , 2039.0 , 2037.0 , 340.719 , 0.0 , 0.0 , 0.0 , 0.0 , 

42.0 , 4142.05128205 , 4131.79487179 , 4143.07692308 , 4132.82051282 , 4134.35897436 , 4127.69230769 , 4128.20512821 , 4130.25641026 , 4133.84615385 , 4140.0 , 4188.71794872 , 4914.87179487 , 4138.46153846 , 4139.48717949 , 2041.0 , 2038.0 , 340.729 , 0.0 , 0.0 , 0.0 , 0.0 , 

43.0 , 4141.02564103 , 4132.82051282 , 4143.58974359 , 4132.30769231 , 4134.35897436 , 4127.17948718 , 4129.74358974 , 4133.84615385 , 4136.41025641 , 4137.94871795 , 4192.30769231 , 4913.33333333 , 4132.30769231 , 4140.0 , 2042.0 , 2038.0 , 340.731 , 0.0 , 0.0 , 0.0 , 0.0 , 

44.0 , 4137.43589744 , 4132.30769231 , 4143.07692308 , 4132.82051282 , 4134.35897436 , 4128.71794872 , 4127.69230769 , 4133.84615385 , 4136.41025641 , 4137.43589744 , 4187.17948718 , 4912.30769231 , 4134.35897436 , 4143.58974359 , 2043.0 , 2040.0 , 340.74 , 0.0 , 0.0 , 0.0 , 0.0 , 

45.0 , 4137.94871795 , 4131.79487179 , 4140.0 , 4137.94871795 , 4134.35897436 , 4131.79487179 , 4128.71794872 , 4134.87179487 , 4135.38461538 , 4140.51282051 , 4183.58974359 , 4912.30769231 , 4135.8974359 , 4143.07692308 , 2044.0 , 2039.0 , 340.746 , 0.0 , 0.0 , 0.0 , 0.0 , 

46.0 , 4135.38461538 , 4131.28205128 , 4137.94871795 , 4138.46153846 , 4136.41025641 , 4127.17948718 , 4130.25641026 , 4136.92307692 , 4136.41025641 , 4142.05128205 , 4189.23076923 , 4914.35897436 , 4132.30769231 , 4139.48717949 , 2045.0 , 2038.0 , 340.767 , 0.0 , 0.0 , 0.0 , 0.0 , 

47.0 , 4132.30769231 , 4131.28205128 , 4140.0 , 4132.30769231 , 4137.43589744 , 4125.12820513 , 4127.17948718 , 4133.84615385 , 4139.48717949 , 4139.48717949 , 4191.79487179 , 4916.92307692 , 4134.35897436 , 4138.46153846 , 2046.0 , 2037.0 , 340.777 , 0.0 , 0.0 , 0.0 , 0.0 , 

48.0 , 4133.84615385 , 4131.79487179 , 4140.0 , 4130.76923077 , 4136.41025641 , 4131.79487179 , 4125.64102564 , 4129.23076923 , 4137.94871795 , 4137.94871795 , 4191.79487179 , 4916.41025641 , 4136.92307692 , 4138.46153846 , 2047.0 , 2036.0 , 340.78 , 0.0 , 0.0 , 0.0 , 0.0 , 

49.0 , 4132.30769231 , 4130.76923077 , 4138.46153846 , 4134.35897436 , 4135.8974359 , 4133.33333333 , 4129.74358974 , 4128.71794872 , 4136.92307692 , 4138.46153846 , 4190.25641026 , 4912.30769231 , 4136.41025641 , 4140.0 , 2045.0 , 2040.0 , 340.805 , 0.0 , 0.0 , 0.0 , 0.0 , 

50.0 , 4130.25641026 , 4129.23076923 , 4138.46153846 , 4133.33333333 , 4136.41025641 , 4129.23076923 , 4131.28205128 , 4129.74358974 , 4136.92307692 , 4137.43589744 , 4192.30769231 , 4909.74358974 , 4137.43589744 , 4139.48717949 , 2046.0 , 2041.0 , 340.812 , 0.0 , 0.0 , 0.0 , 0.0 , 

51.0 , 4134.35897436 , 4129.74358974 , 4136.41025641 , 4134.35897436 , 4136.41025641 , 4128.71794872 , 4128.71794872 , 4130.76923077 , 4137.43589744 , 4137.43589744 , 4192.30769231 , 4910.76923077 , 4138.97435897 , 4138.46153846 , 2046.0 , 2042.0 , 340.813 , 0.0 , 0.0 , 0.0 , 0.0 , 

52.0 , 4134.87179487 , 4131.79487179 , 4133.84615385 , 4136.41025641 , 4135.8974359 , 4132.82051282 , 4126.66666667 , 4130.25641026 , 4138.97435897 , 4139.48717949 , 4191.79487179 , 4911.28205128 , 4135.8974359 , 4139.48717949 , 2046.0 , 2043.0 , 340.82 , 0.0 , 0.0 , 0.0 , 0.0 , 

53.0 , 4131.28205128 , 4131.79487179 , 4136.92307692 , 4132.30769231 , 4135.8974359 , 4132.82051282 , 4128.71794872 , 4132.82051282 , 4137.94871795 , 4138.46153846 , 4194.87179487 , 4910.25641026 , 4135.8974359 , 4140.0 , 2045.0 , 2046.0 , 340.826 , 0.0 , 0.0 , 0.0 , 0.0 , 

54.0 , 4130.25641026 , 4131.79487179 , 4136.41025641 , 4129.74358974 , 4136.41025641 , 4129.23076923 , 4130.76923077 , 4137.94871795 , 4137.94871795 , 4136.92307692 , 4194.35897436 , 4910.25641026 , 4139.48717949 , 4139.48717949 , 2045.0 , 2045.0 , 340.837 , 0.0 , 0.0 , 0.0 , 0.0 , 

55.0 , 4131.28205128 , 4131.79487179 , 4131.28205128 , 4135.38461538 , 4135.38461538 , 4131.79487179 , 4131.28205128 , 4138.46153846 , 4138.46153846 , 4138.46153846 , 4187.69230769 , 4909.23076923 , 4138.46153846 , 4142.05128205 , 2045.0 , 2043.0 , 340.839 , 0.0 , 0.0 , 0.0 , 0.0 , 

56.0 , 4129.23076923 , 4131.28205128 , 4133.33333333 , 4138.97435897 , 4134.35897436 , 4137.94871795 , 4131.28205128 , 4138.46153846 , 4140.51282051 , 4139.48717949 , 4186.15384615 , 4910.76923077 , 4136.92307692 , 4142.05128205 , 2047.0 , 2035.0 , 340.849 , 0.0 , 0.0 , 0.0 , 0.0 , 

57.0 , 4129.74358974 , 4132.30769231 , 4134.35897436 , 4136.92307692 , 4134.35897436 , 4135.8974359 , 4130.76923077 , 4138.97435897 , 4141.53846154 , 4138.46153846 , 4188.20512821 , 4910.25641026 , 4137.43589744 , 4138.46153846 , 2049.0 , 2030.0 , 340.856 , 0.0 , 0.0 , 0.0 , 0.0 , 

58.0 , 4131.28205128 , 4133.33333333 , 4130.25641026 , 4134.87179487 , 4134.35897436 , 4128.71794872 , 4130.76923077 , 4139.48717949 , 4143.07692308 , 4138.97435897 , 4186.66666667 , 4906.15384615 , 4138.46153846 , 4138.97435897 , 2049.0 , 2027.0 , 340.867 , 0.0 , 0.0 , 0.0 , 0.0 , 

59.0 , 4127.69230769 , 4130.76923077 , 4128.71794872 , 4135.8974359 , 4134.87179487 , 4130.76923077 , 4130.76923077 , 4143.07692308 , 4141.02564103 , 4138.46153846 , 4190.25641026 , 4906.66666667 , 4138.46153846 , 4140.51282051 , 2051.0 , 2027.0 , 340.876 , 0.0 , 0.0 , 0.0 , 0.0 , 

60.0 , 4126.66666667 , 4129.23076923 , 4131.79487179 , 4135.38461538 , 4135.38461538 , 4137.94871795 , 4131.79487179 , 4145.12820513 , 4141.02564103 , 4139.48717949 , 4201.53846154 , 4909.74358974 , 4138.46153846 , 4138.97435897 , 2052.0 , 2029.0 , 340.879 , 0.0 , 0.0 , 0.0 , 0.0 , 

61.0 , 4129.23076923 , 4130.25641026 , 4132.30769231 , 4134.87179487 , 4134.87179487 , 4134.35897436 , 4131.79487179 , 4139.48717949 , 4144.61538462 , 4141.02564103 , 4201.02564103 , 4910.25641026 , 4138.97435897 , 4137.94871795 , 2053.0 , 2031.0 , 340.888 , 0.0 , 0.0 , 0.0 , 0.0 , 

62.0 , 4131.28205128 , 4131.28205128 , 4131.28205128 , 4136.92307692 , 4134.35897436 , 4128.71794872 , 4130.25641026 , 4136.92307692 , 4143.07692308 , 4138.97435897 , 4190.25641026 , 4908.20512821 , 4137.43589744 , 4138.97435897 , 2052.0 , 2033.0 , 340.901 , 0.0 , 0.0 , 0.0 , 0.0 , 

63.0 , 4131.28205128 , 4128.20512821 , 4131.79487179 , 4137.94871795 , 4134.35897436 , 4131.28205128 , 4127.69230769 , 4136.92307692 , 4136.92307692 , 4136.92307692 , 4187.69230769 , 4910.25641026 , 4137.43589744 , 4138.97435897 , 2052.0 , 2038.0 , 340.903 , 0.0 , 0.0 , 0.0 , 0.0 , 

64.0 , 4133.84615385 , 4129.23076923 , 4134.35897436 , 4134.87179487 , 4134.87179487 , 4135.8974359 , 4128.20512821 , 4135.38461538 , 4135.38461538 , 4138.46153846 , 4192.30769231 , 4912.30769231 , 4137.94871795 , 4137.94871795 , 2052.0 , 2037.0 , 340.912 , 0.0 , 0.0 , 0.0 , 0.0 , 

65.0 , 4132.82051282 , 4134.35897436 , 4134.35897436 , 4132.82051282 , 4134.87179487 , 4132.82051282 , 4128.20512821 , 4135.38461538 , 4137.94871795 , 4137.94871795 , 4191.79487179 , 4911.79487179 , 4136.92307692 , 4137.43589744 , 2050.0 , 2035.0 , 340.921 , 0.0 , 0.0 , 0.0 , 0.0 , 

66.0 , 4129.74358974 , 4134.35897436 , 4131.28205128 , 4136.92307692 , 4135.38461538 , 4131.28205128 , 4127.17948718 , 4136.92307692 , 4137.94871795 , 4136.92307692 , 4188.20512821 , 4910.25641026 , 4136.41025641 , 4138.97435897 , 2049.0 , 2034.0 , 340.932 , 0.0 , 0.0 , 0.0 , 0.0 , 

67.0 , 4129.23076923 , 4130.25641026 , 4130.25641026 , 4138.46153846 , 4135.38461538 , 4132.30769231 , 4127.17948718 , 4137.43589744 , 4136.92307692 , 4138.46153846 , 4190.25641026 , 4909.74358974 , 4136.92307692 , 4139.48717949 , 2048.0 , 2031.0 , 340.936 , 0.0 , 0.0 , 0.0 , 0.0 , 

68.0 , 4130.76923077 , 4131.28205128 , 4132.30769231 , 4135.38461538 , 4134.87179487 , 4130.76923077 , 4128.71794872 , 4136.92307692 , 4138.97435897 , 4140.0 , 4189.74358974 , 4908.71794872 , 4137.43589744 , 4140.0 , 2047.0 , 2029.0 , 340.943 , 0.0 , 0.0 , 0.0 , 0.0 , 

69.0 , 4129.74358974 , 4133.84615385 , 4129.74358974 , 4136.41025641 , 4134.87179487 , 4130.76923077 , 4130.25641026 , 4137.43589744 , 4138.46153846 , 4136.41025641 , 4187.69230769 , 4907.17948718 , 4137.94871795 , 4137.94871795 , 2044.0 , 2026.0 , 340.952 , 0.0 , 0.0 , 0.0 , 0.0 , 

70.0 , 4129.74358974 , 4132.30769231 , 4127.69230769 , 4136.41025641 , 4135.8974359 , 4132.30769231 , 4130.25641026 , 4138.97435897 , 4136.92307692 , 4134.87179487 , 4191.28205128 , 4908.71794872 , 4138.46153846 , 4136.41025641 , 2040.0 , 2021.0 , 340.967 , 0.0 , 0.0 , 0.0 , 0.0 , 

71.0 , 4131.28205128 , 4131.79487179 , 4132.30769231 , 4132.30769231 , 4136.41025641 , 4129.74358974 , 4128.20512821 , 4137.43589744 , 4136.92307692 , 4136.92307692 , 4192.82051282 , 4911.28205128 , 4137.43589744 , 4137.43589744 , 2039.0 , 2018.0 , 340.969 , 0.0 , 0.0 , 0.0 , 0.0 , 

72.0 , 4130.76923077 , 4132.30769231 , 4136.92307692 , 4133.84615385 , 4135.8974359 , 4125.12820513 , 4128.20512821 , 4132.82051282 , 4137.43589744 , 4137.94871795 , 4188.20512821 , 4911.79487179 , 4135.8974359 , 4138.46153846 , 2034.0 , 2014.0 , 340.977 , 0.0 , 0.0 , 0.0 , 0.0 , 

73.0 , 4131.79487179 , 4131.28205128 , 4138.46153846 , 4135.8974359 , 4135.8974359 , 4127.69230769 , 4128.71794872 , 4137.43589744 , 4138.46153846 , 4137.94871795 , 4187.17948718 , 4910.25641026 , 4137.43589744 , 4138.97435897 , 2034.0 , 2013.0 , 340.983 , 0.0 , 0.0 , 0.0 , 0.0 , 

74.0 , 4136.92307692 , 4132.30769231 , 4141.02564103 , 4133.33333333 , 4135.8974359 , 4131.28205128 , 4129.23076923 , 4138.97435897 , 4137.43589744 , 4137.43589744 , 4191.28205128 , 4912.30769231 , 4137.43589744 , 4140.0 , 2030.0 , 2012.0 , 340.995 , 0.0 , 0.0 , 0.0 , 0.0 , 

75.0 , 4140.51282051 , 4133.33333333 , 4140.0 , 4133.33333333 , 4135.8974359 , 4130.76923077 , 4130.25641026 , 4129.74358974 , 4136.92307692 , 4137.94871795 , 4190.76923077 , 4913.33333333 , 4135.38461538 , 4141.02564103 , 2026.0 , 2014.0 , 341.004 , 0.0 , 0.0 , 0.0 , 0.0 , 

76.0 , 4138.97435897 , 4131.28205128 , 4138.97435897 , 4135.8974359 , 4135.8974359 , 4129.23076923 , 4128.20512821 , 4125.64102564 , 4132.82051282 , 4138.46153846 , 4185.64102564 , 4911.28205128 , 4134.87179487 , 4137.94871795 , 2027.0 , 2015.0 , 341.007 , 0.0 , 0.0 , 0.0 , 0.0 , 

77.0 , 4137.94871795 , 4132.82051282 , 4141.53846154 , 4134.87179487 , 4135.8974359 , 4129.74358974 , 4124.61538462 , 4128.20512821 , 4130.25641026 , 4137.94871795 , 4184.61538462 , 4910.25641026 , 4137.94871795 , 4140.51282051 , 2026.0 , 2018.0 , 341.014 , 0.0 , 0.0 , 0.0 , 0.0 , 

78.0 , 4140.0 , 4134.87179487 , 4144.1025641 , 4134.35897436 , 4135.8974359 , 4130.25641026 , 4125.64102564 , 4126.66666667 , 4130.76923077 , 4137.43589744 , 4190.25641026 , 4911.79487179 , 4138.46153846 , 4145.12820513 , 2026.0 , 2021.0 , 341.027 , 0.0 , 0.0 , 0.0 , 0.0 , 

79.0 , 4143.07692308 , 4134.35897436 , 4140.0 , 4136.92307692 , 4135.8974359 , 4129.74358974 , 4129.23076923 , 4123.07692308 , 4128.20512821 , 4137.43589744 , 4192.30769231 , 4911.79487179 , 4134.87179487 , 4143.58974359 , 2030.0 , 2029.0 , 341.029 , 0.0 , 0.0 , 0.0 , 0.0 , 

80.0 , 4144.1025641 , 4132.30769231 , 4137.94871795 , 4138.46153846 , 4135.8974359 , 4130.25641026 , 4126.66666667 , 4125.64102564 , 4126.15384615 , 4137.43589744 , 4189.23076923 , 4909.74358974 , 4134.35897436 , 4140.0 , 2033.0 , 2032.0 , 341.038 , 0.0 , 0.0 , 0.0 , 0.0 , 

81.0 , 4146.15384615 , 4132.30769231 , 4141.53846154 , 4137.43589744 , 4135.8974359 , 4132.30769231 , 4124.61538462 , 4128.71794872 , 4128.71794872 , 4136.92307692 , 4190.76923077 , 4910.25641026 , 4134.35897436 , 4141.02564103 , 2036.0 , 2035.0 , 341.047 , 0.0 , 0.0 , 0.0 , 0.0 , 

82.0 , 4146.66666667 , 4131.79487179 , 4142.05128205 , 4136.92307692 , 4135.8974359 , 4130.76923077 , 4127.69230769 , 4130.76923077 , 4133.33333333 , 4136.41025641 , 4194.35897436 , 4911.28205128 , 4133.33333333 , 4141.02564103 , 2040.0 , 2036.0 , 341.058 , 0.0 , 0.0 , 0.0 , 0.0 , 

83.0 , 4144.1025641 , 4131.79487179 , 4141.02564103 , 4139.48717949 , 4135.8974359 , 4127.69230769 , 4129.23076923 , 4130.76923077 , 4134.87179487 , 4137.43589744 , 4192.30769231 , 4910.76923077 , 4133.84615385 , 4138.97435897 , 2041.0 , 2036.0 , 341.068 , 0.0 , 0.0 , 0.0 , 0.0 , 

84.0 , 4140.0 , 4132.30769231 , 4141.53846154 , 4137.43589744 , 4135.8974359 , 4130.25641026 , 4125.64102564 , 4129.74358974 , 4133.84615385 , 4140.0 , 4187.69230769 , 4910.76923077 , 4135.38461538 , 4140.51282051 , 2045.0 , 2036.0 , 341.072 , 0.0 , 0.0 , 0.0 , 0.0 , 

85.0 , 4136.92307692 , 4131.79487179 , 4140.0 , 4133.84615385 , 4135.8974359 , 4131.79487179 , 4124.1025641 , 4134.35897436 , 4134.35897436 , 4139.48717949 , 4185.12820513 , 4911.28205128 , 4136.41025641 , 4141.53846154 , 2046.0 , 2036.0 , 341.077 , 0.0 , 0.0 , 0.0 , 0.0 , 

86.0 , 4137.43589744 , 4130.25641026 , 4135.8974359 , 4131.79487179 , 4135.8974359 , 4126.66666667 , 4126.66666667 , 4136.41025641 , 4135.38461538 , 4137.43589744 , 4189.23076923 , 4911.28205128 , 4136.41025641 , 4141.02564103 , 2047.0 , 2039.0 , 341.089 , 0.0 , 0.0 , 0.0 , 0.0 , 

87.0 , 4137.94871795 , 4129.74358974 , 4138.46153846 , 4129.74358974 , 4134.87179487 , 4127.69230769 , 4128.20512821 , 4135.8974359 , 4137.43589744 , 4136.92307692 , 4193.84615385 , 4912.30769231 , 4135.8974359 , 4140.51282051 , 2048.0 , 2040.0 , 341.097 , 0.0 , 0.0 , 0.0 , 0.0 , 

88.0 , 4132.82051282 , 4131.28205128 , 4138.46153846 , 4130.76923077 , 4134.35897436 , 4131.79487179 , 4128.20512821 , 4136.92307692 , 4136.41025641 , 4138.97435897 , 4189.23076923 , 4915.8974359 , 4135.38461538 , 4141.02564103 , 2048.0 , 2043.0 , 341.102 , 0.0 , 0.0 , 0.0 , 0.0 , 

89.0 , 4128.71794872 , 4131.79487179 , 4132.82051282 , 4131.28205128 , 4134.35897436 , 4135.38461538 , 4126.15384615 , 4136.92307692 , 4138.46153846 , 4140.0 , 4187.69230769 , 4916.41025641 , 4138.46153846 , 4140.51282051 , 2047.0 , 2042.0 , 341.11 , 0.0 , 0.0 , 0.0 , 0.0 , 

90.0 , 4128.71794872 , 4130.25641026 , 4131.79487179 , 4130.25641026 , 4134.35897436 , 4137.43589744 , 4125.12820513 , 4135.8974359 , 4138.46153846 , 4138.46153846 , 4192.30769231 , 4912.30769231 , 4137.43589744 , 4138.97435897 , 2047.0 , 2041.0 , 341.122 , 0.0 , 0.0 , 0.0 , 0.0 , 

91.0 , 4126.66666667 , 4130.25641026 , 4135.8974359 , 4133.33333333 , 4134.35897436 , 4135.8974359 , 4125.64102564 , 4137.43589744 , 4135.8974359 , 4138.46153846 , 4187.69230769 , 4910.25641026 , 4134.87179487 , 4137.94871795 , 2044.0 , 2041.0 , 341.123 , 0.0 , 0.0 , 0.0 , 0.0 , 

92.0 , 4124.1025641 , 4128.71794872 , 4135.8974359 , 4137.94871795 , 4134.35897436 , 4133.33333333 , 4129.23076923 , 4135.8974359 , 4135.38461538 , 4140.0 , 4185.12820513 , 4910.76923077 , 4135.8974359 , 4137.94871795 , 2043.0 , 2040.0 , 341.132 , 0.0 , 0.0 , 0.0 , 0.0 , 

93.0 , 4128.71794872 , 4127.69230769 , 4131.79487179 , 4132.82051282 , 4134.35897436 , 4135.38461538 , 4130.25641026 , 4133.84615385 , 4135.8974359 , 4138.97435897 , 4194.35897436 , 4910.76923077 , 4136.92307692 , 4136.92307692 , 2043.0 , 2040.0 , 341.14 , 0.0 , 0.0 , 0.0 , 0.0 , 

94.0 , 4132.82051282 , 4131.28205128 , 4132.30769231 , 4129.74358974 , 4134.35897436 , 4135.8974359 , 4129.74358974 , 4139.48717949 , 4135.8974359 , 4137.43589744 , 4198.97435897 , 4908.71794872 , 4135.8974359 , 4140.51282051 , 2044.0 , 2038.0 , 341.152 , 0.0 , 0.0 , 0.0 , 0.0 , 

95.0 , 4130.76923077 , 4134.35897436 , 4132.30769231 , 4133.33333333 , 4134.35897436 , 4132.82051282 , 4129.23076923 , 4141.53846154 , 4137.43589744 , 4137.94871795 , 4194.87179487 , 4909.23076923 , 4136.92307692 , 4144.1025641 , 2043.0 , 2037.0 , 341.156 , 0.0 , 0.0 , 0.0 , 0.0 , 

96.0 , 4130.25641026 , 4132.30769231 , 4131.79487179 , 4131.79487179 , 4134.35897436 , 4134.35897436 , 4129.74358974 , 4137.94871795 , 4139.48717949 , 4137.94871795 , 4191.28205128 , 4909.74358974 , 4140.0 , 4143.07692308 , 2043.0 , 2038.0 , 341.164 , 0.0 , 0.0 , 0.0 , 0.0 , 

97.0 , 4132.82051282 , 4129.74358974 , 4132.82051282 , 4130.25641026 , 4134.35897436 , 4134.87179487 , 4129.74358974 , 4137.94871795 , 4137.43589744 , 4136.41025641 , 4192.30769231 , 4910.76923077 , 4138.46153846 , 4140.51282051 , 2043.0 , 2036.0 , 341.172 , 0.0 , 0.0 , 0.0 , 0.0 , 

98.0 , 4132.82051282 , 4130.76923077 , 4131.79487179 , 4131.79487179 , 4134.35897436 , 4131.79487179 , 4131.28205128 , 4139.48717949 , 4137.43589744 , 4138.46153846 , 4192.82051282 , 4913.84615385 , 4136.41025641 , 4140.51282051 , 2043.0 , 2037.0 , 341.184 , 0.0 , 0.0 , 0.0 , 0.0 , 

99.0 , 4130.76923077 , 4129.23076923 , 4128.20512821 , 4133.84615385 , 4135.38461538 , 4130.25641026 , 4129.23076923 , 4137.94871795 , 4141.02564103 , 4138.46153846 , 4193.33333333 , 4916.41025641 , 4137.43589744 , 4141.02564103 , 2045.0 , 2038.0 , 341.194 , 0.0 , 0.0 , 0.0 , 0.0 , 

100.0 , 4130.76923077 , 4129.23076923 , 4129.23076923 , 4135.8974359 , 4135.38461538 , 4131.28205128 , 4126.15384615 , 4136.92307692 , 4140.51282051 , 4137.94871795 , 4193.84615385 , 4912.82051282 , 4137.94871795 , 4141.53846154 , 2048.0 , 2041.0 , 341.198 , 0.0 , 0.0 , 0.0 , 0.0 , 

101.0 , 4129.74358974 , 4130.25641026 , 4130.25641026 , 4136.92307692 , 4134.35897436 , 4130.76923077 , 4129.23076923 , 4136.92307692 , 4137.43589744 , 4140.51282051 , 4191.79487179 , 4908.71794872 , 4137.94871795 , 4141.02564103 , 2050.0 , 2039.0 , 341.204 , 0.0 , 0.0 , 0.0 , 0.0 , 

102.0 , 4129.23076923 , 4130.25641026 , 4128.71794872 , 4136.92307692 , 4134.35897436 , 4133.84615385 , 4133.33333333 , 4137.43589744 , 4137.94871795 , 4142.05128205 , 4194.35897436 , 4910.25641026 , 4138.46153846 , 4139.48717949 , 2053.0 , 2039.0 , 341.217 , 0.0 , 0.0 , 0.0 , 0.0 , 

103.0 , 4130.76923077 , 4131.79487179 , 4127.69230769 , 4136.92307692 , 4134.87179487 , 4136.92307692 , 4129.74358974 , 4138.46153846 , 4138.46153846 , 4141.02564103 , 4201.02564103 , 4912.30769231 , 4139.48717949 , 4140.51282051 , 2053.0 , 2038.0 , 341.22 , 0.0 , 0.0 , 0.0 , 0.0 , 

104.0 , 4132.82051282 , 4133.84615385 , 4128.71794872 , 4138.46153846 , 4134.87179487 , 4131.28205128 , 4127.69230769 , 4137.94871795 , 4136.92307692 , 4140.51282051 , 4197.43589744 , 4909.23076923 , 4138.46153846 , 4141.02564103 , 2055.0 , 2036.0 , 341.23 , 0.0 , 0.0 , 0.0 , 0.0 , 

105.0 , 4130.76923077 , 4132.30769231 , 4127.69230769 , 4136.92307692 , 4134.35897436 , 4127.69230769 , 4130.76923077 , 4138.97435897 , 4139.48717949 , 4138.46153846 , 4192.30769231 , 4907.17948718 , 4138.46153846 , 4138.97435897 , 2055.0 , 2035.0 , 341.235 , 0.0 , 0.0 , 0.0 , 0.0 , 

106.0 , 4128.71794872 , 4130.76923077 , 4129.23076923 , 4133.33333333 , 4134.35897436 , 4135.8974359 , 4131.79487179 , 4140.0 , 4143.07692308 , 4136.41025641 , 4197.43589744 , 4909.74358974 , 4140.0 , 4139.48717949 , 2056.0 , 2034.0 , 341.246 , 0.0 , 0.0 , 0.0 , 0.0 , 

107.0 , 4129.23076923 , 4132.30769231 , 4130.25641026 , 4132.30769231 , 4135.38461538 , 4141.53846154 , 4130.25641026 , 4140.51282051 , 4140.51282051 , 4138.97435897 , 4194.87179487 , 4911.28205128 , 4140.51282051 , 4139.48717949 , 2056.0 , 2034.0 , 341.255 , 0.0 , 0.0 , 0.0 , 0.0 , 

108.0 , 4129.74358974 , 4132.30769231 , 4127.69230769 , 4132.30769231 , 4136.41025641 , 4133.84615385 , 4129.23076923 , 4139.48717949 , 4137.43589744 , 4138.97435897 , 4190.76923077 , 4909.23076923 , 4138.97435897 , 4138.97435897 , 2054.0 , 2033.0 , 341.258 , 0.0 , 0.0 , 0.0 , 0.0 , 

109.0 , 4130.76923077 , 4130.76923077 , 4127.69230769 , 4132.82051282 , 4136.41025641 , 4127.17948718 , 4129.23076923 , 4138.97435897 , 4139.48717949 , 4137.43589744 , 4195.38461538 , 4909.23076923 , 4137.94871795 , 4140.0 , 2050.0 , 2034.0 , 341.266 , 0.0 , 0.0 , 0.0 , 0.0 , 

110.0 , 4129.23076923 , 4131.79487179 , 4130.25641026 , 4133.33333333 , 4135.38461538 , 4133.84615385 , 4130.76923077 , 4137.43589744 , 4139.48717949 , 4139.48717949 , 4186.66666667 , 4909.74358974 , 4137.94871795 , 4140.51282051 , 2049.0 , 2034.0 , 341.281 , 0.0 , 0.0 , 0.0 , 0.0 , 

111.0 , 4130.76923077 , 4133.84615385 , 4131.28205128 , 4134.35897436 , 4134.87179487 , 4136.92307692 , 4132.30769231 , 4136.41025641 , 4135.8974359 , 4140.0 , 4180.0 , 4910.25641026 , 4138.46153846 , 4138.97435897 , 2045.0 , 2031.0 , 341.283 , 0.0 , 0.0 , 0.0 , 0.0 , 

112.0 , 4133.84615385 , 4133.33333333 , 4129.74358974 , 4135.38461538 , 4136.41025641 , 4130.25641026 , 4130.76923077 , 4133.33333333 , 4133.84615385 , 4138.97435897 , 4191.28205128 , 4908.71794872 , 4140.51282051 , 4138.97435897 , 2043.0 , 2031.0 , 341.292 , 0.0 , 0.0 , 0.0 , 0.0 , 

113.0 , 4133.33333333 , 4131.28205128 , 4128.71794872 , 4135.38461538 , 4136.92307692 , 4129.74358974 , 4128.71794872 , 4131.28205128 , 4135.38461538 , 4138.46153846 , 4196.92307692 , 4907.69230769 , 4139.48717949 , 4138.97435897 , 2041.0 , 2031.0 , 341.298 , 0.0 , 0.0 , 0.0 , 0.0 , 

114.0 , 4131.28205128 , 4130.76923077 , 4129.23076923 , 4134.35897436 , 4135.8974359 , 4132.30769231 , 4128.71794872 , 4133.84615385 , 4134.87179487 , 4137.43589744 , 4190.25641026 , 4909.74358974 , 4137.43589744 , 4140.0 , 2040.0 , 2029.0 , 341.31 , 0.0 , 0.0 , 0.0 , 0.0 , 

115.0 , 4133.84615385 , 4134.35897436 , 4132.30769231 , 4136.92307692 , 4134.35897436 , 4130.76923077 , 4131.28205128 , 4132.82051282 , 4130.25641026 , 4137.43589744 , 4188.71794872 , 4910.25641026 , 4136.92307692 , 4140.51282051 , 2041.0 , 2031.0 , 341.321 , 0.0 , 0.0 , 0.0 , 0.0 , 

116.0 , 4134.35897436 , 4132.82051282 , 4135.38461538 , 4137.94871795 , 4134.35897436 , 4131.79487179 , 4129.23076923 , 4130.76923077 , 4129.74358974 , 4138.46153846 , 4191.28205128 , 4909.74358974 , 4136.92307692 , 4138.97435897 , 2040.0 , 2032.0 , 341.324 , 0.0 , 0.0 , 0.0 , 0.0 , 

117.0 , 4134.87179487 , 4129.74358974 , 4133.84615385 , 4132.82051282 , 4135.38461538 , 4135.38461538 , 4125.64102564 , 4133.84615385 , 4137.43589744 , 4137.94871795 , 4193.33333333 , 4912.30769231 , 4135.8974359 , 4138.97435897 , 2041.0 , 2033.0 , 341.33 , 0.0 , 0.0 , 0.0 , 0.0 , 

118.0 , 4136.41025641 , 4131.28205128 , 4134.87179487 , 4133.33333333 , 4135.8974359 , 4134.87179487 , 4126.66666667 , 4136.41025641 , 4139.48717949 , 4137.43589744 , 4195.8974359 , 4914.35897436 , 4134.87179487 , 4139.48717949 , 2041.0 , 2032.0 , 341.342 , 0.0 , 0.0 , 0.0 , 0.0 , 

119.0 , 4134.87179487 , 4130.76923077 , 4141.02564103 , 4140.51282051 , 4134.35897436 , 4135.38461538 , 4128.71794872 , 4132.82051282 , 4135.8974359 , 4137.94871795 , 4193.84615385 , 4911.28205128 , 4136.41025641 , 4138.97435897 , 2040.0 , 2034.0 , 341.344 , 0.0 , 0.0 , 0.0 , 0.0 , 

120.0 , 4131.28205128 , 4128.20512821 , 4139.48717949 , 4137.94871795 , 4133.84615385 , 4133.84615385 , 4125.64102564 , 4132.30769231 , 4135.8974359 , 4137.94871795 , 4191.79487179 , 4908.20512821 , 4137.43589744 , 4137.43589744 , 2039.0 , 2034.0 , 341.355 , 0.0 , 0.0 , 0.0 , 0.0 , 

121.0 , 4134.87179487 , 4130.76923077 , 4135.8974359 , 4134.87179487 , 4135.38461538 , 4131.79487179 , 4124.1025641 , 4133.33333333 , 4138.46153846 , 4137.43589744 , 4192.82051282 , 4912.30769231 , 4135.8974359 , 4136.92307692 , 2038.0 , 2035.0 , 341.402 , 0.0 , 0.0 , 0.0 , 0.0 , 

122.0 , 4136.92307692 , 4131.79487179 , 4139.48717949 , 4135.8974359 , 4135.38461538 , 4134.35897436 , 4127.69230769 , 4132.30769231 , 4137.43589744 , 4137.94871795 , 4193.33333333 , 4915.38461538 , 4134.35897436 , 4138.97435897 , 2037.0 , 2036.0 , 341.411 , 0.0 , 0.0 , 0.0 , 0.0 , 

123.0 , 4135.38461538 , 4129.74358974 , 4140.0 , 4133.33333333 , 4134.35897436 , 4134.35897436 , 4127.69230769 , 4133.33333333 , 4133.33333333 , 4138.46153846 , 4191.79487179 , 4910.25641026 , 4133.84615385 , 4142.05128205 , 2035.0 , 2035.0 , 341.411 , 0.0 , 0.0 , 0.0 , 0.0 , 

124.0 , 4135.8974359 , 4131.79487179 , 4131.79487179 , 4129.74358974 , 4134.35897436 , 4130.25641026 , 4126.15384615 , 4135.38461538 , 4130.25641026 , 4140.0 , 4193.33333333 , 4907.69230769 , 4134.87179487 , 4142.56410256 , 2033.0 , 2035.0 , 341.419 , 0.0 , 0.0 , 0.0 , 0.0 , 

125.0 , 4136.41025641 , 4134.87179487 , 4132.82051282 , 4128.20512821 , 4134.87179487 , 4129.74358974 , 4129.23076923 , 4132.30769231 , 4132.82051282 , 4139.48717949 , 4193.84615385 , 4910.76923077 , 4133.33333333 , 4140.51282051 , 2031.0 , 2033.0 , 341.425 , 0.0 , 0.0 , 0.0 , 0.0 , 

126.0 , 4135.8974359 , 4133.33333333 , 4138.46153846 , 4129.74358974 , 4134.35897436 , 4130.76923077 , 4131.28205128 , 4128.71794872 , 4137.43589744 , 4137.94871795 , 4189.74358974 , 4911.28205128 , 4133.33333333 , 4139.48717949 , 2032.0 , 2033.0 , 341.437 , 0.0 , 0.0 , 0.0 , 0.0 , 

127.0 , 4139.48717949 , 4131.79487179 , 4139.48717949 , 4130.76923077 , 4134.35897436 , 4132.82051282 , 4128.20512821 , 4129.74358974 , 4132.82051282 , 4138.97435897 , 4189.23076923 , 4910.76923077 , 4133.33333333 , 4141.02564103 , 2029.0 , 2032.0 , 341.439 , 0.0 , 0.0 , 0.0 , 0.0 , 

7.0 , 4139.48717949 , 4133.84615385 , 4140.0 , 4133.33333333 , 4135.8974359 , 4128.71794872 , 4128.20512821 , 4140.0 , 4138.46153846 , 4138.46153846 , 4190.76923077 , 4910.76923077 , 4136.41025641 , 4143.58974359 , 2039.0 , 2039.0 , 341.469 , 0.0 , 0.0 , 0.0 , 0.0 , 

8.0 , 4140.0 , 4132.30769231 , 4138.97435897 , 4131.79487179 , 4135.8974359 , 4131.28205128 , 4128.71794872 , 4134.35897436 , 4137.43589744 , 4139.48717949 , 4191.79487179 , 4915.38461538 , 4136.41025641 , 4144.61538462 , 2043.0 , 2040.0 , 341.473 , 0.0 , 0.0 , 0.0 , 0.0 , 

9.0 , 4138.46153846 , 4129.23076923 , 4135.38461538 , 4137.94871795 , 4135.8974359 , 4131.79487179 , 4128.71794872 , 4134.35897436 , 4138.97435897 , 4139.48717949 , 4186.15384615 , 4912.82051282 , 4136.41025641 , 4145.64102564 , 2045.0 , 2040.0 , 341.483 , 0.0 , 0.0 , 0.0 , 0.0 , 

10.0 , 4137.94871795 , 4129.23076923 , 4132.30769231 , 4137.43589744 , 4135.8974359 , 4129.23076923 , 4129.23076923 , 4138.97435897 , 4140.0 , 4137.94871795 , 4186.66666667 , 4909.23076923 , 4137.43589744 , 4146.66666667 , 2048.0 , 2042.0 , 341.486 , 0.0 , 0.0 , 0.0 , 0.0 , 

11.0 , 4138.46153846 , 4131.79487179 , 4131.79487179 , 4129.23076923 , 4135.8974359 , 4129.74358974 , 4128.71794872 , 4135.38461538 , 4137.43589744 , 4136.41025641 , 4191.79487179 , 4910.76923077 , 4136.92307692 , 4145.64102564 , 2051.0 , 2042.0 , 341.495 , 0.0 , 0.0 , 0.0 , 0.0 , 

12.0 , 4134.87179487 , 4132.82051282 , 4133.33333333 , 4129.74358974 , 4135.8974359 , 4131.79487179 , 4126.66666667 , 4130.76923077 , 4133.84615385 , 4139.48717949 , 4189.23076923 , 4911.28205128 , 4136.92307692 , 4143.58974359 , 2052.0 , 2043.0 , 341.519 , 0.0 , 0.0 , 0.0 , 0.0 , 

13.0 , 4133.33333333 , 4131.28205128 , 4134.87179487 , 4134.35897436 , 4135.8974359 , 4131.28205128 , 4128.20512821 , 4132.82051282 , 4135.8974359 , 4141.02564103 , 4190.25641026 , 4912.82051282 , 4138.46153846 , 4143.07692308 , 2054.0 , 2041.0 , 341.53 , 0.0 , 0.0 , 0.0 , 0.0 , 

14.0 , 4132.82051282 , 4129.23076923 , 4132.82051282 , 4132.82051282 , 4135.8974359 , 4130.25641026 , 4131.79487179 , 4134.87179487 , 4138.46153846 , 4140.51282051 , 4201.02564103 , 4915.8974359 , 4135.8974359 , 4146.15384615 , 2055.0 , 2040.0 , 341.533 , 0.0 , 0.0 , 0.0 , 0.0 , 

15.0 , 4130.76923077 , 4130.76923077 , 4130.76923077 , 4132.30769231 , 4135.8974359 , 4135.38461538 , 4130.76923077 , 4136.41025641 , 4137.43589744 , 4140.0 , 4200.51282051 , 4916.92307692 , 4134.35897436 , 4146.66666667 , 2054.0 , 2037.0 , 341.549 , 0.0 , 0.0 , 0.0 , 0.0 , 

15.0 , 4130.76923077 , 4130.76923077 , 4130.76923077 , 4132.30769231 , 4135.8974359 , 4135.38461538 , 4130.76923077 , 4136.41025641 , 4137.43589744 , 4140.0 , 4200.51282051 , 4916.92307692 , 4134.35897436 , 4146.66666667 , 2054.0 , 2037.0 , 341.563 , 0.0 , 0.0 , 0.0 , 0.0 , 

16.0 , 4129.74358974 , 4132.30769231 , 4131.79487179 , 4134.35897436 , 4135.8974359 , 4138.46153846 , 4127.69230769 , 4138.46153846 , 4136.92307692 , 4140.51282051 , 4194.35897436 , 4915.38461538 , 4138.46153846 , 4142.05128205 , 2056.0 , 2037.0 , 341.574 , 0.0 , 0.0 , 0.0 , 0.0 , 

17.0 , 4131.28205128 , 4130.76923077 , 4132.82051282 , 4136.41025641 , 4135.8974359 , 4134.87179487 , 4128.71794872 , 4136.92307692 , 4138.46153846 , 4142.05128205 , 4193.84615385 , 4913.84615385 , 4138.97435897 , 4139.48717949 , 2057.0 , 2036.0 , 341.581 , 0.0 , 0.0 , 0.0 , 0.0 , 

18.0 , 4132.30769231 , 4128.71794872 , 4129.74358974 , 4137.43589744 , 4135.8974359 , 4133.84615385 , 4131.28205128 , 4135.8974359 , 4137.94871795 , 4140.51282051 , 4193.33333333 , 4911.28205128 , 4138.46153846 , 4138.46153846 , 2058.0 , 2034.0 , 341.584 , 0.0 , 0.0 , 0.0 , 0.0 , 

19.0 , 4129.23076923 , 4127.69230769 , 4129.23076923 , 4137.94871795 , 4135.8974359 , 4134.87179487 , 4130.25641026 , 4138.97435897 , 4138.46153846 , 4138.97435897 , 4191.79487179 , 4910.25641026 , 4136.92307692 , 4139.48717949 , 2058.0 , 2030.0 , 341.597 , 0.0 , 0.0 , 0.0 , 0.0 , 

20.0 , 4126.15384615 , 4129.23076923 , 4131.28205128 , 4135.8974359 , 4135.8974359 , 4128.71794872 , 4128.71794872 , 4138.97435897 , 4139.48717949 , 4140.0 , 4193.84615385 , 4911.28205128 , 4137.43589744 , 4137.43589744 , 2058.0 , 2029.0 , 341.609 , 0.0 , 0.0 , 0.0 , 0.0 , 

21.0 , 4126.15384615 , 4130.25641026 , 4130.76923077 , 4135.8974359 , 4135.8974359 , 4129.23076923 , 4129.74358974 , 4137.94871795 , 4137.43589744 , 4140.51282051 , 4192.30769231 , 4911.28205128 , 4135.8974359 , 4136.92307692 , 2058.0 , 2026.0 , 341.609 , 0.0 , 0.0 , 0.0 , 0.0 , 

22.0 , 4128.71794872 , 4129.74358974 , 4131.28205128 , 4139.48717949 , 4135.8974359 , 4137.43589744 , 4131.79487179 , 4138.46153846 , 4137.43589744 , 4138.46153846 , 4187.17948718 , 4910.25641026 , 4130.25641026 , 4136.92307692 , 2056.0 , 2024.0 , 341.614 , 0.0 , 0.0 , 0.0 , 0.0 , 

23.0 , 4129.23076923 , 4130.25641026 , 4132.82051282 , 4137.43589744 , 4135.8974359 , 4136.41025641 , 4132.30769231 , 4135.38461538 , 4140.0 , 4137.94871795 , 4192.30769231 , 4909.74358974 , 4130.25641026 , 4137.43589744 , 2055.0 , 2022.0 , 341.623 , 0.0 , 0.0 , 0.0 , 0.0 , 

24.0 , 4130.76923077 , 4131.79487179 , 4131.28205128 , 4134.35897436 , 4135.8974359 , 4135.38461538 , 4130.76923077 , 4135.38461538 , 4140.0 , 4138.46153846 , 4193.84615385 , 4909.74358974 , 4131.79487179 , 4138.46153846 , 2050.0 , 2017.0 , 341.634 , 0.0 , 0.0 , 0.0 , 0.0 , 

25.0 , 4132.30769231 , 4130.76923077 , 4130.25641026 , 4133.84615385 , 4135.8974359 , 4136.92307692 , 4129.23076923 , 4137.43589744 , 4135.8974359 , 4137.43589744 , 4188.71794872 , 4910.25641026 , 4130.76923077 , 4137.94871795 , 2048.0 , 2015.0 , 341.637 , 0.0 , 0.0 , 0.0 , 0.0 , 

26.0 , 4131.79487179 , 4131.28205128 , 4133.84615385 , 4132.82051282 , 4135.8974359 , 4132.30769231 , 4130.76923077 , 4131.79487179 , 4131.28205128 , 4137.94871795 , 4191.28205128 , 4910.76923077 , 4133.84615385 , 4138.46153846 , 2042.0 , 2013.0 , 341.646 , 0.0 , 0.0 , 0.0 , 0.0 , 

27.0 , 4131.79487179 , 4132.82051282 , 4133.84615385 , 4133.33333333 , 4135.8974359 , 4129.23076923 , 4130.76923077 , 4128.20512821 , 4130.25641026 , 4138.97435897 , 4197.43589744 , 4911.79487179 , 4137.94871795 , 4139.48717949 , 2040.0 , 2015.0 , 341.653 , 0.0 , 0.0 , 0.0 , 0.0 , 

28.0 , 4132.82051282 , 4132.82051282 , 4131.28205128 , 4137.94871795 , 4135.8974359 , 4131.28205128 , 4127.69230769 , 4129.23076923 , 4130.25641026 , 4137.94871795 , 4195.8974359 , 4908.20512821 , 4135.38461538 , 4140.51282051 , 2036.0 , 2018.0 , 341.664 , 0.0 , 0.0 , 0.0 , 0.0 , 

29.0 , 4130.76923077 , 4132.82051282 , 4132.82051282 , 4140.51282051 , 4135.8974359 , 4130.76923077 , 4126.66666667 , 4131.79487179 , 4131.28205128 , 4137.43589744 , 4191.79487179 , 4907.17948718 , 4134.35897436 , 4140.0 , 2034.0 , 2020.0 , 341.67 , 0.0 , 0.0 , 0.0 , 0.0 , 

30.0 , 4131.28205128 , 4133.33333333 , 4135.8974359 , 4137.94871795 , 4135.8974359 , 4131.28205128 , 4130.25641026 , 4129.74358974 , 4130.25641026 , 4138.97435897 , 4191.28205128 , 4909.23076923 , 4136.41025641 , 4138.97435897 , 2034.0 , 2022.0 , 341.676 , 0.0 , 0.0 , 0.0 , 0.0 , 

31.0 , 4134.87179487 , 4131.79487179 , 4134.35897436 , 4137.43589744 , 4135.8974359 , 4133.84615385 , 4128.71794872 , 4126.66666667 , 4129.74358974 , 4138.97435897 , 4189.23076923 , 4911.28205128 , 4134.35897436 , 4138.97435897 , 2033.0 , 2030.0 , 341.684 , 0.0 , 0.0 , 0.0 , 0.0 , 

32.0 , 4137.94871795 , 4132.30769231 , 4134.87179487 , 4138.46153846 , 4135.8974359 , 4130.76923077 , 4125.12820513 , 4131.28205128 , 4133.84615385 , 4137.43589744 , 4189.23076923 , 4908.20512821 , 4134.87179487 , 4139.48717949 , 2034.0 , 2031.0 , 341.695 , 0.0 , 0.0 , 0.0 , 0.0 , 

33.0 , 4138.97435897 , 4133.33333333 , 4138.46153846 , 4137.94871795 , 4135.8974359 , 4129.74358974 , 4128.20512821 , 4139.48717949 , 4137.94871795 , 4137.43589744 , 4190.25641026 , 4906.66666667 , 4134.87179487 , 4138.46153846 , 2036.0 , 2038.0 , 341.698 , 0.0 , 0.0 , 0.0 , 0.0 , 

34.0 , 4137.94871795 , 4130.76923077 , 4137.43589744 , 4138.46153846 , 4135.8974359 , 4131.79487179 , 4130.76923077 , 4136.92307692 , 4137.43589744 , 4138.46153846 , 4185.64102564 , 4907.17948718 , 4134.87179487 , 4137.94871795 , 2037.0 , 2037.0 , 341.707 , 0.0 , 0.0 , 0.0 , 0.0 , 

35.0 , 4137.43589744 , 4129.23076923 , 4134.87179487 , 4136.92307692 , 4135.8974359 , 4131.28205128 , 4129.23076923 , 4127.69230769 , 4135.8974359 , 4138.97435897 , 4185.12820513 , 4906.15384615 , 4136.41025641 , 4140.51282051 , 2039.0 , 2040.0 , 341.714 , 0.0 , 0.0 , 0.0 , 0.0 , 

36.0 , 4138.46153846 , 4130.76923077 , 4137.94871795 , 4136.92307692 , 4135.8974359 , 4129.23076923 , 4131.28205128 , 4131.28205128 , 4137.94871795 , 4140.0 , 4193.84615385 , 4907.17948718 , 4136.92307692 , 4139.48717949 , 2039.0 , 2040.0 , 341.726 , 0.0 , 0.0 , 0.0 , 0.0 , 

37.0 , 4138.46153846 , 4131.79487179 , 4140.51282051 , 4138.97435897 , 4135.8974359 , 4129.23076923 , 4132.30769231 , 4138.46153846 , 4137.94871795 , 4141.53846154 , 4196.92307692 , 4910.25641026 , 4136.41025641 , 4139.48717949 , 2041.0 , 2039.0 , 341.735 , 0.0 , 0.0 , 0.0 , 0.0 , 

38.0 , 4136.41025641 , 4129.74358974 , 4138.97435897 , 4134.87179487 , 4135.8974359 , 4130.25641026 , 4128.20512821 , 4135.8974359 , 4138.46153846 , 4141.02564103 , 4187.17948718 , 4912.30769231 , 4136.41025641 , 4143.07692308 , 2043.0 , 2039.0 , 341.739 , 0.0 , 0.0 , 0.0 , 0.0 , 

39.0 , 4135.8974359 , 4129.23076923 , 4137.94871795 , 4132.30769231 , 4135.8974359 , 4129.74358974 , 4129.23076923 , 4135.8974359 , 4138.97435897 , 4138.97435897 , 4186.15384615 , 4909.74358974 , 4136.92307692 , 4142.56410256 , 2044.0 , 2040.0 , 341.748 , 0.0 , 0.0 , 0.0 , 0.0 , 

40.0 , 4135.8974359 , 4131.28205128 , 4140.51282051 , 4134.87179487 , 4135.8974359 , 4131.28205128 , 4131.79487179 , 4136.41025641 , 4137.43589744 , 4138.97435897 , 4192.82051282 , 4910.25641026 , 4137.43589744 , 4137.43589744 , 2044.0 , 2040.0 , 341.76 , 0.0 , 0.0 , 0.0 , 0.0 , 

41.0 , 4136.41025641 , 4132.82051282 , 4142.05128205 , 4135.8974359 , 4135.8974359 , 4135.8974359 , 4129.23076923 , 4131.79487179 , 4137.94871795 , 4138.46153846 , 4191.28205128 , 4913.33333333 , 4137.94871795 , 4141.02564103 , 2045.0 , 2038.0 , 341.762 , 0.0 , 0.0 , 0.0 , 0.0 , 

42.0 , 4136.41025641 , 4131.79487179 , 4142.05128205 , 4133.33333333 , 4135.8974359 , 4133.84615385 , 4127.17948718 , 4129.23076923 , 4138.46153846 , 4136.92307692 , 4190.76923077 , 4915.8974359 , 4134.87179487 , 4146.15384615 , 2045.0 , 2037.0 , 341.771 , 0.0 , 0.0 , 0.0 , 0.0 , 

43.0 , 4134.35897436 , 4131.28205128 , 4141.02564103 , 4137.43589744 , 4135.8974359 , 4129.74358974 , 4129.74358974 , 4131.28205128 , 4135.8974359 , 4137.94871795 , 4196.92307692 , 4916.92307692 , 4134.87179487 , 4142.56410256 , 2044.0 , 2036.0 , 341.779 , 0.0 , 0.0 , 0.0 , 0.0 , 

44.0 , 4131.79487179 , 4131.28205128 , 4136.92307692 , 4137.43589744 , 4135.8974359 , 4129.23076923 , 4130.76923077 , 4131.79487179 , 4133.33333333 , 4140.51282051 , 4194.87179487 , 4913.84615385 , 4138.46153846 , 4140.0 , 2044.0 , 2037.0 , 341.79 , 0.0 , 0.0 , 0.0 , 0.0 , 

45.0 , 4134.35897436 , 4131.28205128 , 4132.30769231 , 4133.33333333 , 4135.8974359 , 4132.30769231 , 4131.79487179 , 4130.25641026 , 4135.8974359 , 4139.48717949 , 4186.66666667 , 4910.25641026 , 4137.43589744 , 4142.05128205 , 2043.0 , 2038.0 , 341.792 , 0.0 , 0.0 , 0.0 , 0.0 , 

46.0 , 4134.87179487 , 4129.23076923 , 4133.33333333 , 4134.87179487 , 4135.8974359 , 4131.79487179 , 4132.30769231 , 4131.28205128 , 4138.46153846 , 4137.94871795 , 4190.76923077 , 4910.76923077 , 4133.33333333 , 4141.02564103 , 2042.0 , 2039.0 , 341.803 , 0.0 , 0.0 , 0.0 , 0.0 , 

47.0 , 4134.35897436 , 4129.74358974 , 4136.92307692 , 4133.33333333 , 4135.8974359 , 4130.25641026 , 4131.28205128 , 4133.84615385 , 4133.84615385 , 4138.46153846 , 4194.35897436 , 4909.23076923 , 4135.8974359 , 4140.0 , 2041.0 , 2040.0 , 341.815 , 0.0 , 0.0 , 0.0 , 0.0 , 

48.0 , 4135.38461538 , 4131.79487179 , 4134.87179487 , 4130.76923077 , 4135.8974359 , 4129.74358974 , 4128.20512821 , 4135.8974359 , 4130.76923077 , 4138.97435897 , 4189.23076923 , 4909.74358974 , 4138.97435897 , 4137.94871795 , 2041.0 , 2040.0 , 341.828 , 0.0 , 0.0 , 0.0 , 0.0 , 

49.0 , 4136.41025641 , 4131.79487179 , 4132.30769231 , 4135.38461538 , 4135.8974359 , 4129.23076923 , 4126.15384615 , 4135.38461538 , 4135.38461538 , 4138.46153846 , 4191.28205128 , 4915.38461538 , 4136.92307692 , 4137.94871795 , 2041.0 , 2042.0 , 341.829 , 0.0 , 0.0 , 0.0 , 0.0 , 

50.0 , 4134.35897436 , 4130.76923077 , 4133.84615385 , 4138.97435897 , 4135.8974359 , 4130.25641026 , 4128.71794872 , 4134.35897436 , 4137.94871795 , 4138.97435897 , 4199.48717949 , 4914.87179487 , 4136.41025641 , 4142.56410256 , 2042.0 , 2042.0 , 341.835 , 0.0 , 0.0 , 0.0 , 0.0 , 

51.0 , 4133.33333333 , 4130.76923077 , 4134.35897436 , 4135.38461538 , 4135.8974359 , 4130.25641026 , 4131.79487179 , 4134.87179487 , 4136.92307692 , 4138.97435897 , 4198.46153846 , 4908.71794872 , 4138.97435897 , 4144.1025641 , 2043.0 , 2041.0 , 341.842 , 0.0 , 0.0 , 0.0 , 0.0 , 

52.0 , 4134.35897436 , 4132.82051282 , 4130.76923077 , 4135.38461538 , 4135.8974359 , 4129.74358974 , 4129.23076923 , 4133.33333333 , 4137.94871795 , 4140.51282051 , 4190.76923077 , 4910.25641026 , 4137.43589744 , 4138.46153846 , 2045.0 , 2041.0 , 341.854 , 0.0 , 0.0 , 0.0 , 0.0 , 

53.0 , 4133.33333333 , 4133.33333333 , 4131.28205128 , 4137.43589744 , 4135.8974359 , 4133.84615385 , 4128.71794872 , 4134.87179487 , 4138.46153846 , 4139.48717949 , 4191.79487179 , 4912.82051282 , 4134.87179487 , 4136.92307692 , 2046.0 , 2042.0 , 341.857 , 0.0 , 0.0 , 0.0 , 0.0 , 

54.0 , 4131.79487179 , 4129.74358974 , 4133.84615385 , 4135.8974359 , 4135.8974359 , 4136.41025641 , 4129.74358974 , 4136.92307692 , 4138.46153846 , 4137.94871795 , 4193.33333333 , 4910.76923077 , 4136.41025641 , 4141.02564103 , 2050.0 , 2043.0 , 341.865 , 0.0 , 0.0 , 0.0 , 0.0 , 

55.0 , 4133.33333333 , 4127.69230769 , 4132.30769231 , 4137.43589744 , 4135.8974359 , 4131.28205128 , 4127.17948718 , 4136.41025641 , 4138.97435897 , 4139.48717949 , 4186.15384615 , 4910.76923077 , 4137.43589744 , 4141.02564103 , 2051.0 , 2042.0 , 341.874 , 0.0 , 0.0 , 0.0 , 0.0 , 

56.0 , 4134.35897436 , 4131.79487179 , 4131.28205128 , 4137.94871795 , 4135.8974359 , 4128.71794872 , 4127.69230769 , 4137.94871795 , 4138.46153846 , 4140.51282051 , 4183.58974359 , 4910.25641026 , 4134.35897436 , 4138.46153846 , 2051.0 , 2039.0 , 341.886 , 0.0 , 0.0 , 0.0 , 0.0 , 

57.0 , 4132.30769231 , 4132.82051282 , 4133.33333333 , 4136.41025641 , 4135.8974359 , 4132.82051282 , 4131.28205128 , 4135.8974359 , 4138.46153846 , 4137.43589744 , 4191.28205128 , 4910.25641026 , 4133.84615385 , 4137.94871795 , 2053.0 , 2037.0 , 341.897 , 0.0 , 0.0 , 0.0 , 0.0 , 

57.0 , 4132.30769231 , 4132.82051282 , 4133.33333333 , 4136.41025641 , 4135.8974359 , 4132.82051282 , 4131.28205128 , 4135.8974359 , 4138.46153846 , 4137.43589744 , 4191.28205128 , 4910.25641026 , 4133.84615385 , 4137.94871795 , 2053.0 , 2037.0 , 341.91 , 0.0 , 0.0 , 0.0 , 0.0 , 

58.0 , 4130.25641026 , 4130.25641026 , 4133.33333333 , 4136.92307692 , 4135.8974359 , 4130.76923077 , 4130.25641026 , 4135.38461538 , 4140.51282051 , 4135.8974359 , 4195.38461538 , 4911.79487179 , 4138.46153846 , 4138.97435897 , 2055.0 , 2031.0 , 341.921 , 0.0 , 0.0 , 0.0 , 0.0 , 

59.0 , 4128.71794872 , 4131.28205128 , 4132.82051282 , 4134.87179487 , 4135.8974359 , 4129.23076923 , 4129.74358974 , 4137.94871795 , 4138.97435897 , 4138.46153846 , 4191.79487179 , 4911.79487179 , 4137.94871795 , 4138.46153846 , 2054.0 , 2027.0 , 341.927 , 0.0 , 0.0 , 0.0 , 0.0 , 

60.0 , 4129.74358974 , 4132.30769231 , 4132.82051282 , 4132.82051282 , 4135.8974359 , 4136.41025641 , 4132.82051282 , 4137.43589744 , 4138.97435897 , 4139.48717949 , 4187.69230769 , 4909.23076923 , 4133.33333333 , 4138.46153846 , 2052.0 , 2023.0 , 341.929 , 0.0 , 0.0 , 0.0 , 0.0 , 

61.0 , 4131.79487179 , 4129.74358974 , 4133.33333333 , 4133.84615385 , 4135.8974359 , 4135.8974359 , 4131.79487179 , 4134.35897436 , 4138.97435897 , 4136.41025641 , 4190.25641026 , 4908.71794872 , 4132.82051282 , 4138.97435897 , 2047.0 , 2015.0 , 341.94 , 0.0 , 0.0 , 0.0 , 0.0 , 

70.0 , 4136.92307692 , 4131.79487179 , 4134.87179487 , 4137.43589744 , 4135.8974359 , 4129.23076923 , 4129.74358974 , 4131.79487179 , 4132.30769231 , 4138.97435897 , 4189.23076923 , 4911.79487179 , 4135.38461538 , 4144.61538462 , 2038.0 , 2037.0 , 341.973 , 0.0 , 0.0 , 0.0 , 0.0 , 

71.0 , 4136.92307692 , 4132.82051282 , 4134.35897436 , 4136.92307692 , 4135.8974359 , 4128.71794872 , 4127.69230769 , 4130.25641026 , 4137.94871795 , 4138.97435897 , 4189.74358974 , 4909.74358974 , 4137.43589744 , 4144.1025641 , 2040.0 , 2036.0 , 341.985 , 0.0 , 0.0 , 0.0 , 0.0 , 

72.0 , 4139.48717949 , 4132.30769231 , 4136.92307692 , 4137.94871795 , 4135.8974359 , 4130.76923077 , 4130.76923077 , 4133.84615385 , 4140.51282051 , 4140.51282051 , 4192.82051282 , 4912.30769231 , 4140.0 , 4139.48717949 , 2044.0 , 2036.0 , 341.985 , 0.0 , 0.0 , 0.0 , 0.0 , 

73.0 , 4142.56410256 , 4131.28205128 , 4137.43589744 , 4134.87179487 , 4135.8974359 , 4131.79487179 , 4131.28205128 , 4139.48717949 , 4139.48717949 , 4140.0 , 4193.84615385 , 4914.35897436 , 4137.94871795 , 4141.02564103 , 2045.0 , 2037.0 , 341.988 , 0.0 , 0.0 , 0.0 , 0.0 , 

74.0 , 4140.51282051 , 4133.33333333 , 4133.33333333 , 4134.35897436 , 4135.8974359 , 4130.76923077 , 4127.17948718 , 4139.48717949 , 4139.48717949 , 4139.48717949 , 4192.82051282 , 4910.25641026 , 4137.43589744 , 4145.64102564 , 2048.0 , 2037.0 , 342.017 , 0.0 , 0.0 , 0.0 , 0.0 , 

75.0 , 4133.33333333 , 4133.84615385 , 4132.30769231 , 4137.94871795 , 4135.8974359 , 4131.28205128 , 4129.74358974 , 4137.43589744 , 4139.48717949 , 4140.0 , 4192.30769231 , 4905.64102564 , 4138.46153846 , 4141.02564103 , 2051.0 , 2039.0 , 342.023 , 0.0 , 0.0 , 0.0 , 0.0 , 

76.0 , 4129.74358974 , 4131.28205128 , 4135.38461538 , 4138.46153846 , 4135.8974359 , 4131.79487179 , 4130.76923077 , 4137.43589744 , 4138.97435897 , 4138.46153846 , 4191.79487179 , 4907.69230769 , 4136.92307692 , 4137.94871795 , 2051.0 , 2039.0 , 342.027 , 0.0 , 0.0 , 0.0 , 0.0 , 

77.0 , 4130.25641026 , 4129.23076923 , 4134.35897436 , 4136.41025641 , 4135.8974359 , 4131.28205128 , 4127.69230769 , 4138.97435897 , 4138.46153846 , 4137.94871795 , 4193.84615385 , 4911.28205128 , 4136.41025641 , 4140.0 , 2053.0 , 2038.0 , 342.032 , 0.0 , 0.0 , 0.0 , 0.0 , 

77.0 , 4130.25641026 , 4129.23076923 , 4134.35897436 , 4136.41025641 , 4135.8974359 , 4131.28205128 , 4127.69230769 , 4138.97435897 , 4138.46153846 , 4137.94871795 , 4193.84615385 , 4911.28205128 , 4136.41025641 , 4140.0 , 2053.0 , 2038.0 , 342.058 , 0.0 , 0.0 , 0.0 , 0.0 , 

78.0 , 4130.76923077 , 4128.71794872 , 4131.79487179 , 4135.8974359 , 4135.8974359 , 4133.33333333 , 4130.25641026 , 4137.94871795 , 4136.92307692 , 4141.02564103 , 4196.92307692 , 4912.30769231 , 4135.8974359 , 4137.43589744 , 2052.0 , 2038.0 , 342.067 , 0.0 , 0.0 , 0.0 , 0.0 , 

79.0 , 4131.79487179 , 4130.25641026 , 4132.82051282 , 4137.94871795 , 4135.8974359 , 4135.8974359 , 4135.38461538 , 4136.41025641 , 4138.97435897 , 4142.56410256 , 4195.38461538 , 4910.76923077 , 4136.41025641 , 4135.8974359 , 2053.0 , 2036.0 , 342.069 , 0.0 , 0.0 , 0.0 , 0.0 , 

80.0 , 4129.74358974 , 4130.25641026 , 4131.28205128 , 4137.94871795 , 4135.8974359 , 4136.92307692 , 4132.30769231 , 4132.82051282 , 4139.48717949 , 4142.56410256 , 4191.79487179 , 4910.25641026 , 4136.92307692 , 4138.97435897 , 2053.0 , 2035.0 , 342.069 , 0.0 , 0.0 , 0.0 , 0.0 , 

81.0 , 4129.74358974 , 4128.20512821 , 4128.71794872 , 4136.41025641 , 4135.8974359 , 4133.33333333 , 4130.25641026 , 4134.87179487 , 4138.46153846 , 4141.53846154 , 4194.35897436 , 4911.79487179 , 4135.8974359 , 4141.53846154 , 2052.0 , 2034.0 , 342.105 , 0.0 , 0.0 , 0.0 , 0.0 , 

82.0 , 4130.76923077 , 4127.69230769 , 4128.71794872 , 4135.8974359 , 4135.8974359 , 4132.30769231 , 4129.74358974 , 4138.97435897 , 4137.43589744 , 4138.97435897 , 4193.84615385 , 4913.84615385 , 4133.84615385 , 4144.1025641 , 2052.0 , 2034.0 , 342.112 , 0.0 , 0.0 , 0.0 , 0.0 , 

91.0 , 4132.82051282 , 4131.28205128 , 4131.79487179 , 4136.41025641 , 4135.8974359 , 4131.28205128 , 4131.28205128 , 4138.46153846 , 4137.94871795 , 4141.02564103 , 4192.82051282 , 4911.28205128 , 4137.43589744 , 4140.0 , 2062.0 , 2040.0 , 342.138 , 0.0 , 0.0 , 0.0 , 0.0 , 

92.0 , 4133.33333333 , 4131.79487179 , 4130.76923077 , 4138.46153846 , 4135.8974359 , 4130.25641026 , 4130.76923077 , 4137.94871795 , 4138.97435897 , 4138.97435897 , 4189.23076923 , 4907.17948718 , 4137.94871795 , 4138.97435897 , 2062.0 , 2040.0 , 342.162 , 0.0 , 0.0 , 0.0 , 0.0 , 

93.0 , 4130.25641026 , 4133.33333333 , 4129.74358974 , 4138.97435897 , 4135.8974359 , 4134.35897436 , 4130.25641026 , 4134.87179487 , 4138.46153846 , 4135.8974359 , 4190.25641026 , 4906.15384615 , 4136.92307692 , 4137.94871795 , 2061.0 , 2040.0 , 342.202 , 0.0 , 0.0 , 0.0 , 0.0 , 

94.0 , 4126.15384615 , 4130.25641026 , 4128.71794872 , 4137.94871795 , 4135.8974359 , 4131.28205128 , 4130.25641026 , 4134.35897436 , 4136.92307692 , 4137.94871795 , 4195.8974359 , 4909.74358974 , 4135.8974359 , 4138.46153846 , 2060.0 , 2038.0 , 342.216 , 0.0 , 0.0 , 0.0 , 0.0 , 

95.0 , 4126.66666667 , 4125.12820513 , 4132.30769231 , 4136.92307692 , 4135.8974359 , 4128.71794872 , 4130.25641026 , 4135.38461538 , 4135.38461538 , 4138.97435897 , 4193.33333333 , 4911.79487179 , 4135.38461538 , 4137.43589744 , 2059.0 , 2033.0 , 342.216 , 0.0 , 0.0 , 0.0 , 0.0 , 

96.0 , 4130.25641026 , 4129.23076923 , 4133.33333333 , 4137.43589744 , 4135.8974359 , 4137.43589744 , 4131.79487179 , 4138.46153846 , 4136.92307692 , 4136.92307692 , 4187.69230769 , 4913.33333333 , 4136.41025641 , 4136.41025641 , 2054.0 , 2030.0 , 342.216 , 0.0 , 0.0 , 0.0 , 0.0 , 

97.0 , 4130.76923077 , 4136.41025641 , 4129.74358974 , 4136.92307692 , 4135.8974359 , 4139.48717949 , 4132.82051282 , 4136.92307692 , 4137.94871795 , 4136.92307692 , 4192.82051282 , 4914.35897436 , 4137.43589744 , 4138.97435897 , 2051.0 , 2028.0 , 342.231 , 0.0 , 0.0 , 0.0 , 0.0 , 

106.0 , 4136.92307692 , 4136.92307692 , 4134.87179487 , 4135.8974359 , 4135.8974359 , 4133.33333333 , 4131.28205128 , 4131.28205128 , 4132.82051282 , 4140.0 , 4190.25641026 , 4909.74358974 , 4137.43589744 , 4142.56410256 , 2028.0 , 2031.0 , 342.282 , 0.0 , 0.0 , 0.0 , 0.0 , 

107.0 , 4141.02564103 , 4133.33333333 , 4136.92307692 , 4140.0 , 4135.8974359 , 4136.41025641 , 4128.71794872 , 4130.76923077 , 4127.17948718 , 4136.41025641 , 4187.69230769 , 4913.84615385 , 4137.94871795 , 4140.51282051 , 2030.0 , 2034.0 , 342.286 , 0.0 , 0.0 , 0.0 , 0.0 , 

108.0 , 4142.05128205 , 4135.38461538 , 4138.46153846 , 4139.48717949 , 4135.8974359 , 4132.30769231 , 4128.20512821 , 4133.33333333 , 4129.74358974 , 4135.8974359 , 4190.25641026 , 4913.84615385 , 4134.35897436 , 4141.53846154 , 2031.0 , 2035.0 , 342.288 , 0.0 , 0.0 , 0.0 , 0.0 , 

109.0 , 4141.53846154 , 4136.92307692 , 4139.48717949 , 4139.48717949 , 4135.8974359 , 4129.23076923 , 4131.79487179 , 4135.38461538 , 4138.46153846 , 4138.97435897 , 4192.30769231 , 4911.79487179 , 4135.8974359 , 4142.05128205 , 2032.0 , 2037.0 , 342.318 , 0.0 , 0.0 , 0.0 , 0.0 , 

110.0 , 4142.56410256 , 4134.35897436 , 4137.43589744 , 4137.43589744 , 4135.8974359 , 4130.76923077 , 4131.28205128 , 4137.43589744 , 4138.97435897 , 4137.43589744 , 4185.64102564 , 4910.76923077 , 4137.43589744 , 4140.51282051 , 2035.0 , 2038.0 , 342.324 , 0.0 , 0.0 , 0.0 , 0.0 , 

111.0 , 4142.05128205 , 4131.79487179 , 4136.41025641 , 4134.35897436 , 4135.8974359 , 4130.76923077 , 4126.66666667 , 4134.87179487 , 4132.30769231 , 4136.41025641 , 4184.1025641 , 4913.84615385 , 4136.41025641 , 4142.05128205 , 2036.0 , 2040.0 , 342.336 , 0.0 , 0.0 , 0.0 , 0.0 , 

112.0 , 4139.48717949 , 4132.30769231 , 4138.97435897 , 4136.41025641 , 4135.8974359 , 4127.69230769 , 4127.69230769 , 4133.33333333 , 4131.79487179 , 4140.0 , 4190.25641026 , 4915.8974359 , 4136.92307692 , 4144.1025641 , 2039.0 , 2042.0 , 342.338 , 0.0 , 0.0 , 0.0 , 0.0 , 

113.0 , 4139.48717949 , 4133.84615385 , 4136.41025641 , 4138.97435897 , 4135.8974359 , 4128.71794872 , 4132.30769231 , 4135.38461538 , 4137.43589744 , 4141.02564103 , 4191.79487179 , 4912.30769231 , 4138.46153846 , 4143.07692308 , 2040.0 , 2044.0 , 342.346 , 0.0 , 0.0 , 0.0 , 0.0 , 

114.0 , 4138.46153846 , 4132.30769231 , 4133.33333333 , 4136.41025641 , 4135.8974359 , 4130.25641026 , 4130.25641026 , 4133.33333333 , 4137.94871795 , 4137.43589744 , 4190.25641026 , 4909.74358974 , 4137.43589744 , 4144.1025641 , 2044.0 , 2043.0 , 342.358 , 0.0 , 0.0 , 0.0 , 0.0 , 

115.0 , 4133.84615385 , 4131.28205128 , 4136.41025641 , 4133.84615385 , 4135.8974359 , 4130.25641026 , 4129.23076923 , 4130.25641026 , 4133.33333333 , 4136.92307692 , 4195.8974359 , 4910.76923077 , 4137.43589744 , 4144.61538462 , 2045.0 , 2042.0 , 342.364 , 0.0 , 0.0 , 0.0 , 0.0 , 

116.0 , 4133.84615385 , 4132.30769231 , 4137.43589744 , 4134.87179487 , 4135.8974359 , 4131.28205128 , 4131.28205128 , 4132.30769231 , 4133.33333333 , 4139.48717949 , 4195.38461538 , 4913.33333333 , 4137.94871795 , 4141.02564103 , 2046.0 , 2040.0 , 342.372 , 0.0 , 0.0 , 0.0 , 0.0 , 

117.0 , 4135.8974359 , 4132.30769231 , 4136.92307692 , 4138.46153846 , 4135.8974359 , 4132.82051282 , 4131.28205128 , 4138.46153846 , 4138.46153846 , 4140.51282051 , 4189.23076923 , 4914.35897436 , 4136.41025641 , 4138.97435897 , 2046.0 , 2040.0 , 342.38 , 0.0 , 0.0 , 0.0 , 0.0 , 

118.0 , 4132.30769231 , 4129.74358974 , 4136.92307692 , 4135.38461538 , 4135.8974359 , 4131.28205128 , 4128.71794872 , 4138.97435897 , 4139.48717949 , 4139.48717949 , 4188.71794872 , 4913.84615385 , 4135.8974359 , 4143.07692308 , 2048.0 , 2040.0 , 342.394 , 0.0 , 0.0 , 0.0 , 0.0 , 

127.0 , 4130.76923077 , 4132.82051282 , 4131.79487179 , 4137.94871795 , 4135.8974359 , 4133.84615385 , 4130.76923077 , 4138.97435897 , 4137.94871795 , 4140.0 , 4192.30769231 , 4909.23076923 , 4138.97435897 , 4140.51282051 , 2057.0 , 2038.0 , 342.435 , 0.0 , 0.0 , 0.0 , 0.0 , 

128.0 , 4129.74358974 , 4130.25641026 , 4130.25641026 , 4137.94871795 , 4135.8974359 , 4134.35897436 , 4132.30769231 , 4137.94871795 , 4137.94871795 , 4141.53846154 , 4192.30769231 , 4908.71794872 , 4138.46153846 , 4137.94871795 , 2055.0 , 2036.0 , 342.438 , 0.0 , 0.0 , 0.0 , 0.0 , 

0.0 , 4130.76923077 , 4129.74358974 , 4129.23076923 , 4138.46153846 , 4135.8974359 , 4132.30769231 , 4130.76923077 , 4140.51282051 , 4139.48717949 , 4138.46153846 , 4186.66666667 , 4910.25641026 , 4137.94871795 , 4136.41025641 , 2056.0 , 2035.0 , 342.45 , 0.0 , 0.0 , 0.0 , 0.0 , 

1.0 , 4131.79487179 , 4131.28205128 , 4130.76923077 , 4135.38461538 , 4135.8974359 , 4130.25641026 , 4130.25641026 , 4141.53846154 , 4139.48717949 , 4136.41025641 , 4185.64102564 , 4910.76923077 , 4136.41025641 , 4137.94871795 , 2054.0 , 2031.0 , 342.471 , 0.0 , 0.0 , 0.0 , 0.0 , 

2.0 , 4129.23076923 , 4131.28205128 , 4132.30769231 , 4134.87179487 , 4135.8974359 , 4132.30769231 , 4133.33333333 , 4138.46153846 , 4137.43589744 , 4137.94871795 , 4187.69230769 , 4909.23076923 , 4136.41025641 , 4137.94871795 , 2052.0 , 2031.0 , 342.475 , 0.0 , 0.0 , 0.0 , 0.0 , 

2.0 , 4129.23076923 , 4131.28205128 , 4132.30769231 , 4134.87179487 , 4135.8974359 , 4132.30769231 , 4133.33333333 , 4138.46153846 , 4137.43589744 , 4137.94871795 , 4187.69230769 , 4909.23076923 , 4136.41025641 , 4137.94871795 , 2052.0 , 2031.0 , 342.498 , 0.0 , 0.0 , 0.0 , 0.0 , 

3.0 , 4128.20512821 , 4130.25641026 , 4128.71794872 , 4137.43589744 , 4135.8974359 , 4134.87179487 , 4133.33333333 , 4137.43589744 , 4138.46153846 , 4138.97435897 , 4186.15384615 , 4909.23076923 , 4138.97435897 , 4137.94871795 , 2051.0 , 2028.0 , 342.501 , 0.0 , 0.0 , 0.0 , 0.0 , 

12.0 , 4133.84615385 , 4133.84615385 , 4136.41025641 , 4136.92307692 , 4135.8974359 , 4128.71794872 , 4126.66666667 , 4132.82051282 , 4136.41025641 , 4137.94871795 , 4191.28205128 , 4910.76923077 , 4135.8974359 , 4138.46153846 , 2038.0 , 2037.0 , 342.57 , 0.0 , 0.0 , 0.0 , 0.0 , 

13.0 , 4136.41025641 , 4133.84615385 , 4135.8974359 , 4137.94871795 , 4135.8974359 , 4130.76923077 , 4131.28205128 , 4133.33333333 , 4138.97435897 , 4138.97435897 , 4187.69230769 , 4911.79487179 , 4136.92307692 , 4141.02564103 , 2038.0 , 2036.0 , 342.573 , 0.0 , 0.0 , 0.0 , 0.0 , 

14.0 , 4136.92307692 , 4132.30769231 , 4132.82051282 , 4137.94871795 , 4135.8974359 , 4134.35897436 , 4131.79487179 , 4136.41025641 , 4136.41025641 , 4137.94871795 , 4188.71794872 , 4909.23076923 , 4137.94871795 , 4142.56410256 , 2038.0 , 2036.0 , 342.576 , 0.0 , 0.0 , 0.0 , 0.0 , 

15.0 , 4136.92307692 , 4132.82051282 , 4132.82051282 , 4137.43589744 , 4135.8974359 , 4133.33333333 , 4128.20512821 , 4134.87179487 , 4133.84615385 , 4137.43589744 , 4190.76923077 , 4909.74358974 , 4135.8974359 , 4140.0 , 2038.0 , 2033.0 , 342.584 , 0.0 , 0.0 , 0.0 , 0.0 , 

16.0 , 4135.38461538 , 4132.30769231 , 4135.38461538 , 4137.94871795 , 4135.8974359 , 4130.25641026 , 4129.23076923 , 4131.79487179 , 4136.41025641 , 4138.97435897 , 4190.76923077 , 4912.30769231 , 4136.41025641 , 4139.48717949 , 2038.0 , 2032.0 , 342.594 , 0.0 , 0.0 , 0.0 , 0.0 , 

17.0 , 4131.79487179 , 4131.28205128 , 4137.43589744 , 4137.94871795 , 4135.8974359 , 4129.74358974 , 4131.28205128 , 4130.76923077 , 4137.94871795 , 4137.94871795 , 4190.76923077 , 4912.30769231 , 4138.97435897 , 4141.53846154 , 2037.0 , 2032.0 , 342.594 , 0.0 , 0.0 , 0.0 , 0.0 , 

18.0 , 4134.87179487 , 4132.30769231 , 4139.48717949 , 4137.43589744 , 4135.8974359 , 4132.30769231 , 4130.76923077 , 4135.38461538 , 4137.43589744 , 4138.97435897 , 4189.23076923 , 4911.28205128 , 4137.43589744 , 4141.53846154 , 2036.0 , 2030.0 , 342.599 , 0.0 , 0.0 , 0.0 , 0.0 , 

19.0 , 4138.46153846 , 4133.84615385 , 4140.51282051 , 4138.46153846 , 4135.8974359 , 4129.74358974 , 4130.25641026 , 4134.35897436 , 4134.87179487 , 4140.0 , 4186.15384615 , 4913.84615385 , 4136.41025641 , 4137.94871795 , 2035.0 , 2027.0 , 342.616 , 0.0 , 0.0 , 0.0 , 0.0 , 

19.0 , 4138.46153846 , 4133.84615385 , 4140.51282051 , 4138.46153846 , 4135.8974359 , 4129.74358974 , 4130.25641026 , 4134.35897436 , 4134.87179487 , 4140.0 , 4186.15384615 , 4913.84615385 , 4136.41025641 , 4137.94871795 , 2035.0 , 2027.0 , 342.631 , 0.0 , 0.0 , 0.0 , 0.0 , 

20.0 , 4135.8974359 , 4133.33333333 , 4138.46153846 , 4138.46153846 , 4135.8974359 , 4127.17948718 , 4130.76923077 , 4129.23076923 , 4132.30769231 , 4137.94871795 , 4187.69230769 , 4915.8974359 , 4136.41025641 , 4140.0 , 2033.0 , 2025.0 , 342.647 , 0.0 , 0.0 , 0.0 , 0.0 , 

29.0 , 4141.53846154 , 4130.76923077 , 4139.48717949 , 4131.28205128 , 4135.8974359 , 4134.87179487 , 4129.74358974 , 4130.76923077 , 4131.28205128 , 4138.46153846 , 4188.20512821 , 4912.82051282 , 4136.41025641 , 4142.05128205 , 2029.0 , 2033.0 , 342.686 , 0.0 , 0.0 , 0.0 , 0.0 , 

30.0 , 4138.97435897 , 4132.82051282 , 4141.02564103 , 4134.35897436 , 4135.8974359 , 4131.79487179 , 4128.20512821 , 4131.79487179 , 4134.87179487 , 4137.94871795 , 4190.25641026 , 4911.28205128 , 4135.38461538 , 4147.17948718 , 2030.0 , 2032.0 , 342.689 , 0.0 , 0.0 , 0.0 , 0.0 , 

31.0 , 4137.94871795 , 4129.23076923 , 4142.56410256 , 4133.84615385 , 4135.8974359 , 4128.71794872 , 4127.69230769 , 4129.23076923 , 4137.94871795 , 4138.97435897 , 4190.25641026 , 4913.33333333 , 4133.84615385 , 4144.61538462 , 2034.0 , 2030.0 , 342.7 , 0.0 , 0.0 , 0.0 , 0.0 , 

32.0 , 4141.02564103 , 4127.17948718 , 4142.05128205 , 4134.87179487 , 4135.8974359 , 4127.17948718 , 4129.23076923 , 4132.82051282 , 4137.94871795 , 4140.51282051 , 4187.69230769 , 4915.8974359 , 4137.94871795 , 4148.20512821 , 2037.0 , 2032.0 , 342.704 , 0.0 , 0.0 , 0.0 , 0.0 , 

33.0 , 4142.05128205 , 4131.28205128 , 4143.07692308 , 4137.43589744 , 4135.8974359 , 4129.23076923 , 4130.76923077 , 4136.92307692 , 4136.92307692 , 4141.02564103 , 4188.71794872 , 4914.87179487 , 4140.0 , 4153.84615385 , 2038.0 , 2036.0 , 342.704 , 0.0 , 0.0 , 0.0 , 0.0 , 

34.0 , 4137.43589744 , 4133.84615385 , 4143.58974359 , 4136.41025641 , 4135.8974359 , 4132.82051282 , 4130.25641026 , 4134.87179487 , 4137.94871795 , 4140.51282051 , 4189.74358974 , 4911.28205128 , 4138.46153846 , 4147.69230769 , 2042.0 , 2037.0 , 342.718 , 0.0 , 0.0 , 0.0 , 0.0 , 

35.0 , 4135.38461538 , 4132.82051282 , 4140.0 , 4135.38461538 , 4135.8974359 , 4132.30769231 , 4128.71794872 , 4134.35897436 , 4136.92307692 , 4138.97435897 , 4187.69230769 , 4912.30769231 , 4139.48717949 , 4140.0 , 2042.0 , 2040.0 , 342.724 , 0.0 , 0.0 , 0.0 , 0.0 , 

36.0 , 4137.94871795 , 4133.84615385 , 4135.8974359 , 4133.84615385 , 4135.8974359 , 4131.28205128 , 4128.20512821 , 4137.94871795 , 4135.8974359 , 4135.8974359 , 4190.25641026 , 4913.84615385 , 4139.48717949 , 4141.02564103 , 2045.0 , 2042.0 , 342.744 , 0.0 , 0.0 , 0.0 , 0.0 , 

37.0 , 4136.92307692 , 4134.35897436 , 4137.43589744 , 4131.79487179 , 4135.8974359 , 4134.35897436 , 4129.74358974 , 4136.92307692 , 4137.94871795 , 4135.38461538 , 4192.82051282 , 4910.25641026 , 4137.43589744 , 4142.56410256 , 2046.0 , 2043.0 , 342.75 , 0.0 , 0.0 , 0.0 , 0.0 , 

38.0 , 4132.30769231 , 4131.79487179 , 4136.92307692 , 4131.79487179 , 4135.8974359 , 4134.35897436 , 4130.25641026 , 4133.84615385 , 4137.94871795 , 4139.48717949 , 4192.30769231 , 4909.74358974 , 4138.46153846 , 4141.53846154 , 2051.0 , 2045.0 , 342.761 , 0.0 , 0.0 , 0.0 , 0.0 , 

39.0 , 4133.33333333 , 4130.76923077 , 4132.82051282 , 4132.82051282 , 4135.8974359 , 4131.79487179 , 4131.28205128 , 4136.92307692 , 4136.92307692 , 4140.51282051 , 4192.82051282 , 4911.79487179 , 4138.46153846 , 4141.53846154 , 2051.0 , 2045.0 , 342.791 , 0.0 , 0.0 , 0.0 , 0.0 , 

40.0 , 4133.84615385 , 4130.25641026 , 4135.38461538 , 4132.82051282 , 4135.8974359 , 4131.79487179 , 4134.35897436 , 4138.46153846 , 4135.8974359 , 4139.48717949 , 4193.84615385 , 4910.25641026 , 4135.8974359 , 4141.02564103 , 2051.0 , 2044.0 , 342.804 , 0.0 , 0.0 , 0.0 , 0.0 , 

49.0 , 4131.79487179 , 4129.74358974 , 4134.87179487 , 4138.97435897 , 4135.8974359 , 4135.8974359 , 4134.35897436 , 4134.35897436 , 4135.8974359 , 4140.51282051 , 4190.76923077 , 4912.82051282 , 4136.92307692 , 4140.51282051 , 2043.0 , 2020.0 , 342.829 , 0.0 , 0.0 , 0.0 , 0.0 , 

50.0 , 4133.33333333 , 4132.82051282 , 4132.82051282 , 4138.97435897 , 4135.8974359 , 4136.41025641 , 4132.82051282 , 4135.38461538 , 4135.38461538 , 4138.97435897 , 4191.28205128 , 4913.84615385 , 4136.92307692 , 4140.0 , 2040.0 , 2014.0 , 342.831 , 0.0 , 0.0 , 0.0 , 0.0 , 

51.0 , 4132.82051282 , 4134.87179487 , 4133.33333333 , 4137.43589744 , 4135.8974359 , 4129.74358974 , 4129.23076923 , 4136.41025641 , 4130.76923077 , 4136.92307692 , 4191.28205128 , 4917.43589744 , 4138.46153846 , 4140.51282051 , 2038.0 , 2013.0 , 342.847 , 0.0 , 0.0 , 0.0 , 0.0 , 

52.0 , 4133.84615385 , 4133.84615385 , 4136.92307692 , 4135.8974359 , 4135.8974359 , 4128.20512821 , 4129.74358974 , 4134.35897436 , 4131.79487179 , 4138.97435897 , 4190.76923077 , 4915.8974359 , 4139.48717949 , 4141.02564103 , 2034.0 , 2014.0 , 342.853 , 0.0 , 0.0 , 0.0 , 0.0 , 

53.0 , 4135.8974359 , 4131.79487179 , 4136.41025641 , 4134.87179487 , 4135.8974359 , 4130.76923077 , 4131.28205128 , 4130.25641026 , 4132.82051282 , 4140.0 , 4191.79487179 , 4911.79487179 , 4138.46153846 , 4140.51282051 , 2033.0 , 2014.0 , 342.864 , 0.0 , 0.0 , 0.0 , 0.0 , 

54.0 , 4135.8974359 , 4133.33333333 , 4131.79487179 , 4133.33333333 , 4135.8974359 , 4131.28205128 , 4130.76923077 , 4129.74358974 , 4131.28205128 , 4139.48717949 , 4191.79487179 , 4908.71794872 , 4136.41025641 , 4143.07692308 , 2032.0 , 2021.0 , 342.881 , 0.0 , 0.0 , 0.0 , 0.0 , 

55.0 , 4134.87179487 , 4134.35897436 , 4133.33333333 , 4135.38461538 , 4135.8974359 , 4126.66666667 , 4128.20512821 , 4132.30769231 , 4131.79487179 , 4142.56410256 , 4192.82051282 , 4909.74358974 , 4134.87179487 , 4144.1025641 , 2031.0 , 2024.0 , 342.912 , 0.0 , 0.0 , 0.0 , 0.0 , 

56.0 , 4137.94871795 , 4131.79487179 , 4137.43589744 , 4137.94871795 , 4135.8974359 , 4127.17948718 , 4126.66666667 , 4131.28205128 , 4132.82051282 , 4142.56410256 , 4194.35897436 , 4913.84615385 , 4135.38461538 , 4140.51282051 , 2031.0 , 2027.0 , 342.915 , 0.0 , 0.0 , 0.0 , 0.0 , 

57.0 , 4138.46153846 , 4132.30769231 , 4138.97435897 , 4136.41025641 , 4135.8974359 , 4129.23076923 , 4128.20512821 , 4130.25641026 , 4134.35897436 , 4137.94871795 , 4187.69230769 , 4913.33333333 , 4137.94871795 , 4136.92307692 , 2032.0 , 2033.0 , 342.924 , 0.0 , 0.0 , 0.0 , 0.0 , 

58.0 , 4138.46153846 , 4133.33333333 , 4139.48717949 , 4136.41025641 , 4135.8974359 , 4129.23076923 , 4130.25641026 , 4131.28205128 , 4134.87179487 , 4136.41025641 , 4185.64102564 , 4909.23076923 , 4139.48717949 , 4140.0 , 2034.0 , 2036.0 , 342.942 , 0.0 , 0.0 , 0.0 , 0.0 , 

59.0 , 4141.02564103 , 4130.76923077 , 4138.97435897 , 4138.97435897 , 4135.8974359 , 4130.25641026 , 4130.25641026 , 4132.30769231 , 4134.87179487 , 4137.43589744 , 4194.35897436 , 4910.76923077 , 4137.94871795 , 4145.64102564 , 2039.0 , 2037.0 , 342.955 , 0.0 , 0.0 , 0.0 , 0.0 , 

