['COUNTER', 'AF3', 'F7', 'F3', 'FC5', 'T7', 'P7', 'O1', 'O2', 'P8', 'T8', 'FC6', 'F4', 'F8', 'AF4', 'GYROX', 'GYROY', 'TIMESTAMP', 'FUNC_ID', 'FUNC_VALUE', 'MARKER', 'SYNC_SIGNAL']
56.0 , 4126.15384615 , 4121.53846154 , 4128.71794872 , 4126.15384615 , 4129.74358974 , 4121.53846154 , 4115.8974359 , 4132.30769231 , 4131.79487179 , 4133.84615385 , 4191.79487179 , 4908.71794872 , 4135.8974359 , 4136.41025641 , 2043.0 , 2034.0 , 210.83 , 0.0 , 0.0 , 0.0 , 0.0 , 

57.0 , 4123.58974359 , 4123.58974359 , 4131.28205128 , 4126.15384615 , 4126.66666667 , 4124.1025641 , 4121.53846154 , 4131.79487179 , 4135.38461538 , 4138.46153846 , 4187.17948718 , 4907.17948718 , 4134.87179487 , 4136.41025641 , 2046.0 , 2033.0 , 210.842 , 0.0 , 0.0 , 0.0 , 0.0 , 

58.0 , 4128.71794872 , 4128.20512821 , 4132.30769231 , 4126.66666667 , 4130.25641026 , 4127.17948718 , 4125.12820513 , 4129.23076923 , 4135.8974359 , 4139.48717949 , 4186.66666667 , 4907.69230769 , 4127.69230769 , 4139.48717949 , 2044.0 , 2033.0 , 210.847 , 0.0 , 0.0 , 0.0 , 0.0 , 

59.0 , 4131.28205128 , 4129.74358974 , 4131.28205128 , 4130.76923077 , 4130.76923077 , 4129.74358974 , 4125.64102564 , 4132.82051282 , 4136.41025641 , 4136.92307692 , 4191.28205128 , 4906.66666667 , 4130.25641026 , 4137.43589744 , 2043.0 , 2033.0 , 210.854 , 0.0 , 0.0 , 0.0 , 0.0 , 

60.0 , 4132.82051282 , 4128.71794872 , 4134.87179487 , 4131.28205128 , 4126.15384615 , 4128.71794872 , 4123.07692308 , 4123.58974359 , 4126.15384615 , 4135.38461538 , 4187.69230769 , 4909.23076923 , 4128.71794872 , 4134.87179487 , 2045.0 , 2033.0 , 210.862 , 0.0 , 0.0 , 0.0 , 0.0 , 

61.0 , 4130.76923077 , 4132.82051282 , 4130.76923077 , 4132.82051282 , 4126.66666667 , 4132.30769231 , 4127.17948718 , 4131.28205128 , 4131.28205128 , 4136.92307692 , 4185.64102564 , 4910.76923077 , 4130.76923077 , 4135.8974359 , 2045.0 , 2036.0 , 210.874 , 0.0 , 0.0 , 0.0 , 0.0 , 

62.0 , 4130.76923077 , 4130.25641026 , 4132.30769231 , 4127.69230769 , 4130.76923077 , 4128.71794872 , 4123.07692308 , 4126.15384615 , 4130.76923077 , 4136.41025641 , 4185.64102564 , 4911.28205128 , 4123.58974359 , 4138.97435897 , 2045.0 , 2038.0 , 210.878 , 0.0 , 0.0 , 0.0 , 0.0 , 

63.0 , 4129.74358974 , 4128.20512821 , 4129.23076923 , 4132.82051282 , 4127.17948718 , 4128.71794872 , 4125.12820513 , 4127.17948718 , 4133.84615385 , 4136.41025641 , 4187.69230769 , 4907.69230769 , 4131.79487179 , 4135.8974359 , 2043.0 , 2036.0 , 210.885 , 0.0 , 0.0 , 0.0 , 0.0 , 

64.0 , 4132.82051282 , 4125.12820513 , 4131.79487179 , 4132.82051282 , 4125.12820513 , 4125.12820513 , 4118.46153846 , 4116.41025641 , 4124.1025641 , 4134.35897436 , 4184.1025641 , 4909.74358974 , 4130.25641026 , 4136.92307692 , 2044.0 , 2038.0 , 210.893 , 0.0 , 0.0 , 0.0 , 0.0 , 

65.0 , 4129.23076923 , 4130.76923077 , 4128.20512821 , 4136.41025641 , 4130.76923077 , 4129.74358974 , 4122.56410256 , 4125.12820513 , 4129.74358974 , 4136.41025641 , 4189.74358974 , 4908.20512821 , 4136.41025641 , 4138.97435897 , 2043.0 , 2036.0 , 210.905 , 0.0 , 0.0 , 0.0 , 0.0 , 

66.0 , 4128.20512821 , 4125.12820513 , 4133.84615385 , 4130.25641026 , 4131.79487179 , 4126.15384615 , 4119.48717949 , 4118.46153846 , 4125.12820513 , 4133.84615385 , 4188.20512821 , 4912.82051282 , 4129.23076923 , 4138.97435897 , 2044.0 , 2035.0 , 210.909 , 0.0 , 0.0 , 0.0 , 0.0 , 

67.0 , 4129.23076923 , 4130.25641026 , 4129.74358974 , 4134.87179487 , 4128.71794872 , 4127.17948718 , 4124.61538462 , 4130.25641026 , 4133.33333333 , 4134.35897436 , 4187.69230769 , 4907.69230769 , 4135.8974359 , 4135.8974359 , 2044.0 , 2034.0 , 210.917 , 0.0 , 0.0 , 0.0 , 0.0 , 

68.0 , 4130.76923077 , 4130.25641026 , 4129.23076923 , 4132.82051282 , 4127.69230769 , 4122.56410256 , 4115.38461538 , 4126.15384615 , 4131.28205128 , 4137.94871795 , 4186.15384615 , 4905.64102564 , 4132.30769231 , 4137.43589744 , 2043.0 , 2033.0 , 210.925 , 0.0 , 0.0 , 0.0 , 0.0 , 

69.0 , 4128.71794872 , 4131.28205128 , 4126.15384615 , 4132.82051282 , 4129.74358974 , 4127.69230769 , 4120.0 , 4132.82051282 , 4136.41025641 , 4140.0 , 4192.30769231 , 4905.64102564 , 4137.43589744 , 4137.94871795 , 2041.0 , 2032.0 , 210.937 , 0.0 , 0.0 , 0.0 , 0.0 , 

70.0 , 4128.20512821 , 4125.64102564 , 4129.74358974 , 4124.61538462 , 4128.20512821 , 4126.15384615 , 4120.51282051 , 4129.23076923 , 4135.38461538 , 4135.8974359 , 4188.20512821 , 4910.25641026 , 4132.30769231 , 4137.43589744 , 2041.0 , 2033.0 , 210.941 , 0.0 , 0.0 , 0.0 , 0.0 , 

71.0 , 4129.74358974 , 4127.69230769 , 4129.23076923 , 4128.20512821 , 4127.17948718 , 4128.20512821 , 4127.17948718 , 4132.82051282 , 4140.0 , 4136.92307692 , 4186.66666667 , 4906.15384615 , 4134.35897436 , 4135.8974359 , 2041.0 , 2033.0 , 210.948 , 0.0 , 0.0 , 0.0 , 0.0 , 

72.0 , 4130.25641026 , 4126.15384615 , 4134.87179487 , 4127.69230769 , 4125.64102564 , 4128.71794872 , 4127.69230769 , 4128.71794872 , 4133.84615385 , 4140.0 , 4185.12820513 , 4908.20512821 , 4129.74358974 , 4136.41025641 , 2042.0 , 2034.0 , 210.957 , 0.0 , 0.0 , 0.0 , 0.0 , 

73.0 , 4130.25641026 , 4127.69230769 , 4135.38461538 , 4128.71794872 , 4128.71794872 , 4130.76923077 , 4128.71794872 , 4130.25641026 , 4129.74358974 , 4141.02564103 , 4185.12820513 , 4912.82051282 , 4126.66666667 , 4136.92307692 , 2043.0 , 2033.0 , 210.968 , 0.0 , 0.0 , 0.0 , 0.0 , 

74.0 , 4131.28205128 , 4126.66666667 , 4130.76923077 , 4128.20512821 , 4130.25641026 , 4126.15384615 , 4123.07692308 , 4125.64102564 , 4129.74358974 , 4137.43589744 , 4183.58974359 , 4912.30769231 , 4126.15384615 , 4136.41025641 , 2044.0 , 2034.0 , 210.972 , 0.0 , 0.0 , 0.0 , 0.0 , 

75.0 , 4132.82051282 , 4130.25641026 , 4128.71794872 , 4130.76923077 , 4129.74358974 , 4127.17948718 , 4124.61538462 , 4122.05128205 , 4128.20512821 , 4135.8974359 , 4188.20512821 , 4906.66666667 , 4128.71794872 , 4136.41025641 , 2044.0 , 2035.0 , 210.981 , 0.0 , 0.0 , 0.0 , 0.0 , 

76.0 , 4128.20512821 , 4133.33333333 , 4130.25641026 , 4133.84615385 , 4128.20512821 , 4128.71794872 , 4126.15384615 , 4126.15384615 , 4129.23076923 , 4135.38461538 , 4191.79487179 , 4910.25641026 , 4132.82051282 , 4134.35897436 , 2045.0 , 2034.0 , 210.988 , 0.0 , 0.0 , 0.0 , 0.0 , 

77.0 , 4129.23076923 , 4133.84615385 , 4130.76923077 , 4134.87179487 , 4129.74358974 , 4129.74358974 , 4121.02564103 , 4120.51282051 , 4127.17948718 , 4132.82051282 , 4186.66666667 , 4914.87179487 , 4131.28205128 , 4133.84615385 , 2045.0 , 2034.0 , 211.0 , 0.0 , 0.0 , 0.0 , 0.0 , 

78.0 , 4130.25641026 , 4132.30769231 , 4128.20512821 , 4137.43589744 , 4129.74358974 , 4133.33333333 , 4121.53846154 , 4126.66666667 , 4130.76923077 , 4134.35897436 , 4186.66666667 , 4910.25641026 , 4138.97435897 , 4136.92307692 , 2043.0 , 2036.0 , 211.004 , 0.0 , 0.0 , 0.0 , 0.0 , 

79.0 , 4131.79487179 , 4129.74358974 , 4132.30769231 , 4134.87179487 , 4129.23076923 , 4128.20512821 , 4118.46153846 , 4127.17948718 , 4126.66666667 , 4138.46153846 , 4186.66666667 , 4908.20512821 , 4138.97435897 , 4138.46153846 , 2043.0 , 2034.0 , 211.013 , 0.0 , 0.0 , 0.0 , 0.0 , 

80.0 , 4128.20512821 , 4128.71794872 , 4128.71794872 , 4134.35897436 , 4127.69230769 , 4127.69230769 , 4121.53846154 , 4134.87179487 , 4134.35897436 , 4138.97435897 , 4187.69230769 , 4907.17948718 , 4139.48717949 , 4135.8974359 , 2043.0 , 2033.0 , 211.021 , 0.0 , 0.0 , 0.0 , 0.0 , 

81.0 , 4127.17948718 , 4124.1025641 , 4131.79487179 , 4127.69230769 , 4126.15384615 , 4126.15384615 , 4121.02564103 , 4125.12820513 , 4131.28205128 , 4136.92307692 , 4186.66666667 , 4907.69230769 , 4127.69230769 , 4137.94871795 , 2041.0 , 2033.0 , 211.033 , 0.0 , 0.0 , 0.0 , 0.0 , 

82.0 , 4126.15384615 , 4126.66666667 , 4131.79487179 , 4132.30769231 , 4127.69230769 , 4126.66666667 , 4127.17948718 , 4135.8974359 , 4136.41025641 , 4140.51282051 , 4190.76923077 , 4903.58974359 , 4129.74358974 , 4136.92307692 , 2041.0 , 2033.0 , 211.036 , 0.0 , 0.0 , 0.0 , 0.0 , 

83.0 , 4130.25641026 , 4124.1025641 , 4136.41025641 , 4128.71794872 , 4129.23076923 , 4122.05128205 , 4119.48717949 , 4130.76923077 , 4130.76923077 , 4140.51282051 , 4189.23076923 , 4906.66666667 , 4123.07692308 , 4136.41025641 , 2040.0 , 2035.0 , 211.043 , 0.0 , 0.0 , 0.0 , 0.0 , 

84.0 , 4129.23076923 , 4125.64102564 , 4132.82051282 , 4129.23076923 , 4127.17948718 , 4129.74358974 , 4124.61538462 , 4135.38461538 , 4139.48717949 , 4140.51282051 , 4192.30769231 , 4908.20512821 , 4128.20512821 , 4134.87179487 , 2040.0 , 2033.0 , 211.051 , 0.0 , 0.0 , 0.0 , 0.0 , 

85.0 , 4129.23076923 , 4123.58974359 , 4136.41025641 , 4125.12820513 , 4125.64102564 , 4128.71794872 , 4122.56410256 , 4125.64102564 , 4133.84615385 , 4136.41025641 , 4185.12820513 , 4912.82051282 , 4124.61538462 , 4135.8974359 , 2041.0 , 2032.0 , 211.064 , 0.0 , 0.0 , 0.0 , 0.0 , 

86.0 , 4128.20512821 , 4132.30769231 , 4130.76923077 , 4132.30769231 , 4127.69230769 , 4129.74358974 , 4127.69230769 , 4136.92307692 , 4135.38461538 , 4135.8974359 , 4185.12820513 , 4907.69230769 , 4134.35897436 , 4135.38461538 , 2041.0 , 2032.0 , 211.068 , 0.0 , 0.0 , 0.0 , 0.0 , 

87.0 , 4129.23076923 , 4129.23076923 , 4130.25641026 , 4128.71794872 , 4129.23076923 , 4126.15384615 , 4124.61538462 , 4128.20512821 , 4130.25641026 , 4137.43589744 , 4186.15384615 , 4907.69230769 , 4129.74358974 , 4134.87179487 , 2043.0 , 2034.0 , 211.075 , 0.0 , 0.0 , 0.0 , 0.0 , 

88.0 , 4131.28205128 , 4130.25641026 , 4128.71794872 , 4130.25641026 , 4128.71794872 , 4127.69230769 , 4129.23076923 , 4127.69230769 , 4134.87179487 , 4140.0 , 4187.69230769 , 4908.20512821 , 4131.79487179 , 4134.35897436 , 2044.0 , 2035.0 , 211.083 , 0.0 , 0.0 , 0.0 , 0.0 , 

89.0 , 4131.79487179 , 4129.74358974 , 4132.30769231 , 4131.28205128 , 4127.69230769 , 4126.15384615 , 4120.51282051 , 4124.61538462 , 4128.71794872 , 4136.41025641 , 4183.58974359 , 4908.71794872 , 4130.25641026 , 4137.43589744 , 2044.0 , 2035.0 , 211.096 , 0.0 , 0.0 , 0.0 , 0.0 , 

90.0 , 4130.76923077 , 4132.82051282 , 4127.69230769 , 4135.8974359 , 4129.23076923 , 4132.82051282 , 4120.51282051 , 4128.71794872 , 4126.66666667 , 4135.38461538 , 4188.20512821 , 4902.56410256 , 4134.87179487 , 4137.94871795 , 2044.0 , 2038.0 , 211.1 , 0.0 , 0.0 , 0.0 , 0.0 , 

91.0 , 4131.28205128 , 4125.64102564 , 4127.17948718 , 4131.28205128 , 4128.20512821 , 4130.25641026 , 4120.51282051 , 4121.02564103 , 4124.1025641 , 4134.87179487 , 4186.66666667 , 4905.12820513 , 4132.30769231 , 4137.43589744 , 2046.0 , 2037.0 , 211.106 , 0.0 , 0.0 , 0.0 , 0.0 , 

92.0 , 4132.30769231 , 4126.66666667 , 4127.69230769 , 4130.76923077 , 4126.66666667 , 4126.15384615 , 4121.53846154 , 4123.07692308 , 4125.12820513 , 4134.35897436 , 4186.66666667 , 4906.15384615 , 4132.30769231 , 4139.48717949 , 2045.0 , 2037.0 , 211.114 , 0.0 , 0.0 , 0.0 , 0.0 , 

93.0 , 4129.74358974 , 4128.20512821 , 4129.74358974 , 4129.23076923 , 4123.58974359 , 4124.61538462 , 4118.46153846 , 4127.69230769 , 4129.74358974 , 4132.30769231 , 4191.79487179 , 4906.15384615 , 4133.33333333 , 4138.46153846 , 2046.0 , 2039.0 , 211.127 , 0.0 , 0.0 , 0.0 , 0.0 , 

94.0 , 4130.25641026 , 4127.69230769 , 4129.23076923 , 4130.76923077 , 4126.15384615 , 4126.66666667 , 4119.48717949 , 4125.64102564 , 4131.79487179 , 4134.35897436 , 4191.79487179 , 4906.15384615 , 4132.30769231 , 4135.8974359 , 2044.0 , 2038.0 , 211.13 , 0.0 , 0.0 , 0.0 , 0.0 , 

95.0 , 4128.20512821 , 4126.15384615 , 4128.20512821 , 4133.84615385 , 4128.71794872 , 4123.58974359 , 4124.1025641 , 4130.76923077 , 4136.41025641 , 4137.43589744 , 4188.71794872 , 4908.71794872 , 4133.84615385 , 4135.38461538 , 2044.0 , 2037.0 , 211.139 , 0.0 , 0.0 , 0.0 , 0.0 , 

96.0 , 4129.74358974 , 4126.15384615 , 4132.30769231 , 4129.74358974 , 4127.69230769 , 4118.97435897 , 4123.07692308 , 4131.79487179 , 4132.82051282 , 4135.38461538 , 4186.66666667 , 4910.25641026 , 4128.71794872 , 4136.41025641 , 2044.0 , 2035.0 , 211.147 , 0.0 , 0.0 , 0.0 , 0.0 , 

97.0 , 4129.23076923 , 4128.20512821 , 4130.76923077 , 4128.20512821 , 4125.12820513 , 4127.69230769 , 4123.58974359 , 4137.43589744 , 4135.8974359 , 4134.87179487 , 4186.66666667 , 4907.17948718 , 4133.33333333 , 4135.8974359 , 2043.0 , 2035.0 , 211.158 , 0.0 , 0.0 , 0.0 , 0.0 , 

98.0 , 4130.25641026 , 4128.20512821 , 4131.79487179 , 4126.66666667 , 4130.25641026 , 4133.33333333 , 4120.0 , 4128.20512821 , 4132.30769231 , 4136.41025641 , 4185.64102564 , 4908.71794872 , 4129.74358974 , 4136.92307692 , 2043.0 , 2036.0 , 211.162 , 0.0 , 0.0 , 0.0 , 0.0 , 

99.0 , 4129.74358974 , 4131.28205128 , 4128.71794872 , 4129.23076923 , 4133.33333333 , 4133.33333333 , 4126.66666667 , 4133.33333333 , 4137.43589744 , 4136.92307692 , 4189.74358974 , 4906.66666667 , 4132.30769231 , 4134.87179487 , 2042.0 , 2035.0 , 211.17 , 0.0 , 0.0 , 0.0 , 0.0 , 

100.0 , 4131.79487179 , 4126.66666667 , 4134.87179487 , 4122.56410256 , 4129.74358974 , 4127.17948718 , 4123.58974359 , 4123.07692308 , 4128.71794872 , 4133.84615385 , 4185.64102564 , 4910.76923077 , 4123.58974359 , 4134.87179487 , 2041.0 , 2036.0 , 211.178 , 0.0 , 0.0 , 0.0 , 0.0 , 

101.0 , 4130.76923077 , 4129.23076923 , 4131.28205128 , 4130.76923077 , 4127.17948718 , 4128.71794872 , 4124.61538462 , 4128.71794872 , 4131.28205128 , 4136.92307692 , 4185.64102564 , 4913.33333333 , 4130.76923077 , 4133.84615385 , 2043.0 , 2037.0 , 211.19 , 0.0 , 0.0 , 0.0 , 0.0 , 

102.0 , 4132.30769231 , 4130.25641026 , 4131.79487179 , 4130.76923077 , 4128.20512821 , 4125.64102564 , 4118.97435897 , 4120.51282051 , 4125.64102564 , 4135.38461538 , 4186.15384615 , 4913.84615385 , 4128.20512821 , 4133.84615385 , 2043.0 , 2037.0 , 211.194 , 0.0 , 0.0 , 0.0 , 0.0 , 

103.0 , 4130.25641026 , 4134.87179487 , 4127.17948718 , 4133.33333333 , 4129.74358974 , 4130.76923077 , 4127.17948718 , 4131.79487179 , 4131.28205128 , 4137.94871795 , 4190.25641026 , 4904.61538462 , 4134.35897436 , 4132.30769231 , 2044.0 , 2035.0 , 211.202 , 0.0 , 0.0 , 0.0 , 0.0 , 

104.0 , 4131.79487179 , 4127.69230769 , 4131.79487179 , 4130.25641026 , 4128.71794872 , 4125.64102564 , 4118.97435897 , 4126.15384615 , 4125.64102564 , 4140.0 , 4185.12820513 , 4911.28205128 , 4130.76923077 , 4134.87179487 , 2045.0 , 2035.0 , 211.211 , 0.0 , 0.0 , 0.0 , 0.0 , 

105.0 , 4132.30769231 , 4130.25641026 , 4128.71794872 , 4135.38461538 , 4129.74358974 , 4126.15384615 , 4120.0 , 4131.28205128 , 4129.74358974 , 4136.92307692 , 4187.69230769 , 4912.82051282 , 4140.51282051 , 4135.8974359 , 2045.0 , 2034.0 , 211.222 , 0.0 , 0.0 , 0.0 , 0.0 , 

106.0 , 4128.71794872 , 4130.25641026 , 4130.25641026 , 4127.69230769 , 4130.25641026 , 4125.12820513 , 4118.97435897 , 4125.64102564 , 4128.20512821 , 4134.35897436 , 4189.23076923 , 4907.69230769 , 4134.35897436 , 4136.41025641 , 2046.0 , 2033.0 , 211.225 , 0.0 , 0.0 , 0.0 , 0.0 , 

107.0 , 4128.20512821 , 4131.28205128 , 4127.17948718 , 4127.69230769 , 4130.76923077 , 4127.17948718 , 4126.15384615 , 4136.41025641 , 4134.35897436 , 4140.0 , 4190.25641026 , 4901.02564103 , 4134.87179487 , 4134.87179487 , 2047.0 , 2032.0 , 211.232 , 0.0 , 0.0 , 0.0 , 0.0 , 

108.0 , 4133.33333333 , 4124.61538462 , 4130.76923077 , 4127.17948718 , 4130.76923077 , 4122.05128205 , 4121.53846154 , 4135.38461538 , 4134.35897436 , 4136.92307692 , 4186.66666667 , 4906.66666667 , 4131.79487179 , 4136.41025641 , 2045.0 , 2033.0 , 211.24 , 0.0 , 0.0 , 0.0 , 0.0 , 

109.0 , 4131.28205128 , 4126.66666667 , 4131.79487179 , 4127.17948718 , 4130.25641026 , 4127.17948718 , 4122.05128205 , 4134.35897436 , 4134.35897436 , 4130.76923077 , 4190.76923077 , 4908.20512821 , 4130.25641026 , 4137.94871795 , 2044.0 , 2034.0 , 211.253 , 0.0 , 0.0 , 0.0 , 0.0 , 

110.0 , 4126.66666667 , 4126.15384615 , 4133.84615385 , 4123.58974359 , 4126.15384615 , 4126.66666667 , 4119.48717949 , 4130.76923077 , 4130.25641026 , 4135.38461538 , 4189.23076923 , 4908.71794872 , 4125.12820513 , 4138.97435897 , 2045.0 , 2035.0 , 211.257 , 0.0 , 0.0 , 0.0 , 0.0 , 

111.0 , 4130.25641026 , 4126.15384615 , 4134.35897436 , 4126.15384615 , 4127.69230769 , 4126.66666667 , 4124.1025641 , 4132.30769231 , 4130.76923077 , 4141.02564103 , 4186.15384615 , 4907.69230769 , 4128.20512821 , 4138.97435897 , 2044.0 , 2036.0 , 211.265 , 0.0 , 0.0 , 0.0 , 0.0 , 

112.0 , 4129.23076923 , 4125.12820513 , 4135.38461538 , 4126.66666667 , 4130.25641026 , 4129.74358974 , 4128.71794872 , 4132.82051282 , 4135.38461538 , 4136.41025641 , 4187.69230769 , 4908.71794872 , 4128.20512821 , 4136.92307692 , 2044.0 , 2039.0 , 211.272 , 0.0 , 0.0 , 0.0 , 0.0 , 

113.0 , 4128.20512821 , 4127.69230769 , 4134.35897436 , 4127.17948718 , 4129.74358974 , 4128.71794872 , 4125.64102564 , 4128.71794872 , 4133.33333333 , 4135.38461538 , 4187.69230769 , 4912.30769231 , 4123.07692308 , 4135.38461538 , 2043.0 , 2040.0 , 211.284 , 0.0 , 0.0 , 0.0 , 0.0 , 

114.0 , 4130.25641026 , 4130.76923077 , 4130.25641026 , 4131.28205128 , 4127.69230769 , 4127.17948718 , 4123.58974359 , 4134.87179487 , 4136.41025641 , 4140.0 , 4185.64102564 , 4911.28205128 , 4128.20512821 , 4134.35897436 , 2044.0 , 2038.0 , 211.288 , 0.0 , 0.0 , 0.0 , 0.0 , 

115.0 , 4133.84615385 , 4131.79487179 , 4131.79487179 , 4130.25641026 , 4129.23076923 , 4130.25641026 , 4126.15384615 , 4132.30769231 , 4132.82051282 , 4138.46153846 , 4187.69230769 , 4906.15384615 , 4129.74358974 , 4134.87179487 , 2045.0 , 2039.0 , 211.295 , 0.0 , 0.0 , 0.0 , 0.0 , 

116.0 , 4130.76923077 , 4130.76923077 , 4127.17948718 , 4133.33333333 , 4126.66666667 , 4133.84615385 , 4129.23076923 , 4132.30769231 , 4134.35897436 , 4136.41025641 , 4193.84615385 , 4905.12820513 , 4136.92307692 , 4134.87179487 , 2045.0 , 2038.0 , 211.303 , 0.0 , 0.0 , 0.0 , 0.0 , 

117.0 , 4129.23076923 , 4126.15384615 , 4127.17948718 , 4130.76923077 , 4126.66666667 , 4125.64102564 , 4121.02564103 , 4120.51282051 , 4123.58974359 , 4134.87179487 , 4187.17948718 , 4912.82051282 , 4130.76923077 , 4137.94871795 , 2043.0 , 2037.0 , 211.314 , 0.0 , 0.0 , 0.0 , 0.0 , 

118.0 , 4126.66666667 , 4128.71794872 , 4126.15384615 , 4132.30769231 , 4130.25641026 , 4125.12820513 , 4121.53846154 , 4131.79487179 , 4128.20512821 , 4134.87179487 , 4185.64102564 , 4910.25641026 , 4133.33333333 , 4137.43589744 , 2043.0 , 2037.0 , 211.319 , 0.0 , 0.0 , 0.0 , 0.0 , 

119.0 , 4129.74358974 , 4126.66666667 , 4132.82051282 , 4126.66666667 , 4130.76923077 , 4121.53846154 , 4116.92307692 , 4125.12820513 , 4125.64102564 , 4132.30769231 , 4187.69230769 , 4908.71794872 , 4127.17948718 , 4138.46153846 , 2044.0 , 2035.0 , 211.327 , 0.0 , 0.0 , 0.0 , 0.0 , 

120.0 , 4128.20512821 , 4127.69230769 , 4129.74358974 , 4128.71794872 , 4127.69230769 , 4124.61538462 , 4122.56410256 , 4131.79487179 , 4134.87179487 , 4135.8974359 , 4192.30769231 , 4906.15384615 , 4131.79487179 , 4138.97435897 , 2041.0 , 2033.0 , 211.334 , 0.0 , 0.0 , 0.0 , 0.0 , 

121.0 , 4127.69230769 , 4124.61538462 , 4132.30769231 , 4124.1025641 , 4126.15384615 , 4121.53846154 , 4115.38461538 , 4128.71794872 , 4131.79487179 , 4138.46153846 , 4187.69230769 , 4908.71794872 , 4124.61538462 , 4138.46153846 , 2040.0 , 2034.0 , 211.346 , 0.0 , 0.0 , 0.0 , 0.0 , 

122.0 , 4129.23076923 , 4132.30769231 , 4127.69230769 , 4128.20512821 , 4128.71794872 , 4125.12820513 , 4119.48717949 , 4137.94871795 , 4135.8974359 , 4138.97435897 , 4188.71794872 , 4905.64102564 , 4133.33333333 , 4135.38461538 , 2041.0 , 2032.0 , 211.35 , 0.0 , 0.0 , 0.0 , 0.0 , 

123.0 , 4131.79487179 , 4130.25641026 , 4131.79487179 , 4124.61538462 , 4130.25641026 , 4124.1025641 , 4118.97435897 , 4128.20512821 , 4131.28205128 , 4136.92307692 , 4186.15384615 , 4909.74358974 , 4127.17948718 , 4137.43589744 , 2039.0 , 2031.0 , 211.358 , 0.0 , 0.0 , 0.0 , 0.0 , 

124.0 , 4129.74358974 , 4129.74358974 , 4129.23076923 , 4132.30769231 , 4128.71794872 , 4131.28205128 , 4128.20512821 , 4136.41025641 , 4137.43589744 , 4138.46153846 , 4190.25641026 , 4905.64102564 , 4128.71794872 , 4136.92307692 , 2040.0 , 2033.0 , 211.365 , 0.0 , 0.0 , 0.0 , 0.0 , 

125.0 , 4128.20512821 , 4124.1025641 , 4132.30769231 , 4131.79487179 , 4128.20512821 , 4128.71794872 , 4123.58974359 , 4129.23076923 , 4133.84615385 , 4137.94871795 , 4189.23076923 , 4906.15384615 , 4124.61538462 , 4136.41025641 , 2040.0 , 2033.0 , 211.379 , 0.0 , 0.0 , 0.0 , 0.0 , 

126.0 , 4130.25641026 , 4130.25641026 , 4131.79487179 , 4131.79487179 , 4130.25641026 , 4129.23076923 , 4126.15384615 , 4130.76923077 , 4132.82051282 , 4137.94871795 , 4185.12820513 , 4909.23076923 , 4130.25641026 , 4136.41025641 , 2040.0 , 2034.0 , 211.382 , 0.0 , 0.0 , 0.0 , 0.0 , 

127.0 , 4133.84615385 , 4131.28205128 , 4133.84615385 , 4128.71794872 , 4129.23076923 , 4126.15384615 , 4125.12820513 , 4127.17948718 , 4128.71794872 , 4135.38461538 , 4181.02564103 , 4915.38461538 , 4128.20512821 , 4135.38461538 , 2041.0 , 2035.0 , 211.389 , 0.0 , 0.0 , 0.0 , 0.0 , 

128.0 , 4133.33333333 , 4130.25641026 , 4132.30769231 , 4132.82051282 , 4129.23076923 , 4127.69230769 , 4124.1025641 , 4126.15384615 , 4129.23076923 , 4133.33333333 , 4187.17948718 , 4911.79487179 , 4128.71794872 , 4135.8974359 , 2042.0 , 2036.0 , 211.398 , 0.0 , 0.0 , 0.0 , 0.0 , 

0.0 , 4128.71794872 , 4126.15384615 , 4131.79487179 , 4131.28205128 , 4129.74358974 , 4126.66666667 , 4121.02564103 , 4120.51282051 , 4129.74358974 , 4134.87179487 , 4188.71794872 , 4911.28205128 , 4130.25641026 , 4138.46153846 , 2043.0 , 2037.0 , 211.41 , 0.0 , 0.0 , 0.0 , 0.0 , 

1.0 , 4128.71794872 , 4128.20512821 , 4129.74358974 , 4131.28205128 , 4130.76923077 , 4126.66666667 , 4123.58974359 , 4120.0 , 4127.69230769 , 4136.92307692 , 4185.12820513 , 4912.30769231 , 4132.30769231 , 4136.92307692 , 2043.0 , 2038.0 , 211.414 , 0.0 , 0.0 , 0.0 , 0.0 , 

2.0 , 4129.74358974 , 4128.20512821 , 4127.69230769 , 4130.76923077 , 4129.74358974 , 4124.61538462 , 4121.53846154 , 4127.69230769 , 4130.76923077 , 4134.35897436 , 4188.20512821 , 4909.23076923 , 4132.82051282 , 4134.35897436 , 2044.0 , 2037.0 , 211.421 , 0.0 , 0.0 , 0.0 , 0.0 , 

3.0 , 4132.30769231 , 4129.74358974 , 4129.23076923 , 4131.28205128 , 4129.74358974 , 4122.05128205 , 4117.43589744 , 4128.20512821 , 4129.23076923 , 4133.33333333 , 4190.76923077 , 4907.17948718 , 4130.76923077 , 4136.92307692 , 2043.0 , 2037.0 , 211.429 , 0.0 , 0.0 , 0.0 , 0.0 , 

4.0 , 4130.25641026 , 4133.33333333 , 4127.69230769 , 4136.41025641 , 4128.71794872 , 4125.12820513 , 4121.53846154 , 4131.79487179 , 4132.82051282 , 4135.38461538 , 4186.66666667 , 4907.69230769 , 4137.43589744 , 4135.8974359 , 2042.0 , 2036.0 , 211.441 , 0.0 , 0.0 , 0.0 , 0.0 , 

5.0 , 4129.74358974 , 4128.20512821 , 4129.74358974 , 4132.30769231 , 4130.76923077 , 4125.12820513 , 4121.02564103 , 4125.12820513 , 4128.71794872 , 4134.87179487 , 4185.64102564 , 4910.25641026 , 4134.35897436 , 4134.35897436 , 2044.0 , 2035.0 , 211.446 , 0.0 , 0.0 , 0.0 , 0.0 , 

6.0 , 4128.20512821 , 4126.15384615 , 4128.20512821 , 4129.74358974 , 4131.28205128 , 4125.64102564 , 4123.58974359 , 4135.8974359 , 4135.38461538 , 4137.43589744 , 4193.84615385 , 4909.23076923 , 4135.8974359 , 4135.38461538 , 2044.0 , 2035.0 , 211.453 , 0.0 , 0.0 , 0.0 , 0.0 , 

7.0 , 4132.82051282 , 4125.64102564 , 4132.82051282 , 4124.1025641 , 4129.74358974 , 4122.56410256 , 4122.56410256 , 4129.74358974 , 4131.28205128 , 4137.94871795 , 4187.69230769 , 4911.28205128 , 4125.64102564 , 4137.94871795 , 2044.0 , 2034.0 , 211.462 , 0.0 , 0.0 , 0.0 , 0.0 , 

8.0 , 4132.30769231 , 4127.69230769 , 4133.33333333 , 4128.71794872 , 4131.28205128 , 4129.74358974 , 4128.20512821 , 4130.25641026 , 4136.92307692 , 4135.8974359 , 4184.61538462 , 4907.17948718 , 4128.20512821 , 4136.41025641 , 2044.0 , 2035.0 , 211.474 , 0.0 , 0.0 , 0.0 , 0.0 , 

9.0 , 4130.25641026 , 4124.1025641 , 4136.41025641 , 4127.17948718 , 4132.82051282 , 4126.66666667 , 4122.56410256 , 4123.07692308 , 4130.25641026 , 4135.38461538 , 4184.61538462 , 4908.71794872 , 4123.07692308 , 4136.41025641 , 2045.0 , 2037.0 , 211.478 , 0.0 , 0.0 , 0.0 , 0.0 , 

10.0 , 4128.71794872 , 4129.23076923 , 4130.25641026 , 4130.25641026 , 4130.76923077 , 4128.71794872 , 4127.17948718 , 4138.97435897 , 4133.84615385 , 4138.46153846 , 4188.71794872 , 4909.23076923 , 4128.20512821 , 4134.87179487 , 2045.0 , 2035.0 , 211.484 , 0.0 , 0.0 , 0.0 , 0.0 , 

11.0 , 4131.28205128 , 4127.17948718 , 4134.35897436 , 4125.12820513 , 4129.74358974 , 4128.71794872 , 4121.53846154 , 4130.76923077 , 4128.71794872 , 4133.84615385 , 4185.12820513 , 4911.79487179 , 4121.53846154 , 4136.41025641 , 2045.0 , 2037.0 , 211.492 , 0.0 , 0.0 , 0.0 , 0.0 , 

12.0 , 4130.76923077 , 4131.79487179 , 4130.76923077 , 4132.30769231 , 4132.30769231 , 4131.28205128 , 4125.64102564 , 4132.82051282 , 4134.87179487 , 4133.33333333 , 4189.74358974 , 4907.17948718 , 4132.30769231 , 4136.92307692 , 2046.0 , 2036.0 , 211.504 , 0.0 , 0.0 , 0.0 , 0.0 , 

13.0 , 4131.79487179 , 4131.28205128 , 4132.30769231 , 4132.30769231 , 4130.76923077 , 4125.12820513 , 4123.07692308 , 4126.66666667 , 4129.23076923 , 4136.41025641 , 4185.64102564 , 4911.79487179 , 4132.30769231 , 4136.41025641 , 2045.0 , 2036.0 , 211.508 , 0.0 , 0.0 , 0.0 , 0.0 , 

14.0 , 4129.74358974 , 4132.30769231 , 4128.20512821 , 4134.35897436 , 4129.74358974 , 4130.76923077 , 4127.17948718 , 4130.76923077 , 4132.30769231 , 4137.43589744 , 4186.66666667 , 4910.25641026 , 4135.38461538 , 4135.8974359 , 2046.0 , 2034.0 , 211.516 , 0.0 , 0.0 , 0.0 , 0.0 , 

15.0 , 4127.17948718 , 4128.20512821 , 4129.23076923 , 4130.76923077 , 4130.25641026 , 4130.25641026 , 4121.53846154 , 4122.56410256 , 4126.66666667 , 4131.79487179 , 4187.69230769 , 4910.25641026 , 4132.82051282 , 4138.46153846 , 2045.0 , 2034.0 , 211.524 , 0.0 , 0.0 , 0.0 , 0.0 , 

16.0 , 4127.69230769 , 4131.79487179 , 4128.20512821 , 4133.33333333 , 4130.25641026 , 4127.17948718 , 4124.1025641 , 4129.74358974 , 4125.64102564 , 4132.30769231 , 4190.76923077 , 4909.23076923 , 4136.92307692 , 4137.94871795 , 2044.0 , 2033.0 , 211.536 , 0.0 , 0.0 , 0.0 , 0.0 , 

17.0 , 4129.23076923 , 4126.66666667 , 4132.30769231 , 4129.23076923 , 4128.20512821 , 4122.05128205 , 4120.0 , 4129.74358974 , 4127.17948718 , 4137.43589744 , 4188.20512821 , 4909.23076923 , 4133.33333333 , 4137.43589744 , 2044.0 , 2034.0 , 211.54 , 0.0 , 0.0 , 0.0 , 0.0 , 

18.0 , 4128.20512821 , 4124.1025641 , 4129.74358974 , 4127.17948718 , 4129.74358974 , 4124.1025641 , 4120.0 , 4129.23076923 , 4130.76923077 , 4141.02564103 , 4189.23076923 , 4905.12820513 , 4130.76923077 , 4138.46153846 , 2043.0 , 2034.0 , 211.548 , 0.0 , 0.0 , 0.0 , 0.0 , 

19.0 , 4126.15384615 , 4121.53846154 , 4129.23076923 , 4125.64102564 , 4129.74358974 , 4121.53846154 , 4121.53846154 , 4132.82051282 , 4133.33333333 , 4138.97435897 , 4190.76923077 , 4908.71794872 , 4128.20512821 , 4137.94871795 , 2044.0 , 2033.0 , 211.555 , 0.0 , 0.0 , 0.0 , 0.0 , 

20.0 , 4129.74358974 , 4121.53846154 , 4131.79487179 , 4126.66666667 , 4130.76923077 , 4121.53846154 , 4123.58974359 , 4136.41025641 , 4134.87179487 , 4137.43589744 , 4189.23076923 , 4912.30769231 , 4125.64102564 , 4135.8974359 , 2043.0 , 2034.0 , 211.567 , 0.0 , 0.0 , 0.0 , 0.0 , 

21.0 , 4129.23076923 , 4122.05128205 , 4130.76923077 , 4127.17948718 , 4129.74358974 , 4126.15384615 , 4124.1025641 , 4133.84615385 , 4135.8974359 , 4136.41025641 , 4186.66666667 , 4909.74358974 , 4129.23076923 , 4135.8974359 , 2044.0 , 2034.0 , 211.571 , 0.0 , 0.0 , 0.0 , 0.0 , 

22.0 , 4130.25641026 , 4127.17948718 , 4132.82051282 , 4127.17948718 , 4129.74358974 , 4126.66666667 , 4123.07692308 , 4125.12820513 , 4128.20512821 , 4134.35897436 , 4185.64102564 , 4909.74358974 , 4130.25641026 , 4136.92307692 , 2044.0 , 2034.0 , 211.58 , 0.0 , 0.0 , 0.0 , 0.0 , 

23.0 , 4130.25641026 , 4132.82051282 , 4131.79487179 , 4131.28205128 , 4131.79487179 , 4128.71794872 , 4126.66666667 , 4132.30769231 , 4132.30769231 , 4135.8974359 , 4188.71794872 , 4909.74358974 , 4132.82051282 , 4134.87179487 , 2045.0 , 2034.0 , 211.587 , 0.0 , 0.0 , 0.0 , 0.0 , 

24.0 , 4132.82051282 , 4130.76923077 , 4133.33333333 , 4128.71794872 , 4133.84615385 , 4126.66666667 , 4125.12820513 , 4125.12820513 , 4129.74358974 , 4137.43589744 , 4185.12820513 , 4909.23076923 , 4123.58974359 , 4137.94871795 , 2044.0 , 2034.0 , 211.599 , 0.0 , 0.0 , 0.0 , 0.0 , 

25.0 , 4129.74358974 , 4132.82051282 , 4127.69230769 , 4133.84615385 , 4131.28205128 , 4128.71794872 , 4128.20512821 , 4127.17948718 , 4132.82051282 , 4136.92307692 , 4185.64102564 , 4907.17948718 , 4128.71794872 , 4139.48717949 , 2045.0 , 2035.0 , 211.603 , 0.0 , 0.0 , 0.0 , 0.0 , 

26.0 , 4130.76923077 , 4132.30769231 , 4130.76923077 , 4135.38461538 , 4130.25641026 , 4126.15384615 , 4120.51282051 , 4117.94871795 , 4123.07692308 , 4133.84615385 , 4185.12820513 , 4908.20512821 , 4127.69230769 , 4138.46153846 , 2044.0 , 2036.0 , 211.61 , 0.0 , 0.0 , 0.0 , 0.0 , 

27.0 , 4128.71794872 , 4131.79487179 , 4128.71794872 , 4137.43589744 , 4131.28205128 , 4129.23076923 , 4122.05128205 , 4124.61538462 , 4125.12820513 , 4135.38461538 , 4188.71794872 , 4904.61538462 , 4135.38461538 , 4136.41025641 , 2043.0 , 2036.0 , 211.618 , 0.0 , 0.0 , 0.0 , 0.0 , 

28.0 , 4126.66666667 , 4124.1025641 , 4133.84615385 , 4128.20512821 , 4129.74358974 , 4122.56410256 , 4117.43589744 , 4117.94871795 , 4121.02564103 , 4134.35897436 , 4185.64102564 , 4910.25641026 , 4129.74358974 , 4137.94871795 , 2043.0 , 2036.0 , 211.631 , 0.0 , 0.0 , 0.0 , 0.0 , 

29.0 , 4126.66666667 , 4128.20512821 , 4127.69230769 , 4135.38461538 , 4127.17948718 , 4126.66666667 , 4123.07692308 , 4132.82051282 , 4130.76923077 , 4136.92307692 , 4188.71794872 , 4909.74358974 , 4135.8974359 , 4137.43589744 , 2044.0 , 2036.0 , 211.634 , 0.0 , 0.0 , 0.0 , 0.0 , 

30.0 , 4130.25641026 , 4125.64102564 , 4127.17948718 , 4131.79487179 , 4128.71794872 , 4124.61538462 , 4117.43589744 , 4128.71794872 , 4128.20512821 , 4138.97435897 , 4189.23076923 , 4909.74358974 , 4131.28205128 , 4138.46153846 , 2043.0 , 2035.0 , 211.641 , 0.0 , 0.0 , 0.0 , 0.0 , 

31.0 , 4128.20512821 , 4127.17948718 , 4128.20512821 , 4129.74358974 , 4129.23076923 , 4125.64102564 , 4123.07692308 , 4134.35897436 , 4133.33333333 , 4140.51282051 , 4191.79487179 , 4906.15384615 , 4137.43589744 , 4136.92307692 , 2044.0 , 2035.0 , 211.65 , 0.0 , 0.0 , 0.0 , 0.0 , 

32.0 , 4127.17948718 , 4126.15384615 , 4134.87179487 , 4125.12820513 , 4126.66666667 , 4123.07692308 , 4121.02564103 , 4132.30769231 , 4131.79487179 , 4138.46153846 , 4187.69230769 , 4908.71794872 , 4130.76923077 , 4135.8974359 , 2044.0 , 2033.0 , 211.663 , 0.0 , 0.0 , 0.0 , 0.0 , 

33.0 , 4129.23076923 , 4130.25641026 , 4129.23076923 , 4130.76923077 , 4127.69230769 , 4127.17948718 , 4126.66666667 , 4140.0 , 4137.94871795 , 4140.51282051 , 4188.20512821 , 4906.66666667 , 4130.25641026 , 4135.38461538 , 2044.0 , 2033.0 , 211.666 , 0.0 , 0.0 , 0.0 , 0.0 , 

34.0 , 4130.76923077 , 4124.61538462 , 4131.79487179 , 4128.71794872 , 4129.23076923 , 4124.61538462 , 4124.61538462 , 4131.79487179 , 4135.8974359 , 4141.02564103 , 4185.64102564 , 4909.23076923 , 4124.61538462 , 4137.94871795 , 2046.0 , 2034.0 , 211.673 , 0.0 , 0.0 , 0.0 , 0.0 , 

35.0 , 4131.28205128 , 4127.17948718 , 4134.35897436 , 4130.76923077 , 4129.23076923 , 4128.71794872 , 4127.69230769 , 4131.79487179 , 4132.30769231 , 4138.46153846 , 4189.74358974 , 4910.76923077 , 4126.15384615 , 4137.43589744 , 2045.0 , 2036.0 , 211.681 , 0.0 , 0.0 , 0.0 , 0.0 , 

36.0 , 4128.20512821 , 4127.69230769 , 4134.87179487 , 4127.69230769 , 4129.74358974 , 4128.20512821 , 4124.1025641 , 4128.71794872 , 4126.66666667 , 4134.35897436 , 4189.74358974 , 4911.28205128 , 4124.1025641 , 4136.41025641 , 2046.0 , 2036.0 , 211.695 , 0.0 , 0.0 , 0.0 , 0.0 , 

37.0 , 4128.71794872 , 4129.23076923 , 4132.82051282 , 4129.74358974 , 4131.28205128 , 4126.15384615 , 4125.12820513 , 4127.69230769 , 4126.66666667 , 4135.8974359 , 4188.20512821 , 4910.76923077 , 4123.07692308 , 4136.92307692 , 2046.0 , 2037.0 , 211.698 , 0.0 , 0.0 , 0.0 , 0.0 , 

38.0 , 4129.74358974 , 4129.74358974 , 4134.35897436 , 4134.35897436 , 4128.20512821 , 4126.15384615 , 4124.61538462 , 4128.71794872 , 4130.25641026 , 4135.8974359 , 4186.15384615 , 4911.28205128 , 4127.17948718 , 4138.46153846 , 2046.0 , 2038.0 , 211.705 , 0.0 , 0.0 , 0.0 , 0.0 , 

39.0 , 4130.25641026 , 4131.28205128 , 4130.76923077 , 4133.33333333 , 4128.20512821 , 4128.20512821 , 4123.07692308 , 4125.12820513 , 4126.15384615 , 4134.87179487 , 4185.64102564 , 4906.66666667 , 4131.28205128 , 4138.46153846 , 2045.0 , 2037.0 , 211.714 , 0.0 , 0.0 , 0.0 , 0.0 , 

40.0 , 4127.17948718 , 4129.23076923 , 4125.64102564 , 4131.28205128 , 4130.76923077 , 4127.69230769 , 4122.05128205 , 4128.20512821 , 4126.66666667 , 4138.97435897 , 4187.17948718 , 4906.15384615 , 4136.41025641 , 4135.38461538 , 2045.0 , 2037.0 , 211.725 , 0.0 , 0.0 , 0.0 , 0.0 , 

41.0 , 4129.74358974 , 4127.17948718 , 4128.71794872 , 4132.82051282 , 4130.76923077 , 4125.12820513 , 4117.94871795 , 4127.69230769 , 4124.61538462 , 4140.51282051 , 4187.69230769 , 4911.79487179 , 4132.30769231 , 4135.8974359 , 2045.0 , 2037.0 , 211.729 , 0.0 , 0.0 , 0.0 , 0.0 , 

42.0 , 4128.20512821 , 4130.25641026 , 4127.69230769 , 4133.84615385 , 4125.64102564 , 4125.64102564 , 4118.46153846 , 4133.33333333 , 4130.76923077 , 4136.92307692 , 4189.74358974 , 4908.20512821 , 4134.35897436 , 4136.41025641 , 2044.0 , 2036.0 , 211.737 , 0.0 , 0.0 , 0.0 , 0.0 , 

43.0 , 4130.25641026 , 4128.71794872 , 4130.25641026 , 4127.17948718 , 4124.61538462 , 4121.02564103 , 4116.41025641 , 4126.66666667 , 4125.64102564 , 4135.38461538 , 4186.66666667 , 4903.58974359 , 4126.66666667 , 4137.43589744 , 2044.0 , 2036.0 , 211.746 , 0.0 , 0.0 , 0.0 , 0.0 , 

44.0 , 4129.23076923 , 4129.23076923 , 4128.20512821 , 4130.25641026 , 4128.20512821 , 4124.1025641 , 4123.58974359 , 4136.92307692 , 4132.30769231 , 4138.97435897 , 4189.74358974 , 4904.1025641 , 4132.30769231 , 4135.8974359 , 2042.0 , 2035.0 , 211.756 , 0.0 , 0.0 , 0.0 , 0.0 , 

45.0 , 4127.69230769 , 4123.07692308 , 4132.82051282 , 4126.15384615 , 4129.23076923 , 4122.56410256 , 4118.46153846 , 4129.23076923 , 4131.28205128 , 4138.97435897 , 4188.71794872 , 4910.25641026 , 4127.17948718 , 4135.8974359 , 2043.0 , 2035.0 , 211.76 , 0.0 , 0.0 , 0.0 , 0.0 , 

46.0 , 4126.66666667 , 4123.58974359 , 4128.71794872 , 4130.25641026 , 4129.74358974 , 4125.64102564 , 4123.07692308 , 4131.79487179 , 4136.41025641 , 4138.46153846 , 4190.25641026 , 4907.17948718 , 4128.71794872 , 4136.41025641 , 2044.0 , 2036.0 , 211.768 , 0.0 , 0.0 , 0.0 , 0.0 , 

47.0 , 4131.79487179 , 4122.56410256 , 4133.33333333 , 4126.66666667 , 4132.30769231 , 4122.05128205 , 4122.05128205 , 4124.1025641 , 4128.20512821 , 4136.41025641 , 4185.12820513 , 4910.76923077 , 4119.48717949 , 4140.51282051 , 2044.0 , 2036.0 , 211.776 , 0.0 , 0.0 , 0.0 , 0.0 , 

48.0 , 4131.79487179 , 4126.66666667 , 4129.23076923 , 4128.71794872 , 4131.28205128 , 4128.71794872 , 4128.20512821 , 4135.8974359 , 4134.87179487 , 4137.43589744 , 4187.17948718 , 4909.23076923 , 4125.64102564 , 4136.92307692 , 2043.0 , 2032.0 , 211.787 , 0.0 , 0.0 , 0.0 , 0.0 , 

49.0 , 4130.76923077 , 4124.1025641 , 4132.30769231 , 4125.64102564 , 4126.15384615 , 4128.20512821 , 4124.61538462 , 4126.66666667 , 4130.76923077 , 4136.41025641 , 4184.61538462 , 4909.23076923 , 4122.05128205 , 4135.38461538 , 2044.0 , 2032.0 , 211.794 , 0.0 , 0.0 , 0.0 , 0.0 , 

50.0 , 4130.76923077 , 4132.82051282 , 4130.25641026 , 4133.84615385 , 4126.66666667 , 4130.25641026 , 4130.25641026 , 4131.28205128 , 4132.82051282 , 4138.46153846 , 4187.69230769 , 4909.23076923 , 4128.20512821 , 4137.94871795 , 2044.0 , 2033.0 , 211.8 , 0.0 , 0.0 , 0.0 , 0.0 , 

51.0 , 4132.82051282 , 4131.79487179 , 4132.30769231 , 4130.76923077 , 4129.23076923 , 4125.12820513 , 4123.07692308 , 4127.17948718 , 4130.76923077 , 4138.97435897 , 4186.66666667 , 4912.30769231 , 4125.64102564 , 4138.46153846 , 2042.0 , 2034.0 , 211.808 , 0.0 , 0.0 , 0.0 , 0.0 , 

52.0 , 4132.30769231 , 4133.84615385 , 4129.23076923 , 4133.84615385 , 4131.28205128 , 4128.20512821 , 4124.1025641 , 4127.17948718 , 4131.28205128 , 4137.94871795 , 4188.71794872 , 4905.64102564 , 4134.35897436 , 4136.41025641 , 2043.0 , 2034.0 , 211.82 , 0.0 , 0.0 , 0.0 , 0.0 , 

53.0 , 4130.25641026 , 4130.76923077 , 4132.82051282 , 4133.84615385 , 4130.76923077 , 4125.64102564 , 4122.05128205 , 4115.38461538 , 4123.07692308 , 4134.87179487 , 4186.15384615 , 4908.20512821 , 4134.87179487 , 4139.48717949 , 2042.0 , 2037.0 , 211.823 , 0.0 , 0.0 , 0.0 , 0.0 , 

54.0 , 4130.76923077 , 4129.23076923 , 4131.28205128 , 4136.41025641 , 4129.23076923 , 4126.15384615 , 4121.02564103 , 4120.51282051 , 4123.58974359 , 4138.97435897 , 4186.66666667 , 4912.30769231 , 4132.82051282 , 4140.51282051 , 2043.0 , 2037.0 , 211.831 , 0.0 , 0.0 , 0.0 , 0.0 , 

55.0 , 4131.28205128 , 4125.12820513 , 4128.20512821 , 4134.35897436 , 4128.20512821 , 4123.07692308 , 4113.84615385 , 4124.1025641 , 4125.64102564 , 4138.46153846 , 4187.69230769 , 4910.76923077 , 4131.79487179 , 4137.94871795 , 2044.0 , 2037.0 , 211.839 , 0.0 , 0.0 , 0.0 , 0.0 , 

56.0 , 4130.25641026 , 4126.66666667 , 4128.20512821 , 4131.79487179 , 4129.74358974 , 4121.53846154 , 4116.41025641 , 4122.56410256 , 4123.58974359 , 4136.41025641 , 4189.23076923 , 4906.66666667 , 4136.92307692 , 4138.46153846 , 2044.0 , 2037.0 , 211.851 , 0.0 , 0.0 , 0.0 , 0.0 , 

57.0 , 4127.17948718 , 4124.61538462 , 4133.84615385 , 4129.23076923 , 4127.17948718 , 4123.07692308 , 4120.51282051 , 4132.30769231 , 4130.76923077 , 4138.97435897 , 4189.74358974 , 4909.23076923 , 4133.33333333 , 4140.51282051 , 2044.0 , 2037.0 , 211.855 , 0.0 , 0.0 , 0.0 , 0.0 , 

58.0 , 4130.76923077 , 4124.61538462 , 4134.35897436 , 4129.74358974 , 4125.64102564 , 4126.66666667 , 4120.0 , 4138.46153846 , 4134.35897436 , 4141.53846154 , 4190.76923077 , 4909.23076923 , 4125.12820513 , 4138.97435897 , 2043.0 , 2035.0 , 211.864 , 0.0 , 0.0 , 0.0 , 0.0 , 

59.0 , 4130.25641026 , 4128.71794872 , 4126.15384615 , 4131.28205128 , 4125.12820513 , 4127.17948718 , 4121.02564103 , 4140.0 , 4135.8974359 , 4138.97435897 , 4190.25641026 , 4905.12820513 , 4134.87179487 , 4136.41025641 , 2043.0 , 2034.0 , 211.871 , 0.0 , 0.0 , 0.0 , 0.0 , 

60.0 , 4128.20512821 , 4128.71794872 , 4127.17948718 , 4127.17948718 , 4126.66666667 , 4125.64102564 , 4122.05128205 , 4133.84615385 , 4130.25641026 , 4135.8974359 , 4185.64102564 , 4907.69230769 , 4131.79487179 , 4138.97435897 , 2042.0 , 2032.0 , 211.883 , 0.0 , 0.0 , 0.0 , 0.0 , 

61.0 , 4125.64102564 , 4129.23076923 , 4131.28205128 , 4128.71794872 , 4129.23076923 , 4131.79487179 , 4129.23076923 , 4140.51282051 , 4136.41025641 , 4138.46153846 , 4188.71794872 , 4905.64102564 , 4127.69230769 , 4138.97435897 , 2041.0 , 2030.0 , 211.886 , 0.0 , 0.0 , 0.0 , 0.0 , 

62.0 , 4129.74358974 , 4126.66666667 , 4136.41025641 , 4126.66666667 , 4130.76923077 , 4129.74358974 , 4124.61538462 , 4127.17948718 , 4129.74358974 , 4141.02564103 , 4187.69230769 , 4908.71794872 , 4124.1025641 , 4135.38461538 , 2042.0 , 2032.0 , 211.894 , 0.0 , 0.0 , 0.0 , 0.0 , 

63.0 , 4129.74358974 , 4129.74358974 , 4132.30769231 , 4131.79487179 , 4128.71794872 , 4129.74358974 , 4126.66666667 , 4133.33333333 , 4133.33333333 , 4141.53846154 , 4186.15384615 , 4912.30769231 , 4133.33333333 , 4134.35897436 , 2042.0 , 2033.0 , 211.902 , 0.0 , 0.0 , 0.0 , 0.0 , 

64.0 , 4130.25641026 , 4128.20512821 , 4135.38461538 , 4129.23076923 , 4128.71794872 , 4126.66666667 , 4123.07692308 , 4126.66666667 , 4126.66666667 , 4137.94871795 , 4183.07692308 , 4914.87179487 , 4123.07692308 , 4138.97435897 , 2042.0 , 2034.0 , 211.914 , 0.0 , 0.0 , 0.0 , 0.0 , 

65.0 , 4128.71794872 , 4131.28205128 , 4131.28205128 , 4132.82051282 , 4131.79487179 , 4128.71794872 , 4125.64102564 , 4126.66666667 , 4129.74358974 , 4138.46153846 , 4188.20512821 , 4908.20512821 , 4130.76923077 , 4136.92307692 , 2041.0 , 2034.0 , 211.918 , 0.0 , 0.0 , 0.0 , 0.0 , 

66.0 , 4130.76923077 , 4126.15384615 , 4133.84615385 , 4128.20512821 , 4130.76923077 , 4124.61538462 , 4115.8974359 , 4115.8974359 , 4122.05128205 , 4136.41025641 , 4185.64102564 , 4910.76923077 , 4132.82051282 , 4136.41025641 , 2043.0 , 2034.0 , 211.926 , 0.0 , 0.0 , 0.0 , 0.0 , 

67.0 , 4131.28205128 , 4130.76923077 , 4131.79487179 , 4133.84615385 , 4126.66666667 , 4131.28205128 , 4124.1025641 , 4131.79487179 , 4128.20512821 , 4138.97435897 , 4190.25641026 , 4909.23076923 , 4136.92307692 , 4134.87179487 , 2043.0 , 2033.0 , 211.934 , 0.0 , 0.0 , 0.0 , 0.0 , 

68.0 , 4131.79487179 , 4128.71794872 , 4136.41025641 , 4132.30769231 , 4125.12820513 , 4125.64102564 , 4123.07692308 , 4127.17948718 , 4124.61538462 , 4140.0 , 4190.25641026 , 4910.25641026 , 4131.79487179 , 4134.35897436 , 2044.0 , 2033.0 , 211.946 , 0.0 , 0.0 , 0.0 , 0.0 , 

69.0 , 4130.76923077 , 4129.74358974 , 4130.25641026 , 4135.8974359 , 4127.17948718 , 4124.1025641 , 4123.58974359 , 4130.76923077 , 4129.74358974 , 4138.46153846 , 4190.76923077 , 4907.69230769 , 4138.97435897 , 4135.8974359 , 2045.0 , 2033.0 , 211.95 , 0.0 , 0.0 , 0.0 , 0.0 , 

70.0 , 4130.25641026 , 4124.61538462 , 4127.69230769 , 4130.76923077 , 4128.71794872 , 4124.1025641 , 4118.46153846 , 4129.74358974 , 4129.23076923 , 4137.43589744 , 4189.74358974 , 4908.20512821 , 4132.30769231 , 4140.0 , 2047.0 , 2034.0 , 211.957 , 0.0 , 0.0 , 0.0 , 0.0 , 

71.0 , 4130.25641026 , 4126.66666667 , 4129.23076923 , 4131.28205128 , 4129.23076923 , 4128.20512821 , 4124.61538462 , 4136.92307692 , 4133.33333333 , 4141.02564103 , 4193.33333333 , 4905.12820513 , 4133.33333333 , 4138.46153846 , 2047.0 , 2034.0 , 211.965 , 0.0 , 0.0 , 0.0 , 0.0 , 

72.0 , 4129.23076923 , 4123.58974359 , 4135.8974359 , 4128.20512821 , 4127.17948718 , 4123.07692308 , 4122.05128205 , 4132.82051282 , 4132.82051282 , 4136.41025641 , 4187.69230769 , 4906.66666667 , 4132.30769231 , 4136.92307692 , 2045.0 , 2037.0 , 211.978 , 0.0 , 0.0 , 0.0 , 0.0 , 

73.0 , 4130.76923077 , 4125.12820513 , 4134.35897436 , 4129.74358974 , 4128.71794872 , 4125.64102564 , 4123.58974359 , 4133.84615385 , 4133.84615385 , 4133.84615385 , 4183.58974359 , 4907.69230769 , 4129.74358974 , 4138.97435897 , 2045.0 , 2037.0 , 211.983 , 0.0 , 0.0 , 0.0 , 0.0 , 

74.0 , 4131.28205128 , 4123.58974359 , 4135.38461538 , 4127.69230769 , 4129.23076923 , 4128.20512821 , 4125.64102564 , 4131.79487179 , 4134.87179487 , 4139.48717949 , 4184.1025641 , 4911.28205128 , 4126.66666667 , 4140.0 , 2045.0 , 2036.0 , 211.989 , 0.0 , 0.0 , 0.0 , 0.0 , 

75.0 , 4132.30769231 , 4125.12820513 , 4134.87179487 , 4128.71794872 , 4127.69230769 , 4127.17948718 , 4126.15384615 , 4129.74358974 , 4132.30769231 , 4143.07692308 , 4187.17948718 , 4910.76923077 , 4127.69230769 , 4140.0 , 2045.0 , 2037.0 , 211.997 , 0.0 , 0.0 , 0.0 , 0.0 , 

76.0 , 4130.25641026 , 4130.76923077 , 4131.28205128 , 4131.28205128 , 4127.17948718 , 4128.20512821 , 4124.1025641 , 4132.82051282 , 4132.30769231 , 4140.51282051 , 4190.76923077 , 4906.66666667 , 4129.23076923 , 4136.41025641 , 2046.0 , 2035.0 , 212.01 , 0.0 , 0.0 , 0.0 , 0.0 , 

77.0 , 4133.33333333 , 4132.30769231 , 4132.30769231 , 4130.25641026 , 4129.23076923 , 4130.76923077 , 4125.64102564 , 4125.64102564 , 4127.69230769 , 4137.94871795 , 4189.74358974 , 4907.69230769 , 4124.61538462 , 4136.92307692 , 2044.0 , 2035.0 , 212.014 , 0.0 , 0.0 , 0.0 , 0.0 , 

78.0 , 4131.79487179 , 4129.74358974 , 4132.30769231 , 4133.33333333 , 4127.69230769 , 4130.25641026 , 4129.74358974 , 4127.69230769 , 4130.76923077 , 4137.94871795 , 4189.23076923 , 4907.69230769 , 4133.33333333 , 4140.0 , 2043.0 , 2034.0 , 212.019 , 0.0 , 0.0 , 0.0 , 0.0 , 

79.0 , 4130.25641026 , 4129.74358974 , 4131.79487179 , 4133.33333333 , 4126.66666667 , 4125.12820513 , 4122.56410256 , 4124.61538462 , 4125.12820513 , 4136.92307692 , 4185.12820513 , 4907.69230769 , 4133.84615385 , 4138.46153846 , 2044.0 , 2034.0 , 212.029 , 0.0 , 0.0 , 0.0 , 0.0 , 

80.0 , 4129.23076923 , 4131.28205128 , 4126.15384615 , 4134.35897436 , 4126.15384615 , 4128.20512821 , 4122.05128205 , 4129.23076923 , 4128.71794872 , 4136.92307692 , 4187.17948718 , 4907.69230769 , 4136.92307692 , 4135.38461538 , 2043.0 , 2035.0 , 212.04 , 0.0 , 0.0 , 0.0 , 0.0 , 

81.0 , 4132.82051282 , 4124.1025641 , 4130.76923077 , 4128.20512821 , 4126.15384615 , 4122.56410256 , 4119.48717949 , 4119.48717949 , 4123.07692308 , 4136.41025641 , 4187.69230769 , 4912.82051282 , 4129.23076923 , 4137.43589744 , 2043.0 , 2036.0 , 212.044 , 0.0 , 0.0 , 0.0 , 0.0 , 

82.0 , 4130.25641026 , 4128.20512821 , 4129.23076923 , 4132.30769231 , 4127.69230769 , 4120.51282051 , 4123.58974359 , 4135.38461538 , 4130.25641026 , 4138.46153846 , 4188.71794872 , 4908.71794872 , 4134.87179487 , 4136.92307692 , 2043.0 , 2036.0 , 212.052 , 0.0 , 0.0 , 0.0 , 0.0 , 

83.0 , 4128.71794872 , 4126.66666667 , 4132.82051282 , 4129.23076923 , 4127.17948718 , 4118.46153846 , 4115.8974359 , 4131.79487179 , 4127.69230769 , 4137.43589744 , 4185.12820513 , 4907.69230769 , 4128.71794872 , 4135.8974359 , 2042.0 , 2036.0 , 212.059 , 0.0 , 0.0 , 0.0 , 0.0 , 

84.0 , 4129.23076923 , 4124.61538462 , 4129.74358974 , 4130.25641026 , 4127.69230769 , 4126.15384615 , 4121.53846154 , 4136.92307692 , 4135.38461538 , 4137.94871795 , 4189.74358974 , 4905.64102564 , 4133.84615385 , 4134.87179487 , 2042.0 , 2034.0 , 212.072 , 0.0 , 0.0 , 0.0 , 0.0 , 

85.0 , 4131.79487179 , 4121.53846154 , 4134.35897436 , 4123.07692308 , 4129.74358974 , 4123.58974359 , 4120.51282051 , 4130.76923077 , 4133.33333333 , 4136.41025641 , 4189.74358974 , 4910.25641026 , 4126.66666667 , 4137.94871795 , 2042.0 , 2034.0 , 212.075 , 0.0 , 0.0 , 0.0 , 0.0 , 

86.0 , 4129.74358974 , 4128.71794872 , 4130.76923077 , 4129.23076923 , 4131.28205128 , 4127.17948718 , 4128.71794872 , 4139.48717949 , 4137.94871795 , 4137.43589744 , 4193.33333333 , 4908.71794872 , 4129.74358974 , 4139.48717949 , 2043.0 , 2035.0 , 212.083 , 0.0 , 0.0 , 0.0 , 0.0 , 

87.0 , 4127.17948718 , 4124.1025641 , 4130.76923077 , 4129.74358974 , 4128.20512821 , 4126.15384615 , 4124.61538462 , 4127.69230769 , 4129.74358974 , 4138.46153846 , 4190.25641026 , 4909.74358974 , 4127.69230769 , 4140.0 , 2044.0 , 2034.0 , 212.091 , 0.0 , 0.0 , 0.0 , 0.0 , 

88.0 , 4128.71794872 , 4129.74358974 , 4130.25641026 , 4133.33333333 , 4128.20512821 , 4130.76923077 , 4127.69230769 , 4130.25641026 , 4131.79487179 , 4140.0 , 4188.71794872 , 4909.23076923 , 4133.33333333 , 4136.92307692 , 2043.0 , 2035.0 , 212.103 , 0.0 , 0.0 , 0.0 , 0.0 , 

89.0 , 4131.79487179 , 4131.79487179 , 4135.38461538 , 4128.20512821 , 4130.25641026 , 4130.25641026 , 4125.12820513 , 4125.12820513 , 4128.71794872 , 4136.92307692 , 4184.1025641 , 4910.76923077 , 4126.15384615 , 4136.41025641 , 2043.0 , 2034.0 , 212.107 , 0.0 , 0.0 , 0.0 , 0.0 , 

90.0 , 4132.30769231 , 4132.82051282 , 4132.30769231 , 4131.28205128 , 4131.28205128 , 4131.79487179 , 4126.66666667 , 4125.12820513 , 4128.20512821 , 4136.92307692 , 4185.64102564 , 4907.69230769 , 4129.74358974 , 4136.92307692 , 2040.0 , 2034.0 , 212.116 , 0.0 , 0.0 , 0.0 , 0.0 , 

91.0 , 4129.74358974 , 4128.71794872 , 4133.33333333 , 4132.30769231 , 4129.23076923 , 4127.17948718 , 4121.02564103 , 4124.61538462 , 4126.66666667 , 4136.41025641 , 4183.07692308 , 4912.82051282 , 4132.82051282 , 4139.48717949 , 2041.0 , 2033.0 , 212.123 , 0.0 , 0.0 , 0.0 , 0.0 , 

92.0 , 4128.71794872 , 4131.79487179 , 4132.30769231 , 4133.84615385 , 4130.25641026 , 4126.66666667 , 4122.05128205 , 4126.15384615 , 4126.15384615 , 4134.35897436 , 4183.58974359 , 4913.84615385 , 4132.82051282 , 4140.0 , 2042.0 , 2033.0 , 212.136 , 0.0 , 0.0 , 0.0 , 0.0 , 

93.0 , 4128.71794872 , 4131.28205128 , 4130.25641026 , 4134.87179487 , 4129.74358974 , 4126.66666667 , 4123.07692308 , 4123.07692308 , 4124.61538462 , 4134.87179487 , 4188.20512821 , 4910.76923077 , 4133.84615385 , 4137.43589744 , 2042.0 , 2033.0 , 212.138 , 0.0 , 0.0 , 0.0 , 0.0 , 

94.0 , 4130.76923077 , 4131.28205128 , 4130.76923077 , 4135.8974359 , 4128.20512821 , 4125.64102564 , 4122.56410256 , 4122.05128205 , 4123.58974359 , 4137.43589744 , 4189.23076923 , 4908.71794872 , 4136.41025641 , 4137.94871795 , 2043.0 , 2031.0 , 212.147 , 0.0 , 0.0 , 0.0 , 0.0 , 

95.0 , 4127.17948718 , 4129.74358974 , 4130.25641026 , 4130.76923077 , 4126.66666667 , 4124.1025641 , 4120.51282051 , 4133.33333333 , 4132.30769231 , 4136.92307692 , 4187.69230769 , 4906.66666667 , 4134.35897436 , 4137.94871795 , 2043.0 , 2033.0 , 212.155 , 0.0 , 0.0 , 0.0 , 0.0 , 

96.0 , 4128.71794872 , 4125.64102564 , 4130.76923077 , 4126.66666667 , 4128.71794872 , 4123.07692308 , 4117.43589744 , 4132.82051282 , 4129.74358974 , 4135.8974359 , 4187.69230769 , 4905.64102564 , 4128.20512821 , 4136.41025641 , 2042.0 , 2032.0 , 212.167 , 0.0 , 0.0 , 0.0 , 0.0 , 

97.0 , 4129.23076923 , 4127.69230769 , 4129.74358974 , 4133.33333333 , 4129.23076923 , 4125.12820513 , 4124.61538462 , 4139.48717949 , 4134.35897436 , 4139.48717949 , 4189.74358974 , 4906.15384615 , 4137.43589744 , 4135.8974359 , 2043.0 , 2035.0 , 212.17 , 0.0 , 0.0 , 0.0 , 0.0 , 

98.0 , 4132.30769231 , 4127.69230769 , 4135.38461538 , 4131.28205128 , 4130.25641026 , 4120.51282051 , 4124.1025641 , 4133.84615385 , 4133.33333333 , 4137.94871795 , 4186.15384615 , 4910.25641026 , 4132.30769231 , 4138.97435897 , 2043.0 , 2034.0 , 212.179 , 0.0 , 0.0 , 0.0 , 0.0 , 

99.0 , 4130.25641026 , 4128.20512821 , 4131.28205128 , 4129.74358974 , 4126.66666667 , 4123.58974359 , 4127.17948718 , 4135.38461538 , 4136.92307692 , 4136.92307692 , 4187.17948718 , 4907.17948718 , 4132.30769231 , 4136.92307692 , 2043.0 , 2036.0 , 212.187 , 0.0 , 0.0 , 0.0 , 0.0 , 

100.0 , 4129.23076923 , 4123.07692308 , 4133.84615385 , 4126.66666667 , 4125.12820513 , 4124.61538462 , 4126.15384615 , 4124.1025641 , 4128.20512821 , 4135.8974359 , 4184.61538462 , 4907.69230769 , 4126.66666667 , 4136.41025641 , 2043.0 , 2035.0 , 212.198 , 0.0 , 0.0 , 0.0 , 0.0 , 

101.0 , 4129.23076923 , 4126.66666667 , 4132.82051282 , 4132.82051282 , 4128.71794872 , 4130.25641026 , 4131.79487179 , 4132.82051282 , 4134.87179487 , 4137.43589744 , 4184.61538462 , 4905.64102564 , 4131.79487179 , 4136.92307692 , 2042.0 , 2035.0 , 212.202 , 0.0 , 0.0 , 0.0 , 0.0 , 

102.0 , 4133.84615385 , 4126.15384615 , 4138.46153846 , 4128.20512821 , 4131.79487179 , 4126.15384615 , 4123.58974359 , 4124.1025641 , 4129.74358974 , 4133.84615385 , 4182.56410256 , 4910.25641026 , 4122.05128205 , 4138.46153846 , 2042.0 , 2035.0 , 212.208 , 0.0 , 0.0 , 0.0 , 0.0 , 

103.0 , 4130.76923077 , 4131.28205128 , 4133.33333333 , 4133.33333333 , 4131.79487179 , 4130.25641026 , 4130.25641026 , 4130.76923077 , 4133.84615385 , 4135.8974359 , 4187.17948718 , 4909.23076923 , 4127.69230769 , 4135.8974359 , 2042.0 , 2035.0 , 212.217 , 0.0 , 0.0 , 0.0 , 0.0 , 

104.0 , 4130.76923077 , 4130.25641026 , 4133.84615385 , 4129.74358974 , 4130.76923077 , 4127.69230769 , 4125.64102564 , 4122.56410256 , 4126.15384615 , 4137.43589744 , 4185.12820513 , 4909.74358974 , 4124.61538462 , 4137.43589744 , 2043.0 , 2037.0 , 212.23 , 0.0 , 0.0 , 0.0 , 0.0 , 

105.0 , 4133.84615385 , 4134.87179487 , 4132.82051282 , 4131.28205128 , 4130.76923077 , 4129.23076923 , 4123.07692308 , 4128.20512821 , 4126.66666667 , 4137.94871795 , 4188.71794872 , 4908.20512821 , 4131.79487179 , 4137.94871795 , 2043.0 , 2037.0 , 212.234 , 0.0 , 0.0 , 0.0 , 0.0 , 

106.0 , 4132.30769231 , 4129.23076923 , 4133.33333333 , 4130.76923077 , 4130.25641026 , 4126.15384615 , 4118.97435897 , 4122.05128205 , 4125.64102564 , 4136.41025641 , 4186.66666667 , 4911.79487179 , 4130.76923077 , 4138.97435897 , 2042.0 , 2037.0 , 212.241 , 0.0 , 0.0 , 0.0 , 0.0 , 

107.0 , 4128.71794872 , 4129.23076923 , 4125.12820513 , 4138.46153846 , 4129.23076923 , 4127.17948718 , 4127.17948718 , 4129.74358974 , 4132.30769231 , 4137.43589744 , 4188.71794872 , 4907.17948718 , 4134.87179487 , 4136.92307692 , 2043.0 , 2037.0 , 212.249 , 0.0 , 0.0 , 0.0 , 0.0 , 

108.0 , 4129.23076923 , 4128.71794872 , 4128.20512821 , 4131.79487179 , 4125.12820513 , 4123.58974359 , 4121.53846154 , 4125.64102564 , 4126.66666667 , 4136.41025641 , 4189.23076923 , 4906.15384615 , 4131.79487179 , 4135.38461538 , 2044.0 , 2035.0 , 212.262 , 0.0 , 0.0 , 0.0 , 0.0 , 

109.0 , 4130.76923077 , 4128.20512821 , 4131.28205128 , 4127.69230769 , 4125.12820513 , 4124.61538462 , 4118.97435897 , 4128.71794872 , 4129.74358974 , 4137.43589744 , 4192.30769231 , 4906.66666667 , 4130.76923077 , 4134.87179487 , 2043.0 , 2036.0 , 212.266 , 0.0 , 0.0 , 0.0 , 0.0 , 

110.0 , 4129.74358974 , 4121.02564103 , 4132.82051282 , 4125.64102564 , 4125.12820513 , 4123.07692308 , 4117.43589744 , 4134.35897436 , 4136.92307692 , 4137.43589744 , 4188.20512821 , 4907.69230769 , 4127.17948718 , 4135.38461538 , 2043.0 , 2035.0 , 212.272 , 0.0 , 0.0 , 0.0 , 0.0 , 

111.0 , 4129.74358974 , 4125.12820513 , 4131.28205128 , 4129.23076923 , 4126.66666667 , 4123.07692308 , 4121.53846154 , 4135.8974359 , 4133.84615385 , 4138.46153846 , 4186.15384615 , 4908.20512821 , 4127.69230769 , 4136.41025641 , 2044.0 , 2037.0 , 212.281 , 0.0 , 0.0 , 0.0 , 0.0 , 

112.0 , 4126.66666667 , 4126.15384615 , 4132.30769231 , 4129.74358974 , 4128.71794872 , 4123.58974359 , 4125.12820513 , 4133.84615385 , 4132.30769231 , 4136.41025641 , 4187.69230769 , 4910.25641026 , 4128.20512821 , 4136.92307692 , 2043.0 , 2036.0 , 212.293 , 0.0 , 0.0 , 0.0 , 0.0 , 

113.0 , 4130.76923077 , 4123.07692308 , 4134.87179487 , 4126.15384615 , 4131.79487179 , 4126.66666667 , 4127.69230769 , 4132.30769231 , 4133.33333333 , 4135.38461538 , 4188.71794872 , 4908.71794872 , 4125.12820513 , 4135.38461538 , 2045.0 , 2035.0 , 212.297 , 0.0 , 0.0 , 0.0 , 0.0 , 

114.0 , 4131.28205128 , 4126.15384615 , 4132.82051282 , 4124.61538462 , 4131.28205128 , 4130.76923077 , 4130.76923077 , 4136.92307692 , 4135.38461538 , 4137.94871795 , 4189.23076923 , 4904.61538462 , 4129.23076923 , 4134.35897436 , 2044.0 , 2033.0 , 212.304 , 0.0 , 0.0 , 0.0 , 0.0 , 

115.0 , 4130.76923077 , 4129.74358974 , 4132.30769231 , 4125.64102564 , 4132.30769231 , 4128.20512821 , 4128.20512821 , 4126.66666667 , 4127.69230769 , 4139.48717949 , 4186.15384615 , 4908.71794872 , 4125.64102564 , 4137.43589744 , 2044.0 , 2035.0 , 212.313 , 0.0 , 0.0 , 0.0 , 0.0 , 

116.0 , 4130.25641026 , 4130.76923077 , 4128.71794872 , 4134.87179487 , 4131.28205128 , 4127.69230769 , 4129.74358974 , 4133.84615385 , 4133.33333333 , 4137.43589744 , 4187.69230769 , 4912.30769231 , 4129.74358974 , 4136.92307692 , 2044.0 , 2034.0 , 212.324 , 0.0 , 0.0 , 0.0 , 0.0 , 

117.0 , 4133.33333333 , 4129.23076923 , 4134.35897436 , 4131.79487179 , 4130.76923077 , 4127.17948718 , 4125.64102564 , 4126.66666667 , 4126.15384615 , 4133.84615385 , 4187.17948718 , 4913.33333333 , 4128.71794872 , 4136.92307692 , 2044.0 , 2034.0 , 212.329 , 0.0 , 0.0 , 0.0 , 0.0 , 

118.0 , 4130.76923077 , 4132.82051282 , 4129.23076923 , 4132.30769231 , 4130.76923077 , 4129.74358974 , 4128.20512821 , 4125.64102564 , 4126.15384615 , 4135.8974359 , 4188.20512821 , 4908.20512821 , 4135.38461538 , 4137.43589744 , 2045.0 , 2035.0 , 212.335 , 0.0 , 0.0 , 0.0 , 0.0 , 

119.0 , 4131.79487179 , 4128.71794872 , 4126.66666667 , 4132.30769231 , 4130.25641026 , 4122.05128205 , 4118.46153846 , 4115.38461538 , 4119.48717949 , 4133.84615385 , 4184.61538462 , 4910.76923077 , 4128.71794872 , 4138.46153846 , 2045.0 , 2034.0 , 212.343 , 0.0 , 0.0 , 0.0 , 0.0 , 

120.0 , 4130.25641026 , 4131.28205128 , 4125.12820513 , 4135.38461538 , 4127.17948718 , 4124.61538462 , 4121.02564103 , 4126.15384615 , 4127.69230769 , 4134.35897436 , 4189.23076923 , 4908.71794872 , 4136.92307692 , 4135.8974359 , 2045.0 , 2032.0 , 212.355 , 0.0 , 0.0 , 0.0 , 0.0 , 

121.0 , 4129.74358974 , 4127.69230769 , 4132.30769231 , 4128.20512821 , 4127.17948718 , 4122.56410256 , 4117.94871795 , 4119.48717949 , 4124.1025641 , 4135.8974359 , 4188.20512821 , 4909.23076923 , 4132.82051282 , 4139.48717949 , 2045.0 , 2032.0 , 212.359 , 0.0 , 0.0 , 0.0 , 0.0 , 

122.0 , 4130.25641026 , 4129.23076923 , 4126.66666667 , 4133.84615385 , 4127.69230769 , 4125.12820513 , 4121.53846154 , 4132.30769231 , 4132.82051282 , 4138.97435897 , 4188.71794872 , 4905.12820513 , 4135.8974359 , 4140.51282051 , 2044.0 , 2030.0 , 212.367 , 0.0 , 0.0 , 0.0 , 0.0 , 

123.0 , 4132.30769231 , 4124.1025641 , 4130.25641026 , 4130.25641026 , 4125.64102564 , 4122.05128205 , 4118.97435897 , 4135.8974359 , 4130.25641026 , 4133.84615385 , 4188.20512821 , 4909.23076923 , 4128.20512821 , 4140.0 , 2044.0 , 2031.0 , 212.375 , 0.0 , 0.0 , 0.0 , 0.0 , 

124.0 , 4128.71794872 , 4126.66666667 , 4130.76923077 , 4129.23076923 , 4126.66666667 , 4127.69230769 , 4128.71794872 , 4144.1025641 , 4134.35897436 , 4133.33333333 , 4191.79487179 , 4907.69230769 , 4131.28205128 , 4138.97435897 , 2044.0 , 2032.0 , 212.387 , 0.0 , 0.0 , 0.0 , 0.0 , 

125.0 , 4128.20512821 , 4126.15384615 , 4132.82051282 , 4125.64102564 , 4129.23076923 , 4125.64102564 , 4125.12820513 , 4131.79487179 , 4134.35897436 , 4137.43589744 , 4185.64102564 , 4908.20512821 , 4126.66666667 , 4138.97435897 , 2044.0 , 2034.0 , 212.391 , 0.0 , 0.0 , 0.0 , 0.0 , 

126.0 , 4130.76923077 , 4127.69230769 , 4129.74358974 , 4129.23076923 , 4130.25641026 , 4128.20512821 , 4128.71794872 , 4132.82051282 , 4137.43589744 , 4139.48717949 , 4188.71794872 , 4904.61538462 , 4127.69230769 , 4137.43589744 , 2044.0 , 2034.0 , 212.398 , 0.0 , 0.0 , 0.0 , 0.0 , 

127.0 , 4129.23076923 , 4123.58974359 , 4133.33333333 , 4125.12820513 , 4128.20512821 , 4127.69230769 , 4128.20512821 , 4130.76923077 , 4131.79487179 , 4135.8974359 , 4189.74358974 , 4908.20512821 , 4125.12820513 , 4138.97435897 , 2043.0 , 2034.0 , 212.406 , 0.0 , 0.0 , 0.0 , 0.0 , 

128.0 , 4131.28205128 , 4128.20512821 , 4132.30769231 , 4130.25641026 , 4127.69230769 , 4129.74358974 , 4127.69230769 , 4133.33333333 , 4129.74358974 , 4137.94871795 , 4185.12820513 , 4912.30769231 , 4126.15384615 , 4138.46153846 , 2043.0 , 2036.0 , 212.42 , 0.0 , 0.0 , 0.0 , 0.0 , 

0.0 , 4133.33333333 , 4128.20512821 , 4133.33333333 , 4131.79487179 , 4126.66666667 , 4127.69230769 , 4124.1025641 , 4130.25641026 , 4131.28205128 , 4138.46153846 , 4181.53846154 , 4908.71794872 , 4123.58974359 , 4135.8974359 , 2044.0 , 2034.0 , 212.423 , 0.0 , 0.0 , 0.0 , 0.0 , 

1.0 , 4131.79487179 , 4126.66666667 , 4133.84615385 , 4130.25641026 , 4129.23076923 , 4126.66666667 , 4124.1025641 , 4128.20512821 , 4129.23076923 , 4136.92307692 , 4186.66666667 , 4905.12820513 , 4123.07692308 , 4140.51282051 , 2043.0 , 2034.0 , 212.431 , 0.0 , 0.0 , 0.0 , 0.0 , 

2.0 , 4128.71794872 , 4128.20512821 , 4130.76923077 , 4134.35897436 , 4130.25641026 , 4126.15384615 , 4124.61538462 , 4129.23076923 , 4129.74358974 , 4137.43589744 , 4187.17948718 , 4910.76923077 , 4129.74358974 , 4140.51282051 , 2044.0 , 2035.0 , 212.438 , 0.0 , 0.0 , 0.0 , 0.0 , 

3.0 , 4132.30769231 , 4129.74358974 , 4130.25641026 , 4136.41025641 , 4129.23076923 , 4126.15384615 , 4126.15384615 , 4125.12820513 , 4128.71794872 , 4137.43589744 , 4184.1025641 , 4909.23076923 , 4132.30769231 , 4134.35897436 , 2043.0 , 2034.0 , 212.449 , 0.0 , 0.0 , 0.0 , 0.0 , 

4.0 , 4130.25641026 , 4129.23076923 , 4127.17948718 , 4133.33333333 , 4127.69230769 , 4128.20512821 , 4126.15384615 , 4132.82051282 , 4132.82051282 , 4136.41025641 , 4188.20512821 , 4903.58974359 , 4136.92307692 , 4134.87179487 , 2042.0 , 2033.0 , 212.454 , 0.0 , 0.0 , 0.0 , 0.0 , 

5.0 , 4129.23076923 , 4126.66666667 , 4129.23076923 , 4129.74358974 , 4130.25641026 , 4123.07692308 , 4117.94871795 , 4131.28205128 , 4127.17948718 , 4136.41025641 , 4187.17948718 , 4909.74358974 , 4132.30769231 , 4140.0 , 2042.0 , 2033.0 , 212.462 , 0.0 , 0.0 , 0.0 , 0.0 , 

6.0 , 4128.71794872 , 4127.69230769 , 4129.74358974 , 4133.84615385 , 4131.28205128 , 4124.1025641 , 4124.61538462 , 4136.41025641 , 4133.33333333 , 4135.8974359 , 4189.74358974 , 4909.23076923 , 4136.92307692 , 4135.38461538 , 2041.0 , 2034.0 , 212.47 , 0.0 , 0.0 , 0.0 , 0.0 , 

7.0 , 4128.71794872 , 4124.61538462 , 4135.38461538 , 4124.61538462 , 4129.74358974 , 4123.58974359 , 4123.58974359 , 4125.64102564 , 4130.25641026 , 4134.35897436 , 4190.76923077 , 4906.15384615 , 4129.23076923 , 4134.87179487 , 2040.0 , 2032.0 , 212.482 , 0.0 , 0.0 , 0.0 , 0.0 , 

8.0 , 4125.12820513 , 4127.17948718 , 4130.76923077 , 4124.61538462 , 4128.20512821 , 4125.64102564 , 4124.1025641 , 4133.33333333 , 4135.8974359 , 4136.92307692 , 4191.28205128 , 4906.15384615 , 4129.74358974 , 4136.92307692 , 2039.0 , 2031.0 , 212.485 , 0.0 , 0.0 , 0.0 , 0.0 , 

9.0 , 4128.20512821 , 4121.02564103 , 4134.87179487 , 4126.15384615 , 4130.25641026 , 4119.48717949 , 4121.53846154 , 4128.71794872 , 4131.28205128 , 4135.38461538 , 4188.71794872 , 4909.74358974 , 4122.05128205 , 4137.94871795 , 2040.0 , 2031.0 , 212.493 , 0.0 , 0.0 , 0.0 , 0.0 , 

10.0 , 4129.23076923 , 4122.56410256 , 4135.38461538 , 4129.74358974 , 4130.76923077 , 4125.64102564 , 4130.25641026 , 4138.97435897 , 4139.48717949 , 4134.87179487 , 4192.82051282 , 4905.64102564 , 4132.30769231 , 4134.87179487 , 2041.0 , 2031.0 , 212.502 , 0.0 , 0.0 , 0.0 , 0.0 , 

11.0 , 4129.74358974 , 4123.58974359 , 4137.94871795 , 4123.58974359 , 4128.20512821 , 4127.17948718 , 4124.61538462 , 4131.28205128 , 4133.84615385 , 4134.87179487 , 4185.64102564 , 4911.79487179 , 4126.66666667 , 4136.41025641 , 2041.0 , 2031.0 , 212.514 , 0.0 , 0.0 , 0.0 , 0.0 , 

12.0 , 4129.23076923 , 4131.28205128 , 4129.23076923 , 4131.28205128 , 4126.66666667 , 4131.79487179 , 4130.25641026 , 4136.92307692 , 4136.41025641 , 4137.43589744 , 4185.64102564 , 4910.25641026 , 4127.17948718 , 4137.94871795 , 2044.0 , 2030.0 , 212.518 , 0.0 , 0.0 , 0.0 , 0.0 , 

13.0 , 4130.76923077 , 4127.69230769 , 4133.33333333 , 4129.23076923 , 4128.20512821 , 4127.69230769 , 4130.25641026 , 4124.61538462 , 4131.28205128 , 4134.35897436 , 4189.23076923 , 4908.20512821 , 4123.07692308 , 4138.46153846 , 2044.0 , 2032.0 , 212.525 , 0.0 , 0.0 , 0.0 , 0.0 , 

14.0 , 4130.76923077 , 4131.28205128 , 4133.84615385 , 4129.23076923 , 4130.76923077 , 4128.71794872 , 4134.35897436 , 4125.12820513 , 4132.30769231 , 4136.92307692 , 4189.74358974 , 4905.64102564 , 4131.28205128 , 4137.43589744 , 2043.0 , 2033.0 , 212.533 , 0.0 , 0.0 , 0.0 , 0.0 , 

15.0 , 4130.76923077 , 4131.28205128 , 4133.84615385 , 4129.74358974 , 4127.69230769 , 4124.61538462 , 4124.61538462 , 4121.53846154 , 4127.17948718 , 4140.51282051 , 4184.1025641 , 4909.74358974 , 4129.74358974 , 4137.94871795 , 2044.0 , 2035.0 , 212.546 , 0.0 , 0.0 , 0.0 , 0.0 , 

16.0 , 4132.30769231 , 4131.79487179 , 4128.71794872 , 4137.43589744 , 4127.17948718 , 4126.15384615 , 4124.1025641 , 4125.64102564 , 4127.17948718 , 4141.02564103 , 4189.23076923 , 4908.20512821 , 4134.87179487 , 4136.92307692 , 2046.0 , 2036.0 , 212.55 , 0.0 , 0.0 , 0.0 , 0.0 , 

17.0 , 4131.79487179 , 4126.15384615 , 4130.76923077 , 4132.82051282 , 4128.71794872 , 4123.07692308 , 4122.05128205 , 4120.0 , 4124.1025641 , 4134.87179487 , 4188.71794872 , 4910.25641026 , 4136.41025641 , 4136.41025641 , 2046.0 , 2037.0 , 212.556 , 0.0 , 0.0 , 0.0 , 0.0 , 

18.0 , 4128.71794872 , 4128.71794872 , 4131.79487179 , 4131.28205128 , 4129.23076923 , 4122.05128205 , 4120.51282051 , 4122.05128205 , 4124.1025641 , 4132.30769231 , 4187.69230769 , 4911.28205128 , 4135.8974359 , 4136.92307692 , 2046.0 , 2037.0 , 212.564 , 0.0 , 0.0 , 0.0 , 0.0 , 

19.0 , 4127.17948718 , 4128.20512821 , 4131.79487179 , 4133.33333333 , 4127.17948718 , 4121.02564103 , 4116.41025641 , 4128.71794872 , 4125.64102564 , 4136.41025641 , 4191.28205128 , 4911.28205128 , 4133.33333333 , 4138.46153846 , 2044.0 , 2036.0 , 212.576 , 0.0 , 0.0 , 0.0 , 0.0 , 

20.0 , 4131.28205128 , 4126.15384615 , 4131.28205128 , 4132.82051282 , 4128.71794872 , 4124.1025641 , 4120.0 , 4128.71794872 , 4125.64102564 , 4138.46153846 , 4191.28205128 , 4908.20512821 , 4129.23076923 , 4139.48717949 , 2045.0 , 2035.0 , 212.58 , 0.0 , 0.0 , 0.0 , 0.0 , 

21.0 , 4127.69230769 , 4126.66666667 , 4129.23076923 , 4128.20512821 , 4129.74358974 , 4126.66666667 , 4124.61538462 , 4135.38461538 , 4135.38461538 , 4134.35897436 , 4187.69230769 , 4905.12820513 , 4129.23076923 , 4138.46153846 , 2046.0 , 2035.0 , 212.588 , 0.0 , 0.0 , 0.0 , 0.0 , 

22.0 , 4127.17948718 , 4127.69230769 , 4133.33333333 , 4124.61538462 , 4128.20512821 , 4125.12820513 , 4123.07692308 , 4136.92307692 , 4134.87179487 , 4132.82051282 , 4187.17948718 , 4906.66666667 , 4127.69230769 , 4138.46153846 , 2045.0 , 2036.0 , 212.597 , 0.0 , 0.0 , 0.0 , 0.0 , 

23.0 , 4128.71794872 , 4127.69230769 , 4134.35897436 , 4128.71794872 , 4125.64102564 , 4128.20512821 , 4130.76923077 , 4141.02564103 , 4135.38461538 , 4138.97435897 , 4189.23076923 , 4908.71794872 , 4133.84615385 , 4138.97435897 , 2045.0 , 2034.0 , 212.607 , 0.0 , 0.0 , 0.0 , 0.0 , 

24.0 , 4132.30769231 , 4127.69230769 , 4136.41025641 , 4126.15384615 , 4127.69230769 , 4128.71794872 , 4129.74358974 , 4130.76923077 , 4130.76923077 , 4141.53846154 , 4184.61538462 , 4911.28205128 , 4129.23076923 , 4140.51282051 , 2044.0 , 2035.0 , 212.611 , 0.0 , 0.0 , 0.0 , 0.0 , 

25.0 , 4130.76923077 , 4129.74358974 , 4132.82051282 , 4129.74358974 , 4128.71794872 , 4132.30769231 , 4129.23076923 , 4134.87179487 , 4136.92307692 , 4138.46153846 , 4186.66666667 , 4909.74358974 , 4133.33333333 , 4137.94871795 , 2044.0 , 2034.0 , 212.618 , 0.0 , 0.0 , 0.0 , 0.0 , 

26.0 , 4130.25641026 , 4124.1025641 , 4134.35897436 , 4129.74358974 , 4127.69230769 , 4128.20512821 , 4123.07692308 , 4123.07692308 , 4127.69230769 , 4134.35897436 , 4186.66666667 , 4912.30769231 , 4124.61538462 , 4137.43589744 , 2043.0 , 2033.0 , 212.627 , 0.0 , 0.0 , 0.0 , 0.0 , 

27.0 , 4128.20512821 , 4130.25641026 , 4130.76923077 , 4134.87179487 , 4128.71794872 , 4128.71794872 , 4127.17948718 , 4126.66666667 , 4129.74358974 , 4135.38461538 , 4186.15384615 , 4911.28205128 , 4129.74358974 , 4136.92307692 , 2043.0 , 2033.0 , 212.638 , 0.0 , 0.0 , 0.0 , 0.0 , 

28.0 , 4131.28205128 , 4133.33333333 , 4135.8974359 , 4128.20512821 , 4130.76923077 , 4125.64102564 , 4122.05128205 , 4116.92307692 , 4122.05128205 , 4133.33333333 , 4181.53846154 , 4914.87179487 , 4127.69230769 , 4137.94871795 , 2041.0 , 2033.0 , 212.642 , 0.0 , 0.0 , 0.0 , 0.0 , 

29.0 , 4131.28205128 , 4133.84615385 , 4127.69230769 , 4132.82051282 , 4130.25641026 , 4132.82051282 , 4127.69230769 , 4127.17948718 , 4126.66666667 , 4134.87179487 , 4187.17948718 , 4911.28205128 , 4136.92307692 , 4138.46153846 , 2041.0 , 2033.0 , 212.651 , 0.0 , 0.0 , 0.0 , 0.0 , 

30.0 , 4128.71794872 , 4125.64102564 , 4125.64102564 , 4131.28205128 , 4128.20512821 , 4126.66666667 , 4117.94871795 , 4123.58974359 , 4124.1025641 , 4135.38461538 , 4189.23076923 , 4910.25641026 , 4133.33333333 , 4139.48717949 , 2042.0 , 2031.0 , 212.658 , 0.0 , 0.0 , 0.0 , 0.0 , 

31.0 , 4127.69230769 , 4131.79487179 , 4126.15384615 , 4133.33333333 , 4129.74358974 , 4123.58974359 , 4121.53846154 , 4129.74358974 , 4130.76923077 , 4137.43589744 , 4191.79487179 , 4905.64102564 , 4137.43589744 , 4137.43589744 , 2043.0 , 2032.0 , 212.671 , 0.0 , 0.0 , 0.0 , 0.0 , 

32.0 , 4130.25641026 , 4129.74358974 , 4131.28205128 , 4128.20512821 , 4129.23076923 , 4122.05128205 , 4123.58974359 , 4123.58974359 , 4127.69230769 , 4136.41025641 , 4187.17948718 , 4906.66666667 , 4132.30769231 , 4137.43589744 , 2043.0 , 2032.0 , 212.674 , 0.0 , 0.0 , 0.0 , 0.0 , 

33.0 , 4132.30769231 , 4129.23076923 , 4126.15384615 , 4134.87179487 , 4127.69230769 , 4127.17948718 , 4128.20512821 , 4135.8974359 , 4134.35897436 , 4137.43589744 , 4187.69230769 , 4904.61538462 , 4136.41025641 , 4139.48717949 , 2043.0 , 2032.0 , 212.682 , 0.0 , 0.0 , 0.0 , 0.0 , 

34.0 , 4133.33333333 , 4126.66666667 , 4131.28205128 , 4134.87179487 , 4127.17948718 , 4121.53846154 , 4118.97435897 , 4135.8974359 , 4132.30769231 , 4134.35897436 , 4189.23076923 , 4909.23076923 , 4132.30769231 , 4140.0 , 2044.0 , 2031.0 , 212.69 , 0.0 , 0.0 , 0.0 , 0.0 , 

35.0 , 4131.28205128 , 4129.23076923 , 4134.35897436 , 4130.76923077 , 4130.25641026 , 4123.58974359 , 4121.02564103 , 4133.84615385 , 4130.76923077 , 4134.35897436 , 4191.79487179 , 4909.23076923 , 4130.76923077 , 4136.92307692 , 2044.0 , 2032.0 , 212.702 , 0.0 , 0.0 , 0.0 , 0.0 , 

36.0 , 4129.74358974 , 4123.58974359 , 4135.38461538 , 4125.64102564 , 4126.66666667 , 4125.12820513 , 4121.53846154 , 4131.28205128 , 4132.82051282 , 4138.46153846 , 4186.15384615 , 4906.66666667 , 4126.66666667 , 4134.35897436 , 2045.0 , 2034.0 , 212.706 , 0.0 , 0.0 , 0.0 , 0.0 , 

37.0 , 4133.33333333 , 4124.61538462 , 4135.8974359 , 4126.66666667 , 4125.64102564 , 4126.15384615 , 4123.58974359 , 4133.84615385 , 4137.94871795 , 4140.0 , 4185.64102564 , 4905.12820513 , 4126.15384615 , 4135.8974359 , 2043.0 , 2034.0 , 212.723 , 0.0 , 0.0 , 0.0 , 0.0 , 

38.0 , 4130.25641026 , 4128.20512821 , 4134.87179487 , 4124.1025641 , 4128.20512821 , 4127.69230769 , 4125.64102564 , 4133.84615385 , 4137.94871795 , 4136.41025641 , 4187.17948718 , 4909.23076923 , 4126.66666667 , 4137.43589744 , 2043.0 , 2034.0 , 212.726 , 0.0 , 0.0 , 0.0 , 0.0 , 

39.0 , 4128.20512821 , 4129.74358974 , 4131.79487179 , 4124.61538462 , 4129.74358974 , 4128.20512821 , 4125.64102564 , 4130.76923077 , 4130.25641026 , 4136.41025641 , 4185.64102564 , 4912.82051282 , 4125.12820513 , 4136.41025641 , 2043.0 , 2035.0 , 212.735 , 0.0 , 0.0 , 0.0 , 0.0 , 

40.0 , 4129.23076923 , 4130.76923077 , 4131.28205128 , 4131.79487179 , 4129.23076923 , 4128.20512821 , 4127.69230769 , 4135.8974359 , 4133.33333333 , 4139.48717949 , 4185.64102564 , 4912.82051282 , 4129.74358974 , 4133.84615385 , 2043.0 , 2033.0 , 212.74 , 0.0 , 0.0 , 0.0 , 0.0 , 

41.0 , 4134.35897436 , 4130.25641026 , 4135.8974359 , 4130.76923077 , 4131.28205128 , 4128.20512821 , 4127.17948718 , 4127.69230769 , 4131.28205128 , 4138.46153846 , 4185.64102564 , 4913.84615385 , 4128.71794872 , 4135.8974359 , 2042.0 , 2033.0 , 212.746 , 0.0 , 0.0 , 0.0 , 0.0 , 

42.0 , 4133.84615385 , 4129.23076923 , 4131.79487179 , 4132.30769231 , 4128.71794872 , 4130.25641026 , 4127.69230769 , 4128.71794872 , 4132.30769231 , 4134.87179487 , 4188.20512821 , 4911.79487179 , 4134.87179487 , 4137.94871795 , 2041.0 , 2032.0 , 212.754 , 0.0 , 0.0 , 0.0 , 0.0 , 

43.0 , 4132.82051282 , 4126.66666667 , 4132.82051282 , 4131.79487179 , 4127.17948718 , 4123.58974359 , 4121.53846154 , 4118.97435897 , 4123.07692308 , 4133.84615385 , 4187.17948718 , 4911.79487179 , 4130.25641026 , 4137.94871795 , 2041.0 , 2032.0 , 212.765 , 0.0 , 0.0 , 0.0 , 0.0 , 

44.0 , 4127.17948718 , 4130.25641026 , 4132.30769231 , 4131.79487179 , 4128.71794872 , 4123.58974359 , 4122.56410256 , 4127.69230769 , 4129.23076923 , 4135.8974359 , 4189.74358974 , 4908.20512821 , 4134.87179487 , 4133.84615385 , 2040.0 , 2033.0 , 212.769 , 0.0 , 0.0 , 0.0 , 0.0 , 

45.0 , 4127.69230769 , 4125.12820513 , 4134.35897436 , 4124.1025641 , 4129.74358974 , 4121.02564103 , 4116.92307692 , 4124.1025641 , 4124.61538462 , 4132.30769231 , 4185.12820513 , 4909.23076923 , 4130.76923077 , 4137.43589744 , 2041.0 , 2034.0 , 212.777 , 0.0 , 0.0 , 0.0 , 0.0 , 

46.0 , 4129.23076923 , 4125.12820513 , 4129.23076923 , 4128.20512821 , 4128.71794872 , 4125.12820513 , 4122.05128205 , 4134.35897436 , 4130.76923077 , 4134.87179487 , 4188.71794872 , 4907.69230769 , 4138.97435897 , 4140.0 , 2041.0 , 2033.0 , 212.785 , 0.0 , 0.0 , 0.0 , 0.0 , 

47.0 , 4129.23076923 , 4122.05128205 , 4135.8974359 , 4123.07692308 , 4127.69230769 , 4120.51282051 , 4116.41025641 , 4128.71794872 , 4128.71794872 , 4136.92307692 , 4189.23076923 , 4910.76923077 , 4130.76923077 , 4138.46153846 , 2041.0 , 2035.0 , 212.798 , 0.0 , 0.0 , 0.0 , 0.0 , 

48.0 , 4127.69230769 , 4125.64102564 , 4133.33333333 , 4127.69230769 , 4126.66666667 , 4123.58974359 , 4122.56410256 , 4138.97435897 , 4136.92307692 , 4137.43589744 , 4190.25641026 , 4906.15384615 , 4133.33333333 , 4134.87179487 , 2042.0 , 2035.0 , 212.801 , 0.0 , 0.0 , 0.0 , 0.0 , 

49.0 , 4130.76923077 , 4122.56410256 , 4133.84615385 , 4127.17948718 , 4126.15384615 , 4125.12820513 , 4121.02564103 , 4130.25641026 , 4132.30769231 , 4137.43589744 , 4185.12820513 , 4906.66666667 , 4129.23076923 , 4137.43589744 , 2042.0 , 2036.0 , 212.808 , 0.0 , 0.0 , 0.0 , 0.0 , 

50.0 , 4132.30769231 , 4125.64102564 , 4131.28205128 , 4129.74358974 , 4128.20512821 , 4131.79487179 , 4128.20512821 , 4133.84615385 , 4135.8974359 , 4139.48717949 , 4190.76923077 , 4906.66666667 , 4132.30769231 , 4136.92307692 , 2041.0 , 2034.0 , 212.816 , 0.0 , 0.0 , 0.0 , 0.0 , 

51.0 , 4131.79487179 , 4124.61538462 , 4136.41025641 , 4125.64102564 , 4131.28205128 , 4126.15384615 , 4126.66666667 , 4128.71794872 , 4131.28205128 , 4135.8974359 , 4190.25641026 , 4911.79487179 , 4126.15384615 , 4135.38461538 , 2043.0 , 2034.0 , 212.829 , 0.0 , 0.0 , 0.0 , 0.0 , 

52.0 , 4131.79487179 , 4132.30769231 , 4132.82051282 , 4133.33333333 , 4130.76923077 , 4126.15384615 , 4131.28205128 , 4132.30769231 , 4129.74358974 , 4133.33333333 , 4186.66666667 , 4911.28205128 , 4130.76923077 , 4136.92307692 , 2044.0 , 2034.0 , 212.833 , 0.0 , 0.0 , 0.0 , 0.0 , 

53.0 , 4130.76923077 , 4129.74358974 , 4134.35897436 , 4132.30769231 , 4127.69230769 , 4127.17948718 , 4127.17948718 , 4127.17948718 , 4125.64102564 , 4133.33333333 , 4183.58974359 , 4911.79487179 , 4127.69230769 , 4137.43589744 , 2043.0 , 2034.0 , 212.84 , 0.0 , 0.0 , 0.0 , 0.0 , 

54.0 , 4129.74358974 , 4130.76923077 , 4134.87179487 , 4132.30769231 , 4129.74358974 , 4130.76923077 , 4127.17948718 , 4125.12820513 , 4127.17948718 , 4135.38461538 , 4186.15384615 , 4909.23076923 , 4127.69230769 , 4136.41025641 , 2044.0 , 2034.0 , 212.849 , 0.0 , 0.0 , 0.0 , 0.0 , 

55.0 , 4130.25641026 , 4130.76923077 , 4132.82051282 , 4133.33333333 , 4130.76923077 , 4126.15384615 , 4122.05128205 , 4120.51282051 , 4127.69230769 , 4134.35897436 , 4184.1025641 , 4910.76923077 , 4132.82051282 , 4136.92307692 , 2044.0 , 2035.0 , 212.86 , 0.0 , 0.0 , 0.0 , 0.0 , 

56.0 , 4130.25641026 , 4129.74358974 , 4129.23076923 , 4135.38461538 , 4128.71794872 , 4123.07692308 , 4122.05128205 , 4118.97435897 , 4126.66666667 , 4132.30769231 , 4184.1025641 , 4910.25641026 , 4133.84615385 , 4137.94871795 , 2045.0 , 2035.0 , 212.864 , 0.0 , 0.0 , 0.0 , 0.0 , 

57.0 , 4125.64102564 , 4127.69230769 , 4127.69230769 , 4133.84615385 , 4127.17948718 , 4125.12820513 , 4125.64102564 , 4123.58974359 , 4130.25641026 , 4134.35897436 , 4189.23076923 , 4908.20512821 , 4133.84615385 , 4137.43589744 , 2046.0 , 2037.0 , 212.871 , 0.0 , 0.0 , 0.0 , 0.0 , 

58.0 , 4127.17948718 , 4131.28205128 , 4130.76923077 , 4132.82051282 , 4129.74358974 , 4123.58974359 , 4123.07692308 , 4125.12820513 , 4126.15384615 , 4135.8974359 , 4187.69230769 , 4909.74358974 , 4131.28205128 , 4136.92307692 , 2045.0 , 2035.0 , 212.88 , 0.0 , 0.0 , 0.0 , 0.0 , 

59.0 , 4130.25641026 , 4132.82051282 , 4129.23076923 , 4134.35897436 , 4129.74358974 , 4121.02564103 , 4123.58974359 , 4134.87179487 , 4130.76923077 , 4133.84615385 , 4186.15384615 , 4909.74358974 , 4136.92307692 , 4136.41025641 , 2046.0 , 2036.0 , 212.89 , 0.0 , 0.0 , 0.0 , 0.0 , 

60.0 , 4132.30769231 , 4126.66666667 , 4129.74358974 , 4132.30769231 , 4128.71794872 , 4121.02564103 , 4123.58974359 , 4129.74358974 , 4130.25641026 , 4133.33333333 , 4187.17948718 , 4908.20512821 , 4134.35897436 , 4137.94871795 , 2045.0 , 2035.0 , 212.894 , 0.0 , 0.0 , 0.0 , 0.0 , 

61.0 , 4127.69230769 , 4128.20512821 , 4127.69230769 , 4132.82051282 , 4129.23076923 , 4127.17948718 , 4125.64102564 , 4135.8974359 , 4136.41025641 , 4138.97435897 , 4189.74358974 , 4906.15384615 , 4136.41025641 , 4136.41025641 , 2044.0 , 2034.0 , 212.902 , 0.0 , 0.0 , 0.0 , 0.0 , 

62.0 , 4128.20512821 , 4127.69230769 , 4134.35897436 , 4125.12820513 , 4130.76923077 , 4125.64102564 , 4121.53846154 , 4131.79487179 , 4129.23076923 , 4137.43589744 , 4186.15384615 , 4912.30769231 , 4126.66666667 , 4135.8974359 , 2044.0 , 2033.0 , 212.911 , 0.0 , 0.0 , 0.0 , 0.0 , 

63.0 , 4128.20512821 , 4128.20512821 , 4132.82051282 , 4125.64102564 , 4127.17948718 , 4128.20512821 , 4128.71794872 , 4136.41025641 , 4132.82051282 , 4135.38461538 , 4188.20512821 , 4910.25641026 , 4129.23076923 , 4136.41025641 , 2045.0 , 2035.0 , 212.923 , 0.0 , 0.0 , 0.0 , 0.0 , 

64.0 , 4128.71794872 , 4122.05128205 , 4135.38461538 , 4124.61538462 , 4125.64102564 , 4126.15384615 , 4124.1025641 , 4125.12820513 , 4130.25641026 , 4136.41025641 , 4183.58974359 , 4907.17948718 , 4124.1025641 , 4137.94871795 , 2044.0 , 2034.0 , 212.926 , 0.0 , 0.0 , 0.0 , 0.0 , 

65.0 , 4127.17948718 , 4128.20512821 , 4133.33333333 , 4128.71794872 , 4130.25641026 , 4130.25641026 , 4128.20512821 , 4135.8974359 , 4137.43589744 , 4140.0 , 4184.61538462 , 4906.66666667 , 4130.25641026 , 4134.35897436 , 2044.0 , 2031.0 , 212.934 , 0.0 , 0.0 , 0.0 , 0.0 , 

66.0 , 4129.74358974 , 4129.23076923 , 4136.92307692 , 4125.12820513 , 4130.25641026 , 4126.66666667 , 4125.64102564 , 4126.66666667 , 4129.23076923 , 4136.41025641 , 4185.12820513 , 4914.87179487 , 4123.58974359 , 4136.41025641 , 2044.0 , 2030.0 , 212.942 , 0.0 , 0.0 , 0.0 , 0.0 , 

67.0 , 4129.74358974 , 4131.79487179 , 4130.25641026 , 4133.84615385 , 4126.15384615 , 4127.69230769 , 4128.71794872 , 4128.71794872 , 4131.79487179 , 4135.38461538 , 4189.74358974 , 4912.82051282 , 4129.74358974 , 4138.97435897 , 2044.0 , 2028.0 , 212.953 , 0.0 , 0.0 , 0.0 , 0.0 , 

68.0 , 4131.28205128 , 4130.25641026 , 4131.28205128 , 4133.84615385 , 4127.69230769 , 4125.12820513 , 4123.07692308 , 4123.58974359 , 4127.17948718 , 4136.41025641 , 4186.15384615 , 4912.82051282 , 4128.20512821 , 4139.48717949 , 2042.0 , 2028.0 , 212.957 , 0.0 , 0.0 , 0.0 , 0.0 , 

69.0 , 4133.33333333 , 4133.84615385 , 4128.71794872 , 4135.8974359 , 4131.79487179 , 4131.28205128 , 4129.23076923 , 4130.25641026 , 4128.71794872 , 4137.43589744 , 4189.23076923 , 4909.74358974 , 4137.94871795 , 4137.94871795 , 2043.0 , 2027.0 , 212.966 , 0.0 , 0.0 , 0.0 , 0.0 , 

70.0 , 4132.30769231 , 4126.66666667 , 4130.25641026 , 4131.79487179 , 4130.25641026 , 4125.12820513 , 4121.53846154 , 4124.1025641 , 4122.56410256 , 4133.33333333 , 4187.69230769 , 4909.23076923 , 4136.92307692 , 4137.94871795 , 2043.0 , 2030.0 , 212.974 , 0.0 , 0.0 , 0.0 , 0.0 , 

71.0 , 4128.20512821 , 4128.71794872 , 4128.20512821 , 4135.8974359 , 4129.74358974 , 4124.61538462 , 4121.53846154 , 4129.74358974 , 4125.64102564 , 4133.33333333 , 4188.20512821 , 4907.69230769 , 4134.87179487 , 4137.43589744 , 2043.0 , 2031.0 , 212.986 , 0.0 , 0.0 , 0.0 , 0.0 , 

72.0 , 4127.17948718 , 4127.17948718 , 4130.76923077 , 4130.25641026 , 4126.66666667 , 4124.61538462 , 4122.56410256 , 4128.20512821 , 4128.71794872 , 4134.87179487 , 4187.17948718 , 4911.79487179 , 4127.17948718 , 4137.43589744 , 2044.0 , 2037.0 , 212.989 , 0.0 , 0.0 , 0.0 , 0.0 , 

73.0 , 4129.74358974 , 4125.12820513 , 4128.71794872 , 4127.17948718 , 4125.64102564 , 4123.58974359 , 4122.56410256 , 4130.25641026 , 4130.76923077 , 4135.8974359 , 4188.20512821 , 4909.23076923 , 4130.25641026 , 4137.94871795 , 2043.0 , 2039.0 , 212.997 , 0.0 , 0.0 , 0.0 , 0.0 , 

74.0 , 4128.20512821 , 4123.07692308 , 4131.79487179 , 4128.71794872 , 4128.71794872 , 4119.48717949 , 4116.41025641 , 4134.35897436 , 4132.30769231 , 4136.92307692 , 4187.69230769 , 4906.66666667 , 4133.33333333 , 4137.43589744 , 2044.0 , 2038.0 , 213.005 , 0.0 , 0.0 , 0.0 , 0.0 , 

75.0 , 4128.71794872 , 4127.17948718 , 4136.41025641 , 4129.74358974 , 4130.76923077 , 4122.56410256 , 4120.51282051 , 4135.8974359 , 4131.79487179 , 4138.46153846 , 4189.74358974 , 4909.23076923 , 4129.23076923 , 4137.94871795 , 2043.0 , 2036.0 , 213.017 , 0.0 , 0.0 , 0.0 , 0.0 , 

76.0 , 4127.17948718 , 4125.64102564 , 4132.82051282 , 4127.69230769 , 4126.66666667 , 4125.64102564 , 4128.71794872 , 4138.97435897 , 4135.8974359 , 4138.97435897 , 4189.23076923 , 4909.74358974 , 4127.17948718 , 4137.43589744 , 2043.0 , 2036.0 , 213.021 , 0.0 , 0.0 , 0.0 , 0.0 , 

77.0 , 4129.74358974 , 4122.56410256 , 4130.76923077 , 4124.1025641 , 4126.15384615 , 4123.07692308 , 4125.64102564 , 4137.43589744 , 4132.82051282 , 4137.43589744 , 4186.15384615 , 4907.69230769 , 4125.12820513 , 4136.92307692 , 2042.0 , 2036.0 , 213.03 , 0.0 , 0.0 , 0.0 , 0.0 , 

78.0 , 4130.76923077 , 4126.66666667 , 4132.82051282 , 4127.69230769 , 4128.71794872 , 4128.20512821 , 4128.71794872 , 4140.51282051 , 4134.87179487 , 4136.92307692 , 4188.71794872 , 4908.71794872 , 4130.25641026 , 4135.8974359 , 2044.0 , 2035.0 , 213.037 , 0.0 , 0.0 , 0.0 , 0.0 , 

79.0 , 4133.33333333 , 4129.23076923 , 4136.41025641 , 4126.15384615 , 4129.23076923 , 4132.30769231 , 4131.28205128 , 4128.71794872 , 4127.69230769 , 4136.92307692 , 4187.69230769 , 4912.82051282 , 4125.64102564 , 4138.46153846 , 2041.0 , 2033.0 , 213.049 , 0.0 , 0.0 , 0.0 , 0.0 , 

80.0 , 4129.74358974 , 4132.82051282 , 4131.28205128 , 4131.28205128 , 4129.74358974 , 4131.79487179 , 4133.33333333 , 4133.33333333 , 4132.82051282 , 4138.97435897 , 4186.15384615 , 4909.74358974 , 4131.79487179 , 4140.0 , 2041.0 , 2034.0 , 213.053 , 0.0 , 0.0 , 0.0 , 0.0 , 

81.0 , 4130.76923077 , 4130.76923077 , 4135.38461538 , 4130.76923077 , 4129.23076923 , 4126.66666667 , 4124.61538462 , 4123.58974359 , 4127.69230769 , 4135.8974359 , 4182.05128205 , 4910.76923077 , 4127.69230769 , 4140.0 , 2039.0 , 2032.0 , 213.06 , 0.0 , 0.0 , 0.0 , 0.0 , 

82.0 , 4129.23076923 , 4130.25641026 , 4130.76923077 , 4133.84615385 , 4125.64102564 , 4131.79487179 , 4129.74358974 , 4126.15384615 , 4128.20512821 , 4133.84615385 , 4188.71794872 , 4909.23076923 , 4134.87179487 , 4138.46153846 , 2040.0 , 2031.0 , 213.068 , 0.0 , 0.0 , 0.0 , 0.0 , 

83.0 , 4130.25641026 , 4125.12820513 , 4131.79487179 , 4128.71794872 , 4127.17948718 , 4124.61538462 , 4124.1025641 , 4115.8974359 , 4121.02564103 , 4134.35897436 , 4187.69230769 , 4910.76923077 , 4130.25641026 , 4140.0 , 2040.0 , 2031.0 , 213.081 , 0.0 , 0.0 , 0.0 , 0.0 , 

84.0 , 4131.28205128 , 4130.25641026 , 4128.20512821 , 4135.38461538 , 4129.74358974 , 4125.64102564 , 4124.61538462 , 4127.69230769 , 4128.20512821 , 4136.92307692 , 4188.20512821 , 4908.20512821 , 4136.41025641 , 4136.92307692 , 2041.0 , 2032.0 , 213.085 , 0.0 , 0.0 , 0.0 , 0.0 , 

85.0 , 4130.76923077 , 4125.64102564 , 4132.30769231 , 4132.82051282 , 4127.17948718 , 4125.64102564 , 4116.41025641 , 4123.58974359 , 4121.53846154 , 4134.87179487 , 4186.15384615 , 4910.25641026 , 4132.82051282 , 4135.38461538 , 2041.0 , 2030.0 , 213.092 , 0.0 , 0.0 , 0.0 , 0.0 , 

86.0 , 4127.69230769 , 4127.17948718 , 4128.20512821 , 4135.8974359 , 4128.20512821 , 4127.69230769 , 4122.56410256 , 4134.35897436 , 4127.69230769 , 4137.43589744 , 4190.25641026 , 4906.66666667 , 4140.0 , 4135.8974359 , 2042.0 , 2031.0 , 213.1 , 0.0 , 0.0 , 0.0 , 0.0 , 

87.0 , 4129.74358974 , 4126.66666667 , 4131.28205128 , 4131.79487179 , 4130.76923077 , 4121.53846154 , 4122.05128205 , 4132.30769231 , 4131.79487179 , 4138.97435897 , 4189.23076923 , 4908.20512821 , 4131.28205128 , 4137.43589744 , 2042.0 , 2033.0 , 213.113 , 0.0 , 0.0 , 0.0 , 0.0 , 

88.0 , 4129.23076923 , 4129.23076923 , 4129.74358974 , 4131.28205128 , 4129.74358974 , 4126.66666667 , 4128.20512821 , 4136.92307692 , 4136.41025641 , 4140.0 , 4192.30769231 , 4907.17948718 , 4133.84615385 , 4134.35897436 , 2045.0 , 2033.0 , 213.116 , 0.0 , 0.0 , 0.0 , 0.0 , 

89.0 , 4127.17948718 , 4124.1025641 , 4134.35897436 , 4124.1025641 , 4128.71794872 , 4125.12820513 , 4123.58974359 , 4131.79487179 , 4130.76923077 , 4137.43589744 , 4189.74358974 , 4911.28205128 , 4131.79487179 , 4136.41025641 , 2044.0 , 2033.0 , 213.124 , 0.0 , 0.0 , 0.0 , 0.0 , 

90.0 , 4131.28205128 , 4128.71794872 , 4133.33333333 , 4126.15384615 , 4132.30769231 , 4127.69230769 , 4125.12820513 , 4134.35897436 , 4134.35897436 , 4137.94871795 , 4186.66666667 , 4910.25641026 , 4127.17948718 , 4138.97435897 , 2046.0 , 2034.0 , 213.131 , 0.0 , 0.0 , 0.0 , 0.0 , 

91.0 , 4133.33333333 , 4127.69230769 , 4133.84615385 , 4125.12820513 , 4130.25641026 , 4130.25641026 , 4125.12820513 , 4128.71794872 , 4132.82051282 , 4140.51282051 , 4185.12820513 , 4908.71794872 , 4120.51282051 , 4138.46153846 , 2045.0 , 2034.0 , 213.142 , 0.0 , 0.0 , 0.0 , 0.0 , 

92.0 , 4130.25641026 , 4128.71794872 , 4134.87179487 , 4127.17948718 , 4127.69230769 , 4130.76923077 , 4130.25641026 , 4130.25641026 , 4128.71794872 , 4142.56410256 , 4186.66666667 , 4909.23076923 , 4124.1025641 , 4136.92307692 , 2045.0 , 2034.0 , 213.147 , 0.0 , 0.0 , 0.0 , 0.0 , 

93.0 , 4127.17948718 , 4130.25641026 , 4135.38461538 , 4130.76923077 , 4128.20512821 , 4127.17948718 , 4130.25641026 , 4133.84615385 , 4131.28205128 , 4138.97435897 , 4183.07692308 , 4910.76923077 , 4126.66666667 , 4135.38461538 , 2045.0 , 2037.0 , 213.154 , 0.0 , 0.0 , 0.0 , 0.0 , 

94.0 , 4129.74358974 , 4131.28205128 , 4131.79487179 , 4132.82051282 , 4130.25641026 , 4126.66666667 , 4126.15384615 , 4124.61538462 , 4129.74358974 , 4133.84615385 , 4182.05128205 , 4910.25641026 , 4127.17948718 , 4137.94871795 , 2046.0 , 2037.0 , 213.163 , 0.0 , 0.0 , 0.0 , 0.0 , 

95.0 , 4130.25641026 , 4130.25641026 , 4128.20512821 , 4134.87179487 , 4129.23076923 , 4127.69230769 , 4127.69230769 , 4126.15384615 , 4129.74358974 , 4136.41025641 , 4188.20512821 , 4910.25641026 , 4133.33333333 , 4137.43589744 , 2048.0 , 2035.0 , 213.175 , 0.0 , 0.0 , 0.0 , 0.0 , 

96.0 , 4132.30769231 , 4128.71794872 , 4130.25641026 , 4133.84615385 , 4128.71794872 , 4129.23076923 , 4124.61538462 , 4126.15384615 , 4125.12820513 , 4136.41025641 , 4188.20512821 , 4913.84615385 , 4129.74358974 , 4135.38461538 , 2048.0 , 2036.0 , 213.18 , 0.0 , 0.0 , 0.0 , 0.0 , 

97.0 , 4130.25641026 , 4128.71794872 , 4126.66666667 , 4135.8974359 , 4128.71794872 , 4130.76923077 , 4122.56410256 , 4131.28205128 , 4129.74358974 , 4134.35897436 , 4187.17948718 , 4911.79487179 , 4136.92307692 , 4135.38461538 , 2046.0 , 2035.0 , 213.186 , 0.0 , 0.0 , 0.0 , 0.0 , 

98.0 , 4131.28205128 , 4125.64102564 , 4128.20512821 , 4132.30769231 , 4130.25641026 , 4122.05128205 , 4118.46153846 , 4121.53846154 , 4122.05128205 , 4135.8974359 , 4187.69230769 , 4912.30769231 , 4135.38461538 , 4140.0 , 2045.0 , 2035.0 , 213.194 , 0.0 , 0.0 , 0.0 , 0.0 , 

99.0 , 4129.74358974 , 4128.20512821 , 4125.64102564 , 4134.87179487 , 4129.23076923 , 4122.56410256 , 4124.1025641 , 4129.74358974 , 4127.17948718 , 4138.46153846 , 4193.33333333 , 4908.20512821 , 4136.41025641 , 4138.46153846 , 2046.0 , 2034.0 , 213.206 , 0.0 , 0.0 , 0.0 , 0.0 , 

100.0 , 4130.25641026 , 4124.61538462 , 4128.20512821 , 4130.76923077 , 4128.20512821 , 4121.02564103 , 4117.94871795 , 4126.15384615 , 4123.58974359 , 4132.82051282 , 4191.28205128 , 4907.17948718 , 4126.66666667 , 4137.43589744 , 2045.0 , 2035.0 , 213.21 , 0.0 , 0.0 , 0.0 , 0.0 , 

101.0 , 4128.20512821 , 4127.17948718 , 4128.20512821 , 4135.8974359 , 4129.74358974 , 4122.56410256 , 4122.05128205 , 4137.94871795 , 4134.35897436 , 4134.35897436 , 4190.76923077 , 4905.64102564 , 4131.79487179 , 4137.43589744 , 2044.0 , 2034.0 , 213.218 , 0.0 , 0.0 , 0.0 , 0.0 , 

102.0 , 4129.23076923 , 4124.61538462 , 4136.92307692 , 4130.76923077 , 4131.28205128 , 4121.02564103 , 4120.51282051 , 4132.30769231 , 4133.33333333 , 4137.94871795 , 4187.17948718 , 4910.25641026 , 4124.1025641 , 4137.94871795 , 2042.0 , 2034.0 , 213.226 , 0.0 , 0.0 , 0.0 , 0.0 , 

103.0 , 4128.71794872 , 4126.66666667 , 4132.82051282 , 4132.30769231 , 4130.76923077 , 4130.25641026 , 4128.71794872 , 4135.8974359 , 4136.41025641 , 4137.94871795 , 4191.28205128 , 4907.17948718 , 4128.20512821 , 4134.35897436 , 2041.0 , 2032.0 , 213.238 , 0.0 , 0.0 , 0.0 , 0.0 , 

104.0 , 4129.23076923 , 4124.61538462 , 4134.35897436 , 4127.17948718 , 4129.23076923 , 4127.69230769 , 4126.15384615 , 4126.15384615 , 4130.25641026 , 4134.87179487 , 4189.74358974 , 4906.66666667 , 4124.61538462 , 4136.41025641 , 2041.0 , 2035.0 , 213.241 , 0.0 , 0.0 , 0.0 , 0.0 , 

105.0 , 4128.20512821 , 4131.28205128 , 4131.79487179 , 4130.76923077 , 4128.71794872 , 4128.71794872 , 4129.23076923 , 4136.92307692 , 4134.87179487 , 4137.94871795 , 4191.79487179 , 4905.64102564 , 4130.25641026 , 4138.97435897 , 2041.0 , 2034.0 , 213.249 , 0.0 , 0.0 , 0.0 , 0.0 , 

106.0 , 4129.23076923 , 4127.69230769 , 4133.33333333 , 4128.20512821 , 4129.74358974 , 4125.64102564 , 4124.61538462 , 4132.30769231 , 4130.25641026 , 4137.94871795 , 4188.71794872 , 4911.28205128 , 4126.66666667 , 4136.92307692 , 2042.0 , 2032.0 , 213.257 , 0.0 , 0.0 , 0.0 , 0.0 , 

107.0 , 4129.23076923 , 4130.76923077 , 4132.30769231 , 4133.33333333 , 4131.79487179 , 4129.23076923 , 4130.25641026 , 4128.71794872 , 4131.28205128 , 4138.46153846 , 4187.17948718 , 4911.28205128 , 4131.28205128 , 4133.33333333 , 2041.0 , 2032.0 , 213.269 , 0.0 , 0.0 , 0.0 , 0.0 , 

108.0 , 4129.74358974 , 4130.25641026 , 4133.33333333 , 4132.30769231 , 4130.25641026 , 4127.17948718 , 4124.61538462 , 4121.53846154 , 4127.17948718 , 4137.94871795 , 4183.58974359 , 4912.82051282 , 4129.74358974 , 4134.87179487 , 2042.0 , 2032.0 , 213.273 , 0.0 , 0.0 , 0.0 , 0.0 , 

109.0 , 4132.30769231 , 4130.25641026 , 4125.64102564 , 4134.35897436 , 4130.76923077 , 4128.71794872 , 4120.0 , 4126.15384615 , 4125.64102564 , 4137.43589744 , 4186.66666667 , 4910.25641026 , 4129.23076923 , 4136.41025641 , 2043.0 , 2032.0 , 213.281 , 0.0 , 0.0 , 0.0 , 0.0 , 

110.0 , 4130.76923077 , 4128.71794872 , 4125.64102564 , 4133.33333333 , 4129.23076923 , 4126.66666667 , 4117.94871795 , 4121.53846154 , 4125.12820513 , 4136.92307692 , 4189.74358974 , 4912.82051282 , 4129.74358974 , 4139.48717949 , 2043.0 , 2032.0 , 213.289 , 0.0 , 0.0 , 0.0 , 0.0 , 

111.0 , 4130.76923077 , 4131.79487179 , 4129.74358974 , 4132.30769231 , 4128.20512821 , 4123.07692308 , 4121.53846154 , 4118.97435897 , 4125.12820513 , 4137.94871795 , 4188.20512821 , 4912.30769231 , 4133.84615385 , 4138.97435897 , 2044.0 , 2031.0 , 213.301 , 0.0 , 0.0 , 0.0 , 0.0 , 

112.0 , 4131.79487179 , 4125.64102564 , 4129.23076923 , 4130.25641026 , 4130.25641026 , 4120.51282051 , 4122.05128205 , 4130.25641026 , 4129.23076923 , 4135.8974359 , 4186.66666667 , 4907.69230769 , 4134.35897436 , 4134.35897436 , 2044.0 , 2032.0 , 213.304 , 0.0 , 0.0 , 0.0 , 0.0 , 

113.0 , 4132.30769231 , 4121.53846154 , 4128.71794872 , 4131.79487179 , 4133.33333333 , 4121.02564103 , 4119.48717949 , 4132.82051282 , 4132.30769231 , 4135.8974359 , 4190.25641026 , 4906.15384615 , 4129.23076923 , 4135.38461538 , 2044.0 , 2032.0 , 213.314 , 0.0 , 0.0 , 0.0 , 0.0 , 

114.0 , 4127.69230769 , 4126.66666667 , 4128.20512821 , 4133.84615385 , 4129.74358974 , 4124.1025641 , 4122.05128205 , 4137.43589744 , 4138.46153846 , 4140.0 , 4192.30769231 , 4907.69230769 , 4131.79487179 , 4137.43589744 , 2045.0 , 2033.0 , 213.321 , 0.0 , 0.0 , 0.0 , 0.0 , 

115.0 , 4129.74358974 , 4124.61538462 , 4130.76923077 , 4127.17948718 , 4128.20512821 , 4124.1025641 , 4124.61538462 , 4133.84615385 , 4133.33333333 , 4139.48717949 , 4184.61538462 , 4908.71794872 , 4128.20512821 , 4135.8974359 , 2045.0 , 2032.0 , 213.332 , 0.0 , 0.0 , 0.0 , 0.0 , 

116.0 , 4132.82051282 , 4123.07692308 , 4129.23076923 , 4128.71794872 , 4130.76923077 , 4128.71794872 , 4131.28205128 , 4137.43589744 , 4135.8974359 , 4137.94871795 , 4184.1025641 , 4907.69230769 , 4133.33333333 , 4134.35897436 , 2046.0 , 2033.0 , 213.336 , 0.0 , 0.0 , 0.0 , 0.0 , 

117.0 , 4134.87179487 , 4124.61538462 , 4134.35897436 , 4126.66666667 , 4130.76923077 , 4128.20512821 , 4124.1025641 , 4123.58974359 , 4128.20512821 , 4138.46153846 , 4187.69230769 , 4912.82051282 , 4125.64102564 , 4137.94871795 , 2046.0 , 2033.0 , 213.344 , 0.0 , 0.0 , 0.0 , 0.0 , 

118.0 , 4129.74358974 , 4131.28205128 , 4132.30769231 , 4129.23076923 , 4128.20512821 , 4130.76923077 , 4126.66666667 , 4128.20512821 , 4133.33333333 , 4138.97435897 , 4189.23076923 , 4909.74358974 , 4125.64102564 , 4136.41025641 , 2044.0 , 2033.0 , 213.352 , 0.0 , 0.0 , 0.0 , 0.0 , 

119.0 , 4130.25641026 , 4128.20512821 , 4135.8974359 , 4126.66666667 , 4131.28205128 , 4127.69230769 , 4125.64102564 , 4119.48717949 , 4126.15384615 , 4135.8974359 , 4182.05128205 , 4911.28205128 , 4117.94871795 , 4135.8974359 , 2043.0 , 2034.0 , 213.365 , 0.0 , 0.0 , 0.0 , 0.0 , 

120.0 , 4132.82051282 , 4128.71794872 , 4129.74358974 , 4133.33333333 , 4131.79487179 , 4131.28205128 , 4128.71794872 , 4125.12820513 , 4130.76923077 , 4135.8974359 , 4185.64102564 , 4911.79487179 , 4128.20512821 , 4135.38461538 , 2043.0 , 2034.0 , 213.369 , 0.0 , 0.0 , 0.0 , 0.0 , 

121.0 , 4134.87179487 , 4126.15384615 , 4128.71794872 , 4130.76923077 , 4126.66666667 , 4126.66666667 , 4120.0 , 4119.48717949 , 4126.66666667 , 4133.84615385 , 4185.64102564 , 4910.76923077 , 4126.15384615 , 4137.43589744 , 2042.0 , 2033.0 , 213.376 , 0.0 , 0.0 , 0.0 , 0.0 , 

122.0 , 4130.25641026 , 4132.30769231 , 4127.69230769 , 4134.87179487 , 4127.69230769 , 4128.71794872 , 4126.66666667 , 4128.20512821 , 4129.74358974 , 4135.38461538 , 4188.20512821 , 4904.1025641 , 4135.8974359 , 4135.8974359 , 2043.0 , 2033.0 , 213.383 , 0.0 , 0.0 , 0.0 , 0.0 , 

123.0 , 4131.28205128 , 4129.74358974 , 4132.30769231 , 4132.30769231 , 4132.30769231 , 4124.61538462 , 4122.56410256 , 4120.51282051 , 4125.12820513 , 4134.35897436 , 4187.69230769 , 4909.74358974 , 4134.35897436 , 4137.43589744 , 2042.0 , 2034.0 , 213.395 , 0.0 , 0.0 , 0.0 , 0.0 , 

124.0 , 4133.84615385 , 4131.79487179 , 4123.58974359 , 4135.38461538 , 4132.82051282 , 4125.12820513 , 4123.58974359 , 4129.23076923 , 4131.79487179 , 4133.84615385 , 4190.76923077 , 4910.25641026 , 4137.94871795 , 4137.94871795 , 2041.0 , 2034.0 , 213.399 , 0.0 , 0.0 , 0.0 , 0.0 , 

125.0 , 4131.28205128 , 4127.17948718 , 4124.1025641 , 4129.74358974 , 4129.23076923 , 4120.0 , 4119.48717949 , 4127.69230769 , 4127.17948718 , 4133.33333333 , 4188.20512821 , 4907.69230769 , 4131.79487179 , 4137.94871795 , 2042.0 , 2034.0 , 213.407 , 0.0 , 0.0 , 0.0 , 0.0 , 

126.0 , 4127.17948718 , 4127.17948718 , 4127.69230769 , 4132.30769231 , 4129.74358974 , 4125.12820513 , 4124.61538462 , 4130.76923077 , 4128.20512821 , 4135.38461538 , 4189.74358974 , 4904.61538462 , 4130.76923077 , 4137.43589744 , 2041.0 , 2034.0 , 213.415 , 0.0 , 0.0 , 0.0 , 0.0 , 

127.0 , 4128.20512821 , 4123.58974359 , 4130.76923077 , 4131.28205128 , 4129.23076923 , 4125.12820513 , 4119.48717949 , 4128.20512821 , 4130.76923077 , 4133.84615385 , 4189.23076923 , 4909.23076923 , 4127.69230769 , 4139.48717949 , 2043.0 , 2034.0 , 213.427 , 0.0 , 0.0 , 0.0 , 0.0 , 

128.0 , 4131.28205128 , 4127.17948718 , 4129.74358974 , 4130.25641026 , 4130.76923077 , 4125.12820513 , 4121.02564103 , 4131.28205128 , 4131.79487179 , 4134.87179487 , 4189.23076923 , 4909.23076923 , 4128.71794872 , 4137.94871795 , 2042.0 , 2034.0 , 213.431 , 0.0 , 0.0 , 0.0 , 0.0 , 

0.0 , 4127.17948718 , 4126.66666667 , 4132.82051282 , 4126.15384615 , 4130.76923077 , 4124.1025641 , 4125.12820513 , 4130.76923077 , 4132.30769231 , 4136.92307692 , 4186.66666667 , 4909.23076923 , 4126.66666667 , 4135.38461538 , 2043.0 , 2035.0 , 213.439 , 0.0 , 0.0 , 0.0 , 0.0 , 

1.0 , 4127.17948718 , 4126.15384615 , 4135.8974359 , 4126.66666667 , 4130.76923077 , 4125.64102564 , 4128.20512821 , 4130.76923077 , 4134.87179487 , 4134.35897436 , 4185.12820513 , 4909.74358974 , 4125.12820513 , 4136.41025641 , 2044.0 , 2036.0 , 213.447 , 0.0 , 0.0 , 0.0 , 0.0 , 

2.0 , 4129.23076923 , 4127.17948718 , 4133.33333333 , 4127.69230769 , 4129.23076923 , 4128.71794872 , 4129.23076923 , 4132.82051282 , 4133.84615385 , 4131.28205128 , 4186.66666667 , 4910.25641026 , 4130.25641026 , 4136.41025641 , 2044.0 , 2037.0 , 213.459 , 0.0 , 0.0 , 0.0 , 0.0 , 

3.0 , 4132.82051282 , 4128.20512821 , 4132.82051282 , 4126.66666667 , 4131.28205128 , 4129.74358974 , 4127.69230769 , 4127.69230769 , 4127.69230769 , 4134.35897436 , 4185.64102564 , 4910.25641026 , 4127.17948718 , 4137.43589744 , 2045.0 , 2037.0 , 213.463 , 0.0 , 0.0 , 0.0 , 0.0 , 

4.0 , 4131.28205128 , 4130.76923077 , 4131.28205128 , 4130.76923077 , 4131.79487179 , 4130.25641026 , 4129.23076923 , 4134.35897436 , 4134.87179487 , 4138.46153846 , 4184.61538462 , 4908.71794872 , 4127.69230769 , 4137.94871795 , 2045.0 , 2038.0 , 213.47 , 0.0 , 0.0 , 0.0 , 0.0 , 

5.0 , 4130.25641026 , 4132.30769231 , 4131.79487179 , 4131.28205128 , 4131.28205128 , 4127.69230769 , 4125.64102564 , 4125.12820513 , 4127.17948718 , 4135.38461538 , 4183.07692308 , 4911.28205128 , 4126.66666667 , 4137.94871795 , 2045.0 , 2038.0 , 213.479 , 0.0 , 0.0 , 0.0 , 0.0 , 

6.0 , 4128.20512821 , 4133.33333333 , 4126.66666667 , 4136.41025641 , 4129.23076923 , 4129.23076923 , 4128.71794872 , 4127.69230769 , 4127.17948718 , 4133.84615385 , 4187.17948718 , 4911.79487179 , 4135.38461538 , 4137.94871795 , 2045.0 , 2037.0 , 213.491 , 0.0 , 0.0 , 0.0 , 0.0 , 

7.0 , 4134.35897436 , 4127.17948718 , 4130.76923077 , 4131.28205128 , 4129.74358974 , 4122.05128205 , 4120.51282051 , 4121.02564103 , 4124.1025641 , 4133.84615385 , 4185.12820513 , 4913.84615385 , 4130.25641026 , 4141.02564103 , 2045.0 , 2037.0 , 213.494 , 0.0 , 0.0 , 0.0 , 0.0 , 

8.0 , 4133.33333333 , 4128.71794872 , 4127.69230769 , 4129.74358974 , 4129.74358974 , 4122.56410256 , 4121.02564103 , 4129.74358974 , 4131.28205128 , 4134.87179487 , 4186.66666667 , 4909.23076923 , 4135.8974359 , 4137.94871795 , 2046.0 , 2036.0 , 213.503 , 0.0 , 0.0 , 0.0 , 0.0 , 

9.0 , 4131.79487179 , 4125.12820513 , 4130.76923077 , 4127.69230769 , 4129.74358974 , 4121.53846154 , 4115.38461538 , 4122.05128205 , 4124.61538462 , 4134.35897436 , 4186.66666667 , 4910.25641026 , 4129.74358974 , 4134.87179487 , 2044.0 , 2035.0 , 213.51 , 0.0 , 0.0 , 0.0 , 0.0 , 

10.0 , 4130.76923077 , 4127.69230769 , 4128.71794872 , 4136.41025641 , 4130.25641026 , 4124.61538462 , 4123.07692308 , 4134.87179487 , 4135.38461538 , 4137.43589744 , 4188.20512821 , 4907.69230769 , 4133.33333333 , 4134.35897436 , 2046.0 , 2034.0 , 213.522 , 0.0 , 0.0 , 0.0 , 0.0 , 

11.0 , 4130.76923077 , 4125.12820513 , 4132.30769231 , 4127.17948718 , 4130.25641026 , 4121.02564103 , 4121.53846154 , 4132.30769231 , 4134.35897436 , 4137.43589744 , 4184.61538462 , 4909.74358974 , 4127.69230769 , 4137.43589744 , 2047.0 , 2034.0 , 213.526 , 0.0 , 0.0 , 0.0 , 0.0 , 

12.0 , 4126.15384615 , 4127.17948718 , 4127.69230769 , 4126.15384615 , 4129.23076923 , 4126.66666667 , 4126.15384615 , 4137.94871795 , 4137.43589744 , 4138.46153846 , 4188.71794872 , 4906.15384615 , 4135.8974359 , 4135.8974359 , 2046.0 , 2035.0 , 213.533 , 0.0 , 0.0 , 0.0 , 0.0 , 

13.0 , 4128.71794872 , 4121.53846154 , 4132.30769231 , 4128.71794872 , 4129.23076923 , 4124.1025641 , 4118.97435897 , 4129.74358974 , 4133.33333333 , 4137.43589744 , 4188.71794872 , 4908.20512821 , 4128.71794872 , 4136.41025641 , 2046.0 , 2033.0 , 213.542 , 0.0 , 0.0 , 0.0 , 0.0 , 

14.0 , 4132.30769231 , 4126.66666667 , 4132.82051282 , 4134.87179487 , 4131.79487179 , 4127.17948718 , 4126.66666667 , 4134.87179487 , 4135.38461538 , 4138.97435897 , 4188.20512821 , 4906.15384615 , 4128.71794872 , 4136.92307692 , 2046.0 , 2033.0 , 213.551 , 0.0 , 0.0 , 0.0 , 0.0 , 

15.0 , 4130.25641026 , 4128.20512821 , 4133.33333333 , 4125.12820513 , 4130.25641026 , 4128.20512821 , 4129.23076923 , 4128.20512821 , 4129.74358974 , 4138.97435897 , 4184.61538462 , 4906.15384615 , 4127.69230769 , 4136.92307692 , 2044.0 , 2031.0 , 213.557 , 0.0 , 0.0 , 0.0 , 0.0 , 

16.0 , 4129.74358974 , 4130.25641026 , 4131.28205128 , 4126.66666667 , 4131.79487179 , 4130.25641026 , 4129.23076923 , 4125.64102564 , 4130.76923077 , 4136.92307692 , 4183.07692308 , 4907.69230769 , 4129.23076923 , 4136.41025641 , 2043.0 , 2031.0 , 213.566 , 0.0 , 0.0 , 0.0 , 0.0 , 

17.0 , 4131.79487179 , 4128.20512821 , 4133.84615385 , 4130.25641026 , 4134.35897436 , 4128.20512821 , 4125.12820513 , 4120.51282051 , 4129.23076923 , 4135.38461538 , 4181.02564103 , 4910.76923077 , 4123.58974359 , 4134.87179487 , 2042.0 , 2033.0 , 213.572 , 0.0 , 0.0 , 0.0 , 0.0 , 

18.0 , 4131.79487179 , 4130.76923077 , 4133.33333333 , 4132.82051282 , 4133.33333333 , 4130.25641026 , 4128.20512821 , 4120.51282051 , 4128.71794872 , 4137.43589744 , 4185.12820513 , 4909.74358974 , 4126.15384615 , 4134.35897436 , 2041.0 , 2033.0 , 213.585 , 0.0 , 0.0 , 0.0 , 0.0 , 

19.0 , 4129.23076923 , 4128.71794872 , 4131.79487179 , 4132.82051282 , 4130.25641026 , 4126.15384615 , 4123.58974359 , 4121.02564103 , 4131.79487179 , 4135.8974359 , 4188.20512821 , 4914.35897436 , 4134.87179487 , 4136.41025641 , 2040.0 , 2035.0 , 213.588 , 0.0 , 0.0 , 0.0 , 0.0 , 

20.0 , 4129.74358974 , 4127.69230769 , 4128.71794872 , 4131.79487179 , 4132.30769231 , 4124.61538462 , 4120.51282051 , 4119.48717949 , 4128.20512821 , 4133.33333333 , 4189.23076923 , 4915.8974359 , 4134.87179487 , 4137.43589744 , 2040.0 , 2035.0 , 213.596 , 0.0 , 0.0 , 0.0 , 0.0 , 

21.0 , 4127.69230769 , 4128.20512821 , 4123.58974359 , 4131.79487179 , 4129.23076923 , 4129.74358974 , 4124.61538462 , 4127.69230769 , 4129.74358974 , 4135.8974359 , 4191.79487179 , 4909.74358974 , 4136.92307692 , 4133.84615385 , 2041.0 , 2036.0 , 213.604 , 0.0 , 0.0 , 0.0 , 0.0 , 

22.0 , 4129.23076923 , 4127.17948718 , 4127.17948718 , 4132.82051282 , 4127.17948718 , 4126.66666667 , 4122.56410256 , 4126.15384615 , 4126.66666667 , 4137.94871795 , 4189.74358974 , 4908.71794872 , 4135.38461538 , 4133.33333333 , 2041.0 , 2038.0 , 213.617 , 0.0 , 0.0 , 0.0 , 0.0 , 

23.0 , 4129.23076923 , 4128.20512821 , 4127.69230769 , 4133.84615385 , 4128.71794872 , 4124.61538462 , 4124.1025641 , 4134.87179487 , 4131.28205128 , 4137.94871795 , 4188.71794872 , 4909.74358974 , 4135.38461538 , 4137.43589744 , 2041.0 , 2038.0 , 213.62 , 0.0 , 0.0 , 0.0 , 0.0 , 

24.0 , 4129.23076923 , 4124.61538462 , 4129.23076923 , 4127.69230769 , 4129.23076923 , 4122.05128205 , 4122.56410256 , 4133.33333333 , 4128.71794872 , 4137.94871795 , 4188.71794872 , 4910.76923077 , 4127.17948718 , 4140.0 , 2043.0 , 2038.0 , 213.629 , 0.0 , 0.0 , 0.0 , 0.0 , 

25.0 , 4126.66666667 , 4124.61538462 , 4128.20512821 , 4129.23076923 , 4128.20512821 , 4123.58974359 , 4126.66666667 , 4143.07692308 , 4136.92307692 , 4138.46153846 , 4191.28205128 , 4906.15384615 , 4131.28205128 , 4136.92307692 , 2042.0 , 2038.0 , 213.637 , 0.0 , 0.0 , 0.0 , 0.0 , 

26.0 , 4129.23076923 , 4122.56410256 , 4135.8974359 , 4122.56410256 , 4128.71794872 , 4121.53846154 , 4121.53846154 , 4135.38461538 , 4132.30769231 , 4136.92307692 , 4185.12820513 , 4907.69230769 , 4123.07692308 , 4136.92307692 , 2041.0 , 2035.0 , 213.648 , 0.0 , 0.0 , 0.0 , 0.0 , 

27.0 , 4127.17948718 , 4127.69230769 , 4132.30769231 , 4123.58974359 , 4127.17948718 , 4128.20512821 , 4127.69230769 , 4137.94871795 , 4138.46153846 , 4137.94871795 , 4186.15384615 , 4908.71794872 , 4129.23076923 , 4138.97435897 , 2041.0 , 2033.0 , 213.652 , 0.0 , 0.0 , 0.0 , 0.0 , 

28.0 , 4129.23076923 , 4124.61538462 , 4134.35897436 , 4120.0 , 4127.69230769 , 4124.1025641 , 4123.07692308 , 4128.71794872 , 4136.92307692 , 4136.41025641 , 4184.1025641 , 4913.84615385 , 4122.56410256 , 4139.48717949 , 2041.0 , 2033.0 , 213.659 , 0.0 , 0.0 , 0.0 , 0.0 , 

29.0 , 4130.76923077 , 4129.74358974 , 4130.25641026 , 4126.66666667 , 4130.25641026 , 4126.66666667 , 4128.71794872 , 4140.0 , 4141.02564103 , 4138.46153846 , 4188.71794872 , 4907.69230769 , 4125.64102564 , 4134.87179487 , 2042.0 , 2033.0 , 213.668 , 0.0 , 0.0 , 0.0 , 0.0 , 

30.0 , 4129.23076923 , 4130.25641026 , 4132.82051282 , 4127.69230769 , 4130.76923077 , 4128.20512821 , 4126.15384615 , 4126.66666667 , 4130.76923077 , 4137.43589744 , 4186.66666667 , 4907.17948718 , 4122.05128205 , 4137.43589744 , 2042.0 , 2033.0 , 213.68 , 0.0 , 0.0 , 0.0 , 0.0 , 

31.0 , 4128.71794872 , 4133.33333333 , 4131.28205128 , 4134.87179487 , 4130.76923077 , 4134.87179487 , 4130.25641026 , 4127.69230769 , 4133.33333333 , 4137.94871795 , 4187.17948718 , 4909.74358974 , 4133.84615385 , 4138.46153846 , 2043.0 , 2032.0 , 213.683 , 0.0 , 0.0 , 0.0 , 0.0 , 

32.0 , 4132.82051282 , 4129.23076923 , 4131.28205128 , 4130.25641026 , 4130.25641026 , 4128.20512821 , 4124.1025641 , 4124.61538462 , 4129.74358974 , 4135.38461538 , 4185.12820513 , 4913.84615385 , 4130.76923077 , 4135.38461538 , 2042.0 , 2032.0 , 213.691 , 0.0 , 0.0 , 0.0 , 0.0 , 

33.0 , 4132.82051282 , 4131.28205128 , 4122.56410256 , 4132.82051282 , 4129.23076923 , 4126.15384615 , 4124.1025641 , 4128.20512821 , 4130.25641026 , 4134.87179487 , 4189.74358974 , 4910.76923077 , 4131.79487179 , 4135.8974359 , 2045.0 , 2031.0 , 213.699 , 0.0 , 0.0 , 0.0 , 0.0 , 

34.0 , 4130.25641026 , 4127.17948718 , 4125.12820513 , 4133.33333333 , 4127.17948718 , 4123.58974359 , 4118.46153846 , 4119.48717949 , 4125.12820513 , 4138.97435897 , 4189.23076923 , 4912.82051282 , 4133.33333333 , 4139.48717949 , 2046.0 , 2033.0 , 213.71 , 0.0 , 0.0 , 0.0 , 0.0 , 

35.0 , 4128.20512821 , 4129.23076923 , 4129.23076923 , 4132.30769231 , 4128.71794872 , 4125.64102564 , 4120.0 , 4125.64102564 , 4126.66666667 , 4140.0 , 4187.17948718 , 4910.25641026 , 4136.41025641 , 4137.43589744 , 2046.0 , 2034.0 , 213.715 , 0.0 , 0.0 , 0.0 , 0.0 , 

36.0 , 4126.66666667 , 4127.17948718 , 4128.71794872 , 4127.17948718 , 4130.25641026 , 4122.56410256 , 4117.94871795 , 4128.71794872 , 4127.69230769 , 4134.87179487 , 4186.66666667 , 4908.71794872 , 4130.25641026 , 4134.35897436 , 2048.0 , 2034.0 , 213.722 , 0.0 , 0.0 , 0.0 , 0.0 , 

37.0 , 4129.23076923 , 4127.17948718 , 4126.15384615 , 4129.23076923 , 4130.25641026 , 4120.51282051 , 4118.46153846 , 4128.20512821 , 4129.74358974 , 4136.92307692 , 4188.20512821 , 4908.20512821 , 4127.17948718 , 4135.8974359 , 2046.0 , 2034.0 , 213.731 , 0.0 , 0.0 , 0.0 , 0.0 , 

38.0 , 4129.74358974 , 4128.20512821 , 4129.74358974 , 4130.25641026 , 4128.20512821 , 4122.56410256 , 4121.53846154 , 4134.35897436 , 4138.46153846 , 4141.53846154 , 4188.71794872 , 4908.20512821 , 4127.69230769 , 4136.92307692 , 2046.0 , 2036.0 , 213.742 , 0.0 , 0.0 , 0.0 , 0.0 , 

39.0 , 4128.20512821 , 4128.71794872 , 4130.76923077 , 4127.17948718 , 4128.71794872 , 4125.12820513 , 4124.1025641 , 4134.87179487 , 4137.43589744 , 4138.97435897 , 4189.74358974 , 4907.17948718 , 4126.15384615 , 4136.41025641 , 2047.0 , 2036.0 , 213.747 , 0.0 , 0.0 , 0.0 , 0.0 , 

40.0 , 4126.66666667 , 4125.12820513 , 4128.71794872 , 4127.69230769 , 4128.71794872 , 4126.15384615 , 4126.15384615 , 4136.41025641 , 4138.97435897 , 4136.92307692 , 4192.30769231 , 4907.17948718 , 4133.33333333 , 4135.8974359 , 2046.0 , 2036.0 , 213.754 , 0.0 , 0.0 , 0.0 , 0.0 , 

41.0 , 4131.28205128 , 4123.58974359 , 4134.87179487 , 4127.17948718 , 4129.74358974 , 4125.12820513 , 4124.61538462 , 4128.71794872 , 4135.8974359 , 4138.97435897 , 4187.69230769 , 4909.74358974 , 4127.17948718 , 4136.41025641 , 2045.0 , 2036.0 , 213.763 , 0.0 , 0.0 , 0.0 , 0.0 , 

42.0 , 4129.74358974 , 4133.33333333 , 4132.82051282 , 4131.28205128 , 4130.25641026 , 4130.25641026 , 4131.79487179 , 4134.35897436 , 4137.43589744 , 4138.46153846 , 4187.69230769 , 4907.69230769 , 4124.61538462 , 4135.8974359 , 2045.0 , 2035.0 , 213.774 , 0.0 , 0.0 , 0.0 , 0.0 , 

43.0 , 4128.20512821 , 4133.33333333 , 4129.23076923 , 4129.74358974 , 4130.25641026 , 4129.23076923 , 4130.25641026 , 4125.12820513 , 4126.66666667 , 4136.92307692 , 4184.61538462 , 4910.76923077 , 4122.05128205 , 4138.46153846 , 2046.0 , 2035.0 , 213.778 , 0.0 , 0.0 , 0.0 , 0.0 , 

44.0 , 4126.15384615 , 4131.28205128 , 4127.69230769 , 4133.84615385 , 4129.74358974 , 4128.20512821 , 4130.76923077 , 4128.20512821 , 4131.28205128 , 4138.97435897 , 4186.15384615 , 4912.30769231 , 4130.76923077 , 4137.94871795 , 2045.0 , 2035.0 , 213.785 , 0.0 , 0.0 , 0.0 , 0.0 , 

45.0 , 4130.25641026 , 4126.66666667 , 4137.43589744 , 4130.25641026 , 4131.28205128 , 4124.61538462 , 4122.56410256 , 4117.94871795 , 4124.1025641 , 4136.41025641 , 4184.61538462 , 4913.84615385 , 4122.56410256 , 4136.92307692 , 2044.0 , 2034.0 , 213.793 , 0.0 , 0.0 , 0.0 , 0.0 , 

46.0 , 4132.82051282 , 4129.74358974 , 4128.71794872 , 4135.38461538 , 4131.79487179 , 4129.74358974 , 4127.17948718 , 4127.17948718 , 4125.64102564 , 4135.8974359 , 4186.66666667 , 4909.74358974 , 4132.30769231 , 4136.41025641 , 2045.0 , 2034.0 , 213.805 , 0.0 , 0.0 , 0.0 , 0.0 , 

47.0 , 4132.30769231 , 4125.64102564 , 4124.1025641 , 4132.82051282 , 4129.74358974 , 4124.1025641 , 4118.46153846 , 4119.48717949 , 4122.56410256 , 4134.35897436 , 4183.58974359 , 4911.79487179 , 4133.84615385 , 4138.46153846 , 2044.0 , 2035.0 , 213.809 , 0.0 , 0.0 , 0.0 , 0.0 , 

48.0 , 4128.20512821 , 4130.76923077 , 4125.64102564 , 4134.87179487 , 4129.23076923 , 4125.64102564 , 4122.05128205 , 4128.71794872 , 4130.76923077 , 4135.8974359 , 4188.20512821 , 4908.71794872 , 4136.41025641 , 4136.41025641 , 2044.0 , 2034.0 , 213.816 , 0.0 , 0.0 , 0.0 , 0.0 , 

49.0 , 4130.25641026 , 4126.15384615 , 4132.82051282 , 4129.23076923 , 4127.69230769 , 4123.58974359 , 4120.0 , 4125.64102564 , 4127.69230769 , 4134.87179487 , 4188.71794872 , 4910.76923077 , 4130.25641026 , 4135.8974359 , 2043.0 , 2033.0 , 213.825 , 0.0 , 0.0 , 0.0 , 0.0 , 

50.0 , 4132.30769231 , 4126.15384615 , 4126.15384615 , 4134.35897436 , 4128.20512821 , 4126.66666667 , 4125.64102564 , 4135.38461538 , 4134.35897436 , 4137.43589744 , 4189.23076923 , 4908.20512821 , 4140.0 , 4136.41025641 , 2043.0 , 2034.0 , 213.837 , 0.0 , 0.0 , 0.0 , 0.0 , 

51.0 , 4130.25641026 , 4126.15384615 , 4130.25641026 , 4130.76923077 , 4129.74358974 , 4123.07692308 , 4120.51282051 , 4132.30769231 , 4133.33333333 , 4137.94871795 , 4188.20512821 , 4909.23076923 , 4131.79487179 , 4137.43589744 , 2043.0 , 2034.0 , 213.841 , 0.0 , 0.0 , 0.0 , 0.0 , 

52.0 , 4127.17948718 , 4129.23076923 , 4131.28205128 , 4129.74358974 , 4129.74358974 , 4125.64102564 , 4122.05128205 , 4135.38461538 , 4133.84615385 , 4141.02564103 , 4192.82051282 , 4907.17948718 , 4129.74358974 , 4135.8974359 , 2044.0 , 2033.0 , 213.848 , 0.0 , 0.0 , 0.0 , 0.0 , 

53.0 , 4128.20512821 , 4121.53846154 , 4128.71794872 , 4130.25641026 , 4126.15384615 , 4123.58974359 , 4121.02564103 , 4131.28205128 , 4133.33333333 , 4138.97435897 , 4188.71794872 , 4908.71794872 , 4130.25641026 , 4135.38461538 , 2044.0 , 2033.0 , 213.856 , 0.0 , 0.0 , 0.0 , 0.0 , 

54.0 , 4131.79487179 , 4123.58974359 , 4129.23076923 , 4131.28205128 , 4127.69230769 , 4125.12820513 , 4126.66666667 , 4131.79487179 , 4135.38461538 , 4134.87179487 , 4184.61538462 , 4906.66666667 , 4129.23076923 , 4136.92307692 , 2043.0 , 2034.0 , 213.868 , 0.0 , 0.0 , 0.0 , 0.0 , 

55.0 , 4131.79487179 , 4124.61538462 , 4136.41025641 , 4124.1025641 , 4129.23076923 , 4127.69230769 , 4126.15384615 , 4130.25641026 , 4134.35897436 , 4135.8974359 , 4184.61538462 , 4908.71794872 , 4125.12820513 , 4138.97435897 , 2045.0 , 2034.0 , 213.872 , 0.0 , 0.0 , 0.0 , 0.0 , 

56.0 , 4131.28205128 , 4124.61538462 , 4134.35897436 , 4125.64102564 , 4127.17948718 , 4127.69230769 , 4123.58974359 , 4129.74358974 , 4131.79487179 , 4140.0 , 4187.69230769 , 4911.79487179 , 4128.20512821 , 4137.94871795 , 2045.0 , 2034.0 , 213.881 , 0.0 , 0.0 , 0.0 , 0.0 , 

57.0 , 4130.25641026 , 4128.20512821 , 4129.74358974 , 4131.28205128 , 4126.66666667 , 4126.66666667 , 4124.61538462 , 4135.38461538 , 4131.79487179 , 4137.43589744 , 4185.12820513 , 4909.74358974 , 4128.71794872 , 4135.8974359 , 2046.0 , 2033.0 , 213.888 , 0.0 , 0.0 , 0.0 , 0.0 , 

58.0 , 4131.79487179 , 4133.33333333 , 4133.84615385 , 4129.23076923 , 4130.25641026 , 4127.69230769 , 4127.69230769 , 4127.69230769 , 4127.17948718 , 4134.35897436 , 4183.58974359 , 4908.71794872 , 4122.56410256 , 4138.97435897 , 2045.0 , 2033.0 , 213.9 , 0.0 , 0.0 , 0.0 , 0.0 , 

59.0 , 4131.28205128 , 4130.25641026 , 4131.79487179 , 4132.30769231 , 4125.64102564 , 4129.23076923 , 4130.25641026 , 4127.17948718 , 4132.30769231 , 4137.43589744 , 4188.71794872 , 4908.20512821 , 4131.79487179 , 4138.46153846 , 2043.0 , 2032.0 , 213.904 , 0.0 , 0.0 , 0.0 , 0.0 , 

60.0 , 4133.33333333 , 4126.66666667 , 4131.28205128 , 4134.35897436 , 4122.56410256 , 4127.17948718 , 4124.1025641 , 4122.56410256 , 4127.69230769 , 4138.46153846 , 4187.17948718 , 4908.20512821 , 4131.79487179 , 4135.8974359 , 2043.0 , 2033.0 , 213.913 , 0.0 , 0.0 , 0.0 , 0.0 , 

61.0 , 4129.74358974 , 4132.30769231 , 4126.66666667 , 4134.35897436 , 4127.17948718 , 4129.74358974 , 4126.66666667 , 4129.23076923 , 4129.74358974 , 4138.97435897 , 4188.20512821 , 4905.64102564 , 4133.33333333 , 4135.38461538 , 2042.0 , 2031.0 , 213.92 , 0.0 , 0.0 , 0.0 , 0.0 , 

62.0 , 4130.25641026 , 4129.23076923 , 4130.25641026 , 4127.69230769 , 4129.74358974 , 4123.07692308 , 4123.07692308 , 4120.0 , 4123.07692308 , 4137.43589744 , 4188.20512821 , 4909.23076923 , 4128.71794872 , 4138.46153846 , 2041.0 , 2030.0 , 213.933 , 0.0 , 0.0 , 0.0 , 0.0 , 

63.0 , 4129.74358974 , 4127.17948718 , 4130.25641026 , 4132.30769231 , 4126.66666667 , 4123.07692308 , 4122.05128205 , 4130.76923077 , 4130.76923077 , 4137.43589744 , 4189.74358974 , 4908.71794872 , 4134.87179487 , 4139.48717949 , 2042.0 , 2031.0 , 213.936 , 0.0 , 0.0 , 0.0 , 0.0 , 

64.0 , 4130.25641026 , 4124.1025641 , 4133.33333333 , 4128.71794872 , 4127.69230769 , 4122.56410256 , 4112.82051282 , 4125.64102564 , 4126.66666667 , 4136.92307692 , 4186.66666667 , 4910.25641026 , 4126.15384615 , 4142.05128205 , 2043.0 , 2031.0 , 213.943 , 0.0 , 0.0 , 0.0 , 0.0 , 

65.0 , 4128.20512821 , 4128.71794872 , 4127.17948718 , 4130.76923077 , 4129.74358974 , 4126.66666667 , 4123.07692308 , 4134.87179487 , 4133.33333333 , 4138.97435897 , 4190.25641026 , 4905.64102564 , 4131.79487179 , 4138.97435897 , 2044.0 , 2032.0 , 213.951 , 0.0 , 0.0 , 0.0 , 0.0 , 

66.0 , 4128.20512821 , 4123.58974359 , 4133.84615385 , 4124.61538462 , 4127.17948718 , 4120.0 , 4121.53846154 , 4129.74358974 , 4134.87179487 , 4138.46153846 , 4188.20512821 , 4909.23076923 , 4127.69230769 , 4137.43589744 , 2043.0 , 2033.0 , 213.964 , 0.0 , 0.0 , 0.0 , 0.0 , 

67.0 , 4129.23076923 , 4126.66666667 , 4132.82051282 , 4128.20512821 , 4127.69230769 , 4124.1025641 , 4125.64102564 , 4136.92307692 , 4139.48717949 , 4140.0 , 4191.28205128 , 4908.20512821 , 4132.30769231 , 4137.43589744 , 2043.0 , 2035.0 , 213.967 , 0.0 , 0.0 , 0.0 , 0.0 , 

68.0 , 4133.33333333 , 4126.15384615 , 4131.79487179 , 4128.20512821 , 4129.74358974 , 4124.1025641 , 4123.58974359 , 4127.69230769 , 4128.20512821 , 4141.02564103 , 4189.74358974 , 4909.74358974 , 4126.66666667 , 4136.41025641 , 2043.0 , 2035.0 , 213.974 , 0.0 , 0.0 , 0.0 , 0.0 , 

69.0 , 4132.82051282 , 4132.30769231 , 4128.71794872 , 4133.84615385 , 4128.20512821 , 4129.74358974 , 4128.71794872 , 4131.79487179 , 4132.82051282 , 4141.53846154 , 4190.25641026 , 4910.25641026 , 4128.71794872 , 4133.33333333 , 2042.0 , 2036.0 , 213.982 , 0.0 , 0.0 , 0.0 , 0.0 , 

70.0 , 4129.23076923 , 4130.25641026 , 4131.28205128 , 4128.20512821 , 4124.1025641 , 4127.69230769 , 4125.12820513 , 4125.12820513 , 4133.84615385 , 4138.46153846 , 4186.15384615 , 4912.82051282 , 4123.58974359 , 4137.94871795 , 2043.0 , 2035.0 , 213.995 , 0.0 , 0.0 , 0.0 , 0.0 , 

71.0 , 4132.30769231 , 4131.28205128 , 4129.23076923 , 4129.23076923 , 4128.71794872 , 4127.69230769 , 4128.20512821 , 4123.58974359 , 4130.76923077 , 4139.48717949 , 4186.66666667 , 4908.71794872 , 4128.71794872 , 4140.0 , 2042.0 , 2035.0 , 213.999 , 0.0 , 0.0 , 0.0 , 0.0 , 

72.0 , 4135.38461538 , 4130.25641026 , 4132.30769231 , 4131.79487179 , 4131.28205128 , 4126.15384615 , 4124.61538462 , 4118.46153846 , 4126.66666667 , 4139.48717949 , 4184.61538462 , 4912.30769231 , 4129.23076923 , 4137.43589744 , 2041.0 , 2034.0 , 214.005 , 0.0 , 0.0 , 0.0 , 0.0 , 

73.0 , 4132.30769231 , 4131.28205128 , 4131.28205128 , 4134.35897436 , 4128.71794872 , 4128.20512821 , 4122.56410256 , 4115.8974359 , 4128.20512821 , 4139.48717949 , 4185.12820513 , 4913.33333333 , 4129.23076923 , 4137.43589744 , 2041.0 , 2034.0 , 214.014 , 0.0 , 0.0 , 0.0 , 0.0 , 

74.0 , 4128.20512821 , 4127.69230769 , 4129.74358974 , 4130.76923077 , 4128.20512821 , 4126.66666667 , 4122.56410256 , 4116.92307692 , 4129.23076923 , 4137.43589744 , 4185.64102564 , 4910.76923077 , 4133.33333333 , 4140.0 , 2042.0 , 2035.0 , 214.026 , 0.0 , 0.0 , 0.0 , 0.0 , 

75.0 , 4129.74358974 , 4128.71794872 , 4131.28205128 , 4129.74358974 , 4131.28205128 , 4124.61538462 , 4124.61538462 , 4121.53846154 , 4127.17948718 , 4136.92307692 , 4187.69230769 , 4910.25641026 , 4135.38461538 , 4141.02564103 , 2041.0 , 2034.0 , 214.03 , 0.0 , 0.0 , 0.0 , 0.0 , 

76.0 , 4128.20512821 , 4130.76923077 , 4128.71794872 , 4131.79487179 , 4127.69230769 , 4125.12820513 , 4123.58974359 , 4129.74358974 , 4131.28205128 , 4140.51282051 , 4191.79487179 , 4910.76923077 , 4135.8974359 , 4138.97435897 , 2042.0 , 2035.0 , 214.037 , 0.0 , 0.0 , 0.0 , 0.0 , 

77.0 , 4132.82051282 , 4127.17948718 , 4128.20512821 , 4131.79487179 , 4125.64102564 , 4124.1025641 , 4117.94871795 , 4126.66666667 , 4129.74358974 , 4141.02564103 , 4190.76923077 , 4907.69230769 , 4128.71794872 , 4136.41025641 , 2044.0 , 2034.0 , 214.045 , 0.0 , 0.0 , 0.0 , 0.0 , 

78.0 , 4134.35897436 , 4126.66666667 , 4128.20512821 , 4132.82051282 , 4127.17948718 , 4126.66666667 , 4123.58974359 , 4136.92307692 , 4137.94871795 , 4138.46153846 , 4190.76923077 , 4905.12820513 , 4131.28205128 , 4136.41025641 , 2044.0 , 2034.0 , 214.057 , 0.0 , 0.0 , 0.0 , 0.0 , 

79.0 , 4130.25641026 , 4126.15384615 , 4133.84615385 , 4127.17948718 , 4128.71794872 , 4126.15384615 , 4123.07692308 , 4132.30769231 , 4132.82051282 , 4137.94871795 , 4191.28205128 , 4910.76923077 , 4125.12820513 , 4139.48717949 , 2044.0 , 2036.0 , 214.06 , 0.0 , 0.0 , 0.0 , 0.0 , 

80.0 , 4125.12820513 , 4128.20512821 , 4130.76923077 , 4128.20512821 , 4129.23076923 , 4126.66666667 , 4125.64102564 , 4134.35897436 , 4135.38461538 , 4141.53846154 , 4191.79487179 , 4908.20512821 , 4130.76923077 , 4138.46153846 , 2044.0 , 2037.0 , 214.069 , 0.0 , 0.0 , 0.0 , 0.0 , 

81.0 , 4132.82051282 , 4125.12820513 , 4135.8974359 , 4125.12820513 , 4130.25641026 , 4120.51282051 , 4124.1025641 , 4125.12820513 , 4130.25641026 , 4139.48717949 , 4184.1025641 , 4909.74358974 , 4125.12820513 , 4136.41025641 , 2045.0 , 2038.0 , 214.077 , 0.0 , 0.0 , 0.0 , 0.0 , 

82.0 , 4132.30769231 , 4126.15384615 , 4134.87179487 , 4128.20512821 , 4129.74358974 , 4128.20512821 , 4130.25641026 , 4134.35897436 , 4136.92307692 , 4139.48717949 , 4187.17948718 , 4911.79487179 , 4127.69230769 , 4134.87179487 , 2046.0 , 2038.0 , 214.089 , 0.0 , 0.0 , 0.0 , 0.0 , 

83.0 , 4127.69230769 , 4123.07692308 , 4138.97435897 , 4124.61538462 , 4130.25641026 , 4132.30769231 , 4122.56410256 , 4123.07692308 , 4129.74358974 , 4139.48717949 , 4187.69230769 , 4914.87179487 , 4122.56410256 , 4137.43589744 , 2046.0 , 2036.0 , 214.093 , 0.0 , 0.0 , 0.0 , 0.0 , 

84.0 , 4126.66666667 , 4130.25641026 , 4132.82051282 , 4132.30769231 , 4130.25641026 , 4130.76923077 , 4127.69230769 , 4131.28205128 , 4131.79487179 , 4140.51282051 , 4188.20512821 , 4908.71794872 , 4128.71794872 , 4137.94871795 , 2044.0 , 2035.0 , 214.101 , 0.0 , 0.0 , 0.0 , 0.0 , 

85.0 , 4131.79487179 , 4129.74358974 , 4133.84615385 , 4130.76923077 , 4127.17948718 , 4122.05128205 , 4126.15384615 , 4128.20512821 , 4128.71794872 , 4138.97435897 , 4184.61538462 , 4909.23076923 , 4122.56410256 , 4137.94871795 , 2043.0 , 2035.0 , 214.109 , 0.0 , 0.0 , 0.0 , 0.0 , 

86.0 , 4132.82051282 , 4130.25641026 , 4130.76923077 , 4133.84615385 , 4127.69230769 , 4130.25641026 , 4130.25641026 , 4130.76923077 , 4133.84615385 , 4140.51282051 , 4188.20512821 , 4910.25641026 , 4130.25641026 , 4138.46153846 , 2045.0 , 2033.0 , 214.121 , 0.0 , 0.0 , 0.0 , 0.0 , 

87.0 , 4133.33333333 , 4125.64102564 , 4132.30769231 , 4132.82051282 , 4129.74358974 , 4127.69230769 , 4124.1025641 , 4119.48717949 , 4129.23076923 , 4138.46153846 , 4186.66666667 , 4914.35897436 , 4133.33333333 , 4140.0 , 2043.0 , 2035.0 , 214.124 , 0.0 , 0.0 , 0.0 , 0.0 , 

88.0 , 4131.28205128 , 4130.76923077 , 4126.66666667 , 4137.43589744 , 4129.23076923 , 4124.61538462 , 4125.12820513 , 4126.15384615 , 4130.25641026 , 4135.8974359 , 4190.25641026 , 4910.76923077 , 4140.0 , 4137.43589744 , 2044.0 , 2034.0 , 214.132 , 0.0 , 0.0 , 0.0 , 0.0 , 

89.0 , 4128.20512821 , 4127.17948718 , 4128.71794872 , 4131.28205128 , 4126.15384615 , 4122.05128205 , 4121.02564103 , 4126.66666667 , 4124.61538462 , 4134.87179487 , 4190.76923077 , 4908.71794872 , 4135.8974359 , 4138.97435897 , 2045.0 , 2033.0 , 214.14 , 0.0 , 0.0 , 0.0 , 0.0 , 

90.0 , 4128.20512821 , 4126.15384615 , 4130.25641026 , 4130.76923077 , 4126.66666667 , 4124.1025641 , 4122.05128205 , 4128.71794872 , 4125.64102564 , 4137.94871795 , 4190.76923077 , 4907.69230769 , 4135.8974359 , 4140.51282051 , 2046.0 , 2033.0 , 214.152 , 0.0 , 0.0 , 0.0 , 0.0 , 

