['COUNTER', 'AF3', 'F7', 'F3', 'FC5', 'T7', 'P7', 'O1', 'O2', 'P8', 'T8', 'FC6', 'F4', 'F8', 'AF4', 'GYROX', 'GYROY', 'TIMESTAMP', 'FUNC_ID', 'FUNC_VALUE', 'MARKER', 'SYNC_SIGNAL']
101.0 , 4120.51282051 , 4122.56410256 , 4126.15384615 , 4123.07692308 , 4121.02564103 , 4120.51282051 , 4118.46153846 , 4120.51282051 , 4121.53846154 , 4133.33333333 , 4115.38461538 , 4041.53846154 , 4126.15384615 , 4113.33333333 , 2048.0 , 2036.0 , 140.688 , 0.0 , 0.0 , 0.0 , 0.0 , 

102.0 , 4121.53846154 , 4122.56410256 , 4123.07692308 , 4125.64102564 , 4122.05128205 , 4122.56410256 , 4116.41025641 , 4122.56410256 , 4123.07692308 , 4133.33333333 , 4115.38461538 , 4041.02564103 , 4126.66666667 , 4116.41025641 , 2048.0 , 2035.0 , 140.696 , 0.0 , 0.0 , 0.0 , 0.0 , 

103.0 , 4120.51282051 , 4122.05128205 , 4118.97435897 , 4124.1025641 , 4123.58974359 , 4122.56410256 , 4120.51282051 , 4122.05128205 , 4121.53846154 , 4133.33333333 , 4118.97435897 , 4042.05128205 , 4122.56410256 , 4118.97435897 , 2047.0 , 2035.0 , 140.704 , 0.0 , 0.0 , 0.0 , 0.0 , 

104.0 , 4118.97435897 , 4122.05128205 , 4126.15384615 , 4120.0 , 4123.07692308 , 4121.02564103 , 4123.58974359 , 4121.02564103 , 4120.0 , 4133.33333333 , 4117.94871795 , 4042.05128205 , 4124.61538462 , 4116.41025641 , 2047.0 , 2036.0 , 140.712 , 0.0 , 0.0 , 0.0 , 0.0 , 

105.0 , 4120.0 , 4123.07692308 , 4130.76923077 , 4121.53846154 , 4125.64102564 , 4121.53846154 , 4121.02564103 , 4123.07692308 , 4120.0 , 4133.33333333 , 4116.41025641 , 4040.51282051 , 4127.17948718 , 4114.35897436 , 2045.0 , 2037.0 , 140.72 , 0.0 , 0.0 , 0.0 , 0.0 , 

106.0 , 4120.51282051 , 4121.53846154 , 4120.0 , 4123.58974359 , 4124.61538462 , 4121.53846154 , 4118.46153846 , 4122.56410256 , 4119.48717949 , 4133.33333333 , 4118.46153846 , 4040.51282051 , 4127.17948718 , 4114.87179487 , 2043.0 , 2036.0 , 140.728 , 0.0 , 0.0 , 0.0 , 0.0 , 

107.0 , 4120.51282051 , 4121.53846154 , 4117.43589744 , 4121.02564103 , 4119.48717949 , 4121.53846154 , 4119.48717949 , 4120.0 , 4119.48717949 , 4133.33333333 , 4118.97435897 , 4041.53846154 , 4124.61538462 , 4114.87179487 , 2044.0 , 2035.0 , 140.735 , 0.0 , 0.0 , 0.0 , 0.0 , 

108.0 , 4118.97435897 , 4122.05128205 , 4124.1025641 , 4118.46153846 , 4120.51282051 , 4123.07692308 , 4120.51282051 , 4121.53846154 , 4118.97435897 , 4133.33333333 , 4117.43589744 , 4042.05128205 , 4123.58974359 , 4114.35897436 , 2043.0 , 2033.0 , 140.743 , 0.0 , 0.0 , 0.0 , 0.0 , 

109.0 , 4121.53846154 , 4122.56410256 , 4124.1025641 , 4121.53846154 , 4122.56410256 , 4122.56410256 , 4120.51282051 , 4122.56410256 , 4117.43589744 , 4133.33333333 , 4118.46153846 , 4040.51282051 , 4127.17948718 , 4116.41025641 , 2043.0 , 2032.0 , 140.751 , 0.0 , 0.0 , 0.0 , 0.0 , 

110.0 , 4125.12820513 , 4123.07692308 , 4119.48717949 , 4124.1025641 , 4121.53846154 , 4121.02564103 , 4118.97435897 , 4120.51282051 , 4120.51282051 , 4133.33333333 , 4118.97435897 , 4039.48717949 , 4131.28205128 , 4117.43589744 , 2044.0 , 2031.0 , 140.759 , 0.0 , 0.0 , 0.0 , 0.0 , 

111.0 , 4123.07692308 , 4123.58974359 , 4120.0 , 4121.53846154 , 4121.02564103 , 4124.1025641 , 4116.92307692 , 4118.46153846 , 4124.1025641 , 4133.84615385 , 4117.94871795 , 4041.53846154 , 4128.20512821 , 4117.94871795 , 2044.0 , 2029.0 , 140.767 , 0.0 , 0.0 , 0.0 , 0.0 , 

112.0 , 4118.97435897 , 4123.07692308 , 4122.56410256 , 4120.51282051 , 4122.05128205 , 4124.61538462 , 4121.02564103 , 4120.0 , 4123.07692308 , 4133.33333333 , 4116.41025641 , 4042.05128205 , 4123.58974359 , 4116.41025641 , 2045.0 , 2029.0 , 140.776 , 0.0 , 0.0 , 0.0 , 0.0 , 

113.0 , 4119.48717949 , 4120.51282051 , 4122.56410256 , 4118.97435897 , 4122.05128205 , 4120.0 , 4122.56410256 , 4121.53846154 , 4122.05128205 , 4132.30769231 , 4115.8974359 , 4040.0 , 4124.1025641 , 4115.38461538 , 2046.0 , 2029.0 , 140.784 , 0.0 , 0.0 , 0.0 , 0.0 , 

114.0 , 4120.0 , 4121.53846154 , 4120.0 , 4117.94871795 , 4123.58974359 , 4120.51282051 , 4118.97435897 , 4120.51282051 , 4123.07692308 , 4134.35897436 , 4117.43589744 , 4040.0 , 4125.12820513 , 4116.92307692 , 2046.0 , 2031.0 , 140.791 , 0.0 , 0.0 , 0.0 , 0.0 , 

115.0 , 4121.53846154 , 4124.61538462 , 4121.53846154 , 4121.02564103 , 4124.61538462 , 4124.1025641 , 4118.97435897 , 4120.0 , 4121.53846154 , 4132.82051282 , 4117.94871795 , 4041.02564103 , 4126.15384615 , 4117.94871795 , 2045.0 , 2030.0 , 140.797 , 0.0 , 0.0 , 0.0 , 0.0 , 

116.0 , 4124.1025641 , 4125.12820513 , 4126.15384615 , 4125.64102564 , 4121.02564103 , 4122.05128205 , 4121.53846154 , 4120.51282051 , 4120.0 , 4123.07692308 , 4116.41025641 , 4038.97435897 , 4125.12820513 , 4116.92307692 , 2044.0 , 2028.0 , 140.797 , 0.0 , 0.0 , 0.0 , 0.0 , 

117.0 , 4122.05128205 , 4122.56410256 , 4127.17948718 , 4124.1025641 , 4119.48717949 , 4119.48717949 , 4120.51282051 , 4120.0 , 4120.0 , 4121.53846154 , 4117.43589744 , 4038.97435897 , 4126.15384615 , 4115.8974359 , 2045.0 , 2029.0 , 140.813 , 0.0 , 0.0 , 0.0 , 0.0 , 

118.0 , 4121.53846154 , 4120.51282051 , 4124.61538462 , 4118.97435897 , 4122.05128205 , 4123.07692308 , 4121.02564103 , 4121.02564103 , 4119.48717949 , 4133.84615385 , 4120.51282051 , 4041.53846154 , 4125.12820513 , 4116.41025641 , 2045.0 , 2029.0 , 140.813 , 0.0 , 0.0 , 0.0 , 0.0 , 

119.0 , 4123.58974359 , 4120.0 , 4123.58974359 , 4120.51282051 , 4124.61538462 , 4125.12820513 , 4122.56410256 , 4121.53846154 , 4120.51282051 , 4133.33333333 , 4118.46153846 , 4041.53846154 , 4125.64102564 , 4115.38461538 , 2045.0 , 2029.0 , 140.828 , 0.0 , 0.0 , 0.0 , 0.0 , 

120.0 , 4122.05128205 , 4123.58974359 , 4125.12820513 , 4124.61538462 , 4123.58974359 , 4122.56410256 , 4122.05128205 , 4119.48717949 , 4120.0 , 4121.02564103 , 4116.92307692 , 4042.05128205 , 4123.58974359 , 4116.41025641 , 2044.0 , 2031.0 , 140.828 , 0.0 , 0.0 , 0.0 , 0.0 , 

121.0 , 4119.48717949 , 4124.1025641 , 4123.07692308 , 4124.61538462 , 4120.0 , 4123.07692308 , 4120.51282051 , 4119.48717949 , 4118.46153846 , 4123.07692308 , 4118.97435897 , 4042.56410256 , 4125.64102564 , 4116.41025641 , 2045.0 , 2031.0 , 140.844 , 0.0 , 0.0 , 0.0 , 0.0 , 

122.0 , 4123.07692308 , 4119.48717949 , 4122.05128205 , 4123.58974359 , 4119.48717949 , 4124.61538462 , 4118.97435897 , 4122.05128205 , 4119.48717949 , 4135.38461538 , 4117.94871795 , 4041.02564103 , 4125.12820513 , 4115.38461538 , 2048.0 , 2030.0 , 140.844 , 0.0 , 0.0 , 0.0 , 0.0 , 

123.0 , 4123.07692308 , 4121.53846154 , 4121.53846154 , 4122.56410256 , 4123.07692308 , 4123.07692308 , 4118.97435897 , 4121.53846154 , 4122.05128205 , 4138.97435897 , 4115.8974359 , 4039.48717949 , 4126.15384615 , 4113.84615385 , 2047.0 , 2031.0 , 140.86 , 0.0 , 0.0 , 0.0 , 0.0 , 

124.0 , 4121.53846154 , 4126.15384615 , 4121.02564103 , 4122.56410256 , 4123.58974359 , 4119.48717949 , 4122.05128205 , 4120.51282051 , 4121.02564103 , 4128.20512821 , 4116.92307692 , 4041.02564103 , 4124.61538462 , 4114.35897436 , 2047.0 , 2030.0 , 140.86 , 0.0 , 0.0 , 0.0 , 0.0 , 

125.0 , 4120.51282051 , 4122.56410256 , 4120.0 , 4123.07692308 , 4122.05128205 , 4117.94871795 , 4123.07692308 , 4121.02564103 , 4119.48717949 , 4119.48717949 , 4117.94871795 , 4041.53846154 , 4124.1025641 , 4117.43589744 , 2047.0 , 2030.0 , 140.875 , 0.0 , 0.0 , 0.0 , 0.0 , 

126.0 , 4121.02564103 , 4120.51282051 , 4124.1025641 , 4123.58974359 , 4123.58974359 , 4122.05128205 , 4118.97435897 , 4120.51282051 , 4121.02564103 , 4127.17948718 , 4117.43589744 , 4041.53846154 , 4124.61538462 , 4118.97435897 , 2047.0 , 2031.0 , 140.875 , 0.0 , 0.0 , 0.0 , 0.0 , 

127.0 , 4120.0 , 4123.58974359 , 4124.1025641 , 4122.56410256 , 4125.12820513 , 4123.07692308 , 4118.46153846 , 4120.0 , 4122.56410256 , 4137.43589744 , 4116.92307692 , 4042.56410256 , 4126.15384615 , 4117.43589744 , 2046.0 , 2031.0 , 140.893 , 0.0 , 0.0 , 0.0 , 0.0 , 

128.0 , 4120.0 , 4125.12820513 , 4122.05128205 , 4122.05128205 , 4124.1025641 , 4120.0 , 4122.05128205 , 4121.02564103 , 4118.97435897 , 4134.87179487 , 4117.94871795 , 4041.02564103 , 4125.64102564 , 4116.41025641 , 2047.0 , 2032.0 , 140.901 , 0.0 , 0.0 , 0.0 , 0.0 , 

0.0 , 4120.0 , 4123.58974359 , 4123.07692308 , 4121.02564103 , 4123.58974359 , 4120.0 , 4121.53846154 , 4121.53846154 , 4117.43589744 , 4131.79487179 , 4120.51282051 , 4039.48717949 , 4124.1025641 , 4116.92307692 , 2047.0 , 2035.0 , 140.909 , 0.0 , 0.0 , 0.0 , 0.0 , 

1.0 , 4122.05128205 , 4122.05128205 , 4123.07692308 , 4121.53846154 , 4124.1025641 , 4121.02564103 , 4119.48717949 , 4120.0 , 4121.02564103 , 4135.8974359 , 4119.48717949 , 4040.51282051 , 4126.66666667 , 4114.87179487 , 2047.0 , 2037.0 , 140.917 , 0.0 , 0.0 , 0.0 , 0.0 , 

2.0 , 4123.58974359 , 4121.53846154 , 4122.05128205 , 4122.56410256 , 4124.1025641 , 4120.0 , 4122.05128205 , 4120.51282051 , 4121.53846154 , 4136.41025641 , 4113.84615385 , 4041.53846154 , 4127.69230769 , 4114.87179487 , 2046.0 , 2038.0 , 140.925 , 0.0 , 0.0 , 0.0 , 0.0 , 

3.0 , 4121.53846154 , 4122.05128205 , 4122.56410256 , 4123.07692308 , 4123.07692308 , 4121.02564103 , 4122.05128205 , 4121.53846154 , 4116.41025641 , 4134.35897436 , 4117.43589744 , 4040.51282051 , 4125.64102564 , 4115.8974359 , 2045.0 , 2038.0 , 140.932 , 0.0 , 0.0 , 0.0 , 0.0 , 

4.0 , 4121.02564103 , 4123.07692308 , 4122.56410256 , 4124.1025641 , 4121.02564103 , 4120.51282051 , 4117.94871795 , 4121.02564103 , 4118.97435897 , 4134.35897436 , 4122.56410256 , 4043.07692308 , 4124.61538462 , 4115.38461538 , 2044.0 , 2040.0 , 140.94 , 0.0 , 0.0 , 0.0 , 0.0 , 

5.0 , 4122.56410256 , 4121.53846154 , 4121.53846154 , 4121.53846154 , 4120.51282051 , 4118.46153846 , 4121.02564103 , 4120.0 , 4123.07692308 , 4134.35897436 , 4118.46153846 , 4046.15384615 , 4126.66666667 , 4114.35897436 , 2042.0 , 2040.0 , 140.943 , 0.0 , 0.0 , 0.0 , 0.0 , 

6.0 , 4122.05128205 , 4120.0 , 4123.07692308 , 4120.51282051 , 4123.58974359 , 4119.48717949 , 4125.64102564 , 4121.02564103 , 4120.0 , 4134.35897436 , 4116.41025641 , 4044.1025641 , 4125.12820513 , 4116.41025641 , 2041.0 , 2039.0 , 140.943 , 0.0 , 0.0 , 0.0 , 0.0 , 

7.0 , 4120.51282051 , 4120.0 , 4122.05128205 , 4123.58974359 , 4124.61538462 , 4121.53846154 , 4121.02564103 , 4121.53846154 , 4120.0 , 4134.35897436 , 4120.51282051 , 4041.53846154 , 4128.20512821 , 4116.92307692 , 2040.0 , 2035.0 , 140.959 , 0.0 , 0.0 , 0.0 , 0.0 , 

8.0 , 4122.56410256 , 4122.56410256 , 4123.07692308 , 4123.58974359 , 4121.53846154 , 4122.05128205 , 4118.97435897 , 4121.02564103 , 4123.07692308 , 4134.35897436 , 4120.51282051 , 4043.07692308 , 4129.23076923 , 4116.92307692 , 2039.0 , 2035.0 , 140.959 , 0.0 , 0.0 , 0.0 , 0.0 , 

9.0 , 4121.53846154 , 4121.53846154 , 4124.61538462 , 4120.51282051 , 4121.53846154 , 4122.56410256 , 4121.53846154 , 4120.51282051 , 4122.05128205 , 4134.35897436 , 4116.41025641 , 4043.58974359 , 4127.69230769 , 4115.8974359 , 2038.0 , 2032.0 , 140.974 , 0.0 , 0.0 , 0.0 , 0.0 , 

10.0 , 4121.02564103 , 4120.51282051 , 4125.12820513 , 4123.58974359 , 4122.56410256 , 4121.53846154 , 4121.02564103 , 4120.51282051 , 4122.05128205 , 4134.35897436 , 4115.8974359 , 4042.05128205 , 4127.69230769 , 4115.38461538 , 2037.0 , 2032.0 , 140.974 , 0.0 , 0.0 , 0.0 , 0.0 , 

11.0 , 4121.02564103 , 4122.05128205 , 4125.12820513 , 4125.12820513 , 4122.05128205 , 4121.02564103 , 4118.46153846 , 4120.0 , 4123.07692308 , 4134.35897436 , 4116.92307692 , 4041.02564103 , 4131.79487179 , 4114.87179487 , 2037.0 , 2032.0 , 140.99 , 0.0 , 0.0 , 0.0 , 0.0 , 

12.0 , 4121.02564103 , 4123.07692308 , 4125.12820513 , 4121.53846154 , 4124.1025641 , 4122.56410256 , 4118.97435897 , 4121.02564103 , 4122.56410256 , 4134.35897436 , 4116.92307692 , 4041.02564103 , 4127.17948718 , 4113.33333333 , 2038.0 , 2033.0 , 140.99 , 0.0 , 0.0 , 0.0 , 0.0 , 

13.0 , 4121.02564103 , 4120.51282051 , 4122.05128205 , 4118.97435897 , 4124.61538462 , 4121.53846154 , 4118.97435897 , 4123.58974359 , 4121.53846154 , 4134.35897436 , 4118.97435897 , 4041.02564103 , 4127.17948718 , 4112.30769231 , 2038.0 , 2033.0 , 141.006 , 0.0 , 0.0 , 0.0 , 0.0 , 

14.0 , 4122.56410256 , 4118.46153846 , 4121.53846154 , 4121.02564103 , 4123.58974359 , 4122.05128205 , 4121.53846154 , 4122.05128205 , 4121.53846154 , 4134.35897436 , 4118.97435897 , 4041.53846154 , 4130.25641026 , 4115.38461538 , 2039.0 , 2033.0 , 141.006 , 0.0 , 0.0 , 0.0 , 0.0 , 

15.0 , 4121.53846154 , 4121.53846154 , 4122.56410256 , 4123.58974359 , 4122.56410256 , 4123.07692308 , 4122.05128205 , 4119.48717949 , 4122.56410256 , 4134.35897436 , 4117.43589744 , 4042.05128205 , 4127.17948718 , 4117.43589744 , 2041.0 , 2035.0 , 141.027 , 0.0 , 0.0 , 0.0 , 0.0 , 

16.0 , 4123.07692308 , 4125.12820513 , 4123.58974359 , 4124.1025641 , 4124.1025641 , 4123.07692308 , 4118.46153846 , 4121.02564103 , 4122.05128205 , 4134.35897436 , 4119.48717949 , 4042.05128205 , 4125.64102564 , 4116.92307692 , 2044.0 , 2035.0 , 141.035 , 0.0 , 0.0 , 0.0 , 0.0 , 

17.0 , 4124.1025641 , 4124.61538462 , 4123.58974359 , 4124.1025641 , 4124.61538462 , 4123.58974359 , 4117.94871795 , 4122.56410256 , 4121.02564103 , 4134.35897436 , 4121.02564103 , 4042.05128205 , 4129.74358974 , 4114.87179487 , 2045.0 , 2035.0 , 141.043 , 0.0 , 0.0 , 0.0 , 0.0 , 

18.0 , 4120.51282051 , 4122.05128205 , 4124.61538462 , 4123.58974359 , 4124.1025641 , 4123.07692308 , 4118.97435897 , 4121.02564103 , 4120.0 , 4134.35897436 , 4118.97435897 , 4045.64102564 , 4125.12820513 , 4115.38461538 , 2045.0 , 2037.0 , 141.051 , 0.0 , 0.0 , 0.0 , 0.0 , 

19.0 , 4120.0 , 4121.02564103 , 4125.64102564 , 4121.53846154 , 4124.1025641 , 4121.53846154 , 4118.46153846 , 4120.51282051 , 4120.0 , 4134.35897436 , 4114.35897436 , 4047.17948718 , 4122.05128205 , 4116.92307692 , 2046.0 , 2037.0 , 141.052 , 0.0 , 0.0 , 0.0 , 0.0 , 

20.0 , 4123.07692308 , 4121.53846154 , 4127.69230769 , 4123.07692308 , 4124.1025641 , 4120.51282051 , 4116.92307692 , 4120.51282051 , 4120.0 , 4134.35897436 , 4116.92307692 , 4041.53846154 , 4126.15384615 , 4116.41025641 , 2047.0 , 2037.0 , 141.052 , 0.0 , 0.0 , 0.0 , 0.0 , 

21.0 , 4123.58974359 , 4121.02564103 , 4126.66666667 , 4125.12820513 , 4122.05128205 , 4120.0 , 4117.94871795 , 4120.51282051 , 4120.0 , 4134.35897436 , 4122.05128205 , 4040.51282051 , 4125.12820513 , 4113.84615385 , 2046.0 , 2035.0 , 141.068 , 0.0 , 0.0 , 0.0 , 0.0 , 

22.0 , 4122.56410256 , 4123.07692308 , 4122.05128205 , 4122.05128205 , 4120.0 , 4121.02564103 , 4118.97435897 , 4122.56410256 , 4120.0 , 4134.35897436 , 4120.0 , 4042.05128205 , 4123.07692308 , 4114.35897436 , 2046.0 , 2035.0 , 141.068 , 0.0 , 0.0 , 0.0 , 0.0 , 

23.0 , 4122.05128205 , 4123.07692308 , 4123.07692308 , 4121.53846154 , 4122.56410256 , 4123.58974359 , 4118.46153846 , 4122.56410256 , 4121.02564103 , 4134.35897436 , 4117.94871795 , 4040.51282051 , 4124.61538462 , 4115.8974359 , 2045.0 , 2031.0 , 141.083 , 0.0 , 0.0 , 0.0 , 0.0 , 

24.0 , 4121.02564103 , 4121.53846154 , 4125.12820513 , 4124.1025641 , 4125.12820513 , 4122.56410256 , 4117.43589744 , 4119.48717949 , 4123.58974359 , 4134.35897436 , 4117.94871795 , 4042.05128205 , 4125.12820513 , 4114.87179487 , 2047.0 , 2030.0 , 141.083 , 0.0 , 0.0 , 0.0 , 0.0 , 

25.0 , 4123.07692308 , 4122.56410256 , 4124.61538462 , 4122.05128205 , 4126.66666667 , 4123.58974359 , 4120.0 , 4120.0 , 4123.07692308 , 4134.35897436 , 4117.43589744 , 4045.64102564 , 4122.56410256 , 4116.41025641 , 2045.0 , 2030.0 , 141.106 , 0.0 , 0.0 , 0.0 , 0.0 , 

26.0 , 4122.05128205 , 4125.64102564 , 4123.07692308 , 4120.51282051 , 4125.12820513 , 4125.64102564 , 4121.02564103 , 4121.02564103 , 4120.51282051 , 4134.35897436 , 4116.41025641 , 4043.58974359 , 4125.64102564 , 4116.92307692 , 2045.0 , 2031.0 , 141.114 , 0.0 , 0.0 , 0.0 , 0.0 , 

27.0 , 4122.56410256 , 4125.12820513 , 4125.64102564 , 4123.58974359 , 4121.02564103 , 4122.56410256 , 4117.94871795 , 4120.51282051 , 4121.02564103 , 4134.35897436 , 4116.92307692 , 4042.05128205 , 4126.66666667 , 4115.8974359 , 2044.0 , 2030.0 , 141.122 , 0.0 , 0.0 , 0.0 , 0.0 , 

28.0 , 4124.1025641 , 4121.02564103 , 4125.12820513 , 4123.58974359 , 4121.02564103 , 4119.48717949 , 4119.48717949 , 4120.51282051 , 4122.56410256 , 4134.35897436 , 4118.97435897 , 4041.53846154 , 4126.15384615 , 4116.41025641 , 2045.0 , 2030.0 , 141.124 , 0.0 , 0.0 , 0.0 , 0.0 , 

29.0 , 4121.02564103 , 4122.56410256 , 4124.1025641 , 4123.58974359 , 4125.12820513 , 4123.58974359 , 4124.1025641 , 4121.53846154 , 4121.02564103 , 4134.35897436 , 4119.48717949 , 4040.51282051 , 4122.56410256 , 4116.92307692 , 2043.0 , 2029.0 , 141.124 , 0.0 , 0.0 , 0.0 , 0.0 , 

30.0 , 4117.94871795 , 4121.53846154 , 4124.1025641 , 4124.61538462 , 4124.61538462 , 4124.1025641 , 4122.05128205 , 4121.53846154 , 4120.51282051 , 4134.35897436 , 4113.84615385 , 4040.51282051 , 4124.61538462 , 4115.38461538 , 2041.0 , 2032.0 , 141.139 , 0.0 , 0.0 , 0.0 , 0.0 , 

31.0 , 4124.1025641 , 4117.43589744 , 4125.64102564 , 4123.07692308 , 4123.58974359 , 4120.0 , 4117.94871795 , 4120.51282051 , 4120.0 , 4134.35897436 , 4112.30769231 , 4041.02564103 , 4123.58974359 , 4117.43589744 , 2041.0 , 2033.0 , 141.139 , 0.0 , 0.0 , 0.0 , 0.0 , 

32.0 , 4124.61538462 , 4118.46153846 , 4124.61538462 , 4120.51282051 , 4123.58974359 , 4120.0 , 4120.0 , 4120.0 , 4117.94871795 , 4134.35897436 , 4117.94871795 , 4039.48717949 , 4121.53846154 , 4118.46153846 , 2040.0 , 2033.0 , 141.155 , 0.0 , 0.0 , 0.0 , 0.0 , 

33.0 , 4121.53846154 , 4124.61538462 , 4126.15384615 , 4123.58974359 , 4122.56410256 , 4121.02564103 , 4125.12820513 , 4120.51282051 , 4120.0 , 4134.35897436 , 4120.0 , 4040.51282051 , 4122.56410256 , 4117.43589744 , 2041.0 , 2031.0 , 141.155 , 0.0 , 0.0 , 0.0 , 0.0 , 

34.0 , 4121.53846154 , 4125.12820513 , 4126.66666667 , 4126.15384615 , 4120.0 , 4120.0 , 4124.61538462 , 4121.53846154 , 4124.1025641 , 4134.35897436 , 4117.43589744 , 4041.02564103 , 4126.15384615 , 4115.38461538 , 2040.0 , 2031.0 , 141.171 , 0.0 , 0.0 , 0.0 , 0.0 , 

35.0 , 4121.02564103 , 4119.48717949 , 4125.64102564 , 4124.1025641 , 4121.02564103 , 4121.02564103 , 4122.05128205 , 4121.02564103 , 4123.07692308 , 4134.35897436 , 4118.46153846 , 4039.48717949 , 4123.58974359 , 4115.8974359 , 2040.0 , 2033.0 , 141.171 , 0.0 , 0.0 , 0.0 , 0.0 , 

36.0 , 4117.43589744 , 4117.94871795 , 4121.53846154 , 4121.53846154 , 4122.56410256 , 4122.05128205 , 4122.05128205 , 4120.0 , 4121.53846154 , 4134.35897436 , 4119.48717949 , 4040.0 , 4123.58974359 , 4116.92307692 , 2040.0 , 2035.0 , 141.186 , 0.0 , 0.0 , 0.0 , 0.0 , 

37.0 , 4121.53846154 , 4123.07692308 , 4123.07692308 , 4122.05128205 , 4123.07692308 , 4122.05128205 , 4121.53846154 , 4121.02564103 , 4122.05128205 , 4134.35897436 , 4115.38461538 , 4042.05128205 , 4126.15384615 , 4116.41025641 , 2043.0 , 2037.0 , 141.186 , 0.0 , 0.0 , 0.0 , 0.0 , 

38.0 , 4124.61538462 , 4124.61538462 , 4125.12820513 , 4125.64102564 , 4123.07692308 , 4121.53846154 , 4116.92307692 , 4121.02564103 , 4121.02564103 , 4134.35897436 , 4113.33333333 , 4042.05128205 , 4124.1025641 , 4115.8974359 , 2043.0 , 2037.0 , 141.202 , 0.0 , 0.0 , 0.0 , 0.0 , 

39.0 , 4122.05128205 , 4121.53846154 , 4124.1025641 , 4127.17948718 , 4124.1025641 , 4122.05128205 , 4114.87179487 , 4120.51282051 , 4120.0 , 4134.35897436 , 4118.46153846 , 4041.53846154 , 4120.0 , 4117.94871795 , 2042.0 , 2037.0 , 141.202 , 0.0 , 0.0 , 0.0 , 0.0 , 

40.0 , 4121.02564103 , 4122.05128205 , 4124.61538462 , 4126.15384615 , 4125.12820513 , 4122.05128205 , 4118.97435897 , 4122.05128205 , 4119.48717949 , 4134.35897436 , 4119.48717949 , 4040.51282051 , 4119.48717949 , 4118.97435897 , 2042.0 , 2036.0 , 141.218 , 0.0 , 0.0 , 0.0 , 0.0 , 

41.0 , 4122.56410256 , 4123.58974359 , 4127.17948718 , 4122.56410256 , 4124.1025641 , 4120.0 , 4122.05128205 , 4122.05128205 , 4118.97435897 , 4134.35897436 , 4114.87179487 , 4038.97435897 , 4125.12820513 , 4115.38461538 , 2042.0 , 2034.0 , 141.233 , 0.0 , 0.0 , 0.0 , 0.0 , 

42.0 , 4121.53846154 , 4123.58974359 , 4126.66666667 , 4121.53846154 , 4123.07692308 , 4120.51282051 , 4120.51282051 , 4121.02564103 , 4122.56410256 , 4134.35897436 , 4116.92307692 , 4041.02564103 , 4127.17948718 , 4114.87179487 , 2042.0 , 2034.0 , 141.241 , 0.0 , 0.0 , 0.0 , 0.0 , 

43.0 , 4121.02564103 , 4124.1025641 , 4123.58974359 , 4124.1025641 , 4124.1025641 , 4122.56410256 , 4116.92307692 , 4120.51282051 , 4124.61538462 , 4134.35897436 , 4119.48717949 , 4041.53846154 , 4126.66666667 , 4116.41025641 , 2042.0 , 2032.0 , 141.245 , 0.0 , 0.0 , 0.0 , 0.0 , 

44.0 , 4123.58974359 , 4123.58974359 , 4122.56410256 , 4121.53846154 , 4122.56410256 , 4122.05128205 , 4118.97435897 , 4121.53846154 , 4122.56410256 , 4134.35897436 , 4116.92307692 , 4040.0 , 4124.61538462 , 4116.41025641 , 2043.0 , 2033.0 , 141.245 , 0.0 , 0.0 , 0.0 , 0.0 , 

45.0 , 4122.56410256 , 4122.56410256 , 4121.53846154 , 4118.97435897 , 4120.51282051 , 4121.53846154 , 4120.51282051 , 4120.51282051 , 4121.53846154 , 4134.35897436 , 4116.92307692 , 4040.51282051 , 4125.64102564 , 4116.92307692 , 2043.0 , 2033.0 , 141.26 , 0.0 , 0.0 , 0.0 , 0.0 , 

46.0 , 4121.53846154 , 4125.12820513 , 4122.05128205 , 4122.56410256 , 4122.56410256 , 4123.07692308 , 4117.94871795 , 4120.0 , 4122.56410256 , 4134.35897436 , 4119.48717949 , 4043.07692308 , 4122.05128205 , 4117.94871795 , 2044.0 , 2032.0 , 141.26 , 0.0 , 0.0 , 0.0 , 0.0 , 

47.0 , 4120.51282051 , 4126.66666667 , 4123.07692308 , 4125.12820513 , 4124.1025641 , 4122.05128205 , 4117.43589744 , 4121.53846154 , 4122.56410256 , 4134.35897436 , 4117.43589744 , 4042.56410256 , 4124.61538462 , 4116.92307692 , 2043.0 , 2032.0 , 141.276 , 0.0 , 0.0 , 0.0 , 0.0 , 

48.0 , 4121.02564103 , 4125.12820513 , 4126.15384615 , 4124.1025641 , 4124.1025641 , 4121.53846154 , 4118.46153846 , 4122.56410256 , 4121.02564103 , 4134.35897436 , 4114.35897436 , 4041.53846154 , 4127.69230769 , 4118.97435897 , 2044.0 , 2031.0 , 141.276 , 0.0 , 0.0 , 0.0 , 0.0 , 

49.0 , 4120.0 , 4123.07692308 , 4124.61538462 , 4125.12820513 , 4122.56410256 , 4123.07692308 , 4117.43589744 , 4121.02564103 , 4120.0 , 4134.35897436 , 4115.38461538 , 4041.02564103 , 4128.71794872 , 4121.02564103 , 2044.0 , 2031.0 , 141.291 , 0.0 , 0.0 , 0.0 , 0.0 , 

50.0 , 4121.53846154 , 4122.56410256 , 4123.07692308 , 4126.66666667 , 4124.61538462 , 4122.56410256 , 4121.02564103 , 4121.02564103 , 4120.51282051 , 4134.35897436 , 4120.0 , 4040.0 , 4127.69230769 , 4118.46153846 , 2043.0 , 2033.0 , 141.291 , 0.0 , 0.0 , 0.0 , 0.0 , 

51.0 , 4122.56410256 , 4123.07692308 , 4124.1025641 , 4125.64102564 , 4126.15384615 , 4121.53846154 , 4122.56410256 , 4121.53846154 , 4122.05128205 , 4134.35897436 , 4121.02564103 , 4039.48717949 , 4128.71794872 , 4114.87179487 , 2044.0 , 2034.0 , 141.311 , 0.0 , 0.0 , 0.0 , 0.0 , 

52.0 , 4122.56410256 , 4121.53846154 , 4124.61538462 , 4126.15384615 , 4123.58974359 , 4121.53846154 , 4118.46153846 , 4120.51282051 , 4122.56410256 , 4134.35897436 , 4120.0 , 4040.0 , 4124.61538462 , 4117.43589744 , 2043.0 , 2035.0 , 141.318 , 0.0 , 0.0 , 0.0 , 0.0 , 

53.0 , 4121.02564103 , 4120.51282051 , 4123.07692308 , 4127.69230769 , 4120.51282051 , 4121.02564103 , 4118.46153846 , 4121.02564103 , 4123.07692308 , 4134.35897436 , 4120.0 , 4040.51282051 , 4121.53846154 , 4117.94871795 , 2042.0 , 2036.0 , 141.326 , 0.0 , 0.0 , 0.0 , 0.0 , 

54.0 , 4122.56410256 , 4124.61538462 , 4124.1025641 , 4128.20512821 , 4123.07692308 , 4120.51282051 , 4120.51282051 , 4121.53846154 , 4123.07692308 , 4134.35897436 , 4122.05128205 , 4041.53846154 , 4124.1025641 , 4115.38461538 , 2041.0 , 2036.0 , 141.334 , 0.0 , 0.0 , 0.0 , 0.0 , 

55.0 , 4123.07692308 , 4124.1025641 , 4121.02564103 , 4125.12820513 , 4126.15384615 , 4122.05128205 , 4117.43589744 , 4121.53846154 , 4122.56410256 , 4134.35897436 , 4121.02564103 , 4042.56410256 , 4129.23076923 , 4115.8974359 , 2041.0 , 2037.0 , 141.342 , 0.0 , 0.0 , 0.0 , 0.0 , 

56.0 , 4123.07692308 , 4118.97435897 , 4120.0 , 4122.05128205 , 4122.56410256 , 4122.56410256 , 4118.46153846 , 4121.02564103 , 4124.1025641 , 4134.35897436 , 4117.94871795 , 4042.56410256 , 4128.20512821 , 4117.43589744 , 2043.0 , 2037.0 , 141.35 , 0.0 , 0.0 , 0.0 , 0.0 , 

57.0 , 4124.61538462 , 4120.51282051 , 4126.15384615 , 4123.58974359 , 4118.46153846 , 4121.02564103 , 4122.56410256 , 4121.02564103 , 4125.12820513 , 4134.35897436 , 4115.38461538 , 4043.07692308 , 4126.15384615 , 4116.92307692 , 2043.0 , 2036.0 , 141.358 , 0.0 , 0.0 , 0.0 , 0.0 , 

58.0 , 4124.1025641 , 4123.58974359 , 4127.17948718 , 4125.64102564 , 4118.46153846 , 4120.51282051 , 4119.48717949 , 4123.07692308 , 4122.56410256 , 4134.35897436 , 4115.8974359 , 4045.64102564 , 4129.23076923 , 4116.41025641 , 2044.0 , 2036.0 , 141.363 , 0.0 , 0.0 , 0.0 , 0.0 , 

59.0 , 4119.48717949 , 4120.51282051 , 4121.53846154 , 4124.61538462 , 4123.07692308 , 4122.05128205 , 4115.38461538 , 4123.58974359 , 4121.02564103 , 4134.35897436 , 4119.48717949 , 4046.15384615 , 4130.76923077 , 4117.43589744 , 2045.0 , 2036.0 , 141.363 , 0.0 , 0.0 , 0.0 , 0.0 , 

60.0 , 4120.51282051 , 4119.48717949 , 4120.51282051 , 4122.56410256 , 4128.20512821 , 4121.02564103 , 4116.41025641 , 4121.53846154 , 4122.05128205 , 4134.35897436 , 4118.46153846 , 4042.56410256 , 4129.23076923 , 4116.41025641 , 2046.0 , 2036.0 , 141.378 , 0.0 , 0.0 , 0.0 , 0.0 , 

61.0 , 4125.64102564 , 4124.1025641 , 4123.07692308 , 4124.1025641 , 4125.12820513 , 4118.97435897 , 4120.0 , 4121.53846154 , 4123.07692308 , 4134.35897436 , 4116.41025641 , 4040.51282051 , 4127.17948718 , 4115.38461538 , 2046.0 , 2035.0 , 141.378 , 0.0 , 0.0 , 0.0 , 0.0 , 

62.0 , 4125.64102564 , 4122.05128205 , 4124.1025641 , 4127.17948718 , 4120.0 , 4120.0 , 4118.97435897 , 4123.07692308 , 4123.07692308 , 4134.35897436 , 4115.8974359 , 4041.53846154 , 4128.20512821 , 4115.38461538 , 2047.0 , 2033.0 , 141.394 , 0.0 , 0.0 , 0.0 , 0.0 , 

63.0 , 4124.1025641 , 4117.43589744 , 4124.61538462 , 4125.12820513 , 4121.02564103 , 4123.07692308 , 4116.92307692 , 4123.07692308 , 4123.07692308 , 4134.35897436 , 4117.94871795 , 4043.58974359 , 4126.15384615 , 4115.8974359 , 2047.0 , 2033.0 , 141.394 , 0.0 , 0.0 , 0.0 , 0.0 , 

64.0 , 4124.1025641 , 4119.48717949 , 4121.53846154 , 4120.51282051 , 4122.56410256 , 4122.56410256 , 4117.43589744 , 4121.53846154 , 4122.05128205 , 4134.35897436 , 4118.97435897 , 4042.56410256 , 4126.15384615 , 4116.41025641 , 2047.0 , 2032.0 , 141.414 , 0.0 , 0.0 , 0.0 , 0.0 , 

65.0 , 4125.12820513 , 4124.61538462 , 4120.51282051 , 4123.07692308 , 4123.07692308 , 4122.56410256 , 4120.0 , 4120.51282051 , 4122.05128205 , 4134.35897436 , 4117.94871795 , 4041.53846154 , 4125.12820513 , 4117.94871795 , 2047.0 , 2031.0 , 141.421 , 0.0 , 0.0 , 0.0 , 0.0 , 

66.0 , 4122.05128205 , 4122.05128205 , 4122.05128205 , 4127.17948718 , 4123.58974359 , 4124.1025641 , 4117.43589744 , 4121.02564103 , 4122.05128205 , 4134.35897436 , 4118.97435897 , 4040.51282051 , 4125.12820513 , 4116.92307692 , 2048.0 , 2030.0 , 141.431 , 0.0 , 0.0 , 0.0 , 0.0 , 

67.0 , 4121.53846154 , 4120.51282051 , 4125.64102564 , 4126.15384615 , 4126.15384615 , 4121.02564103 , 4114.87179487 , 4121.02564103 , 4121.53846154 , 4134.35897436 , 4120.51282051 , 4042.05128205 , 4122.56410256 , 4115.8974359 , 2048.0 , 2032.0 , 141.435 , 0.0 , 0.0 , 0.0 , 0.0 , 

68.0 , 4124.1025641 , 4124.1025641 , 4124.1025641 , 4123.58974359 , 4127.69230769 , 4118.46153846 , 4115.8974359 , 4121.53846154 , 4122.56410256 , 4134.35897436 , 4121.02564103 , 4043.07692308 , 4123.58974359 , 4116.92307692 , 2047.0 , 2031.0 , 141.435 , 0.0 , 0.0 , 0.0 , 0.0 , 

69.0 , 4125.64102564 , 4125.64102564 , 4123.07692308 , 4122.56410256 , 4123.58974359 , 4122.56410256 , 4118.97435897 , 4122.56410256 , 4121.53846154 , 4134.35897436 , 4118.46153846 , 4041.02564103 , 4124.61538462 , 4117.43589744 , 2047.0 , 2032.0 , 141.451 , 0.0 , 0.0 , 0.0 , 0.0 , 

70.0 , 4122.05128205 , 4121.53846154 , 4123.58974359 , 4121.02564103 , 4120.0 , 4123.07692308 , 4120.0 , 4121.53846154 , 4121.53846154 , 4134.35897436 , 4116.41025641 , 4041.02564103 , 4125.64102564 , 4116.41025641 , 2047.0 , 2033.0 , 141.451 , 0.0 , 0.0 , 0.0 , 0.0 , 

71.0 , 4122.05128205 , 4121.02564103 , 4125.12820513 , 4120.51282051 , 4122.56410256 , 4121.02564103 , 4119.48717949 , 4121.53846154 , 4121.53846154 , 4134.35897436 , 4117.43589744 , 4043.58974359 , 4124.61538462 , 4116.92307692 , 2045.0 , 2034.0 , 141.466 , 0.0 , 0.0 , 0.0 , 0.0 , 

72.0 , 4123.58974359 , 4122.05128205 , 4122.05128205 , 4122.05128205 , 4125.12820513 , 4124.1025641 , 4118.46153846 , 4122.05128205 , 4122.05128205 , 4134.35897436 , 4119.48717949 , 4043.58974359 , 4123.58974359 , 4117.94871795 , 2046.0 , 2036.0 , 141.466 , 0.0 , 0.0 , 0.0 , 0.0 , 

73.0 , 4123.58974359 , 4122.56410256 , 4122.05128205 , 4123.58974359 , 4121.53846154 , 4125.12820513 , 4118.46153846 , 4121.02564103 , 4122.56410256 , 4134.35897436 , 4118.97435897 , 4041.02564103 , 4125.12820513 , 4117.94871795 , 2046.0 , 2037.0 , 141.482 , 0.0 , 0.0 , 0.0 , 0.0 , 

74.0 , 4122.56410256 , 4122.56410256 , 4125.64102564 , 4122.05128205 , 4120.0 , 4122.05128205 , 4117.43589744 , 4120.0 , 4122.56410256 , 4134.35897436 , 4116.92307692 , 4041.02564103 , 4125.12820513 , 4117.94871795 , 2044.0 , 2036.0 , 141.482 , 0.0 , 0.0 , 0.0 , 0.0 , 

75.0 , 4120.51282051 , 4121.02564103 , 4123.07692308 , 4122.56410256 , 4123.07692308 , 4121.53846154 , 4115.8974359 , 4120.51282051 , 4121.02564103 , 4134.35897436 , 4116.41025641 , 4040.51282051 , 4121.53846154 , 4116.92307692 , 2044.0 , 2035.0 , 141.498 , 0.0 , 0.0 , 0.0 , 0.0 , 

76.0 , 4119.48717949 , 4120.0 , 4117.43589744 , 4125.64102564 , 4125.64102564 , 4121.53846154 , 4115.8974359 , 4120.51282051 , 4121.53846154 , 4134.35897436 , 4117.43589744 , 4038.46153846 , 4123.07692308 , 4115.38461538 , 2044.0 , 2029.0 , 141.498 , 0.0 , 0.0 , 0.0 , 0.0 , 

77.0 , 4120.0 , 4122.05128205 , 4120.51282051 , 4125.12820513 , 4123.07692308 , 4120.0 , 4115.8974359 , 4120.0 , 4121.53846154 , 4134.35897436 , 4120.0 , 4040.51282051 , 4128.20512821 , 4115.38461538 , 2043.0 , 2027.0 , 141.517 , 0.0 , 0.0 , 0.0 , 0.0 , 

78.0 , 4119.48717949 , 4123.58974359 , 4126.66666667 , 4118.97435897 , 4119.48717949 , 4121.53846154 , 4116.92307692 , 4121.02564103 , 4121.53846154 , 4134.35897436 , 4120.0 , 4042.56410256 , 4125.64102564 , 4116.92307692 , 2041.0 , 2027.0 , 141.526 , 0.0 , 0.0 , 0.0 , 0.0 , 

79.0 , 4120.51282051 , 4122.05128205 , 4122.56410256 , 4119.48717949 , 4121.53846154 , 4123.07692308 , 4118.97435897 , 4122.05128205 , 4121.53846154 , 4134.35897436 , 4118.46153846 , 4040.0 , 4125.12820513 , 4115.8974359 , 2044.0 , 2026.0 , 141.532 , 0.0 , 0.0 , 0.0 , 0.0 , 

80.0 , 4124.1025641 , 4122.05128205 , 4119.48717949 , 4126.15384615 , 4123.58974359 , 4123.07692308 , 4117.94871795 , 4122.56410256 , 4121.53846154 , 4134.35897436 , 4120.0 , 4041.02564103 , 4127.69230769 , 4117.43589744 , 2044.0 , 2027.0 , 141.536 , 0.0 , 0.0 , 0.0 , 0.0 , 

81.0 , 4121.02564103 , 4122.56410256 , 4123.07692308 , 4124.61538462 , 4121.53846154 , 4121.02564103 , 4115.8974359 , 4122.05128205 , 4122.56410256 , 4134.35897436 , 4118.97435897 , 4044.1025641 , 4127.69230769 , 4117.43589744 , 2045.0 , 2031.0 , 141.536 , 0.0 , 0.0 , 0.0 , 0.0 , 

82.0 , 4117.94871795 , 4123.07692308 , 4125.12820513 , 4120.51282051 , 4122.05128205 , 4122.05128205 , 4118.46153846 , 4121.53846154 , 4122.56410256 , 4134.35897436 , 4115.8974359 , 4042.05128205 , 4126.66666667 , 4115.38461538 , 2045.0 , 2033.0 , 141.552 , 0.0 , 0.0 , 0.0 , 0.0 , 

83.0 , 4122.05128205 , 4120.51282051 , 4121.02564103 , 4122.05128205 , 4123.07692308 , 4121.02564103 , 4118.46153846 , 4121.53846154 , 4122.05128205 , 4134.35897436 , 4116.41025641 , 4040.0 , 4128.20512821 , 4114.87179487 , 2049.0 , 2034.0 , 141.552 , 0.0 , 0.0 , 0.0 , 0.0 , 

84.0 , 4125.64102564 , 4117.94871795 , 4121.02564103 , 4126.66666667 , 4123.07692308 , 4114.35897436 , 4117.94871795 , 4122.05128205 , 4121.02564103 , 4134.35897436 , 4118.97435897 , 4041.53846154 , 4122.05128205 , 4116.92307692 , 2048.0 , 2035.0 , 141.567 , 0.0 , 0.0 , 0.0 , 0.0 , 

85.0 , 4121.53846154 , 4121.02564103 , 4123.07692308 , 4125.64102564 , 4124.1025641 , 4114.35897436 , 4117.43589744 , 4121.53846154 , 4120.51282051 , 4134.35897436 , 4118.97435897 , 4042.56410256 , 4123.58974359 , 4114.35897436 , 2048.0 , 2035.0 , 141.567 , 0.0 , 0.0 , 0.0 , 0.0 , 

86.0 , 4121.02564103 , 4123.58974359 , 4125.12820513 , 4122.05128205 , 4122.05128205 , 4120.51282051 , 4116.41025641 , 4121.53846154 , 4120.51282051 , 4134.35897436 , 4118.97435897 , 4042.05128205 , 4129.23076923 , 4114.87179487 , 2049.0 , 2033.0 , 141.587 , 0.0 , 0.0 , 0.0 , 0.0 , 

87.0 , 4123.07692308 , 4121.02564103 , 4124.1025641 , 4122.56410256 , 4117.94871795 , 4120.51282051 , 4117.94871795 , 4121.53846154 , 4122.56410256 , 4134.35897436 , 4117.94871795 , 4041.53846154 , 4127.69230769 , 4115.8974359 , 2049.0 , 2031.0 , 141.594 , 0.0 , 0.0 , 0.0 , 0.0 , 

88.0 , 4122.56410256 , 4123.07692308 , 4123.07692308 , 4124.61538462 , 4120.0 , 4120.51282051 , 4120.0 , 4122.05128205 , 4124.61538462 , 4134.35897436 , 4116.41025641 , 4041.02564103 , 4123.58974359 , 4114.87179487 , 2048.0 , 2029.0 , 141.594 , 0.0 , 0.0 , 0.0 , 0.0 , 

89.0 , 4120.51282051 , 4124.61538462 , 4123.58974359 , 4122.56410256 , 4123.58974359 , 4123.07692308 , 4118.97435897 , 4121.53846154 , 4123.07692308 , 4134.35897436 , 4118.46153846 , 4042.05128205 , 4128.20512821 , 4114.87179487 , 2046.0 , 2028.0 , 141.61 , 0.0 , 0.0 , 0.0 , 0.0 , 

90.0 , 4122.05128205 , 4120.0 , 4124.1025641 , 4121.53846154 , 4123.58974359 , 4121.53846154 , 4122.05128205 , 4121.02564103 , 4121.53846154 , 4134.35897436 , 4118.97435897 , 4043.58974359 , 4127.17948718 , 4116.92307692 , 2047.0 , 2030.0 , 141.61 , 0.0 , 0.0 , 0.0 , 0.0 , 

91.0 , 4124.1025641 , 4117.43589744 , 4120.51282051 , 4123.58974359 , 4122.56410256 , 4120.51282051 , 4124.61538462 , 4121.53846154 , 4120.51282051 , 4134.35897436 , 4117.94871795 , 4043.07692308 , 4122.05128205 , 4115.8974359 , 2045.0 , 2033.0 , 141.625 , 0.0 , 0.0 , 0.0 , 0.0 , 

92.0 , 4124.61538462 , 4123.58974359 , 4120.0 , 4123.07692308 , 4122.05128205 , 4122.56410256 , 4123.07692308 , 4121.02564103 , 4122.56410256 , 4134.35897436 , 4116.41025641 , 4041.53846154 , 4122.56410256 , 4116.41025641 , 2043.0 , 2035.0 , 141.625 , 0.0 , 0.0 , 0.0 , 0.0 , 

93.0 , 4122.56410256 , 4127.69230769 , 4123.58974359 , 4122.05128205 , 4121.53846154 , 4121.53846154 , 4124.1025641 , 4121.02564103 , 4123.07692308 , 4134.35897436 , 4115.38461538 , 4043.07692308 , 4125.64102564 , 4118.46153846 , 2043.0 , 2035.0 , 141.642 , 0.0 , 0.0 , 0.0 , 0.0 , 

94.0 , 4121.53846154 , 4123.07692308 , 4125.64102564 , 4123.58974359 , 4124.1025641 , 4122.05128205 , 4123.07692308 , 4122.56410256 , 4121.02564103 , 4134.35897436 , 4116.41025641 , 4044.61538462 , 4125.64102564 , 4117.43589744 , 2042.0 , 2036.0 , 141.643 , 0.0 , 0.0 , 0.0 , 0.0 , 

95.0 , 4123.07692308 , 4120.51282051 , 4126.15384615 , 4123.58974359 , 4123.07692308 , 4121.53846154 , 4117.43589744 , 4123.58974359 , 4121.02564103 , 4134.35897436 , 4116.92307692 , 4042.56410256 , 4124.61538462 , 4114.87179487 , 2042.0 , 2035.0 , 141.643 , 0.0 , 0.0 , 0.0 , 0.0 , 

96.0 , 4122.56410256 , 4122.05128205 , 4126.15384615 , 4123.07692308 , 4121.02564103 , 4120.0 , 4117.43589744 , 4122.56410256 , 4122.05128205 , 4134.35897436 , 4117.43589744 , 4041.53846154 , 4124.61538462 , 4113.84615385 , 2042.0 , 2034.0 , 141.659 , 0.0 , 0.0 , 0.0 , 0.0 , 

97.0 , 4123.07692308 , 4120.51282051 , 4122.05128205 , 4124.1025641 , 4121.53846154 , 4122.05128205 , 4119.48717949 , 4121.53846154 , 4123.58974359 , 4134.35897436 , 4119.48717949 , 4042.56410256 , 4124.1025641 , 4114.87179487 , 2042.0 , 2033.0 , 141.659 , 0.0 , 0.0 , 0.0 , 0.0 , 

98.0 , 4124.1025641 , 4120.0 , 4117.94871795 , 4121.53846154 , 4123.07692308 , 4122.05128205 , 4118.97435897 , 4122.05128205 , 4121.53846154 , 4134.35897436 , 4121.02564103 , 4042.05128205 , 4124.61538462 , 4115.8974359 , 2042.0 , 2032.0 , 141.674 , 0.0 , 0.0 , 0.0 , 0.0 , 

99.0 , 4124.1025641 , 4121.53846154 , 4124.1025641 , 4120.51282051 , 4123.58974359 , 4120.0 , 4122.56410256 , 4123.07692308 , 4120.51282051 , 4134.35897436 , 4119.48717949 , 4042.05128205 , 4124.61538462 , 4116.92307692 , 2043.0 , 2032.0 , 141.69 , 0.0 , 0.0 , 0.0 , 0.0 , 

100.0 , 4120.51282051 , 4122.05128205 , 4126.15384615 , 4123.07692308 , 4121.53846154 , 4118.97435897 , 4123.07692308 , 4122.05128205 , 4121.53846154 , 4134.35897436 , 4118.97435897 , 4043.07692308 , 4127.69230769 , 4116.92307692 , 2045.0 , 2032.0 , 141.69 , 0.0 , 0.0 , 0.0 , 0.0 , 

101.0 , 4120.0 , 4124.61538462 , 4123.58974359 , 4124.61538462 , 4121.53846154 , 4121.02564103 , 4118.46153846 , 4120.51282051 , 4121.53846154 , 4134.35897436 , 4120.51282051 , 4041.02564103 , 4126.66666667 , 4116.41025641 , 2045.0 , 2030.0 , 141.69 , 0.0 , 0.0 , 0.0 , 0.0 , 

102.0 , 4121.02564103 , 4123.58974359 , 4124.1025641 , 4124.1025641 , 4124.1025641 , 4120.51282051 , 4117.43589744 , 4120.0 , 4121.02564103 , 4134.35897436 , 4118.46153846 , 4040.51282051 , 4127.69230769 , 4115.8974359 , 2046.0 , 2028.0 , 141.706 , 0.0 , 0.0 , 0.0 , 0.0 , 

103.0 , 4123.58974359 , 4118.46153846 , 4126.15384615 , 4122.05128205 , 4125.12820513 , 4120.0 , 4121.53846154 , 4120.0 , 4121.02564103 , 4134.35897436 , 4115.8974359 , 4043.58974359 , 4127.69230769 , 4116.92307692 , 2046.0 , 2030.0 , 141.721 , 0.0 , 0.0 , 0.0 , 0.0 , 

104.0 , 4123.07692308 , 4117.94871795 , 4121.53846154 , 4119.48717949 , 4123.58974359 , 4122.05128205 , 4122.05128205 , 4122.56410256 , 4122.05128205 , 4134.35897436 , 4117.43589744 , 4042.05128205 , 4128.20512821 , 4115.8974359 , 2049.0 , 2031.0 , 141.728 , 0.0 , 0.0 , 0.0 , 0.0 , 

105.0 , 4124.1025641 , 4122.05128205 , 4122.05128205 , 4121.53846154 , 4124.1025641 , 4122.05128205 , 4121.53846154 , 4124.1025641 , 4121.02564103 , 4134.35897436 , 4118.97435897 , 4043.07692308 , 4126.15384615 , 4114.35897436 , 2048.0 , 2032.0 , 141.736 , 0.0 , 0.0 , 0.0 , 0.0 , 

106.0 , 4124.1025641 , 4123.07692308 , 4125.12820513 , 4124.1025641 , 4122.56410256 , 4119.48717949 , 4120.0 , 4120.51282051 , 4122.56410256 , 4134.35897436 , 4117.43589744 , 4047.69230769 , 4125.64102564 , 4114.35897436 , 2047.0 , 2033.0 , 141.744 , 0.0 , 0.0 , 0.0 , 0.0 , 

107.0 , 4124.1025641 , 4125.12820513 , 4125.12820513 , 4123.58974359 , 4120.0 , 4120.51282051 , 4118.46153846 , 4120.0 , 4123.58974359 , 4134.35897436 , 4117.94871795 , 4045.12820513 , 4122.05128205 , 4116.92307692 , 2047.0 , 2033.0 , 141.752 , 0.0 , 0.0 , 0.0 , 0.0 , 

108.0 , 4122.56410256 , 4124.61538462 , 4125.12820513 , 4122.56410256 , 4122.56410256 , 4124.1025641 , 4119.48717949 , 4122.05128205 , 4120.0 , 4134.35897436 , 4118.97435897 , 4040.0 , 4122.05128205 , 4116.92307692 , 2046.0 , 2033.0 , 141.752 , 0.0 , 0.0 , 0.0 , 0.0 , 

109.0 , 4119.48717949 , 4122.56410256 , 4127.69230769 , 4122.05128205 , 4125.64102564 , 4120.51282051 , 4120.0 , 4120.0 , 4117.94871795 , 4134.35897436 , 4114.87179487 , 4041.53846154 , 4124.61538462 , 4116.41025641 , 2045.0 , 2035.0 , 141.767 , 0.0 , 0.0 , 0.0 , 0.0 , 

110.0 , 4118.46153846 , 4122.56410256 , 4127.17948718 , 4123.07692308 , 4124.61538462 , 4116.41025641 , 4120.0 , 4117.43589744 , 4121.53846154 , 4134.35897436 , 4113.84615385 , 4042.56410256 , 4124.61538462 , 4117.94871795 , 2044.0 , 2035.0 , 141.767 , 0.0 , 0.0 , 0.0 , 0.0 , 

111.0 , 4122.56410256 , 4125.12820513 , 4125.12820513 , 4123.58974359 , 4121.53846154 , 4120.51282051 , 4123.07692308 , 4120.51282051 , 4123.07692308 , 4134.35897436 , 4117.94871795 , 4042.05128205 , 4121.53846154 , 4118.46153846 , 2042.0 , 2037.0 , 141.783 , 0.0 , 0.0 , 0.0 , 0.0 , 

112.0 , 4125.12820513 , 4124.1025641 , 4126.15384615 , 4120.0 , 4120.51282051 , 4120.51282051 , 4125.12820513 , 4121.53846154 , 4121.02564103 , 4134.35897436 , 4118.97435897 , 4043.07692308 , 4123.07692308 , 4117.43589744 , 2042.0 , 2036.0 , 141.783 , 0.0 , 0.0 , 0.0 , 0.0 , 

113.0 , 4121.02564103 , 4120.51282051 , 4126.66666667 , 4119.48717949 , 4122.05128205 , 4119.48717949 , 4124.1025641 , 4120.0 , 4120.0 , 4134.35897436 , 4118.46153846 , 4043.07692308 , 4127.69230769 , 4116.41025641 , 2041.0 , 2035.0 , 141.799 , 0.0 , 0.0 , 0.0 , 0.0 , 

114.0 , 4117.94871795 , 4120.0 , 4125.64102564 , 4126.15384615 , 4123.07692308 , 4122.56410256 , 4125.12820513 , 4120.51282051 , 4121.02564103 , 4134.35897436 , 4118.46153846 , 4043.58974359 , 4129.74358974 , 4115.38461538 , 2041.0 , 2033.0 , 141.799 , 0.0 , 0.0 , 0.0 , 0.0 , 

115.0 , 4121.02564103 , 4120.0 , 4125.12820513 , 4125.64102564 , 4121.02564103 , 4124.1025641 , 4123.07692308 , 4121.53846154 , 4122.56410256 , 4134.35897436 , 4117.43589744 , 4044.61538462 , 4129.23076923 , 4113.84615385 , 2041.0 , 2033.0 , 141.814 , 0.0 , 0.0 , 0.0 , 0.0 , 

116.0 , 4123.58974359 , 4119.48717949 , 4125.12820513 , 4119.48717949 , 4122.05128205 , 4122.05128205 , 4118.46153846 , 4121.53846154 , 4123.58974359 , 4134.35897436 , 4117.94871795 , 4044.1025641 , 4126.15384615 , 4115.8974359 , 2043.0 , 2032.0 , 141.814 , 0.0 , 0.0 , 0.0 , 0.0 , 

117.0 , 4121.02564103 , 4120.51282051 , 4124.1025641 , 4119.48717949 , 4124.61538462 , 4121.53846154 , 4119.48717949 , 4122.05128205 , 4123.07692308 , 4134.35897436 , 4118.46153846 , 4043.58974359 , 4127.17948718 , 4118.46153846 , 2043.0 , 2033.0 , 141.83 , 0.0 , 0.0 , 0.0 , 0.0 , 

118.0 , 4121.53846154 , 4122.56410256 , 4125.64102564 , 4124.61538462 , 4124.61538462 , 4123.07692308 , 4123.07692308 , 4121.53846154 , 4121.53846154 , 4134.35897436 , 4116.41025641 , 4043.07692308 , 4125.64102564 , 4116.92307692 , 2042.0 , 2035.0 , 141.83 , 0.0 , 0.0 , 0.0 , 0.0 , 

119.0 , 4123.07692308 , 4124.61538462 , 4127.69230769 , 4124.1025641 , 4123.58974359 , 4121.02564103 , 4121.53846154 , 4121.53846154 , 4121.53846154 , 4134.35897436 , 4115.8974359 , 4042.05128205 , 4126.66666667 , 4115.38461538 , 2044.0 , 2036.0 , 141.846 , 0.0 , 0.0 , 0.0 , 0.0 , 

120.0 , 4121.53846154 , 4125.64102564 , 4125.64102564 , 4123.58974359 , 4123.58974359 , 4120.51282051 , 4122.56410256 , 4122.56410256 , 4122.05128205 , 4134.35897436 , 4117.94871795 , 4041.02564103 , 4127.69230769 , 4118.46153846 , 2044.0 , 2032.0 , 141.846 , 0.0 , 0.0 , 0.0 , 0.0 , 

121.0 , 4120.0 , 4123.07692308 , 4119.48717949 , 4124.61538462 , 4122.05128205 , 4121.02564103 , 4123.58974359 , 4123.07692308 , 4122.56410256 , 4134.35897436 , 4117.94871795 , 4041.53846154 , 4127.69230769 , 4119.48717949 , 2044.0 , 2033.0 , 141.861 , 0.0 , 0.0 , 0.0 , 0.0 , 

122.0 , 4124.61538462 , 4121.53846154 , 4122.05128205 , 4125.12820513 , 4121.02564103 , 4120.0 , 4119.48717949 , 4122.56410256 , 4122.05128205 , 4134.35897436 , 4116.41025641 , 4042.56410256 , 4123.58974359 , 4117.94871795 , 2045.0 , 2031.0 , 141.861 , 0.0 , 0.0 , 0.0 , 0.0 , 

123.0 , 4123.07692308 , 4122.56410256 , 4128.20512821 , 4122.56410256 , 4118.46153846 , 4118.46153846 , 4117.94871795 , 4121.53846154 , 4121.53846154 , 4134.35897436 , 4117.94871795 , 4043.07692308 , 4127.17948718 , 4116.41025641 , 2046.0 , 2030.0 , 141.877 , 0.0 , 0.0 , 0.0 , 0.0 , 

124.0 , 4120.0 , 4122.05128205 , 4128.71794872 , 4123.58974359 , 4120.0 , 4119.48717949 , 4122.56410256 , 4120.51282051 , 4120.51282051 , 4134.35897436 , 4119.48717949 , 4041.53846154 , 4129.74358974 , 4116.41025641 , 2046.0 , 2029.0 , 141.877 , 0.0 , 0.0 , 0.0 , 0.0 , 

125.0 , 4121.02564103 , 4122.56410256 , 4125.64102564 , 4125.12820513 , 4124.61538462 , 4120.0 , 4122.05128205 , 4121.53846154 , 4120.0 , 4134.35897436 , 4116.92307692 , 4043.07692308 , 4127.69230769 , 4116.41025641 , 2047.0 , 2027.0 , 141.892 , 0.0 , 0.0 , 0.0 , 0.0 , 

126.0 , 4125.12820513 , 4124.1025641 , 4127.17948718 , 4123.07692308 , 4124.61538462 , 4119.48717949 , 4120.0 , 4122.05128205 , 4120.51282051 , 4134.35897436 , 4114.87179487 , 4045.64102564 , 4127.69230769 , 4116.41025641 , 2048.0 , 2029.0 , 141.892 , 0.0 , 0.0 , 0.0 , 0.0 , 

127.0 , 4123.58974359 , 4124.1025641 , 4125.12820513 , 4120.51282051 , 4123.58974359 , 4121.53846154 , 4122.05128205 , 4120.51282051 , 4121.53846154 , 4134.35897436 , 4117.43589744 , 4043.07692308 , 4130.25641026 , 4115.38461538 , 2048.0 , 2031.0 , 141.91 , 0.0 , 0.0 , 0.0 , 0.0 , 

128.0 , 4120.0 , 4126.15384615 , 4122.56410256 , 4119.48717949 , 4125.64102564 , 4121.02564103 , 4123.58974359 , 4120.51282051 , 4122.05128205 , 4134.35897436 , 4118.46153846 , 4043.07692308 , 4126.15384615 , 4116.92307692 , 2049.0 , 2033.0 , 141.917 , 0.0 , 0.0 , 0.0 , 0.0 , 

0.0 , 4118.97435897 , 4123.58974359 , 4123.07692308 , 4120.51282051 , 4125.12820513 , 4119.48717949 , 4122.05128205 , 4123.07692308 , 4122.05128205 , 4134.35897436 , 4118.46153846 , 4044.61538462 , 4123.07692308 , 4119.48717949 , 2049.0 , 2034.0 , 141.925 , 0.0 , 0.0 , 0.0 , 0.0 , 

1.0 , 4122.05128205 , 4120.51282051 , 4123.07692308 , 4122.05128205 , 4122.05128205 , 4121.53846154 , 4121.02564103 , 4124.1025641 , 4121.53846154 , 4134.35897436 , 4118.46153846 , 4041.02564103 , 4124.1025641 , 4117.94871795 , 2048.0 , 2033.0 , 141.933 , 0.0 , 0.0 , 0.0 , 0.0 , 

2.0 , 4122.56410256 , 4123.58974359 , 4122.56410256 , 4124.61538462 , 4122.05128205 , 4123.07692308 , 4121.53846154 , 4122.05128205 , 4121.02564103 , 4134.35897436 , 4117.94871795 , 4038.46153846 , 4125.12820513 , 4116.41025641 , 2048.0 , 2031.0 , 141.941 , 0.0 , 0.0 , 0.0 , 0.0 , 

3.0 , 4120.51282051 , 4126.15384615 , 4125.12820513 , 4126.15384615 , 4123.07692308 , 4121.53846154 , 4121.53846154 , 4120.0 , 4122.05128205 , 4134.35897436 , 4117.94871795 , 4040.51282051 , 4125.12820513 , 4116.41025641 , 2046.0 , 2030.0 , 141.947 , 0.0 , 0.0 , 0.0 , 0.0 , 

4.0 , 4120.51282051 , 4124.1025641 , 4123.07692308 , 4125.12820513 , 4123.58974359 , 4123.58974359 , 4120.51282051 , 4120.51282051 , 4122.05128205 , 4134.35897436 , 4117.43589744 , 4040.0 , 4123.07692308 , 4115.8974359 , 2046.0 , 2030.0 , 141.947 , 0.0 , 0.0 , 0.0 , 0.0 , 

5.0 , 4121.53846154 , 4122.05128205 , 4120.0 , 4123.07692308 , 4124.1025641 , 4126.15384615 , 4120.51282051 , 4121.02564103 , 4120.0 , 4134.35897436 , 4117.43589744 , 4038.97435897 , 4123.07692308 , 4117.43589744 , 2044.0 , 2031.0 , 141.963 , 0.0 , 0.0 , 0.0 , 0.0 , 

6.0 , 4122.05128205 , 4120.51282051 , 4123.07692308 , 4122.05128205 , 4122.56410256 , 4123.58974359 , 4120.51282051 , 4121.02564103 , 4122.05128205 , 4134.35897436 , 4120.0 , 4040.0 , 4127.17948718 , 4118.46153846 , 2044.0 , 2032.0 , 141.963 , 0.0 , 0.0 , 0.0 , 0.0 , 

7.0 , 4120.51282051 , 4118.97435897 , 4124.1025641 , 4122.56410256 , 4123.58974359 , 4120.51282051 , 4121.02564103 , 4121.53846154 , 4124.1025641 , 4134.35897436 , 4119.48717949 , 4040.0 , 4131.28205128 , 4115.38461538 , 2043.0 , 2035.0 , 141.979 , 0.0 , 0.0 , 0.0 , 0.0 , 

8.0 , 4121.02564103 , 4120.0 , 4121.53846154 , 4121.02564103 , 4123.58974359 , 4120.51282051 , 4123.58974359 , 4122.56410256 , 4122.56410256 , 4134.35897436 , 4118.97435897 , 4043.07692308 , 4126.66666667 , 4115.8974359 , 2042.0 , 2037.0 , 141.979 , 0.0 , 0.0 , 0.0 , 0.0 , 

9.0 , 4122.05128205 , 4120.51282051 , 4119.48717949 , 4121.02564103 , 4122.05128205 , 4121.02564103 , 4123.07692308 , 4122.56410256 , 4121.53846154 , 4134.35897436 , 4120.0 , 4045.12820513 , 4126.15384615 , 4117.43589744 , 2041.0 , 2039.0 , 141.997 , 0.0 , 0.0 , 0.0 , 0.0 , 

10.0 , 4123.58974359 , 4122.05128205 , 4122.56410256 , 4123.07692308 , 4121.53846154 , 4120.0 , 4122.56410256 , 4122.05128205 , 4121.53846154 , 4134.35897436 , 4117.94871795 , 4041.02564103 , 4127.17948718 , 4115.8974359 , 2041.0 , 2038.0 , 142.005 , 0.0 , 0.0 , 0.0 , 0.0 , 

11.0 , 4121.53846154 , 4123.07692308 , 4121.53846154 , 4124.1025641 , 4122.56410256 , 4118.97435897 , 4123.07692308 , 4123.58974359 , 4120.51282051 , 4134.35897436 , 4116.41025641 , 4040.0 , 4129.74358974 , 4114.87179487 , 2041.0 , 2039.0 , 142.012 , 0.0 , 0.0 , 0.0 , 0.0 , 

12.0 , 4122.05128205 , 4122.56410256 , 4123.07692308 , 4121.02564103 , 4123.58974359 , 4121.53846154 , 4121.02564103 , 4124.61538462 , 4120.0 , 4134.35897436 , 4117.43589744 , 4042.56410256 , 4127.17948718 , 4116.92307692 , 2041.0 , 2038.0 , 142.021 , 0.0 , 0.0 , 0.0 , 0.0 , 

13.0 , 4122.56410256 , 4121.02564103 , 4122.05128205 , 4118.46153846 , 4124.1025641 , 4123.07692308 , 4116.92307692 , 4122.56410256 , 4120.51282051 , 4134.35897436 , 4116.92307692 , 4041.02564103 , 4125.64102564 , 4117.94871795 , 2043.0 , 2037.0 , 142.029 , 0.0 , 0.0 , 0.0 , 0.0 , 

14.0 , 4123.07692308 , 4121.53846154 , 4121.53846154 , 4122.56410256 , 4124.1025641 , 4119.48717949 , 4120.51282051 , 4121.53846154 , 4120.0 , 4134.35897436 , 4116.92307692 , 4040.51282051 , 4128.71794872 , 4117.43589744 , 2043.0 , 2035.0 , 142.037 , 0.0 , 0.0 , 0.0 , 0.0 , 

15.0 , 4123.58974359 , 4122.05128205 , 4123.58974359 , 4125.64102564 , 4121.02564103 , 4118.97435897 , 4124.1025641 , 4121.53846154 , 4120.51282051 , 4134.35897436 , 4118.46153846 , 4042.05128205 , 4132.82051282 , 4113.33333333 , 2042.0 , 2037.0 , 142.044 , 0.0 , 0.0 , 0.0 , 0.0 , 

16.0 , 4124.61538462 , 4121.53846154 , 4124.61538462 , 4122.56410256 , 4121.02564103 , 4123.58974359 , 4120.51282051 , 4122.56410256 , 4122.05128205 , 4134.35897436 , 4117.94871795 , 4043.07692308 , 4129.23076923 , 4112.30769231 , 2043.0 , 2035.0 , 142.052 , 0.0 , 0.0 , 0.0 , 0.0 , 

17.0 , 4123.07692308 , 4120.51282051 , 4121.02564103 , 4120.0 , 4124.61538462 , 4121.53846154 , 4116.41025641 , 4121.53846154 , 4121.53846154 , 4134.35897436 , 4117.94871795 , 4042.05128205 , 4126.66666667 , 4117.43589744 , 2043.0 , 2035.0 , 142.059 , 0.0 , 0.0 , 0.0 , 0.0 , 

18.0 , 4122.05128205 , 4123.07692308 , 4122.56410256 , 4123.07692308 , 4124.61538462 , 4119.48717949 , 4119.48717949 , 4120.0 , 4121.53846154 , 4134.35897436 , 4118.46153846 , 4043.07692308 , 4129.74358974 , 4117.94871795 , 2042.0 , 2035.0 , 142.068 , 0.0 , 0.0 , 0.0 , 0.0 , 

19.0 , 4121.53846154 , 4123.58974359 , 4123.07692308 , 4125.64102564 , 4124.1025641 , 4123.58974359 , 4121.53846154 , 4120.51282051 , 4123.07692308 , 4134.35897436 , 4117.43589744 , 4043.58974359 , 4129.74358974 , 4113.84615385 , 2043.0 , 2035.0 , 142.076 , 0.0 , 0.0 , 0.0 , 0.0 , 

20.0 , 4123.58974359 , 4120.0 , 4120.0 , 4122.56410256 , 4123.07692308 , 4124.1025641 , 4120.0 , 4122.56410256 , 4123.58974359 , 4134.35897436 , 4116.92307692 , 4042.05128205 , 4124.61538462 , 4115.8974359 , 2043.0 , 2033.0 , 142.083 , 0.0 , 0.0 , 0.0 , 0.0 , 

21.0 , 4125.64102564 , 4118.46153846 , 4121.53846154 , 4118.97435897 , 4126.15384615 , 4120.51282051 , 4121.53846154 , 4122.56410256 , 4122.56410256 , 4134.35897436 , 4116.41025641 , 4041.02564103 , 4123.07692308 , 4118.46153846 , 2042.0 , 2033.0 , 142.092 , 0.0 , 0.0 , 0.0 , 0.0 , 

22.0 , 4122.56410256 , 4122.56410256 , 4124.1025641 , 4120.0 , 4126.15384615 , 4120.0 , 4124.1025641 , 4122.05128205 , 4122.05128205 , 4134.35897436 , 4117.43589744 , 4042.56410256 , 4126.15384615 , 4116.41025641 , 2043.0 , 2033.0 , 142.099 , 0.0 , 0.0 , 0.0 , 0.0 , 

23.0 , 4119.48717949 , 4123.58974359 , 4123.07692308 , 4123.07692308 , 4121.02564103 , 4122.05128205 , 4122.56410256 , 4122.05128205 , 4122.05128205 , 4134.35897436 , 4117.94871795 , 4042.05128205 , 4125.12820513 , 4115.8974359 , 2043.0 , 2035.0 , 142.109 , 0.0 , 0.0 , 0.0 , 0.0 , 

24.0 , 4121.53846154 , 4122.05128205 , 4122.05128205 , 4121.53846154 , 4119.48717949 , 4120.51282051 , 4124.1025641 , 4123.07692308 , 4122.05128205 , 4134.35897436 , 4118.46153846 , 4040.0 , 4126.15384615 , 4116.92307692 , 2043.0 , 2036.0 , 142.115 , 0.0 , 0.0 , 0.0 , 0.0 , 

25.0 , 4122.56410256 , 4123.58974359 , 4123.58974359 , 4120.51282051 , 4123.07692308 , 4118.97435897 , 4127.69230769 , 4122.56410256 , 4123.07692308 , 4134.35897436 , 4121.02564103 , 4041.53846154 , 4129.23076923 , 4115.8974359 , 2042.0 , 2038.0 , 142.123 , 0.0 , 0.0 , 0.0 , 0.0 , 

26.0 , 4120.51282051 , 4123.07692308 , 4124.61538462 , 4123.07692308 , 4123.58974359 , 4121.53846154 , 4122.05128205 , 4122.56410256 , 4122.56410256 , 4134.35897436 , 4120.51282051 , 4044.61538462 , 4130.25641026 , 4113.33333333 , 2041.0 , 2039.0 , 142.131 , 0.0 , 0.0 , 0.0 , 0.0 , 

27.0 , 4121.02564103 , 4121.02564103 , 4125.64102564 , 4122.05128205 , 4122.56410256 , 4122.56410256 , 4117.43589744 , 4123.07692308 , 4120.0 , 4134.35897436 , 4116.41025641 , 4044.1025641 , 4125.12820513 , 4114.35897436 , 2042.0 , 2038.0 , 142.139 , 0.0 , 0.0 , 0.0 , 0.0 , 

28.0 , 4123.07692308 , 4123.07692308 , 4122.05128205 , 4120.0 , 4124.61538462 , 4121.02564103 , 4121.02564103 , 4122.05128205 , 4118.97435897 , 4134.35897436 , 4116.92307692 , 4041.53846154 , 4123.58974359 , 4116.41025641 , 2041.0 , 2036.0 , 142.146 , 0.0 , 0.0 , 0.0 , 0.0 , 

29.0 , 4125.12820513 , 4125.64102564 , 4122.05128205 , 4122.56410256 , 4124.61538462 , 4122.05128205 , 4120.51282051 , 4121.02564103 , 4120.51282051 , 4134.35897436 , 4118.97435897 , 4042.56410256 , 4123.58974359 , 4115.8974359 , 2041.0 , 2034.0 , 142.154 , 0.0 , 0.0 , 0.0 , 0.0 , 

30.0 , 4124.1025641 , 4124.1025641 , 4123.58974359 , 4124.1025641 , 4123.58974359 , 4123.07692308 , 4116.92307692 , 4122.56410256 , 4122.56410256 , 4134.35897436 , 4117.43589744 , 4044.1025641 , 4127.17948718 , 4114.87179487 , 2041.0 , 2032.0 , 142.163 , 0.0 , 0.0 , 0.0 , 0.0 , 

31.0 , 4122.56410256 , 4123.58974359 , 4123.58974359 , 4122.56410256 , 4125.64102564 , 4120.51282051 , 4120.51282051 , 4122.56410256 , 4121.53846154 , 4135.38461538 , 4116.41025641 , 4044.1025641 , 4127.17948718 , 4116.41025641 , 2043.0 , 2030.0 , 142.17 , 0.0 , 0.0 , 0.0 , 0.0 , 

32.0 , 4122.56410256 , 4123.07692308 , 4122.05128205 , 4123.07692308 , 4123.58974359 , 4120.51282051 , 4121.02564103 , 4119.48717949 , 4120.51282051 , 4133.84615385 , 4113.33333333 , 4042.56410256 , 4123.07692308 , 4115.8974359 , 2042.0 , 2029.0 , 142.178 , 0.0 , 0.0 , 0.0 , 0.0 , 

33.0 , 4124.61538462 , 4122.05128205 , 4122.05128205 , 4124.1025641 , 4123.07692308 , 4124.1025641 , 4117.94871795 , 4120.0 , 4120.51282051 , 4133.33333333 , 4113.84615385 , 4045.12820513 , 4120.51282051 , 4116.41025641 , 2043.0 , 2030.0 , 142.185 , 0.0 , 0.0 , 0.0 , 0.0 , 

34.0 , 4122.56410256 , 4122.05128205 , 4121.02564103 , 4123.07692308 , 4123.58974359 , 4124.61538462 , 4122.05128205 , 4122.05128205 , 4119.48717949 , 4136.41025641 , 4114.35897436 , 4046.66666667 , 4127.17948718 , 4117.43589744 , 2043.0 , 2029.0 , 142.193 , 0.0 , 0.0 , 0.0 , 0.0 , 

35.0 , 4120.0 , 4123.07692308 , 4123.58974359 , 4121.53846154 , 4122.56410256 , 4122.56410256 , 4125.64102564 , 4120.51282051 , 4119.48717949 , 4131.28205128 , 4114.35897436 , 4042.56410256 , 4130.76923077 , 4116.41025641 , 2045.0 , 2029.0 , 142.201 , 0.0 , 0.0 , 0.0 , 0.0 , 

36.0 , 4119.48717949 , 4123.07692308 , 4125.64102564 , 4120.51282051 , 4122.05128205 , 4119.48717949 , 4122.05128205 , 4120.51282051 , 4122.05128205 , 4120.51282051 , 4115.8974359 , 4038.97435897 , 4129.74358974 , 4115.38461538 , 2044.0 , 2031.0 , 142.209 , 0.0 , 0.0 , 0.0 , 0.0 , 

37.0 , 4121.53846154 , 4122.05128205 , 4124.1025641 , 4122.05128205 , 4123.07692308 , 4120.0 , 4120.51282051 , 4124.61538462 , 4122.56410256 , 4125.12820513 , 4118.46153846 , 4042.05128205 , 4129.74358974 , 4117.43589744 , 2045.0 , 2035.0 , 142.218 , 0.0 , 0.0 , 0.0 , 0.0 , 

38.0 , 4123.58974359 , 4121.53846154 , 4123.07692308 , 4123.58974359 , 4123.58974359 , 4122.56410256 , 4120.51282051 , 4123.58974359 , 4121.53846154 , 4136.92307692 , 4118.97435897 , 4044.61538462 , 4129.23076923 , 4116.92307692 , 2044.0 , 2036.0 , 142.226 , 0.0 , 0.0 , 0.0 , 0.0 , 

39.0 , 4123.07692308 , 4122.05128205 , 4124.1025641 , 4122.05128205 , 4124.1025641 , 4122.05128205 , 4120.51282051 , 4118.46153846 , 4123.07692308 , 4135.8974359 , 4117.43589744 , 4041.02564103 , 4126.15384615 , 4115.8974359 , 2043.0 , 2038.0 , 142.233 , 0.0 , 0.0 , 0.0 , 0.0 , 

40.0 , 4122.05128205 , 4123.58974359 , 4127.17948718 , 4122.05128205 , 4124.61538462 , 4120.0 , 4122.05128205 , 4118.97435897 , 4122.56410256 , 4132.82051282 , 4116.41025641 , 4040.51282051 , 4124.61538462 , 4117.94871795 , 2042.0 , 2040.0 , 142.242 , 0.0 , 0.0 , 0.0 , 0.0 , 

41.0 , 4121.02564103 , 4122.56410256 , 4127.17948718 , 4123.58974359 , 4122.05128205 , 4120.51282051 , 4120.0 , 4122.05128205 , 4121.02564103 , 4134.87179487 , 4114.35897436 , 4043.58974359 , 4125.12820513 , 4117.94871795 , 2044.0 , 2040.0 , 142.248 , 0.0 , 0.0 , 0.0 , 0.0 , 

42.0 , 4120.0 , 4121.53846154 , 4122.05128205 , 4125.64102564 , 4121.02564103 , 4122.05128205 , 4117.94871795 , 4123.07692308 , 4123.07692308 , 4133.84615385 , 4116.41025641 , 4042.05128205 , 4121.53846154 , 4116.92307692 , 2044.0 , 2039.0 , 142.256 , 0.0 , 0.0 , 0.0 , 0.0 , 

43.0 , 4119.48717949 , 4125.12820513 , 4120.0 , 4126.15384615 , 4123.07692308 , 4121.53846154 , 4120.51282051 , 4122.56410256 , 4123.07692308 , 4132.30769231 , 4118.46153846 , 4040.0 , 4125.12820513 , 4116.41025641 , 2044.0 , 2038.0 , 142.264 , 0.0 , 0.0 , 0.0 , 0.0 , 

44.0 , 4121.53846154 , 4126.66666667 , 4125.12820513 , 4124.61538462 , 4125.12820513 , 4123.07692308 , 4123.07692308 , 4121.02564103 , 4121.02564103 , 4133.33333333 , 4116.92307692 , 4042.56410256 , 4128.20512821 , 4116.92307692 , 2045.0 , 2039.0 , 142.272 , 0.0 , 0.0 , 0.0 , 0.0 , 

45.0 , 4123.07692308 , 4120.51282051 , 4124.1025641 , 4122.05128205 , 4125.12820513 , 4124.61538462 , 4122.05128205 , 4119.48717949 , 4123.58974359 , 4132.82051282 , 4117.94871795 , 4043.07692308 , 4127.17948718 , 4116.92307692 , 2045.0 , 2038.0 , 142.28 , 0.0 , 0.0 , 0.0 , 0.0 , 

46.0 , 4123.58974359 , 4117.94871795 , 4120.0 , 4121.53846154 , 4123.58974359 , 4122.05128205 , 4122.56410256 , 4121.02564103 , 4124.61538462 , 4132.82051282 , 4118.46153846 , 4041.53846154 , 4123.58974359 , 4118.46153846 , 2043.0 , 2037.0 , 142.288 , 0.0 , 0.0 , 0.0 , 0.0 , 

47.0 , 4123.58974359 , 4121.53846154 , 4122.56410256 , 4122.56410256 , 4123.07692308 , 4119.48717949 , 4121.02564103 , 4121.53846154 , 4120.51282051 , 4133.33333333 , 4116.92307692 , 4040.51282051 , 4124.61538462 , 4117.94871795 , 2044.0 , 2036.0 , 142.296 , 0.0 , 0.0 , 0.0 , 0.0 , 

48.0 , 4125.64102564 , 4122.56410256 , 4124.61538462 , 4124.61538462 , 4124.61538462 , 4123.07692308 , 4120.51282051 , 4120.51282051 , 4119.48717949 , 4133.33333333 , 4117.43589744 , 4040.0 , 4126.66666667 , 4115.8974359 , 2044.0 , 2037.0 , 142.305 , 0.0 , 0.0 , 0.0 , 0.0 , 

49.0 , 4123.07692308 , 4120.51282051 , 4120.51282051 , 4124.61538462 , 4123.58974359 , 4124.61538462 , 4124.1025641 , 4122.05128205 , 4121.53846154 , 4133.33333333 , 4121.02564103 , 4041.53846154 , 4130.25641026 , 4115.38461538 , 2043.0 , 2034.0 , 142.311 , 0.0 , 0.0 , 0.0 , 0.0 , 

50.0 , 4121.02564103 , 4123.07692308 , 4121.02564103 , 4123.07692308 , 4122.56410256 , 4121.02564103 , 4124.61538462 , 4123.58974359 , 4120.51282051 , 4133.33333333 , 4120.0 , 4044.1025641 , 4126.66666667 , 4116.92307692 , 2043.0 , 2034.0 , 142.319 , 0.0 , 0.0 , 0.0 , 0.0 , 

51.0 , 4121.53846154 , 4122.56410256 , 4122.56410256 , 4124.1025641 , 4124.1025641 , 4120.51282051 , 4120.0 , 4121.53846154 , 4122.56410256 , 4133.33333333 , 4116.92307692 , 4041.53846154 , 4122.56410256 , 4116.41025641 , 2045.0 , 2034.0 , 142.328 , 0.0 , 0.0 , 0.0 , 0.0 , 

52.0 , 4120.51282051 , 4121.02564103 , 4123.58974359 , 4123.58974359 , 4123.07692308 , 4122.56410256 , 4120.51282051 , 4120.51282051 , 4124.1025641 , 4133.33333333 , 4120.0 , 4038.46153846 , 4125.12820513 , 4115.8974359 , 2044.0 , 2034.0 , 142.336 , 0.0 , 0.0 , 0.0 , 0.0 , 

53.0 , 4118.97435897 , 4119.48717949 , 4122.05128205 , 4123.07692308 , 4121.02564103 , 4122.05128205 , 4126.66666667 , 4121.53846154 , 4120.51282051 , 4133.33333333 , 4121.53846154 , 4040.0 , 4129.74358974 , 4114.87179487 , 2045.0 , 2034.0 , 142.344 , 0.0 , 0.0 , 0.0 , 0.0 , 

54.0 , 4123.07692308 , 4117.94871795 , 4123.07692308 , 4123.58974359 , 4123.07692308 , 4121.53846154 , 4126.15384615 , 4122.56410256 , 4119.48717949 , 4133.33333333 , 4117.43589744 , 4041.53846154 , 4127.69230769 , 4116.41025641 , 2045.0 , 2031.0 , 142.351 , 0.0 , 0.0 , 0.0 , 0.0 , 

55.0 , 4124.1025641 , 4118.97435897 , 4124.1025641 , 4120.0 , 4124.1025641 , 4123.58974359 , 4121.02564103 , 4121.53846154 , 4122.56410256 , 4133.33333333 , 4116.41025641 , 4042.05128205 , 4127.17948718 , 4117.94871795 , 2043.0 , 2032.0 , 142.352 , 0.0 , 0.0 , 0.0 , 0.0 , 

56.0 , 4121.53846154 , 4124.61538462 , 4123.07692308 , 4121.02564103 , 4123.58974359 , 4120.51282051 , 4120.51282051 , 4120.51282051 , 4123.07692308 , 4133.33333333 , 4118.97435897 , 4042.05128205 , 4126.15384615 , 4117.43589744 , 2045.0 , 2031.0 , 142.368 , 0.0 , 0.0 , 0.0 , 0.0 , 

57.0 , 4121.53846154 , 4123.58974359 , 4122.05128205 , 4125.64102564 , 4122.05128205 , 4117.43589744 , 4122.56410256 , 4121.53846154 , 4122.05128205 , 4133.33333333 , 4118.46153846 , 4040.51282051 , 4122.56410256 , 4116.92307692 , 2044.0 , 2031.0 , 142.368 , 0.0 , 0.0 , 0.0 , 0.0 , 

58.0 , 4121.53846154 , 4121.02564103 , 4123.07692308 , 4122.05128205 , 4121.53846154 , 4119.48717949 , 4120.51282051 , 4122.05128205 , 4122.56410256 , 4133.33333333 , 4116.92307692 , 4040.51282051 , 4123.58974359 , 4117.43589744 , 2045.0 , 2031.0 , 142.368 , 0.0 , 0.0 , 0.0 , 0.0 , 

59.0 , 4121.53846154 , 4124.61538462 , 4123.07692308 , 4117.94871795 , 4123.58974359 , 4122.56410256 , 4118.46153846 , 4121.53846154 , 4123.07692308 , 4133.33333333 , 4117.94871795 , 4043.58974359 , 4125.64102564 , 4116.41025641 , 2045.0 , 2031.0 , 142.383 , 0.0 , 0.0 , 0.0 , 0.0 , 

60.0 , 4121.02564103 , 4122.56410256 , 4122.05128205 , 4122.05128205 , 4125.64102564 , 4123.07692308 , 4121.53846154 , 4121.02564103 , 4122.05128205 , 4133.33333333 , 4118.46153846 , 4045.64102564 , 4127.17948718 , 4115.38461538 , 2046.0 , 2032.0 , 142.383 , 0.0 , 0.0 , 0.0 , 0.0 , 

61.0 , 4120.51282051 , 4117.94871795 , 4122.05128205 , 4126.66666667 , 4123.07692308 , 4121.53846154 , 4123.58974359 , 4120.51282051 , 4121.53846154 , 4133.33333333 , 4120.0 , 4043.07692308 , 4127.69230769 , 4117.94871795 , 2046.0 , 2032.0 , 142.399 , 0.0 , 0.0 , 0.0 , 0.0 , 

62.0 , 4121.02564103 , 4122.56410256 , 4121.53846154 , 4124.61538462 , 4121.02564103 , 4119.48717949 , 4119.48717949 , 4120.0 , 4125.12820513 , 4133.33333333 , 4121.02564103 , 4041.02564103 , 4127.69230769 , 4118.46153846 , 2047.0 , 2031.0 , 142.414 , 0.0 , 0.0 , 0.0 , 0.0 , 

63.0 , 4122.56410256 , 4125.64102564 , 4123.07692308 , 4123.07692308 , 4122.56410256 , 4121.02564103 , 4119.48717949 , 4120.51282051 , 4124.1025641 , 4133.33333333 , 4118.97435897 , 4044.1025641 , 4126.66666667 , 4117.43589744 , 2048.0 , 2033.0 , 142.414 , 0.0 , 0.0 , 0.0 , 0.0 , 

64.0 , 4120.0 , 4120.51282051 , 4121.53846154 , 4124.61538462 , 4123.07692308 , 4123.58974359 , 4121.53846154 , 4120.51282051 , 4118.46153846 , 4133.33333333 , 4118.46153846 , 4044.1025641 , 4129.74358974 , 4116.41025641 , 2047.0 , 2032.0 , 142.43 , 0.0 , 0.0 , 0.0 , 0.0 , 

65.0 , 4122.05128205 , 4120.51282051 , 4120.0 , 4126.66666667 , 4123.58974359 , 4120.51282051 , 4117.94871795 , 4120.51282051 , 4118.97435897 , 4133.33333333 , 4121.02564103 , 4040.51282051 , 4126.66666667 , 4115.38461538 , 2048.0 , 2031.0 , 142.43 , 0.0 , 0.0 , 0.0 , 0.0 , 

66.0 , 4124.1025641 , 4122.56410256 , 4122.05128205 , 4124.1025641 , 4122.56410256 , 4118.46153846 , 4115.38461538 , 4122.05128205 , 4122.56410256 , 4133.33333333 , 4122.05128205 , 4039.48717949 , 4124.61538462 , 4114.35897436 , 2048.0 , 2033.0 , 142.446 , 0.0 , 0.0 , 0.0 , 0.0 , 

67.0 , 4123.07692308 , 4121.02564103 , 4127.17948718 , 4122.05128205 , 4121.53846154 , 4121.53846154 , 4121.02564103 , 4123.07692308 , 4121.53846154 , 4133.33333333 , 4121.02564103 , 4041.53846154 , 4124.1025641 , 4114.35897436 , 2047.0 , 2031.0 , 142.446 , 0.0 , 0.0 , 0.0 , 0.0 , 

68.0 , 4120.51282051 , 4122.05128205 , 4125.64102564 , 4125.64102564 , 4124.1025641 , 4123.07692308 , 4122.05128205 , 4122.56410256 , 4121.53846154 , 4133.33333333 , 4118.97435897 , 4041.53846154 , 4125.12820513 , 4112.30769231 , 2047.0 , 2031.0 , 142.461 , 0.0 , 0.0 , 0.0 , 0.0 , 

69.0 , 4122.05128205 , 4125.64102564 , 4122.56410256 , 4125.64102564 , 4124.61538462 , 4122.05128205 , 4116.92307692 , 4122.56410256 , 4123.07692308 , 4133.33333333 , 4117.94871795 , 4041.02564103 , 4124.61538462 , 4113.84615385 , 2046.0 , 2029.0 , 142.461 , 0.0 , 0.0 , 0.0 , 0.0 , 

70.0 , 4122.56410256 , 4123.58974359 , 4121.53846154 , 4121.53846154 , 4121.02564103 , 4120.51282051 , 4116.92307692 , 4122.05128205 , 4121.53846154 , 4133.84615385 , 4118.97435897 , 4041.53846154 , 4125.64102564 , 4117.43589744 , 2045.0 , 2029.0 , 142.477 , 0.0 , 0.0 , 0.0 , 0.0 , 

71.0 , 4124.61538462 , 4119.48717949 , 4123.07692308 , 4123.58974359 , 4121.02564103 , 4122.05128205 , 4123.07692308 , 4122.56410256 , 4122.05128205 , 4133.33333333 , 4117.43589744 , 4041.53846154 , 4123.07692308 , 4115.8974359 , 2045.0 , 2028.0 , 142.477 , 0.0 , 0.0 , 0.0 , 0.0 , 

72.0 , 4124.1025641 , 4120.0 , 4124.61538462 , 4125.12820513 , 4124.1025641 , 4123.58974359 , 4124.1025641 , 4122.56410256 , 4123.07692308 , 4132.30769231 , 4116.41025641 , 4042.05128205 , 4122.56410256 , 4113.84615385 , 2045.0 , 2031.0 , 142.493 , 0.0 , 0.0 , 0.0 , 0.0 , 

73.0 , 4121.02564103 , 4123.07692308 , 4125.64102564 , 4121.53846154 , 4124.1025641 , 4121.02564103 , 4121.02564103 , 4120.51282051 , 4121.02564103 , 4133.84615385 , 4117.94871795 , 4042.56410256 , 4126.15384615 , 4115.8974359 , 2043.0 , 2029.0 , 142.493 , 0.0 , 0.0 , 0.0 , 0.0 , 

74.0 , 4120.51282051 , 4121.53846154 , 4126.66666667 , 4119.48717949 , 4122.05128205 , 4118.46153846 , 4121.02564103 , 4120.0 , 4121.53846154 , 4133.33333333 , 4118.46153846 , 4041.53846154 , 4129.23076923 , 4115.8974359 , 2043.0 , 2031.0 , 142.508 , 0.0 , 0.0 , 0.0 , 0.0 , 

75.0 , 4123.07692308 , 4119.48717949 , 4125.12820513 , 4123.58974359 , 4122.05128205 , 4120.51282051 , 4123.58974359 , 4120.51282051 , 4123.07692308 , 4124.1025641 , 4115.38461538 , 4040.51282051 , 4126.66666667 , 4114.35897436 , 2043.0 , 2033.0 , 142.508 , 0.0 , 0.0 , 0.0 , 0.0 , 

76.0 , 4124.1025641 , 4119.48717949 , 4121.53846154 , 4124.1025641 , 4123.58974359 , 4124.1025641 , 4124.61538462 , 4121.02564103 , 4122.56410256 , 4119.48717949 , 4115.38461538 , 4041.53846154 , 4122.05128205 , 4115.38461538 , 2043.0 , 2034.0 , 142.524 , 0.0 , 0.0 , 0.0 , 0.0 , 

77.0 , 4122.05128205 , 4121.02564103 , 4121.53846154 , 4123.07692308 , 4123.58974359 , 4124.1025641 , 4121.02564103 , 4120.51282051 , 4122.05128205 , 4128.71794872 , 4116.92307692 , 4043.58974359 , 4124.1025641 , 4115.38461538 , 2042.0 , 2032.0 , 142.524 , 0.0 , 0.0 , 0.0 , 0.0 , 

78.0 , 4121.53846154 , 4124.61538462 , 4124.1025641 , 4125.64102564 , 4123.58974359 , 4122.56410256 , 4121.02564103 , 4121.02564103 , 4122.05128205 , 4136.41025641 , 4115.38461538 , 4042.56410256 , 4128.20512821 , 4114.87179487 , 2043.0 , 2032.0 , 142.539 , 0.0 , 0.0 , 0.0 , 0.0 , 

79.0 , 4122.56410256 , 4123.07692308 , 4122.56410256 , 4126.15384615 , 4124.1025641 , 4120.51282051 , 4124.1025641 , 4121.02564103 , 4123.07692308 , 4135.38461538 , 4114.35897436 , 4041.02564103 , 4128.20512821 , 4115.8974359 , 2044.0 , 2031.0 , 142.539 , 0.0 , 0.0 , 0.0 , 0.0 , 

80.0 , 4122.56410256 , 4117.94871795 , 4120.0 , 4123.07692308 , 4123.58974359 , 4119.48717949 , 4123.07692308 , 4121.02564103 , 4124.1025641 , 4134.87179487 , 4115.8974359 , 4044.1025641 , 4122.56410256 , 4117.43589744 , 2043.0 , 2031.0 , 142.555 , 0.0 , 0.0 , 0.0 , 0.0 , 

81.0 , 4121.02564103 , 4118.46153846 , 4121.02564103 , 4122.05128205 , 4121.02564103 , 4122.05128205 , 4119.48717949 , 4121.02564103 , 4122.05128205 , 4135.8974359 , 4117.94871795 , 4044.61538462 , 4125.64102564 , 4115.38461538 , 2047.0 , 2035.0 , 142.555 , 0.0 , 0.0 , 0.0 , 0.0 , 

82.0 , 4122.56410256 , 4121.53846154 , 4121.53846154 , 4123.58974359 , 4123.58974359 , 4123.58974359 , 4122.56410256 , 4121.53846154 , 4121.02564103 , 4134.35897436 , 4117.94871795 , 4040.51282051 , 4129.23076923 , 4112.82051282 , 2047.0 , 2035.0 , 142.571 , 0.0 , 0.0 , 0.0 , 0.0 , 

83.0 , 4122.56410256 , 4119.48717949 , 4119.48717949 , 4125.12820513 , 4123.07692308 , 4121.53846154 , 4123.58974359 , 4120.51282051 , 4122.05128205 , 4134.35897436 , 4116.41025641 , 4040.0 , 4128.71794872 , 4114.87179487 , 2048.0 , 2037.0 , 142.571 , 0.0 , 0.0 , 0.0 , 0.0 , 

84.0 , 4123.58974359 , 4121.02564103 , 4121.53846154 , 4126.15384615 , 4119.48717949 , 4118.46153846 , 4118.46153846 , 4120.51282051 , 4121.02564103 , 4134.35897436 , 4117.94871795 , 4042.05128205 , 4125.12820513 , 4117.43589744 , 2049.0 , 2038.0 , 142.586 , 0.0 , 0.0 , 0.0 , 0.0 , 

85.0 , 4123.07692308 , 4123.07692308 , 4123.07692308 , 4123.07692308 , 4121.02564103 , 4118.97435897 , 4117.94871795 , 4122.05128205 , 4122.05128205 , 4134.35897436 , 4119.48717949 , 4041.02564103 , 4127.69230769 , 4114.87179487 , 2049.0 , 2039.0 , 142.586 , 0.0 , 0.0 , 0.0 , 0.0 , 

86.0 , 4120.51282051 , 4119.48717949 , 4124.1025641 , 4121.53846154 , 4125.12820513 , 4123.07692308 , 4122.56410256 , 4121.53846154 , 4123.07692308 , 4134.35897436 , 4118.46153846 , 4042.56410256 , 4128.71794872 , 4113.84615385 , 2049.0 , 2037.0 , 142.602 , 0.0 , 0.0 , 0.0 , 0.0 , 

87.0 , 4119.48717949 , 4121.02564103 , 4123.07692308 , 4124.1025641 , 4123.58974359 , 4124.1025641 , 4123.07692308 , 4119.48717949 , 4121.02564103 , 4134.35897436 , 4118.97435897 , 4045.12820513 , 4128.71794872 , 4114.87179487 , 2048.0 , 2036.0 , 142.602 , 0.0 , 0.0 , 0.0 , 0.0 , 

88.0 , 4121.53846154 , 4126.66666667 , 4121.53846154 , 4124.61538462 , 4122.05128205 , 4121.53846154 , 4121.53846154 , 4120.51282051 , 4120.0 , 4134.35897436 , 4119.48717949 , 4042.05128205 , 4127.17948718 , 4116.92307692 , 2047.0 , 2035.0 , 142.618 , 0.0 , 0.0 , 0.0 , 0.0 , 

89.0 , 4121.02564103 , 4124.61538462 , 4118.97435897 , 4121.53846154 , 4125.12820513 , 4120.51282051 , 4122.05128205 , 4121.53846154 , 4120.51282051 , 4134.35897436 , 4117.94871795 , 4040.51282051 , 4130.76923077 , 4117.43589744 , 2045.0 , 2036.0 , 142.618 , 0.0 , 0.0 , 0.0 , 0.0 , 

90.0 , 4118.97435897 , 4120.51282051 , 4122.05128205 , 4120.0 , 4124.1025641 , 4121.02564103 , 4120.51282051 , 4120.51282051 , 4121.02564103 , 4134.35897436 , 4116.92307692 , 4044.1025641 , 4132.82051282 , 4114.87179487 , 2044.0 , 2037.0 , 142.635 , 0.0 , 0.0 , 0.0 , 0.0 , 

91.0 , 4119.48717949 , 4121.02564103 , 4124.1025641 , 4121.02564103 , 4120.51282051 , 4121.02564103 , 4118.97435897 , 4122.05128205 , 4122.05128205 , 4134.35897436 , 4118.97435897 , 4044.61538462 , 4128.71794872 , 4113.33333333 , 2043.0 , 2039.0 , 142.642 , 0.0 , 0.0 , 0.0 , 0.0 , 

92.0 , 4122.05128205 , 4124.1025641 , 4120.0 , 4124.1025641 , 4121.53846154 , 4121.02564103 , 4121.53846154 , 4123.07692308 , 4122.05128205 , 4134.35897436 , 4118.46153846 , 4044.1025641 , 4127.69230769 , 4115.8974359 , 2042.0 , 2040.0 , 142.65 , 0.0 , 0.0 , 0.0 , 0.0 , 

93.0 , 4121.53846154 , 4123.07692308 , 4117.43589744 , 4125.12820513 , 4126.15384615 , 4120.51282051 , 4124.61538462 , 4121.53846154 , 4122.05128205 , 4134.35897436 , 4115.8974359 , 4043.58974359 , 4131.28205128 , 4115.38461538 , 2043.0 , 2040.0 , 142.658 , 0.0 , 0.0 , 0.0 , 0.0 , 

94.0 , 4118.97435897 , 4121.53846154 , 4121.53846154 , 4123.58974359 , 4124.61538462 , 4120.0 , 4122.56410256 , 4122.05128205 , 4123.07692308 , 4134.35897436 , 4117.43589744 , 4042.56410256 , 4131.28205128 , 4113.33333333 , 2043.0 , 2038.0 , 142.666 , 0.0 , 0.0 , 0.0 , 0.0 , 

95.0 , 4118.97435897 , 4120.51282051 , 4123.58974359 , 4124.1025641 , 4119.48717949 , 4119.48717949 , 4120.0 , 4122.05128205 , 4123.07692308 , 4134.35897436 , 4119.48717949 , 4043.07692308 , 4129.74358974 , 4115.8974359 , 2044.0 , 2036.0 , 142.674 , 0.0 , 0.0 , 0.0 , 0.0 , 

96.0 , 4120.0 , 4121.02564103 , 4122.05128205 , 4123.58974359 , 4120.0 , 4120.51282051 , 4120.0 , 4120.51282051 , 4122.56410256 , 4134.35897436 , 4117.43589744 , 4044.1025641 , 4132.82051282 , 4117.43589744 , 2045.0 , 2034.0 , 142.682 , 0.0 , 0.0 , 0.0 , 0.0 , 

97.0 , 4120.0 , 4124.1025641 , 4125.64102564 , 4121.53846154 , 4123.58974359 , 4121.53846154 , 4120.51282051 , 4121.02564103 , 4120.51282051 , 4134.35897436 , 4117.43589744 , 4042.56410256 , 4133.84615385 , 4114.87179487 , 2063.0 , 2033.0 , 142.69 , 0.0 , 0.0 , 0.0 , 0.0 , 

98.0 , 4120.51282051 , 4123.07692308 , 4127.69230769 , 4122.56410256 , 4122.05128205 , 4120.51282051 , 4121.02564103 , 4122.05128205 , 4117.94871795 , 4134.35897436 , 4117.94871795 , 4042.56410256 , 4134.35897436 , 4115.38461538 , 2047.0 , 2032.0 , 142.698 , 0.0 , 0.0 , 0.0 , 0.0 , 

99.0 , 4121.53846154 , 4121.02564103 , 4124.1025641 , 4121.02564103 , 4120.0 , 4119.48717949 , 4124.1025641 , 4122.05128205 , 4119.48717949 , 4134.35897436 , 4115.38461538 , 4046.66666667 , 4133.84615385 , 4117.43589744 , 2047.0 , 2031.0 , 142.706 , 0.0 , 0.0 , 0.0 , 0.0 , 

100.0 , 4121.53846154 , 4122.05128205 , 4123.07692308 , 4120.51282051 , 4122.56410256 , 4119.48717949 , 4124.1025641 , 4121.53846154 , 4122.05128205 , 4134.35897436 , 4115.8974359 , 4047.69230769 , 4133.33333333 , 4114.35897436 , 2048.0 , 2028.0 , 142.713 , 0.0 , 0.0 , 0.0 , 0.0 , 

101.0 , 4123.58974359 , 4125.64102564 , 4125.64102564 , 4122.56410256 , 4123.07692308 , 4121.02564103 , 4120.0 , 4120.0 , 4121.02564103 , 4134.35897436 , 4119.48717949 , 4044.1025641 , 4129.74358974 , 4114.35897436 , 2047.0 , 2030.0 , 142.722 , 0.0 , 0.0 , 0.0 , 0.0 , 

102.0 , 4125.12820513 , 4121.53846154 , 4122.05128205 , 4121.53846154 , 4120.0 , 4120.0 , 4117.43589744 , 4121.53846154 , 4120.0 , 4134.35897436 , 4119.48717949 , 4040.51282051 , 4126.66666667 , 4118.97435897 , 2046.0 , 2031.0 , 142.729 , 0.0 , 0.0 , 0.0 , 0.0 , 

103.0 , 4125.64102564 , 4117.43589744 , 4120.0 , 4122.05128205 , 4121.53846154 , 4120.51282051 , 4122.56410256 , 4123.58974359 , 4121.02564103 , 4134.35897436 , 4117.94871795 , 4042.56410256 , 4124.61538462 , 4118.97435897 , 2046.0 , 2032.0 , 142.737 , 0.0 , 0.0 , 0.0 , 0.0 , 

104.0 , 4124.61538462 , 4119.48717949 , 4121.02564103 , 4126.15384615 , 4122.56410256 , 4123.07692308 , 4125.12820513 , 4123.07692308 , 4122.05128205 , 4134.35897436 , 4117.94871795 , 4043.58974359 , 4128.71794872 , 4114.35897436 , 2044.0 , 2031.0 , 142.745 , 0.0 , 0.0 , 0.0 , 0.0 , 

105.0 , 4124.61538462 , 4122.56410256 , 4122.56410256 , 4127.17948718 , 4122.05128205 , 4122.56410256 , 4122.05128205 , 4123.58974359 , 4122.56410256 , 4134.87179487 , 4117.43589744 , 4041.53846154 , 4128.20512821 , 4116.41025641 , 2044.0 , 2032.0 , 142.753 , 0.0 , 0.0 , 0.0 , 0.0 , 

106.0 , 4123.58974359 , 4124.1025641 , 4121.53846154 , 4124.61538462 , 4122.05128205 , 4119.48717949 , 4121.53846154 , 4121.53846154 , 4122.05128205 , 4134.35897436 , 4118.46153846 , 4041.02564103 , 4124.61538462 , 4118.46153846 , 2044.0 , 2033.0 , 142.761 , 0.0 , 0.0 , 0.0 , 0.0 , 

107.0 , 4123.58974359 , 4125.64102564 , 4123.07692308 , 4125.64102564 , 4124.1025641 , 4122.05128205 , 4122.05128205 , 4120.51282051 , 4122.56410256 , 4133.33333333 , 4118.46153846 , 4043.58974359 , 4123.07692308 , 4117.43589744 , 2042.0 , 2031.0 , 142.769 , 0.0 , 0.0 , 0.0 , 0.0 , 

108.0 , 4122.56410256 , 4124.61538462 , 4123.58974359 , 4124.61538462 , 4124.1025641 , 4124.1025641 , 4117.43589744 , 4122.56410256 , 4122.56410256 , 4136.41025641 , 4115.8974359 , 4045.12820513 , 4126.15384615 , 4114.87179487 , 2041.0 , 2032.0 , 142.776 , 0.0 , 0.0 , 0.0 , 0.0 , 

109.0 , 4121.53846154 , 4122.56410256 , 4123.07692308 , 4121.53846154 , 4122.56410256 , 4123.07692308 , 4115.8974359 , 4123.58974359 , 4121.02564103 , 4132.30769231 , 4117.43589744 , 4043.58974359 , 4127.17948718 , 4116.41025641 , 2040.0 , 2032.0 , 142.785 , 0.0 , 0.0 , 0.0 , 0.0 , 

110.0 , 4121.02564103 , 4123.07692308 , 4123.07692308 , 4122.05128205 , 4121.53846154 , 4123.07692308 , 4120.0 , 4121.53846154 , 4122.56410256 , 4124.1025641 , 4119.48717949 , 4041.02564103 , 4127.69230769 , 4118.97435897 , 2040.0 , 2033.0 , 142.793 , 0.0 , 0.0 , 0.0 , 0.0 , 

111.0 , 4123.58974359 , 4125.12820513 , 4124.61538462 , 4124.1025641 , 4123.07692308 , 4119.48717949 , 4122.56410256 , 4120.51282051 , 4124.61538462 , 4128.71794872 , 4120.0 , 4040.0 , 4128.71794872 , 4117.94871795 , 2039.0 , 2032.0 , 142.801 , 0.0 , 0.0 , 0.0 , 0.0 , 

112.0 , 4124.1025641 , 4123.58974359 , 4123.58974359 , 4124.61538462 , 4127.17948718 , 4117.43589744 , 4121.02564103 , 4121.53846154 , 4121.02564103 , 4134.87179487 , 4118.97435897 , 4042.05128205 , 4128.71794872 , 4115.8974359 , 2039.0 , 2031.0 , 142.802 , 0.0 , 0.0 , 0.0 , 0.0 , 

113.0 , 4121.53846154 , 4123.58974359 , 4123.58974359 , 4123.58974359 , 4125.64102564 , 4121.02564103 , 4120.0 , 4124.1025641 , 4119.48717949 , 4129.74358974 , 4117.94871795 , 4042.56410256 , 4126.66666667 , 4115.8974359 , 2037.0 , 2030.0 , 142.802 , 0.0 , 0.0 , 0.0 , 0.0 , 

114.0 , 4122.56410256 , 4125.64102564 , 4125.64102564 , 4122.56410256 , 4121.53846154 , 4121.53846154 , 4120.51282051 , 4124.1025641 , 4120.0 , 4127.17948718 , 4119.48717949 , 4040.51282051 , 4123.58974359 , 4117.43589744 , 2040.0 , 2032.0 , 142.818 , 0.0 , 0.0 , 0.0 , 0.0 , 

115.0 , 4122.56410256 , 4124.61538462 , 4123.07692308 , 4123.58974359 , 4121.02564103 , 4117.94871795 , 4121.53846154 , 4121.02564103 , 4117.94871795 , 4130.76923077 , 4120.51282051 , 4041.02564103 , 4126.15384615 , 4117.94871795 , 2040.0 , 2033.0 , 142.818 , 0.0 , 0.0 , 0.0 , 0.0 , 

116.0 , 4121.02564103 , 4122.05128205 , 4121.02564103 , 4125.64102564 , 4123.07692308 , 4120.51282051 , 4123.07692308 , 4120.51282051 , 4117.94871795 , 4130.25641026 , 4115.38461538 , 4043.07692308 , 4127.69230769 , 4117.94871795 , 2042.0 , 2031.0 , 142.833 , 0.0 , 0.0 , 0.0 , 0.0 , 

117.0 , 4121.02564103 , 4122.56410256 , 4123.58974359 , 4126.15384615 , 4123.07692308 , 4121.02564103 , 4120.51282051 , 4121.53846154 , 4122.05128205 , 4127.69230769 , 4115.8974359 , 4043.58974359 , 4128.20512821 , 4116.41025641 , 2042.0 , 2032.0 , 142.833 , 0.0 , 0.0 , 0.0 , 0.0 , 

118.0 , 4124.61538462 , 4124.1025641 , 4125.12820513 , 4124.1025641 , 4121.02564103 , 4117.94871795 , 4117.94871795 , 4120.51282051 , 4123.58974359 , 4129.23076923 , 4122.05128205 , 4044.61538462 , 4127.17948718 , 4115.38461538 , 2043.0 , 2031.0 , 142.849 , 0.0 , 0.0 , 0.0 , 0.0 , 

119.0 , 4123.58974359 , 4122.56410256 , 4123.07692308 , 4123.58974359 , 4120.0 , 4118.97435897 , 4120.0 , 4121.02564103 , 4122.56410256 , 4129.74358974 , 4119.48717949 , 4044.61538462 , 4127.17948718 , 4115.38461538 , 2043.0 , 2030.0 , 142.863 , 0.0 , 0.0 , 0.0 , 0.0 , 

120.0 , 4122.56410256 , 4120.51282051 , 4122.05128205 , 4126.15384615 , 4121.02564103 , 4124.61538462 , 4125.12820513 , 4123.07692308 , 4122.05128205 , 4130.25641026 , 4117.43589744 , 4044.61538462 , 4125.12820513 , 4116.92307692 , 2043.0 , 2033.0 , 142.865 , 0.0 , 0.0 , 0.0 , 0.0 , 

121.0 , 4122.56410256 , 4120.51282051 , 4119.48717949 , 4124.1025641 , 4123.07692308 , 4122.56410256 , 4125.64102564 , 4121.53846154 , 4121.53846154 , 4129.74358974 , 4122.56410256 , 4043.58974359 , 4126.15384615 , 4117.43589744 , 2044.0 , 2036.0 , 142.865 , 0.0 , 0.0 , 0.0 , 0.0 , 

122.0 , 4123.07692308 , 4124.1025641 , 4121.02564103 , 4123.58974359 , 4124.61538462 , 4117.43589744 , 4122.56410256 , 4121.02564103 , 4122.56410256 , 4130.25641026 , 4120.0 , 4041.53846154 , 4124.1025641 , 4115.8974359 , 2044.0 , 2036.0 , 142.887 , 0.0 , 0.0 , 0.0 , 0.0 , 

123.0 , 4122.05128205 , 4124.61538462 , 4123.07692308 , 4128.20512821 , 4123.58974359 , 4117.94871795 , 4121.02564103 , 4122.05128205 , 4124.1025641 , 4130.25641026 , 4114.35897436 , 4042.05128205 , 4123.58974359 , 4114.87179487 , 2044.0 , 2038.0 , 142.896 , 0.0 , 0.0 , 0.0 , 0.0 , 

124.0 , 4123.07692308 , 4120.51282051 , 4123.58974359 , 4128.71794872 , 4122.05128205 , 4118.97435897 , 4122.05128205 , 4122.05128205 , 4122.05128205 , 4130.25641026 , 4117.94871795 , 4043.58974359 , 4125.64102564 , 4116.92307692 , 2043.0 , 2039.0 , 142.902 , 0.0 , 0.0 , 0.0 , 0.0 , 

125.0 , 4122.05128205 , 4118.46153846 , 4124.61538462 , 4122.05128205 , 4122.05128205 , 4117.43589744 , 4122.56410256 , 4122.56410256 , 4120.51282051 , 4130.25641026 , 4121.02564103 , 4041.02564103 , 4127.17948718 , 4115.8974359 , 2043.0 , 2040.0 , 142.911 , 0.0 , 0.0 , 0.0 , 0.0 , 

126.0 , 4119.48717949 , 4121.53846154 , 4126.66666667 , 4121.53846154 , 4123.58974359 , 4119.48717949 , 4121.02564103 , 4122.56410256 , 4120.51282051 , 4130.25641026 , 4119.48717949 , 4041.53846154 , 4126.15384615 , 4115.8974359 , 2043.0 , 2040.0 , 142.919 , 0.0 , 0.0 , 0.0 , 0.0 , 

127.0 , 4120.0 , 4123.58974359 , 4122.56410256 , 4125.12820513 , 4123.07692308 , 4122.05128205 , 4122.05128205 , 4121.02564103 , 4122.05128205 , 4130.25641026 , 4118.97435897 , 4045.12820513 , 4130.25641026 , 4119.48717949 , 2042.0 , 2039.0 , 142.926 , 0.0 , 0.0 , 0.0 , 0.0 , 

128.0 , 4123.07692308 , 4121.02564103 , 4121.02564103 , 4124.1025641 , 4121.02564103 , 4120.51282051 , 4124.61538462 , 4120.0 , 4122.05128205 , 4130.25641026 , 4119.48717949 , 4044.61538462 , 4130.25641026 , 4120.0 , 2041.0 , 2040.0 , 142.926 , 0.0 , 0.0 , 0.0 , 0.0 , 

0.0 , 4122.56410256 , 4117.94871795 , 4124.61538462 , 4120.51282051 , 4121.53846154 , 4120.51282051 , 4121.02564103 , 4120.51282051 , 4121.02564103 , 4130.25641026 , 4120.51282051 , 4042.05128205 , 4126.15384615 , 4115.38461538 , 2041.0 , 2039.0 , 142.942 , 0.0 , 0.0 , 0.0 , 0.0 , 

1.0 , 4121.02564103 , 4122.05128205 , 4126.15384615 , 4122.56410256 , 4124.1025641 , 4121.02564103 , 4120.51282051 , 4120.51282051 , 4121.02564103 , 4130.25641026 , 4121.02564103 , 4041.02564103 , 4126.15384615 , 4115.8974359 , 2040.0 , 2038.0 , 142.942 , 0.0 , 0.0 , 0.0 , 0.0 , 

2.0 , 4121.53846154 , 4127.17948718 , 4121.53846154 , 4124.61538462 , 4125.12820513 , 4117.94871795 , 4125.12820513 , 4121.02564103 , 4122.56410256 , 4130.25641026 , 4118.46153846 , 4039.48717949 , 4127.17948718 , 4119.48717949 , 2040.0 , 2036.0 , 142.957 , 0.0 , 0.0 , 0.0 , 0.0 , 

3.0 , 4123.07692308 , 4123.58974359 , 4119.48717949 , 4123.58974359 , 4123.07692308 , 4118.97435897 , 4124.61538462 , 4122.56410256 , 4122.56410256 , 4130.25641026 , 4115.8974359 , 4040.51282051 , 4126.15384615 , 4118.97435897 , 2039.0 , 2035.0 , 142.957 , 0.0 , 0.0 , 0.0 , 0.0 , 

4.0 , 4124.61538462 , 4120.0 , 4122.56410256 , 4123.07692308 , 4121.53846154 , 4123.58974359 , 4121.53846154 , 4121.53846154 , 4122.56410256 , 4130.25641026 , 4116.92307692 , 4043.58974359 , 4127.17948718 , 4116.92307692 , 2039.0 , 2034.0 , 142.973 , 0.0 , 0.0 , 0.0 , 0.0 , 

5.0 , 4124.1025641 , 4121.02564103 , 4122.56410256 , 4124.61538462 , 4121.02564103 , 4123.07692308 , 4118.46153846 , 4120.0 , 4122.05128205 , 4130.25641026 , 4119.48717949 , 4042.56410256 , 4127.69230769 , 4116.92307692 , 2041.0 , 2034.0 , 142.973 , 0.0 , 0.0 , 0.0 , 0.0 , 

6.0 , 4123.58974359 , 4120.0 , 4121.02564103 , 4123.58974359 , 4120.0 , 4120.51282051 , 4117.43589744 , 4120.51282051 , 4118.97435897 , 4130.25641026 , 4120.51282051 , 4039.48717949 , 4124.61538462 , 4118.46153846 , 2041.0 , 2036.0 , 142.989 , 0.0 , 0.0 , 0.0 , 0.0 , 

7.0 , 4123.07692308 , 4121.53846154 , 4122.05128205 , 4122.05128205 , 4121.02564103 , 4120.51282051 , 4117.94871795 , 4123.07692308 , 4117.94871795 , 4128.71794872 , 4118.97435897 , 4041.02564103 , 4126.15384615 , 4117.43589744 , 2041.0 , 2036.0 , 142.993 , 0.0 , 0.0 , 0.0 , 0.0 , 

8.0 , 4124.1025641 , 4125.64102564 , 4124.1025641 , 4124.1025641 , 4123.07692308 , 4121.02564103 , 4118.97435897 , 4123.07692308 , 4120.0 , 4130.25641026 , 4118.46153846 , 4043.58974359 , 4127.69230769 , 4118.46153846 , 2042.0 , 2037.0 , 142.993 , 0.0 , 0.0 , 0.0 , 0.0 , 

9.0 , 4123.58974359 , 4125.64102564 , 4123.58974359 , 4125.64102564 , 4122.56410256 , 4120.0 , 4118.46153846 , 4121.53846154 , 4119.48717949 , 4131.28205128 , 4120.0 , 4045.12820513 , 4128.71794872 , 4118.97435897 , 2043.0 , 2035.0 , 143.009 , 0.0 , 0.0 , 0.0 , 0.0 , 

10.0 , 4124.61538462 , 4124.61538462 , 4124.1025641 , 4125.12820513 , 4122.05128205 , 4121.53846154 , 4118.97435897 , 4121.53846154 , 4118.97435897 , 4124.1025641 , 4117.94871795 , 4046.66666667 , 4126.66666667 , 4117.43589744 , 2044.0 , 2036.0 , 143.009 , 0.0 , 0.0 , 0.0 , 0.0 , 

11.0 , 4122.56410256 , 4123.58974359 , 4123.07692308 , 4123.07692308 , 4121.53846154 , 4122.56410256 , 4116.92307692 , 4121.02564103 , 4122.56410256 , 4121.53846154 , 4115.8974359 , 4045.12820513 , 4128.71794872 , 4115.38461538 , 2043.0 , 2036.0 , 143.025 , 0.0 , 0.0 , 0.0 , 0.0 , 

12.0 , 4121.02564103 , 4123.58974359 , 4125.64102564 , 4123.58974359 , 4122.05128205 , 4120.0 , 4115.38461538 , 4122.05128205 , 4122.56410256 , 4132.30769231 , 4120.0 , 4043.07692308 , 4127.17948718 , 4116.92307692 , 2043.0 , 2037.0 , 143.025 , 0.0 , 0.0 , 0.0 , 0.0 , 

13.0 , 4120.51282051 , 4123.07692308 , 4124.61538462 , 4125.64102564 , 4124.1025641 , 4117.94871795 , 4117.94871795 , 4124.1025641 , 4122.05128205 , 4136.92307692 , 4121.53846154 , 4042.56410256 , 4126.66666667 , 4116.92307692 , 2044.0 , 2037.0 , 143.04 , 0.0 , 0.0 , 0.0 , 0.0 , 

14.0 , 4123.58974359 , 4121.53846154 , 4123.58974359 , 4124.61538462 , 4122.56410256 , 4121.02564103 , 4118.46153846 , 4122.05128205 , 4123.58974359 , 4133.84615385 , 4118.46153846 , 4043.58974359 , 4125.12820513 , 4114.87179487 , 2043.0 , 2036.0 , 143.04 , 0.0 , 0.0 , 0.0 , 0.0 , 

15.0 , 4124.1025641 , 4119.48717949 , 4125.12820513 , 4122.05128205 , 4117.94871795 , 4122.56410256 , 4118.46153846 , 4117.94871795 , 4122.56410256 , 4135.8974359 , 4117.94871795 , 4043.58974359 , 4126.15384615 , 4115.38461538 , 2041.0 , 2036.0 , 143.056 , 0.0 , 0.0 , 0.0 , 0.0 , 

16.0 , 4122.56410256 , 4119.48717949 , 4125.12820513 , 4123.07692308 , 4118.97435897 , 4120.0 , 4122.56410256 , 4117.94871795 , 4119.48717949 , 4138.97435897 , 4116.41025641 , 4042.56410256 , 4128.20512821 , 4116.92307692 , 2041.0 , 2035.0 , 143.056 , 0.0 , 0.0 , 0.0 , 0.0 , 

17.0 , 4121.53846154 , 4120.0 , 4122.05128205 , 4126.66666667 , 4123.58974359 , 4118.46153846 , 4122.56410256 , 4122.05128205 , 4120.0 , 4137.43589744 , 4115.8974359 , 4041.53846154 , 4129.74358974 , 4115.8974359 , 2040.0 , 2034.0 , 143.072 , 0.0 , 0.0 , 0.0 , 0.0 , 

18.0 , 4123.58974359 , 4122.56410256 , 4121.53846154 , 4126.66666667 , 4125.12820513 , 4120.51282051 , 4121.53846154 , 4122.56410256 , 4120.0 , 4137.43589744 , 4117.94871795 , 4041.53846154 , 4127.17948718 , 4115.8974359 , 2040.0 , 2034.0 , 143.072 , 0.0 , 0.0 , 0.0 , 0.0 , 

19.0 , 4125.64102564 , 4123.07692308 , 4120.51282051 , 4124.1025641 , 4122.56410256 , 4123.58974359 , 4122.56410256 , 4121.02564103 , 4118.46153846 , 4137.94871795 , 4117.43589744 , 4042.05128205 , 4126.66666667 , 4116.41025641 , 2037.0 , 2032.0 , 143.087 , 0.0 , 0.0 , 0.0 , 0.0 , 

20.0 , 4123.58974359 , 4118.97435897 , 4120.51282051 , 4123.58974359 , 4121.02564103 , 4125.12820513 , 4120.51282051 , 4122.05128205 , 4118.97435897 , 4137.43589744 , 4117.43589744 , 4040.51282051 , 4129.74358974 , 4115.8974359 , 2036.0 , 2033.0 , 143.087 , 0.0 , 0.0 , 0.0 , 0.0 , 

21.0 , 4121.53846154 , 4119.48717949 , 4124.1025641 , 4124.61538462 , 4124.1025641 , 4123.58974359 , 4119.48717949 , 4120.51282051 , 4122.05128205 , 4137.43589744 , 4120.0 , 4041.53846154 , 4126.66666667 , 4114.87179487 , 2036.0 , 2032.0 , 143.108 , 0.0 , 0.0 , 0.0 , 0.0 , 

22.0 , 4122.56410256 , 4121.02564103 , 4123.07692308 , 4123.58974359 , 4123.58974359 , 4121.02564103 , 4122.05128205 , 4120.0 , 4122.56410256 , 4137.43589744 , 4120.51282051 , 4043.07692308 , 4125.12820513 , 4116.41025641 , 2035.0 , 2032.0 , 143.115 , 0.0 , 0.0 , 0.0 , 0.0 , 

23.0 , 4123.58974359 , 4117.43589744 , 4119.48717949 , 4121.53846154 , 4119.48717949 , 4120.51282051 , 4120.0 , 4122.56410256 , 4121.53846154 , 4137.43589744 , 4118.97435897 , 4043.58974359 , 4126.15384615 , 4117.43589744 , 2035.0 , 2033.0 , 143.123 , 0.0 , 0.0 , 0.0 , 0.0 , 

24.0 , 4123.07692308 , 4119.48717949 , 4121.53846154 , 4122.56410256 , 4119.48717949 , 4117.94871795 , 4117.43589744 , 4123.58974359 , 4121.53846154 , 4137.43589744 , 4119.48717949 , 4042.05128205 , 4126.15384615 , 4116.92307692 , 2038.0 , 2032.0 , 143.131 , 0.0 , 0.0 , 0.0 , 0.0 , 

25.0 , 4123.58974359 , 4125.12820513 , 4124.1025641 , 4122.56410256 , 4120.51282051 , 4116.41025641 , 4121.02564103 , 4121.53846154 , 4122.56410256 , 4137.43589744 , 4120.0 , 4039.48717949 , 4124.61538462 , 4117.43589744 , 2037.0 , 2032.0 , 143.139 , 0.0 , 0.0 , 0.0 , 0.0 , 

26.0 , 4123.07692308 , 4121.53846154 , 4123.07692308 , 4120.0 , 4120.51282051 , 4120.0 , 4123.58974359 , 4122.56410256 , 4122.56410256 , 4137.43589744 , 4120.0 , 4039.48717949 , 4128.71794872 , 4117.43589744 , 2040.0 , 2031.0 , 143.147 , 0.0 , 0.0 , 0.0 , 0.0 , 

27.0 , 4124.1025641 , 4118.97435897 , 4123.07692308 , 4123.07692308 , 4122.56410256 , 4122.05128205 , 4119.48717949 , 4124.1025641 , 4121.02564103 , 4137.43589744 , 4120.51282051 , 4042.05128205 , 4128.20512821 , 4117.43589744 , 2039.0 , 2031.0 , 143.152 , 0.0 , 0.0 , 0.0 , 0.0 , 

28.0 , 4125.12820513 , 4124.1025641 , 4120.51282051 , 4125.64102564 , 4125.12820513 , 4118.97435897 , 4116.92307692 , 4121.02564103 , 4121.02564103 , 4137.43589744 , 4119.48717949 , 4042.56410256 , 4127.69230769 , 4115.38461538 , 2040.0 , 2031.0 , 143.152 , 0.0 , 0.0 , 0.0 , 0.0 , 

29.0 , 4123.58974359 , 4126.15384615 , 4121.53846154 , 4122.05128205 , 4124.61538462 , 4118.46153846 , 4122.56410256 , 4120.51282051 , 4121.02564103 , 4137.43589744 , 4120.51282051 , 4044.1025641 , 4127.69230769 , 4116.41025641 , 2043.0 , 2032.0 , 143.167 , 0.0 , 0.0 , 0.0 , 0.0 , 

30.0 , 4121.02564103 , 4122.56410256 , 4126.15384615 , 4120.51282051 , 4122.56410256 , 4122.56410256 , 4124.61538462 , 4122.56410256 , 4120.51282051 , 4137.43589744 , 4120.0 , 4044.61538462 , 4130.25641026 , 4116.41025641 , 2043.0 , 2031.0 , 143.167 , 0.0 , 0.0 , 0.0 , 0.0 , 

31.0 , 4124.61538462 , 4121.53846154 , 4126.66666667 , 4120.51282051 , 4124.1025641 , 4123.58974359 , 4119.48717949 , 4123.07692308 , 4121.53846154 , 4137.43589744 , 4117.43589744 , 4041.02564103 , 4128.71794872 , 4115.38461538 , 2044.0 , 2033.0 , 143.183 , 0.0 , 0.0 , 0.0 , 0.0 , 

32.0 , 4125.64102564 , 4121.53846154 , 4121.02564103 , 4118.97435897 , 4124.1025641 , 4120.51282051 , 4117.43589744 , 4122.05128205 , 4123.07692308 , 4137.43589744 , 4117.43589744 , 4040.0 , 4128.20512821 , 4115.38461538 , 2046.0 , 2032.0 , 143.183 , 0.0 , 0.0 , 0.0 , 0.0 , 

33.0 , 4122.05128205 , 4122.05128205 , 4123.07692308 , 4122.56410256 , 4124.1025641 , 4121.02564103 , 4121.02564103 , 4121.02564103 , 4123.07692308 , 4137.43589744 , 4118.97435897 , 4042.05128205 , 4128.71794872 , 4114.87179487 , 2048.0 , 2032.0 , 143.199 , 0.0 , 0.0 , 0.0 , 0.0 , 

34.0 , 4121.53846154 , 4123.07692308 , 4125.64102564 , 4124.1025641 , 4124.1025641 , 4122.05128205 , 4120.51282051 , 4121.53846154 , 4121.53846154 , 4137.43589744 , 4117.43589744 , 4041.53846154 , 4128.71794872 , 4113.84615385 , 2049.0 , 2033.0 , 143.199 , 0.0 , 0.0 , 0.0 , 0.0 , 

35.0 , 4126.15384615 , 4122.05128205 , 4123.07692308 , 4122.56410256 , 4125.12820513 , 4122.56410256 , 4118.46153846 , 4122.56410256 , 4121.53846154 , 4137.43589744 , 4116.41025641 , 4040.51282051 , 4126.66666667 , 4115.38461538 , 2049.0 , 2033.0 , 143.217 , 0.0 , 0.0 , 0.0 , 0.0 , 

36.0 , 4125.64102564 , 4121.53846154 , 4124.1025641 , 4123.58974359 , 4124.1025641 , 4122.05128205 , 4119.48717949 , 4121.02564103 , 4122.05128205 , 4137.43589744 , 4117.94871795 , 4039.48717949 , 4128.71794872 , 4114.35897436 , 2048.0 , 2035.0 , 143.226 , 0.0 , 0.0 , 0.0 , 0.0 , 

37.0 , 4118.97435897 , 4123.58974359 , 4124.61538462 , 4124.1025641 , 4123.07692308 , 4121.02564103 , 4120.51282051 , 4120.0 , 4121.53846154 , 4137.43589744 , 4116.41025641 , 4040.0 , 4130.76923077 , 4113.33333333 , 2047.0 , 2033.0 , 143.234 , 0.0 , 0.0 , 0.0 , 0.0 , 

38.0 , 4118.46153846 , 4123.58974359 , 4119.48717949 , 4119.48717949 , 4125.12820513 , 4120.0 , 4119.48717949 , 4121.53846154 , 4121.02564103 , 4137.43589744 , 4115.38461538 , 4043.07692308 , 4128.20512821 , 4114.87179487 , 2047.0 , 2030.0 , 143.243 , 0.0 , 0.0 , 0.0 , 0.0 , 

39.0 , 4122.05128205 , 4122.05128205 , 4121.02564103 , 4118.97435897 , 4126.66666667 , 4121.53846154 , 4116.92307692 , 4122.05128205 , 4121.02564103 , 4137.43589744 , 4116.41025641 , 4043.58974359 , 4127.69230769 , 4116.41025641 , 2046.0 , 2028.0 , 143.245 , 0.0 , 0.0 , 0.0 , 0.0 , 

40.0 , 4120.51282051 , 4121.02564103 , 4125.64102564 , 4122.05128205 , 4125.64102564 , 4123.07692308 , 4115.8974359 , 4122.56410256 , 4119.48717949 , 4137.43589744 , 4116.41025641 , 4042.05128205 , 4130.25641026 , 4114.87179487 , 2043.0 , 2028.0 , 143.245 , 0.0 , 0.0 , 0.0 , 0.0 , 

41.0 , 4118.46153846 , 4122.05128205 , 4121.53846154 , 4121.53846154 , 4123.58974359 , 4123.07692308 , 4119.48717949 , 4123.07692308 , 4117.94871795 , 4137.43589744 , 4116.41025641 , 4042.56410256 , 4130.25641026 , 4115.38461538 , 2042.0 , 2027.0 , 143.261 , 0.0 , 0.0 , 0.0 , 0.0 , 

42.0 , 4120.51282051 , 4123.07692308 , 4120.51282051 , 4121.02564103 , 4120.51282051 , 4124.1025641 , 4122.56410256 , 4121.02564103 , 4121.02564103 , 4137.43589744 , 4120.51282051 , 4044.1025641 , 4127.69230769 , 4114.87179487 , 2040.0 , 2031.0 , 143.261 , 0.0 , 0.0 , 0.0 , 0.0 , 

43.0 , 4120.0 , 4123.58974359 , 4124.61538462 , 4123.07692308 , 4121.02564103 , 4123.07692308 , 4123.58974359 , 4121.02564103 , 4123.07692308 , 4137.43589744 , 4121.02564103 , 4042.05128205 , 4130.25641026 , 4111.28205128 , 2041.0 , 2034.0 , 143.276 , 0.0 , 0.0 , 0.0 , 0.0 , 

44.0 , 4119.48717949 , 4123.58974359 , 4124.1025641 , 4123.58974359 , 4123.07692308 , 4122.05128205 , 4124.61538462 , 4124.61538462 , 4122.05128205 , 4137.43589744 , 4116.41025641 , 4041.02564103 , 4130.25641026 , 4113.84615385 , 2039.0 , 2036.0 , 143.276 , 0.0 , 0.0 , 0.0 , 0.0 , 

45.0 , 4122.05128205 , 4124.61538462 , 4120.51282051 , 4121.02564103 , 4122.56410256 , 4121.53846154 , 4120.51282051 , 4123.58974359 , 4121.53846154 , 4137.43589744 , 4115.8974359 , 4041.02564103 , 4127.17948718 , 4116.92307692 , 2039.0 , 2038.0 , 143.292 , 0.0 , 0.0 , 0.0 , 0.0 , 

46.0 , 4123.58974359 , 4125.12820513 , 4122.05128205 , 4121.53846154 , 4121.02564103 , 4121.53846154 , 4115.8974359 , 4121.02564103 , 4121.02564103 , 4137.43589744 , 4116.92307692 , 4042.56410256 , 4123.07692308 , 4115.38461538 , 2040.0 , 2040.0 , 143.292 , 0.0 , 0.0 , 0.0 , 0.0 , 

47.0 , 4119.48717949 , 4121.02564103 , 4121.53846154 , 4123.58974359 , 4122.05128205 , 4120.0 , 4118.97435897 , 4123.07692308 , 4121.02564103 , 4137.43589744 , 4117.94871795 , 4043.07692308 , 4124.1025641 , 4113.84615385 , 2039.0 , 2039.0 , 143.308 , 0.0 , 0.0 , 0.0 , 0.0 , 

48.0 , 4120.0 , 4119.48717949 , 4124.1025641 , 4122.56410256 , 4122.56410256 , 4118.97435897 , 4120.51282051 , 4123.58974359 , 4120.51282051 , 4137.43589744 , 4120.0 , 4041.53846154 , 4125.64102564 , 4116.41025641 , 2040.0 , 2037.0 , 143.308 , 0.0 , 0.0 , 0.0 , 0.0 , 

49.0 , 4122.05128205 , 4124.61538462 , 4123.58974359 , 4121.02564103 , 4120.0 , 4119.48717949 , 4115.8974359 , 4122.56410256 , 4118.46153846 , 4137.43589744 , 4120.51282051 , 4043.58974359 , 4131.28205128 , 4118.97435897 , 2042.0 , 2037.0 , 143.329 , 0.0 , 0.0 , 0.0 , 0.0 , 

50.0 , 4121.53846154 , 4127.17948718 , 4120.51282051 , 4121.53846154 , 4118.97435897 , 4121.02564103 , 4117.94871795 , 4122.05128205 , 4120.0 , 4137.43589744 , 4118.46153846 , 4046.15384615 , 4132.82051282 , 4120.0 , 2043.0 , 2033.0 , 143.336 , 0.0 , 0.0 , 0.0 , 0.0 , 

51.0 , 4120.0 , 4122.05128205 , 4117.94871795 , 4120.51282051 , 4119.48717949 , 4122.05128205 , 4121.02564103 , 4122.05128205 , 4122.56410256 , 4137.43589744 , 4116.41025641 , 4044.1025641 , 4131.28205128 , 4117.94871795 , 2044.0 , 2033.0 , 143.343 , 0.0 , 0.0 , 0.0 , 0.0 , 

52.0 , 4124.1025641 , 4120.51282051 , 4118.97435897 , 4120.51282051 , 4121.53846154 , 4121.53846154 , 4117.43589744 , 4121.53846154 , 4121.02564103 , 4137.43589744 , 4118.46153846 , 4041.53846154 , 4129.74358974 , 4115.8974359 , 2043.0 , 2032.0 , 143.343 , 0.0 , 0.0 , 0.0 , 0.0 , 

53.0 , 4125.64102564 , 4122.05128205 , 4118.97435897 , 4121.53846154 , 4121.02564103 , 4121.02564103 , 4116.92307692 , 4122.05128205 , 4121.53846154 , 4137.43589744 , 4121.53846154 , 4041.02564103 , 4132.82051282 , 4116.41025641 , 2043.0 , 2032.0 , 143.359 , 0.0 , 0.0 , 0.0 , 0.0 , 

54.0 , 4120.51282051 , 4120.51282051 , 4122.05128205 , 4121.53846154 , 4121.02564103 , 4121.53846154 , 4123.07692308 , 4124.1025641 , 4124.1025641 , 4137.43589744 , 4121.02564103 , 4041.02564103 , 4132.82051282 , 4116.41025641 , 2045.0 , 2034.0 , 143.359 , 0.0 , 0.0 , 0.0 , 0.0 , 

55.0 , 4117.94871795 , 4119.48717949 , 4125.12820513 , 4120.51282051 , 4124.61538462 , 4123.07692308 , 4120.51282051 , 4124.61538462 , 4123.07692308 , 4137.43589744 , 4117.94871795 , 4041.53846154 , 4128.20512821 , 4115.38461538 , 2044.0 , 2034.0 , 143.375 , 0.0 , 0.0 , 0.0 , 0.0 , 

56.0 , 4123.58974359 , 4120.0 , 4122.05128205 , 4122.05128205 , 4123.07692308 , 4123.07692308 , 4116.41025641 , 4122.56410256 , 4120.0 , 4137.43589744 , 4119.48717949 , 4042.05128205 , 4126.66666667 , 4115.38461538 , 2045.0 , 2033.0 , 143.375 , 0.0 , 0.0 , 0.0 , 0.0 , 

57.0 , 4124.1025641 , 4119.48717949 , 4121.02564103 , 4125.12820513 , 4118.46153846 , 4121.02564103 , 4121.02564103 , 4121.02564103 , 4118.97435897 , 4137.43589744 , 4120.51282051 , 4042.56410256 , 4128.71794872 , 4114.35897436 , 2045.0 , 2034.0 , 143.39 , 0.0 , 0.0 , 0.0 , 0.0 , 

58.0 , 4118.97435897 , 4117.94871795 , 4124.1025641 , 4125.64102564 , 4119.48717949 , 4122.05128205 , 4122.05128205 , 4121.02564103 , 4119.48717949 , 4137.43589744 , 4119.48717949 , 4042.05128205 , 4130.25641026 , 4114.35897436 , 2046.0 , 2035.0 , 143.39 , 0.0 , 0.0 , 0.0 , 0.0 , 

59.0 , 4119.48717949 , 4121.02564103 , 4123.07692308 , 4124.1025641 , 4122.56410256 , 4123.07692308 , 4117.94871795 , 4123.07692308 , 4120.51282051 , 4137.43589744 , 4118.97435897 , 4038.97435897 , 4128.71794872 , 4116.41025641 , 2045.0 , 2033.0 , 143.408 , 0.0 , 0.0 , 0.0 , 0.0 , 

60.0 , 4122.56410256 , 4124.61538462 , 4121.02564103 , 4122.56410256 , 4123.58974359 , 4121.53846154 , 4117.43589744 , 4122.56410256 , 4121.02564103 , 4137.43589744 , 4119.48717949 , 4039.48717949 , 4127.69230769 , 4115.8974359 , 2046.0 , 2032.0 , 143.415 , 0.0 , 0.0 , 0.0 , 0.0 , 

61.0 , 4121.02564103 , 4124.1025641 , 4123.58974359 , 4123.58974359 , 4124.1025641 , 4122.05128205 , 4118.97435897 , 4121.53846154 , 4123.07692308 , 4137.43589744 , 4120.51282051 , 4044.1025641 , 4126.66666667 , 4116.41025641 , 2044.0 , 2029.0 , 143.424 , 0.0 , 0.0 , 0.0 , 0.0 , 

62.0 , 4118.97435897 , 4122.05128205 , 4122.56410256 , 4123.07692308 , 4122.56410256 , 4121.53846154 , 4117.43589744 , 4120.51282051 , 4122.56410256 , 4137.43589744 , 4120.0 , 4043.07692308 , 4128.71794872 , 4118.97435897 , 2043.0 , 2029.0 , 143.425 , 0.0 , 0.0 , 0.0 , 0.0 , 

63.0 , 4120.51282051 , 4121.53846154 , 4121.53846154 , 4121.02564103 , 4121.53846154 , 4118.46153846 , 4119.48717949 , 4121.02564103 , 4121.02564103 , 4137.43589744 , 4117.43589744 , 4041.02564103 , 4129.23076923 , 4118.46153846 , 2043.0 , 2030.0 , 143.425 , 0.0 , 0.0 , 0.0 , 0.0 , 

64.0 , 4120.51282051 , 4120.0 , 4124.1025641 , 4120.51282051 , 4122.05128205 , 4118.97435897 , 4123.07692308 , 4122.56410256 , 4122.56410256 , 4137.43589744 , 4116.41025641 , 4043.58974359 , 4129.23076923 , 4113.84615385 , 2043.0 , 2031.0 , 143.441 , 0.0 , 0.0 , 0.0 , 0.0 , 

65.0 , 4122.05128205 , 4120.51282051 , 4125.64102564 , 4122.56410256 , 4124.1025641 , 4120.51282051 , 4122.05128205 , 4122.56410256 , 4121.02564103 , 4137.43589744 , 4118.97435897 , 4043.07692308 , 4127.17948718 , 4114.87179487 , 2043.0 , 2033.0 , 143.441 , 0.0 , 0.0 , 0.0 , 0.0 , 

66.0 , 4123.58974359 , 4124.61538462 , 4124.1025641 , 4123.07692308 , 4124.1025641 , 4119.48717949 , 4119.48717949 , 4121.02564103 , 4118.97435897 , 4137.43589744 , 4118.46153846 , 4040.51282051 , 4126.15384615 , 4116.92307692 , 2040.0 , 2034.0 , 143.456 , 0.0 , 0.0 , 0.0 , 0.0 , 

67.0 , 4121.02564103 , 4124.1025641 , 4123.58974359 , 4121.02564103 , 4123.07692308 , 4120.51282051 , 4119.48717949 , 4121.53846154 , 4119.48717949 , 4137.43589744 , 4118.46153846 , 4042.05128205 , 4123.58974359 , 4116.92307692 , 2042.0 , 2034.0 , 143.456 , 0.0 , 0.0 , 0.0 , 0.0 , 

68.0 , 4118.46153846 , 4122.05128205 , 4119.48717949 , 4121.02564103 , 4120.0 , 4121.53846154 , 4121.02564103 , 4123.58974359 , 4121.53846154 , 4137.43589744 , 4120.51282051 , 4043.58974359 , 4124.1025641 , 4115.8974359 , 2042.0 , 2033.0 , 143.478 , 0.0 , 0.0 , 0.0 , 0.0 , 

69.0 , 4122.56410256 , 4124.1025641 , 4120.0 , 4123.58974359 , 4120.0 , 4118.97435897 , 4121.53846154 , 4123.07692308 , 4120.51282051 , 4137.43589744 , 4120.0 , 4043.58974359 , 4125.12820513 , 4116.92307692 , 2043.0 , 2032.0 , 143.486 , 0.0 , 0.0 , 0.0 , 0.0 , 

70.0 , 4124.61538462 , 4123.58974359 , 4125.64102564 , 4124.1025641 , 4124.1025641 , 4118.46153846 , 4122.05128205 , 4121.53846154 , 4119.48717949 , 4137.43589744 , 4118.46153846 , 4043.07692308 , 4127.17948718 , 4116.41025641 , 2042.0 , 2031.0 , 143.494 , 0.0 , 0.0 , 0.0 , 0.0 , 

71.0 , 4123.07692308 , 4122.05128205 , 4128.20512821 , 4121.53846154 , 4124.1025641 , 4123.58974359 , 4123.07692308 , 4121.53846154 , 4120.51282051 , 4137.43589744 , 4118.97435897 , 4041.02564103 , 4126.66666667 , 4115.8974359 , 2041.0 , 2030.0 , 143.501 , 0.0 , 0.0 , 0.0 , 0.0 , 

72.0 , 4121.02564103 , 4122.56410256 , 4123.07692308 , 4120.51282051 , 4120.51282051 , 4123.58974359 , 4121.53846154 , 4122.05128205 , 4122.56410256 , 4137.43589744 , 4118.97435897 , 4043.58974359 , 4127.69230769 , 4115.8974359 , 2042.0 , 2028.0 , 143.509 , 0.0 , 0.0 , 0.0 , 0.0 , 

73.0 , 4123.07692308 , 4121.53846154 , 4123.07692308 , 4124.1025641 , 4121.53846154 , 4120.0 , 4118.46153846 , 4121.53846154 , 4121.53846154 , 4137.43589744 , 4118.46153846 , 4046.66666667 , 4127.69230769 , 4115.8974359 , 2043.0 , 2029.0 , 143.517 , 0.0 , 0.0 , 0.0 , 0.0 , 

74.0 , 4123.07692308 , 4120.0 , 4124.1025641 , 4125.64102564 , 4122.56410256 , 4122.05128205 , 4118.97435897 , 4121.53846154 , 4120.51282051 , 4137.43589744 , 4117.94871795 , 4044.61538462 , 4127.69230769 , 4115.8974359 , 2043.0 , 2030.0 , 143.526 , 0.0 , 0.0 , 0.0 , 0.0 , 

75.0 , 4123.07692308 , 4122.05128205 , 4123.58974359 , 4121.53846154 , 4123.07692308 , 4123.58974359 , 4120.0 , 4121.53846154 , 4122.05128205 , 4137.43589744 , 4119.48717949 , 4042.56410256 , 4125.64102564 , 4116.92307692 , 2044.0 , 2030.0 , 143.534 , 0.0 , 0.0 , 0.0 , 0.0 , 

76.0 , 4123.07692308 , 4123.07692308 , 4124.1025641 , 4119.48717949 , 4121.02564103 , 4119.48717949 , 4119.48717949 , 4121.53846154 , 4121.53846154 , 4137.43589744 , 4119.48717949 , 4044.61538462 , 4125.64102564 , 4118.46153846 , 2044.0 , 2031.0 , 143.541 , 0.0 , 0.0 , 0.0 , 0.0 , 

77.0 , 4118.97435897 , 4124.1025641 , 4125.12820513 , 4124.1025641 , 4120.0 , 4118.97435897 , 4117.43589744 , 4121.02564103 , 4120.0 , 4137.43589744 , 4118.46153846 , 4044.61538462 , 4129.23076923 , 4118.46153846 , 2042.0 , 2032.0 , 143.55 , 0.0 , 0.0 , 0.0 , 0.0 , 

78.0 , 4120.0 , 4126.15384615 , 4124.61538462 , 4127.17948718 , 4122.56410256 , 4122.56410256 , 4118.46153846 , 4121.53846154 , 4122.05128205 , 4137.43589744 , 4120.0 , 4042.56410256 , 4128.71794872 , 4116.92307692 , 2042.0 , 2033.0 , 143.558 , 0.0 , 0.0 , 0.0 , 0.0 , 

79.0 , 4123.58974359 , 4124.61538462 , 4122.56410256 , 4123.07692308 , 4124.61538462 , 4121.53846154 , 4118.46153846 , 4121.02564103 , 4122.56410256 , 4137.43589744 , 4120.0 , 4043.58974359 , 4127.69230769 , 4115.8974359 , 2041.0 , 2035.0 , 143.564 , 0.0 , 0.0 , 0.0 , 0.0 , 

80.0 , 4122.56410256 , 4123.07692308 , 4124.1025641 , 4123.07692308 , 4121.02564103 , 4118.97435897 , 4118.46153846 , 4120.51282051 , 4121.02564103 , 4137.43589744 , 4120.0 , 4046.66666667 , 4127.17948718 , 4115.8974359 , 2043.0 , 2036.0 , 143.573 , 0.0 , 0.0 , 0.0 , 0.0 , 

81.0 , 4119.48717949 , 4123.07692308 , 4124.61538462 , 4126.15384615 , 4118.46153846 , 4121.02564103 , 4118.46153846 , 4121.53846154 , 4122.05128205 , 4137.43589744 , 4120.51282051 , 4047.69230769 , 4127.69230769 , 4114.87179487 , 2042.0 , 2037.0 , 143.58 , 0.0 , 0.0 , 0.0 , 0.0 , 

82.0 , 4122.56410256 , 4121.53846154 , 4124.61538462 , 4125.64102564 , 4121.02564103 , 4122.56410256 , 4118.97435897 , 4122.56410256 , 4123.07692308 , 4137.43589744 , 4120.0 , 4045.12820513 , 4127.17948718 , 4114.87179487 , 2041.0 , 2040.0 , 143.588 , 0.0 , 0.0 , 0.0 , 0.0 , 

83.0 , 4123.07692308 , 4120.0 , 4123.07692308 , 4123.07692308 , 4122.56410256 , 4120.0 , 4118.97435897 , 4121.53846154 , 4123.07692308 , 4137.43589744 , 4117.43589744 , 4044.61538462 , 4128.20512821 , 4114.87179487 , 2043.0 , 2040.0 , 143.596 , 0.0 , 0.0 , 0.0 , 0.0 , 

84.0 , 4122.05128205 , 4122.56410256 , 4123.58974359 , 4124.1025641 , 4123.58974359 , 4120.51282051 , 4117.43589744 , 4120.51282051 , 4123.07692308 , 4137.43589744 , 4117.43589744 , 4045.64102564 , 4126.15384615 , 4115.8974359 , 2043.0 , 2038.0 , 143.607 , 0.0 , 0.0 , 0.0 , 0.0 , 

85.0 , 4123.07692308 , 4124.61538462 , 4121.53846154 , 4123.07692308 , 4122.05128205 , 4120.51282051 , 4120.0 , 4120.0 , 4123.07692308 , 4137.43589744 , 4120.51282051 , 4045.64102564 , 4127.69230769 , 4115.38461538 , 2044.0 , 2039.0 , 143.612 , 0.0 , 0.0 , 0.0 , 0.0 , 

86.0 , 4125.12820513 , 4120.51282051 , 4118.97435897 , 4123.58974359 , 4121.02564103 , 4121.02564103 , 4124.1025641 , 4121.53846154 , 4123.58974359 , 4137.43589744 , 4118.46153846 , 4046.66666667 , 4129.74358974 , 4116.41025641 , 2043.0 , 2037.0 , 143.62 , 0.0 , 0.0 , 0.0 , 0.0 , 

87.0 , 4123.58974359 , 4116.92307692 , 4120.0 , 4127.17948718 , 4123.07692308 , 4121.02564103 , 4122.05128205 , 4122.05128205 , 4124.1025641 , 4137.43589744 , 4116.41025641 , 4046.15384615 , 4130.25641026 , 4118.97435897 , 2043.0 , 2034.0 , 143.627 , 0.0 , 0.0 , 0.0 , 0.0 , 

88.0 , 4121.53846154 , 4122.05128205 , 4124.1025641 , 4126.15384615 , 4125.12820513 , 4120.0 , 4118.46153846 , 4121.02564103 , 4122.05128205 , 4137.43589744 , 4116.41025641 , 4042.56410256 , 4126.66666667 , 4117.94871795 , 2046.0 , 2033.0 , 143.635 , 0.0 , 0.0 , 0.0 , 0.0 , 

89.0 , 4120.51282051 , 4126.15384615 , 4123.07692308 , 4121.53846154 , 4123.07692308 , 4118.97435897 , 4120.51282051 , 4122.05128205 , 4120.51282051 , 4137.43589744 , 4116.41025641 , 4043.58974359 , 4128.20512821 , 4115.38461538 , 2045.0 , 2031.0 , 143.643 , 0.0 , 0.0 , 0.0 , 0.0 , 

90.0 , 4122.56410256 , 4124.1025641 , 4122.05128205 , 4122.56410256 , 4118.97435897 , 4121.02564103 , 4121.53846154 , 4123.58974359 , 4122.05128205 , 4137.43589744 , 4117.43589744 , 4046.15384615 , 4128.71794872 , 4115.38461538 , 2045.0 , 2031.0 , 143.652 , 0.0 , 0.0 , 0.0 , 0.0 , 

91.0 , 4122.05128205 , 4122.56410256 , 4125.12820513 , 4126.15384615 , 4121.02564103 , 4122.05128205 , 4117.43589744 , 4121.53846154 , 4122.05128205 , 4137.43589744 , 4118.46153846 , 4044.61538462 , 4128.20512821 , 4115.8974359 , 2044.0 , 2033.0 , 143.659 , 0.0 , 0.0 , 0.0 , 0.0 , 

92.0 , 4122.56410256 , 4125.64102564 , 4126.15384615 , 4125.64102564 , 4125.64102564 , 4122.05128205 , 4120.0 , 4118.97435897 , 4119.48717949 , 4137.43589744 , 4115.38461538 , 4043.58974359 , 4128.20512821 , 4116.41025641 , 2044.0 , 2034.0 , 143.668 , 0.0 , 0.0 , 0.0 , 0.0 , 

93.0 , 4126.15384615 , 4127.17948718 , 4125.64102564 , 4122.05128205 , 4122.56410256 , 4122.05128205 , 4123.58974359 , 4122.05128205 , 4120.51282051 , 4137.43589744 , 4115.38461538 , 4043.58974359 , 4127.69230769 , 4117.43589744 , 2045.0 , 2036.0 , 143.675 , 0.0 , 0.0 , 0.0 , 0.0 , 

94.0 , 4123.58974359 , 4125.12820513 , 4126.15384615 , 4122.05128205 , 4119.48717949 , 4122.05128205 , 4119.48717949 , 4124.61538462 , 4123.58974359 , 4137.43589744 , 4120.0 , 4043.58974359 , 4125.64102564 , 4117.43589744 , 2044.0 , 2036.0 , 143.683 , 0.0 , 0.0 , 0.0 , 0.0 , 

95.0 , 4119.48717949 , 4121.53846154 , 4125.64102564 , 4125.12820513 , 4121.53846154 , 4121.53846154 , 4118.97435897 , 4121.53846154 , 4123.58974359 , 4137.43589744 , 4119.48717949 , 4043.58974359 , 4125.12820513 , 4115.8974359 , 2043.0 , 2035.0 , 143.691 , 0.0 , 0.0 , 0.0 , 0.0 , 

96.0 , 4122.56410256 , 4124.1025641 , 4124.61538462 , 4126.15384615 , 4121.53846154 , 4122.05128205 , 4121.53846154 , 4118.97435897 , 4121.02564103 , 4137.43589744 , 4117.43589744 , 4041.53846154 , 4128.20512821 , 4116.92307692 , 2043.0 , 2035.0 , 143.699 , 0.0 , 0.0 , 0.0 , 0.0 , 

97.0 , 4125.12820513 , 4127.69230769 , 4123.58974359 , 4124.1025641 , 4122.05128205 , 4121.02564103 , 4118.46153846 , 4121.02564103 , 4121.53846154 , 4137.94871795 , 4120.51282051 , 4044.1025641 , 4125.12820513 , 4117.94871795 , 2042.0 , 2035.0 , 143.707 , 0.0 , 0.0 , 0.0 , 0.0 , 

98.0 , 4121.53846154 , 4124.61538462 , 4120.0 , 4123.58974359 , 4124.1025641 , 4120.0 , 4116.41025641 , 4122.56410256 , 4121.02564103 , 4136.92307692 , 4122.05128205 , 4049.23076923 , 4124.1025641 , 4117.43589744 , 2041.0 , 2032.0 , 143.714 , 0.0 , 0.0 , 0.0 , 0.0 , 

99.0 , 4120.0 , 4122.56410256 , 4123.07692308 , 4123.58974359 , 4123.07692308 , 4121.53846154 , 4119.48717949 , 4122.05128205 , 4120.0 , 4137.43589744 , 4120.0 , 4049.74358974 , 4126.66666667 , 4116.41025641 , 2041.0 , 2033.0 , 143.722 , 0.0 , 0.0 , 0.0 , 0.0 , 

100.0 , 4121.53846154 , 4125.64102564 , 4128.71794872 , 4123.58974359 , 4120.51282051 , 4122.56410256 , 4119.48717949 , 4123.58974359 , 4121.53846154 , 4138.97435897 , 4117.94871795 , 4045.64102564 , 4129.74358974 , 4114.87179487 , 2042.0 , 2033.0 , 143.73 , 0.0 , 0.0 , 0.0 , 0.0 , 

101.0 , 4124.1025641 , 4124.1025641 , 4126.66666667 , 4124.61538462 , 4123.07692308 , 4121.02564103 , 4118.46153846 , 4124.1025641 , 4122.56410256 , 4133.84615385 , 4118.46153846 , 4044.1025641 , 4125.12820513 , 4117.43589744 , 2042.0 , 2032.0 , 143.739 , 0.0 , 0.0 , 0.0 , 0.0 , 

102.0 , 4122.05128205 , 4122.05128205 , 4121.53846154 , 4124.1025641 , 4124.1025641 , 4117.94871795 , 4119.48717949 , 4121.53846154 , 4119.48717949 , 4126.66666667 , 4118.46153846 , 4044.61538462 , 4124.61538462 , 4119.48717949 , 2042.0 , 2033.0 , 143.746 , 0.0 , 0.0 , 0.0 , 0.0 , 

103.0 , 4120.0 , 4124.61538462 , 4123.07692308 , 4123.58974359 , 4124.61538462 , 4118.97435897 , 4119.48717949 , 4121.02564103 , 4116.92307692 , 4130.25641026 , 4117.43589744 , 4045.64102564 , 4126.15384615 , 4117.94871795 , 2042.0 , 2032.0 , 143.754 , 0.0 , 0.0 , 0.0 , 0.0 , 

104.0 , 4121.02564103 , 4125.12820513 , 4124.1025641 , 4125.12820513 , 4123.58974359 , 4120.51282051 , 4116.92307692 , 4121.53846154 , 4118.97435897 , 4135.38461538 , 4116.92307692 , 4045.12820513 , 4129.74358974 , 4116.92307692 , 2042.0 , 2032.0 , 143.761 , 0.0 , 0.0 , 0.0 , 0.0 , 

105.0 , 4124.61538462 , 4126.15384615 , 4124.61538462 , 4126.66666667 , 4123.07692308 , 4121.53846154 , 4115.8974359 , 4121.53846154 , 4120.0 , 4134.35897436 , 4118.46153846 , 4044.61538462 , 4128.20512821 , 4117.94871795 , 2042.0 , 2033.0 , 143.769 , 0.0 , 0.0 , 0.0 , 0.0 , 

106.0 , 4123.07692308 , 4123.58974359 , 4123.58974359 , 4124.1025641 , 4124.1025641 , 4123.58974359 , 4116.92307692 , 4122.05128205 , 4119.48717949 , 4133.84615385 , 4118.46153846 , 4045.64102564 , 4123.58974359 , 4116.92307692 , 2042.0 , 2033.0 , 143.777 , 0.0 , 0.0 , 0.0 , 0.0 , 

107.0 , 4121.02564103 , 4118.97435897 , 4125.12820513 , 4123.58974359 , 4122.56410256 , 4123.07692308 , 4122.05128205 , 4124.1025641 , 4120.0 , 4136.41025641 , 4119.48717949 , 4047.17948718 , 4122.05128205 , 4115.8974359 , 2042.0 , 2036.0 , 143.785 , 0.0 , 0.0 , 0.0 , 0.0 , 

108.0 , 4119.48717949 , 4122.05128205 , 4124.61538462 , 4124.1025641 , 4121.53846154 , 4121.02564103 , 4124.1025641 , 4124.1025641 , 4118.97435897 , 4135.8974359 , 4121.53846154 , 4046.66666667 , 4129.23076923 , 4117.43589744 , 2041.0 , 2035.0 , 143.794 , 0.0 , 0.0 , 0.0 , 0.0 , 

109.0 , 4122.05128205 , 4127.17948718 , 4123.07692308 , 4125.12820513 , 4121.53846154 , 4123.07692308 , 4121.02564103 , 4121.53846154 , 4118.46153846 , 4135.38461538 , 4120.0 , 4042.56410256 , 4129.23076923 , 4117.94871795 , 2042.0 , 2036.0 , 143.797 , 0.0 , 0.0 , 0.0 , 0.0 , 

110.0 , 4123.58974359 , 4123.58974359 , 4120.51282051 , 4125.64102564 , 4120.51282051 , 4124.1025641 , 4118.97435897 , 4121.02564103 , 4121.53846154 , 4135.38461538 , 4116.41025641 , 4042.05128205 , 4123.58974359 , 4117.94871795 , 2040.0 , 2036.0 , 143.797 , 0.0 , 0.0 , 0.0 , 0.0 , 

111.0 , 4121.53846154 , 4119.48717949 , 4122.05128205 , 4123.07692308 , 4121.02564103 , 4121.02564103 , 4118.46153846 , 4122.05128205 , 4123.07692308 , 4135.38461538 , 4117.43589744 , 4047.17948718 , 4127.17948718 , 4118.97435897 , 2040.0 , 2035.0 , 143.817 , 0.0 , 0.0 , 0.0 , 0.0 , 

112.0 , 4121.53846154 , 4122.05128205 , 4123.07692308 , 4120.0 , 4121.53846154 , 4120.51282051 , 4118.46153846 , 4122.05128205 , 4122.05128205 , 4135.38461538 , 4118.97435897 , 4047.17948718 , 4133.84615385 , 4117.94871795 , 2041.0 , 2033.0 , 143.824 , 0.0 , 0.0 , 0.0 , 0.0 , 

113.0 , 4123.58974359 , 4121.02564103 , 4123.58974359 , 4123.58974359 , 4121.02564103 , 4121.53846154 , 4121.02564103 , 4121.53846154 , 4122.05128205 , 4135.38461538 , 4118.46153846 , 4045.12820513 , 4131.28205128 , 4116.41025641 , 2041.0 , 2032.0 , 143.831 , 0.0 , 0.0 , 0.0 , 0.0 , 

114.0 , 4122.56410256 , 4119.48717949 , 4125.64102564 , 4126.66666667 , 4122.56410256 , 4121.02564103 , 4124.61538462 , 4122.05128205 , 4123.07692308 , 4135.38461538 , 4118.97435897 , 4046.66666667 , 4125.64102564 , 4115.38461538 , 2042.0 , 2033.0 , 143.841 , 0.0 , 0.0 , 0.0 , 0.0 , 

115.0 , 4122.05128205 , 4120.51282051 , 4126.15384615 , 4123.58974359 , 4125.64102564 , 4120.51282051 , 4122.05128205 , 4121.53846154 , 4122.05128205 , 4135.38461538 , 4118.46153846 , 4044.1025641 , 4126.15384615 , 4115.38461538 , 2042.0 , 2032.0 , 143.848 , 0.0 , 0.0 , 0.0 , 0.0 , 

116.0 , 4123.07692308 , 4120.51282051 , 4126.66666667 , 4122.05128205 , 4122.56410256 , 4120.51282051 , 4121.02564103 , 4121.02564103 , 4121.53846154 , 4135.38461538 , 4117.43589744 , 4040.51282051 , 4127.17948718 , 4115.8974359 , 2042.0 , 2032.0 , 143.851 , 0.0 , 0.0 , 0.0 , 0.0 , 

117.0 , 4121.53846154 , 4120.51282051 , 4125.64102564 , 4124.1025641 , 4120.0 , 4120.51282051 , 4123.58974359 , 4122.56410256 , 4123.07692308 , 4135.38461538 , 4119.48717949 , 4042.56410256 , 4126.15384615 , 4115.8974359 , 2042.0 , 2031.0 , 143.851 , 0.0 , 0.0 , 0.0 , 0.0 , 

118.0 , 4122.56410256 , 4121.53846154 , 4125.64102564 , 4123.07692308 , 4122.56410256 , 4122.05128205 , 4123.07692308 , 4123.07692308 , 4123.58974359 , 4135.38461538 , 4119.48717949 , 4045.64102564 , 4123.07692308 , 4116.41025641 , 2043.0 , 2032.0 , 143.867 , 0.0 , 0.0 , 0.0 , 0.0 , 

119.0 , 4123.07692308 , 4122.56410256 , 4123.07692308 , 4122.56410256 , 4124.1025641 , 4122.05128205 , 4121.02564103 , 4122.56410256 , 4121.53846154 , 4135.38461538 , 4117.43589744 , 4043.07692308 , 4128.20512821 , 4117.94871795 , 2044.0 , 2034.0 , 143.867 , 0.0 , 0.0 , 0.0 , 0.0 , 

120.0 , 4121.02564103 , 4122.05128205 , 4122.05128205 , 4124.61538462 , 4122.05128205 , 4120.51282051 , 4121.02564103 , 4122.56410256 , 4121.53846154 , 4135.38461538 , 4118.97435897 , 4040.51282051 , 4131.28205128 , 4120.0 , 2044.0 , 2033.0 , 143.883 , 0.0 , 0.0 , 0.0 , 0.0 , 

121.0 , 4120.51282051 , 4120.51282051 , 4124.1025641 , 4125.12820513 , 4120.51282051 , 4118.97435897 , 4119.48717949 , 4122.56410256 , 4123.07692308 , 4135.38461538 , 4119.48717949 , 4043.07692308 , 4129.23076923 , 4118.97435897 , 2043.0 , 2034.0 , 143.883 , 0.0 , 0.0 , 0.0 , 0.0 , 

122.0 , 4124.61538462 , 4122.56410256 , 4125.12820513 , 4123.58974359 , 4123.07692308 , 4119.48717949 , 4115.8974359 , 4122.05128205 , 4122.56410256 , 4135.38461538 , 4118.46153846 , 4045.64102564 , 4124.61538462 , 4117.94871795 , 2044.0 , 2034.0 , 143.925 , 0.0 , 0.0 , 0.0 , 0.0 , 

123.0 , 4122.56410256 , 4122.56410256 , 4122.05128205 , 4122.05128205 , 4122.56410256 , 4121.02564103 , 4116.92307692 , 4121.02564103 , 4121.53846154 , 4135.38461538 , 4121.53846154 , 4042.05128205 , 4127.17948718 , 4117.94871795 , 2043.0 , 2035.0 , 143.926 , 0.0 , 0.0 , 0.0 , 0.0 , 

124.0 , 4122.05128205 , 4121.53846154 , 4121.53846154 , 4124.1025641 , 4122.56410256 , 4121.02564103 , 4122.05128205 , 4121.53846154 , 4121.02564103 , 4135.38461538 , 4120.51282051 , 4042.56410256 , 4128.71794872 , 4120.0 , 2042.0 , 2035.0 , 143.926 , 0.0 , 0.0 , 0.0 , 0.0 , 

125.0 , 4122.56410256 , 4122.56410256 , 4121.02564103 , 4124.61538462 , 4123.58974359 , 4121.02564103 , 4123.07692308 , 4121.53846154 , 4120.51282051 , 4135.38461538 , 4115.8974359 , 4046.66666667 , 4128.20512821 , 4120.0 , 2042.0 , 2036.0 , 143.93 , 0.0 , 0.0 , 0.0 , 0.0 , 

126.0 , 4122.56410256 , 4123.58974359 , 4123.07692308 , 4123.58974359 , 4123.58974359 , 4121.02564103 , 4121.53846154 , 4121.02564103 , 4121.53846154 , 4135.38461538 , 4117.43589744 , 4044.61538462 , 4125.64102564 , 4118.46153846 , 2044.0 , 2032.0 , 143.93 , 0.0 , 0.0 , 0.0 , 0.0 , 

127.0 , 4123.07692308 , 4123.58974359 , 4124.1025641 , 4125.64102564 , 4125.12820513 , 4122.05128205 , 4122.56410256 , 4122.56410256 , 4122.05128205 , 4135.38461538 , 4120.51282051 , 4041.53846154 , 4125.64102564 , 4116.92307692 , 2043.0 , 2032.0 , 143.93 , 0.0 , 0.0 , 0.0 , 0.0 , 

128.0 , 4124.61538462 , 4124.1025641 , 4124.1025641 , 4126.66666667 , 4126.15384615 , 4122.05128205 , 4127.17948718 , 4123.07692308 , 4121.53846154 , 4135.38461538 , 4118.46153846 , 4046.66666667 , 4128.71794872 , 4116.92307692 , 2044.0 , 2035.0 , 143.946 , 0.0 , 0.0 , 0.0 , 0.0 , 

0.0 , 4123.07692308 , 4123.58974359 , 4122.05128205 , 4122.56410256 , 4124.61538462 , 4121.02564103 , 4125.64102564 , 4121.02564103 , 4123.58974359 , 4135.38461538 , 4116.92307692 , 4047.69230769 , 4132.82051282 , 4117.43589744 , 2044.0 , 2038.0 , 143.946 , 0.0 , 0.0 , 0.0 , 0.0 , 

1.0 , 4123.07692308 , 4120.0 , 4123.07692308 , 4121.02564103 , 4121.53846154 , 4120.51282051 , 4121.53846154 , 4120.51282051 , 4123.07692308 , 4135.38461538 , 4118.46153846 , 4043.07692308 , 4129.74358974 , 4118.46153846 , 2042.0 , 2039.0 , 143.961 , 0.0 , 0.0 , 0.0 , 0.0 , 

2.0 , 4123.58974359 , 4120.51282051 , 4125.12820513 , 4125.12820513 , 4123.58974359 , 4121.02564103 , 4122.56410256 , 4121.53846154 , 4121.53846154 , 4135.38461538 , 4115.8974359 , 4044.1025641 , 4124.1025641 , 4116.92307692 , 2042.0 , 2040.0 , 143.961 , 0.0 , 0.0 , 0.0 , 0.0 , 

3.0 , 4123.58974359 , 4122.05128205 , 4125.64102564 , 4124.61538462 , 4121.53846154 , 4122.05128205 , 4123.07692308 , 4121.02564103 , 4123.07692308 , 4135.38461538 , 4112.30769231 , 4046.15384615 , 4127.69230769 , 4114.35897436 , 2043.0 , 2038.0 , 143.977 , 0.0 , 0.0 , 0.0 , 0.0 , 

4.0 , 4123.58974359 , 4122.05128205 , 4126.66666667 , 4121.02564103 , 4117.94871795 , 4122.56410256 , 4121.53846154 , 4121.02564103 , 4123.07692308 , 4135.38461538 , 4115.8974359 , 4041.53846154 , 4130.25641026 , 4117.43589744 , 2042.0 , 2037.0 , 143.977 , 0.0 , 0.0 , 0.0 , 0.0 , 

5.0 , 4123.58974359 , 4122.05128205 , 4126.66666667 , 4121.02564103 , 4121.02564103 , 4123.58974359 , 4121.53846154 , 4122.56410256 , 4122.56410256 , 4135.38461538 , 4121.02564103 , 4039.48717949 , 4127.69230769 , 4118.97435897 , 2043.0 , 2037.0 , 143.993 , 0.0 , 0.0 , 0.0 , 0.0 , 

6.0 , 4123.07692308 , 4121.53846154 , 4125.12820513 , 4124.61538462 , 4123.58974359 , 4123.07692308 , 4117.94871795 , 4123.58974359 , 4123.07692308 , 4135.38461538 , 4121.02564103 , 4043.58974359 , 4126.66666667 , 4119.48717949 , 2043.0 , 2036.0 , 143.993 , 0.0 , 0.0 , 0.0 , 0.0 , 

7.0 , 4123.07692308 , 4123.58974359 , 4120.0 , 4125.12820513 , 4122.05128205 , 4122.56410256 , 4116.92307692 , 4122.56410256 , 4122.56410256 , 4135.38461538 , 4118.46153846 , 4044.1025641 , 4131.79487179 , 4120.51282051 , 2043.0 , 2037.0 , 144.008 , 0.0 , 0.0 , 0.0 , 0.0 , 

8.0 , 4124.61538462 , 4125.64102564 , 4120.0 , 4121.53846154 , 4124.61538462 , 4122.56410256 , 4124.61538462 , 4121.53846154 , 4121.53846154 , 4135.38461538 , 4117.94871795 , 4041.53846154 , 4130.76923077 , 4118.97435897 , 2042.0 , 2035.0 , 144.008 , 0.0 , 0.0 , 0.0 , 0.0 , 

9.0 , 4123.07692308 , 4123.07692308 , 4122.56410256 , 4120.0 , 4126.66666667 , 4121.53846154 , 4125.64102564 , 4122.56410256 , 4123.07692308 , 4135.38461538 , 4118.46153846 , 4041.53846154 , 4128.20512821 , 4118.46153846 , 2041.0 , 2035.0 , 144.024 , 0.0 , 0.0 , 0.0 , 0.0 , 

10.0 , 4121.53846154 , 4122.05128205 , 4124.61538462 , 4123.58974359 , 4122.05128205 , 4121.02564103 , 4120.0 , 4123.58974359 , 4123.58974359 , 4135.38461538 , 4121.02564103 , 4042.56410256 , 4126.66666667 , 4121.02564103 , 2043.0 , 2034.0 , 144.024 , 0.0 , 0.0 , 0.0 , 0.0 , 

11.0 , 4121.53846154 , 4123.07692308 , 4124.61538462 , 4125.12820513 , 4121.02564103 , 4119.48717949 , 4121.53846154 , 4121.02564103 , 4123.07692308 , 4135.38461538 , 4119.48717949 , 4043.58974359 , 4129.23076923 , 4116.92307692 , 2043.0 , 2033.0 , 144.043 , 0.0 , 0.0 , 0.0 , 0.0 , 

12.0 , 4124.1025641 , 4124.61538462 , 4123.07692308 , 4124.61538462 , 4126.15384615 , 4122.56410256 , 4122.05128205 , 4120.0 , 4122.56410256 , 4135.38461538 , 4116.41025641 , 4046.66666667 , 4131.28205128 , 4114.87179487 , 2043.0 , 2034.0 , 144.043 , 0.0 , 0.0 , 0.0 , 0.0 , 

