['COUNTER', 'AF3', 'F7', 'F3', 'FC5', 'T7', 'P7', 'O1', 'O2', 'P8', 'T8', 'FC6', 'F4', 'F8', 'AF4', 'GYROX', 'GYROY', 'TIMESTAMP', 'FUNC_ID', 'FUNC_VALUE', 'MARKER', 'SYNC_SIGNAL']
82.0 , 4134.35897436 , 4129.23076923 , 4134.35897436 , 4135.8974359 , 4134.87179487 , 4133.84615385 , 4125.64102564 , 4126.15384615 , 4137.43589744 , 4140.0 , 4187.69230769 , 4910.25641026 , 4133.33333333 , 4139.48717949 , 2042.0 , 2037.0 , 318.713 , 0.0 , 0.0 , 0.0 , 0.0 , 

83.0 , 4136.41025641 , 4132.30769231 , 4132.82051282 , 4134.35897436 , 4135.38461538 , 4136.92307692 , 4125.12820513 , 4133.84615385 , 4136.92307692 , 4140.51282051 , 4186.15384615 , 4910.76923077 , 4133.33333333 , 4137.94871795 , 2042.0 , 2034.0 , 318.726 , 0.0 , 0.0 , 0.0 , 0.0 , 

84.0 , 4133.84615385 , 4132.82051282 , 4132.82051282 , 4133.84615385 , 4135.38461538 , 4135.8974359 , 4129.74358974 , 4139.48717949 , 4136.92307692 , 4137.94871795 , 4189.23076923 , 4909.74358974 , 4131.79487179 , 4137.43589744 , 2041.0 , 2034.0 , 318.73 , 0.0 , 0.0 , 0.0 , 0.0 , 

85.0 , 4131.79487179 , 4129.74358974 , 4133.33333333 , 4136.41025641 , 4135.38461538 , 4131.79487179 , 4131.28205128 , 4136.92307692 , 4138.46153846 , 4137.43589744 , 4192.30769231 , 4909.23076923 , 4134.35897436 , 4138.97435897 , 2043.0 , 2034.0 , 318.737 , 0.0 , 0.0 , 0.0 , 0.0 , 

86.0 , 4131.28205128 , 4128.71794872 , 4133.84615385 , 4136.41025641 , 4135.38461538 , 4133.33333333 , 4129.74358974 , 4135.8974359 , 4139.48717949 , 4141.02564103 , 4190.76923077 , 4910.76923077 , 4135.8974359 , 4140.51282051 , 2043.0 , 2035.0 , 318.746 , 0.0 , 0.0 , 0.0 , 0.0 , 

87.0 , 4131.79487179 , 4129.23076923 , 4134.35897436 , 4133.84615385 , 4135.38461538 , 4136.41025641 , 4129.74358974 , 4137.94871795 , 4137.43589744 , 4142.05128205 , 4189.23076923 , 4910.76923077 , 4134.35897436 , 4140.51282051 , 2042.0 , 2035.0 , 318.757 , 0.0 , 0.0 , 0.0 , 0.0 , 

88.0 , 4131.28205128 , 4128.71794872 , 4133.84615385 , 4135.38461538 , 4135.38461538 , 4133.33333333 , 4128.71794872 , 4138.46153846 , 4137.43589744 , 4141.02564103 , 4192.30769231 , 4908.71794872 , 4135.38461538 , 4138.97435897 , 2044.0 , 2036.0 , 318.761 , 0.0 , 0.0 , 0.0 , 0.0 , 

89.0 , 4131.28205128 , 4129.23076923 , 4133.33333333 , 4134.87179487 , 4135.38461538 , 4133.33333333 , 4129.23076923 , 4136.41025641 , 4139.48717949 , 4142.05128205 , 4192.82051282 , 4908.20512821 , 4137.43589744 , 4140.51282051 , 2044.0 , 2036.0 , 318.768 , 0.0 , 0.0 , 0.0 , 0.0 , 

90.0 , 4131.79487179 , 4130.25641026 , 4135.8974359 , 4131.79487179 , 4135.38461538 , 4136.92307692 , 4129.74358974 , 4136.41025641 , 4141.02564103 , 4139.48717949 , 4189.23076923 , 4910.25641026 , 4135.8974359 , 4141.02564103 , 2046.0 , 2035.0 , 318.777 , 0.0 , 0.0 , 0.0 , 0.0 , 

91.0 , 4133.84615385 , 4130.76923077 , 4137.94871795 , 4135.38461538 , 4135.38461538 , 4134.87179487 , 4128.71794872 , 4137.43589744 , 4139.48717949 , 4135.8974359 , 4191.28205128 , 4912.82051282 , 4135.38461538 , 4138.97435897 , 2045.0 , 2035.0 , 318.788 , 0.0 , 0.0 , 0.0 , 0.0 , 

92.0 , 4133.33333333 , 4129.74358974 , 4135.8974359 , 4138.46153846 , 4135.38461538 , 4132.82051282 , 4128.71794872 , 4135.8974359 , 4138.46153846 , 4135.8974359 , 4192.82051282 , 4911.79487179 , 4136.41025641 , 4138.46153846 , 2044.0 , 2035.0 , 318.793 , 0.0 , 0.0 , 0.0 , 0.0 , 

93.0 , 4132.82051282 , 4129.74358974 , 4133.33333333 , 4135.38461538 , 4135.38461538 , 4133.84615385 , 4128.20512821 , 4133.84615385 , 4138.46153846 , 4136.92307692 , 4187.17948718 , 4908.20512821 , 4135.38461538 , 4140.51282051 , 2044.0 , 2036.0 , 318.8 , 0.0 , 0.0 , 0.0 , 0.0 , 

94.0 , 4132.82051282 , 4129.74358974 , 4132.82051282 , 4136.41025641 , 4134.87179487 , 4132.30769231 , 4128.71794872 , 4136.92307692 , 4137.94871795 , 4137.43589744 , 4186.66666667 , 4909.74358974 , 4135.8974359 , 4140.51282051 , 2042.0 , 2035.0 , 318.808 , 0.0 , 0.0 , 0.0 , 0.0 , 

95.0 , 4131.28205128 , 4129.23076923 , 4131.79487179 , 4138.97435897 , 4135.38461538 , 4133.33333333 , 4130.76923077 , 4137.94871795 , 4136.92307692 , 4138.97435897 , 4191.79487179 , 4911.79487179 , 4135.8974359 , 4136.92307692 , 2043.0 , 2032.0 , 318.822 , 0.0 , 0.0 , 0.0 , 0.0 , 

96.0 , 4131.79487179 , 4130.25641026 , 4130.25641026 , 4135.38461538 , 4135.8974359 , 4135.8974359 , 4129.74358974 , 4133.33333333 , 4137.94871795 , 4138.97435897 , 4191.28205128 , 4908.71794872 , 4135.8974359 , 4142.05128205 , 2044.0 , 2032.0 , 318.825 , 0.0 , 0.0 , 0.0 , 0.0 , 

97.0 , 4134.87179487 , 4133.33333333 , 4131.79487179 , 4134.35897436 , 4135.8974359 , 4134.87179487 , 4128.20512821 , 4132.30769231 , 4138.46153846 , 4135.8974359 , 4191.28205128 , 4910.76923077 , 4136.41025641 , 4149.23076923 , 2043.0 , 2029.0 , 318.831 , 0.0 , 0.0 , 0.0 , 0.0 , 

98.0 , 4134.35897436 , 4132.82051282 , 4134.35897436 , 4137.94871795 , 4135.8974359 , 4135.38461538 , 4129.74358974 , 4135.38461538 , 4137.43589744 , 4136.41025641 , 4196.41025641 , 4915.38461538 , 4137.43589744 , 4144.1025641 , 2044.0 , 2029.0 , 318.84 , 0.0 , 0.0 , 0.0 , 0.0 , 

99.0 , 4131.79487179 , 4129.74358974 , 4134.87179487 , 4136.92307692 , 4135.8974359 , 4136.41025641 , 4130.76923077 , 4135.8974359 , 4137.43589744 , 4140.0 , 4194.87179487 , 4914.35897436 , 4136.41025641 , 4137.43589744 , 2044.0 , 2030.0 , 318.852 , 0.0 , 0.0 , 0.0 , 0.0 , 

100.0 , 4133.84615385 , 4130.25641026 , 4135.38461538 , 4135.38461538 , 4135.8974359 , 4134.35897436 , 4129.74358974 , 4134.87179487 , 4138.97435897 , 4141.02564103 , 4189.74358974 , 4911.28205128 , 4135.8974359 , 4138.97435897 , 2043.0 , 2030.0 , 318.855 , 0.0 , 0.0 , 0.0 , 0.0 , 

101.0 , 4133.84615385 , 4131.79487179 , 4134.35897436 , 4136.92307692 , 4135.8974359 , 4132.30769231 , 4129.74358974 , 4136.92307692 , 4140.0 , 4141.02564103 , 4190.25641026 , 4911.28205128 , 4137.94871795 , 4140.51282051 , 2043.0 , 2031.0 , 318.863 , 0.0 , 0.0 , 0.0 , 0.0 , 

102.0 , 4132.82051282 , 4131.79487179 , 4133.84615385 , 4137.43589744 , 4135.8974359 , 4134.35897436 , 4130.25641026 , 4137.43589744 , 4138.46153846 , 4141.53846154 , 4190.76923077 , 4911.79487179 , 4138.97435897 , 4138.97435897 , 2043.0 , 2034.0 , 318.872 , 0.0 , 0.0 , 0.0 , 0.0 , 

103.0 , 4134.87179487 , 4131.28205128 , 4133.84615385 , 4136.92307692 , 4135.8974359 , 4134.87179487 , 4128.71794872 , 4133.84615385 , 4135.8974359 , 4142.05128205 , 4192.82051282 , 4909.74358974 , 4136.41025641 , 4137.94871795 , 2045.0 , 2035.0 , 318.883 , 0.0 , 0.0 , 0.0 , 0.0 , 

104.0 , 4136.41025641 , 4133.33333333 , 4133.33333333 , 4136.92307692 , 4135.8974359 , 4135.38461538 , 4129.23076923 , 4134.35897436 , 4135.8974359 , 4141.53846154 , 4193.84615385 , 4909.74358974 , 4135.8974359 , 4138.97435897 , 2041.0 , 2038.0 , 318.887 , 0.0 , 0.0 , 0.0 , 0.0 , 

105.0 , 4134.35897436 , 4134.35897436 , 4131.79487179 , 4135.38461538 , 4135.8974359 , 4136.41025641 , 4131.28205128 , 4136.92307692 , 4137.43589744 , 4139.48717949 , 4189.74358974 , 4911.79487179 , 4137.94871795 , 4143.07692308 , 2043.0 , 2037.0 , 318.894 , 0.0 , 0.0 , 0.0 , 0.0 , 

106.0 , 4133.33333333 , 4134.87179487 , 4134.35897436 , 4134.87179487 , 4135.38461538 , 4134.35897436 , 4129.74358974 , 4137.43589744 , 4136.92307692 , 4136.92307692 , 4191.28205128 , 4913.33333333 , 4137.94871795 , 4142.05128205 , 2042.0 , 2037.0 , 318.903 , 0.0 , 0.0 , 0.0 , 0.0 , 

107.0 , 4132.30769231 , 4133.33333333 , 4133.84615385 , 4136.92307692 , 4134.35897436 , 4132.30769231 , 4127.17948718 , 4135.8974359 , 4135.8974359 , 4136.92307692 , 4200.0 , 4912.82051282 , 4136.41025641 , 4142.05128205 , 2042.0 , 2035.0 , 318.915 , 0.0 , 0.0 , 0.0 , 0.0 , 

108.0 , 4131.79487179 , 4131.79487179 , 4133.33333333 , 4137.94871795 , 4134.35897436 , 4131.79487179 , 4128.71794872 , 4134.87179487 , 4135.8974359 , 4135.8974359 , 4197.43589744 , 4911.79487179 , 4135.38461538 , 4145.12820513 , 2042.0 , 2034.0 , 318.919 , 0.0 , 0.0 , 0.0 , 0.0 , 

109.0 , 4133.33333333 , 4132.30769231 , 4137.43589744 , 4136.41025641 , 4134.35897436 , 4134.35897436 , 4130.25641026 , 4135.8974359 , 4136.41025641 , 4136.92307692 , 4186.15384615 , 4913.33333333 , 4136.92307692 , 4141.53846154 , 2043.0 , 2033.0 , 318.926 , 0.0 , 0.0 , 0.0 , 0.0 , 

110.0 , 4132.82051282 , 4132.30769231 , 4138.97435897 , 4134.87179487 , 4134.35897436 , 4132.82051282 , 4129.23076923 , 4136.92307692 , 4137.43589744 , 4142.05128205 , 4189.23076923 , 4915.38461538 , 4136.92307692 , 4135.8974359 , 2045.0 , 2031.0 , 318.934 , 0.0 , 0.0 , 0.0 , 0.0 , 

111.0 , 4129.74358974 , 4131.79487179 , 4133.84615385 , 4136.41025641 , 4134.35897436 , 4129.74358974 , 4126.15384615 , 4136.41025641 , 4137.43589744 , 4143.07692308 , 4197.43589744 , 4912.82051282 , 4135.8974359 , 4138.46153846 , 2045.0 , 2032.0 , 318.946 , 0.0 , 0.0 , 0.0 , 0.0 , 

112.0 , 4130.25641026 , 4132.82051282 , 4133.84615385 , 4136.92307692 , 4134.35897436 , 4132.30769231 , 4124.1025641 , 4134.87179487 , 4136.41025641 , 4141.02564103 , 4189.74358974 , 4911.79487179 , 4136.41025641 , 4140.51282051 , 2045.0 , 2032.0 , 318.949 , 0.0 , 0.0 , 0.0 , 0.0 , 

113.0 , 4133.84615385 , 4131.79487179 , 4138.97435897 , 4136.92307692 , 4134.35897436 , 4135.8974359 , 4125.64102564 , 4136.41025641 , 4135.8974359 , 4141.53846154 , 4183.58974359 , 4913.33333333 , 4136.41025641 , 4139.48717949 , 2045.0 , 2034.0 , 318.957 , 0.0 , 0.0 , 0.0 , 0.0 , 

114.0 , 4133.84615385 , 4133.33333333 , 4138.46153846 , 4137.43589744 , 4134.35897436 , 4129.23076923 , 4129.23076923 , 4136.92307692 , 4135.38461538 , 4137.94871795 , 4191.79487179 , 4912.30769231 , 4134.87179487 , 4140.51282051 , 2044.0 , 2036.0 , 318.965 , 0.0 , 0.0 , 0.0 , 0.0 , 

115.0 , 4132.82051282 , 4137.94871795 , 4133.84615385 , 4136.41025641 , 4134.35897436 , 4126.15384615 , 4129.23076923 , 4135.8974359 , 4135.8974359 , 4134.87179487 , 4195.8974359 , 4910.25641026 , 4134.35897436 , 4140.0 , 2044.0 , 2036.0 , 318.977 , 0.0 , 0.0 , 0.0 , 0.0 , 

116.0 , 4132.30769231 , 4136.41025641 , 4133.84615385 , 4134.35897436 , 4134.35897436 , 4128.71794872 , 4128.20512821 , 4136.92307692 , 4137.43589744 , 4139.48717949 , 4188.71794872 , 4909.74358974 , 4136.41025641 , 4140.0 , 2043.0 , 2037.0 , 318.981 , 0.0 , 0.0 , 0.0 , 0.0 , 

117.0 , 4133.84615385 , 4134.87179487 , 4136.41025641 , 4136.92307692 , 4134.35897436 , 4125.64102564 , 4129.74358974 , 4136.41025641 , 4136.41025641 , 4141.53846154 , 4188.71794872 , 4909.23076923 , 4137.43589744 , 4140.0 , 2042.0 , 2036.0 , 318.99 , 0.0 , 0.0 , 0.0 , 0.0 , 

118.0 , 4136.41025641 , 4135.8974359 , 4135.8974359 , 4137.94871795 , 4134.35897436 , 4128.71794872 , 4129.74358974 , 4132.82051282 , 4135.8974359 , 4137.94871795 , 4193.33333333 , 4911.79487179 , 4136.92307692 , 4137.94871795 , 2041.0 , 2037.0 , 318.997 , 0.0 , 0.0 , 0.0 , 0.0 , 

119.0 , 4135.38461538 , 4132.30769231 , 4135.8974359 , 4135.38461538 , 4134.35897436 , 4137.43589744 , 4129.23076923 , 4133.84615385 , 4135.8974359 , 4136.92307692 , 4192.30769231 , 4912.82051282 , 4136.41025641 , 4138.97435897 , 2040.0 , 2035.0 , 319.009 , 0.0 , 0.0 , 0.0 , 0.0 , 

120.0 , 4132.30769231 , 4129.23076923 , 4135.38461538 , 4135.38461538 , 4134.35897436 , 4130.76923077 , 4126.66666667 , 4137.94871795 , 4133.84615385 , 4137.94871795 , 4191.79487179 , 4909.74358974 , 4136.92307692 , 4139.48717949 , 2040.0 , 2037.0 , 319.012 , 0.0 , 0.0 , 0.0 , 0.0 , 

121.0 , 4133.84615385 , 4133.33333333 , 4133.33333333 , 4137.43589744 , 4134.35897436 , 4125.64102564 , 4126.15384615 , 4136.92307692 , 4134.35897436 , 4138.97435897 , 4191.28205128 , 4908.71794872 , 4136.41025641 , 4137.94871795 , 2040.0 , 2038.0 , 319.021 , 0.0 , 0.0 , 0.0 , 0.0 , 

122.0 , 4132.82051282 , 4134.87179487 , 4133.84615385 , 4137.43589744 , 4134.35897436 , 4132.30769231 , 4128.20512821 , 4135.38461538 , 4136.92307692 , 4137.94871795 , 4191.79487179 , 4912.82051282 , 4137.43589744 , 4137.94871795 , 2041.0 , 2038.0 , 319.029 , 0.0 , 0.0 , 0.0 , 0.0 , 

123.0 , 4130.25641026 , 4132.82051282 , 4137.94871795 , 4136.92307692 , 4134.35897436 , 4130.25641026 , 4130.25641026 , 4136.41025641 , 4136.41025641 , 4137.94871795 , 4194.35897436 , 4914.35897436 , 4136.41025641 , 4142.05128205 , 2042.0 , 2038.0 , 319.04 , 0.0 , 0.0 , 0.0 , 0.0 , 

124.0 , 4133.33333333 , 4133.33333333 , 4135.8974359 , 4135.8974359 , 4134.35897436 , 4125.12820513 , 4128.71794872 , 4134.35897436 , 4135.38461538 , 4137.43589744 , 4193.84615385 , 4913.84615385 , 4132.30769231 , 4141.53846154 , 2042.0 , 2039.0 , 319.044 , 0.0 , 0.0 , 0.0 , 0.0 , 

125.0 , 4136.41025641 , 4134.35897436 , 4133.84615385 , 4135.38461538 , 4134.35897436 , 4128.71794872 , 4128.20512821 , 4134.35897436 , 4136.92307692 , 4136.41025641 , 4191.79487179 , 4910.76923077 , 4132.30769231 , 4137.94871795 , 2042.0 , 2036.0 , 319.052 , 0.0 , 0.0 , 0.0 , 0.0 , 

126.0 , 4131.79487179 , 4131.28205128 , 4136.92307692 , 4135.8974359 , 4134.35897436 , 4129.23076923 , 4130.25641026 , 4136.41025641 , 4138.97435897 , 4138.97435897 , 4192.30769231 , 4908.71794872 , 4136.92307692 , 4142.05128205 , 2043.0 , 2035.0 , 319.06 , 0.0 , 0.0 , 0.0 , 0.0 , 

127.0 , 4131.28205128 , 4131.28205128 , 4137.43589744 , 4138.46153846 , 4134.35897436 , 4131.28205128 , 4130.25641026 , 4136.41025641 , 4139.48717949 , 4141.53846154 , 4189.23076923 , 4912.30769231 , 4136.92307692 , 4147.17948718 , 2042.0 , 2030.0 , 319.072 , 0.0 , 0.0 , 0.0 , 0.0 , 

128.0 , 4133.33333333 , 4132.30769231 , 4133.84615385 , 4137.43589744 , 4134.35897436 , 4135.8974359 , 4126.15384615 , 4136.41025641 , 4139.48717949 , 4141.02564103 , 4187.69230769 , 4912.82051282 , 4135.8974359 , 4144.61538462 , 2041.0 , 2032.0 , 319.075 , 0.0 , 0.0 , 0.0 , 0.0 , 

0.0 , 4133.33333333 , 4131.79487179 , 4134.35897436 , 4135.38461538 , 4134.35897436 , 4133.33333333 , 4124.61538462 , 4136.41025641 , 4136.92307692 , 4140.0 , 4192.30769231 , 4910.25641026 , 4137.43589744 , 4140.0 , 2039.0 , 2029.0 , 319.084 , 0.0 , 0.0 , 0.0 , 0.0 , 

1.0 , 4134.35897436 , 4132.82051282 , 4136.41025641 , 4135.38461538 , 4134.35897436 , 4132.30769231 , 4127.17948718 , 4137.43589744 , 4136.41025641 , 4140.0 , 4192.82051282 , 4911.79487179 , 4137.43589744 , 4142.56410256 , 2038.0 , 2031.0 , 319.091 , 0.0 , 0.0 , 0.0 , 0.0 , 

2.0 , 4134.35897436 , 4133.84615385 , 4135.38461538 , 4135.8974359 , 4133.84615385 , 4135.8974359 , 4130.25641026 , 4137.43589744 , 4137.43589744 , 4137.94871795 , 4189.23076923 , 4911.79487179 , 4135.38461538 , 4146.15384615 , 2039.0 , 2032.0 , 319.105 , 0.0 , 0.0 , 0.0 , 0.0 , 

3.0 , 4132.30769231 , 4131.79487179 , 4133.84615385 , 4137.94871795 , 4135.38461538 , 4136.41025641 , 4130.76923077 , 4133.33333333 , 4136.92307692 , 4137.94871795 , 4190.25641026 , 4908.20512821 , 4135.8974359 , 4142.05128205 , 2039.0 , 2035.0 , 319.108 , 0.0 , 0.0 , 0.0 , 0.0 , 

4.0 , 4134.35897436 , 4129.74358974 , 4135.38461538 , 4134.87179487 , 4137.43589744 , 4132.82051282 , 4130.76923077 , 4130.25641026 , 4135.8974359 , 4140.51282051 , 4192.30769231 , 4908.71794872 , 4136.92307692 , 4137.94871795 , 2039.0 , 2035.0 , 319.115 , 0.0 , 0.0 , 0.0 , 0.0 , 

5.0 , 4136.92307692 , 4129.23076923 , 4136.92307692 , 4132.82051282 , 4136.41025641 , 4128.20512821 , 4129.74358974 , 4134.87179487 , 4136.41025641 , 4140.0 , 4190.25641026 , 4908.71794872 , 4134.35897436 , 4137.94871795 , 2041.0 , 2037.0 , 319.123 , 0.0 , 0.0 , 0.0 , 0.0 , 

6.0 , 4133.33333333 , 4128.20512821 , 4135.8974359 , 4132.82051282 , 4133.84615385 , 4129.74358974 , 4126.66666667 , 4136.41025641 , 4135.8974359 , 4136.92307692 , 4189.74358974 , 4909.23076923 , 4130.76923077 , 4136.92307692 , 2041.0 , 2038.0 , 319.135 , 0.0 , 0.0 , 0.0 , 0.0 , 

7.0 , 4131.79487179 , 4130.76923077 , 4135.38461538 , 4130.76923077 , 4133.84615385 , 4135.38461538 , 4127.17948718 , 4131.79487179 , 4135.38461538 , 4137.43589744 , 4192.82051282 , 4912.82051282 , 4133.84615385 , 4136.92307692 , 2041.0 , 2039.0 , 319.139 , 0.0 , 0.0 , 0.0 , 0.0 , 

8.0 , 4133.84615385 , 4131.79487179 , 4135.8974359 , 4130.25641026 , 4134.35897436 , 4133.84615385 , 4130.25641026 , 4131.28205128 , 4135.8974359 , 4136.92307692 , 4190.25641026 , 4913.84615385 , 4137.43589744 , 4141.53846154 , 2042.0 , 2039.0 , 319.146 , 0.0 , 0.0 , 0.0 , 0.0 , 

9.0 , 4134.87179487 , 4129.74358974 , 4137.94871795 , 4133.84615385 , 4133.84615385 , 4131.79487179 , 4129.74358974 , 4136.41025641 , 4137.43589744 , 4136.41025641 , 4185.64102564 , 4910.76923077 , 4134.35897436 , 4143.07692308 , 2044.0 , 2038.0 , 319.155 , 0.0 , 0.0 , 0.0 , 0.0 , 

10.0 , 4133.84615385 , 4128.71794872 , 4137.43589744 , 4135.38461538 , 4133.84615385 , 4134.35897436 , 4129.23076923 , 4137.43589744 , 4137.94871795 , 4140.0 , 4189.23076923 , 4911.79487179 , 4132.82051282 , 4140.0 , 2044.0 , 2033.0 , 319.167 , 0.0 , 0.0 , 0.0 , 0.0 , 

11.0 , 4134.87179487 , 4130.76923077 , 4135.38461538 , 4135.8974359 , 4133.84615385 , 4134.87179487 , 4131.79487179 , 4136.41025641 , 4136.41025641 , 4142.05128205 , 4195.38461538 , 4912.82051282 , 4135.38461538 , 4140.51282051 , 2043.0 , 2031.0 , 319.171 , 0.0 , 0.0 , 0.0 , 0.0 , 

12.0 , 4135.38461538 , 4132.30769231 , 4134.35897436 , 4137.94871795 , 4133.84615385 , 4132.82051282 , 4130.76923077 , 4136.92307692 , 4136.92307692 , 4140.51282051 , 4193.84615385 , 4910.76923077 , 4135.8974359 , 4140.51282051 , 2045.0 , 2029.0 , 319.179 , 0.0 , 0.0 , 0.0 , 0.0 , 

13.0 , 4133.84615385 , 4130.76923077 , 4133.84615385 , 4137.43589744 , 4133.84615385 , 4135.8974359 , 4129.23076923 , 4137.94871795 , 4138.97435897 , 4141.02564103 , 4191.79487179 , 4909.23076923 , 4135.8974359 , 4138.97435897 , 2044.0 , 2028.0 , 319.186 , 0.0 , 0.0 , 0.0 , 0.0 , 

14.0 , 4131.79487179 , 4130.25641026 , 4131.28205128 , 4137.43589744 , 4133.84615385 , 4137.43589744 , 4132.82051282 , 4136.41025641 , 4137.94871795 , 4139.48717949 , 4190.25641026 , 4910.76923077 , 4135.8974359 , 4138.46153846 , 2044.0 , 2027.0 , 319.199 , 0.0 , 0.0 , 0.0 , 0.0 , 

15.0 , 4131.28205128 , 4132.82051282 , 4129.74358974 , 4138.46153846 , 4133.84615385 , 4134.87179487 , 4134.35897436 , 4136.92307692 , 4135.8974359 , 4135.8974359 , 4184.61538462 , 4910.25641026 , 4136.41025641 , 4140.0 , 2044.0 , 2029.0 , 319.203 , 0.0 , 0.0 , 0.0 , 0.0 , 

16.0 , 4131.28205128 , 4133.33333333 , 4130.25641026 , 4135.8974359 , 4133.84615385 , 4131.79487179 , 4130.76923077 , 4138.46153846 , 4136.92307692 , 4140.0 , 4186.66666667 , 4909.23076923 , 4135.8974359 , 4140.51282051 , 2043.0 , 2028.0 , 319.21 , 0.0 , 0.0 , 0.0 , 0.0 , 

17.0 , 4131.28205128 , 4131.79487179 , 4132.82051282 , 4136.92307692 , 4133.84615385 , 4132.30769231 , 4128.20512821 , 4135.8974359 , 4137.94871795 , 4142.05128205 , 4193.33333333 , 4908.20512821 , 4135.38461538 , 4139.48717949 , 2045.0 , 2032.0 , 319.217 , 0.0 , 0.0 , 0.0 , 0.0 , 

18.0 , 4131.28205128 , 4130.25641026 , 4134.87179487 , 4137.43589744 , 4133.84615385 , 4132.82051282 , 4128.71794872 , 4133.84615385 , 4136.92307692 , 4137.43589744 , 4191.79487179 , 4907.69230769 , 4135.8974359 , 4137.43589744 , 2044.0 , 2033.0 , 319.23 , 0.0 , 0.0 , 0.0 , 0.0 , 

19.0 , 4132.30769231 , 4132.30769231 , 4135.38461538 , 4134.35897436 , 4133.84615385 , 4130.25641026 , 4129.74358974 , 4136.41025641 , 4136.92307692 , 4144.61538462 , 4188.20512821 , 4909.23076923 , 4136.92307692 , 4138.97435897 , 2042.0 , 2037.0 , 319.233 , 0.0 , 0.0 , 0.0 , 0.0 , 

20.0 , 4130.76923077 , 4133.33333333 , 4133.33333333 , 4134.87179487 , 4133.84615385 , 4128.71794872 , 4129.74358974 , 4136.41025641 , 4136.92307692 , 4155.38461538 , 4189.23076923 , 4911.28205128 , 4136.92307692 , 4139.48717949 , 2042.0 , 2038.0 , 319.247 , 0.0 , 0.0 , 0.0 , 0.0 , 

21.0 , 4130.25641026 , 4131.79487179 , 4134.87179487 , 4136.41025641 , 4133.33333333 , 4133.84615385 , 4128.20512821 , 4133.84615385 , 4136.41025641 , 4147.69230769 , 4187.69230769 , 4908.71794872 , 4135.38461538 , 4136.92307692 , 2040.0 , 2038.0 , 319.25 , 0.0 , 0.0 , 0.0 , 0.0 , 

22.0 , 4131.79487179 , 4130.76923077 , 4135.38461538 , 4134.35897436 , 4134.35897436 , 4137.94871795 , 4129.23076923 , 4135.8974359 , 4136.92307692 , 4134.87179487 , 4187.69230769 , 4906.66666667 , 4135.38461538 , 4136.41025641 , 2039.0 , 2035.0 , 319.262 , 0.0 , 0.0 , 0.0 , 0.0 , 

23.0 , 4132.30769231 , 4129.23076923 , 4132.30769231 , 4132.82051282 , 4136.41025641 , 4135.8974359 , 4131.28205128 , 4137.94871795 , 4136.92307692 , 4135.8974359 , 4187.17948718 , 4909.74358974 , 4135.38461538 , 4138.97435897 , 2040.0 , 2037.0 , 319.271 , 0.0 , 0.0 , 0.0 , 0.0 , 

24.0 , 4130.76923077 , 4129.23076923 , 4133.33333333 , 4135.8974359 , 4137.43589744 , 4135.8974359 , 4129.74358974 , 4135.8974359 , 4135.8974359 , 4140.0 , 4184.61538462 , 4908.71794872 , 4135.38461538 , 4139.48717949 , 2039.0 , 2034.0 , 319.274 , 0.0 , 0.0 , 0.0 , 0.0 , 

25.0 , 4131.79487179 , 4130.25641026 , 4137.94871795 , 4137.43589744 , 4136.41025641 , 4135.38461538 , 4127.69230769 , 4135.38461538 , 4135.8974359 , 4138.97435897 , 4188.71794872 , 4907.69230769 , 4135.8974359 , 4135.8974359 , 2039.0 , 2033.0 , 319.281 , 0.0 , 0.0 , 0.0 , 0.0 , 

26.0 , 4133.84615385 , 4131.28205128 , 4138.46153846 , 4134.87179487 , 4135.8974359 , 4133.84615385 , 4128.71794872 , 4137.43589744 , 4136.92307692 , 4138.97435897 , 4194.35897436 , 4912.30769231 , 4136.41025641 , 4136.92307692 , 2040.0 , 2033.0 , 319.293 , 0.0 , 0.0 , 0.0 , 0.0 , 

27.0 , 4131.28205128 , 4131.28205128 , 4133.33333333 , 4132.30769231 , 4135.8974359 , 4132.82051282 , 4131.28205128 , 4138.46153846 , 4136.92307692 , 4140.0 , 4191.28205128 , 4915.38461538 , 4134.87179487 , 4142.05128205 , 2040.0 , 2034.0 , 319.296 , 0.0 , 0.0 , 0.0 , 0.0 , 

28.0 , 4130.25641026 , 4129.74358974 , 4131.79487179 , 4136.92307692 , 4134.35897436 , 4127.17948718 , 4130.25641026 , 4137.94871795 , 4136.92307692 , 4139.48717949 , 4186.15384615 , 4911.28205128 , 4134.87179487 , 4142.56410256 , 2042.0 , 2035.0 , 319.304 , 0.0 , 0.0 , 0.0 , 0.0 , 

29.0 , 4132.82051282 , 4128.71794872 , 4134.87179487 , 4137.43589744 , 4133.84615385 , 4125.12820513 , 4128.71794872 , 4137.43589744 , 4137.43589744 , 4139.48717949 , 4189.23076923 , 4910.76923077 , 4136.92307692 , 4137.94871795 , 2043.0 , 2035.0 , 319.312 , 0.0 , 0.0 , 0.0 , 0.0 , 

30.0 , 4134.35897436 , 4130.76923077 , 4135.8974359 , 4131.79487179 , 4135.38461538 , 4135.38461538 , 4127.69230769 , 4137.43589744 , 4136.92307692 , 4140.0 , 4193.33333333 , 4914.35897436 , 4137.43589744 , 4136.92307692 , 2046.0 , 2035.0 , 319.324 , 0.0 , 0.0 , 0.0 , 0.0 , 

31.0 , 4132.30769231 , 4131.28205128 , 4133.33333333 , 4131.28205128 , 4135.38461538 , 4137.43589744 , 4124.61538462 , 4137.43589744 , 4136.92307692 , 4139.48717949 , 4194.87179487 , 4912.30769231 , 4136.41025641 , 4138.46153846 , 2047.0 , 2034.0 , 319.328 , 0.0 , 0.0 , 0.0 , 0.0 , 

32.0 , 4132.82051282 , 4128.20512821 , 4132.82051282 , 4135.38461538 , 4133.84615385 , 4131.28205128 , 4124.1025641 , 4135.38461538 , 4137.43589744 , 4139.48717949 , 4192.82051282 , 4909.23076923 , 4135.38461538 , 4138.46153846 , 2046.0 , 2034.0 , 319.335 , 0.0 , 0.0 , 0.0 , 0.0 , 

33.0 , 4132.82051282 , 4129.23076923 , 4132.82051282 , 4135.8974359 , 4133.84615385 , 4133.33333333 , 4127.17948718 , 4133.33333333 , 4137.94871795 , 4141.53846154 , 4190.25641026 , 4911.79487179 , 4136.41025641 , 4138.46153846 , 2047.0 , 2034.0 , 319.342 , 0.0 , 0.0 , 0.0 , 0.0 , 

34.0 , 4131.79487179 , 4131.79487179 , 4133.33333333 , 4131.28205128 , 4135.38461538 , 4133.33333333 , 4130.25641026 , 4134.87179487 , 4136.92307692 , 4143.07692308 , 4191.79487179 , 4914.35897436 , 4136.92307692 , 4138.97435897 , 2045.0 , 2033.0 , 319.354 , 0.0 , 0.0 , 0.0 , 0.0 , 

35.0 , 4130.76923077 , 4129.74358974 , 4134.35897436 , 4129.74358974 , 4135.38461538 , 4127.17948718 , 4128.71794872 , 4137.43589744 , 4136.92307692 , 4142.05128205 , 4194.87179487 , 4911.79487179 , 4136.41025641 , 4140.0 , 2046.0 , 2032.0 , 319.359 , 0.0 , 0.0 , 0.0 , 0.0 , 

36.0 , 4131.79487179 , 4130.25641026 , 4134.87179487 , 4136.41025641 , 4134.35897436 , 4131.28205128 , 4128.20512821 , 4135.8974359 , 4136.92307692 , 4140.0 , 4193.84615385 , 4909.23076923 , 4135.8974359 , 4140.51282051 , 2045.0 , 2032.0 , 319.368 , 0.0 , 0.0 , 0.0 , 0.0 , 

37.0 , 4133.84615385 , 4130.76923077 , 4133.33333333 , 4139.48717949 , 4135.38461538 , 4136.41025641 , 4130.76923077 , 4135.38461538 , 4136.92307692 , 4138.97435897 , 4191.79487179 , 4911.79487179 , 4136.41025641 , 4142.05128205 , 2047.0 , 2031.0 , 319.375 , 0.0 , 0.0 , 0.0 , 0.0 , 

38.0 , 4134.35897436 , 4129.74358974 , 4133.84615385 , 4134.35897436 , 4136.41025641 , 4135.38461538 , 4132.30769231 , 4135.38461538 , 4137.43589744 , 4139.48717949 , 4191.79487179 , 4912.82051282 , 4136.41025641 , 4144.1025641 , 2046.0 , 2031.0 , 319.387 , 0.0 , 0.0 , 0.0 , 0.0 , 

39.0 , 4134.35897436 , 4129.23076923 , 4132.82051282 , 4134.35897436 , 4135.8974359 , 4134.87179487 , 4130.25641026 , 4134.87179487 , 4136.92307692 , 4139.48717949 , 4189.74358974 , 4910.76923077 , 4135.8974359 , 4141.53846154 , 2046.0 , 2033.0 , 319.392 , 0.0 , 0.0 , 0.0 , 0.0 , 

40.0 , 4135.38461538 , 4129.74358974 , 4130.76923077 , 4134.87179487 , 4135.8974359 , 4133.33333333 , 4126.15384615 , 4135.8974359 , 4135.38461538 , 4138.97435897 , 4188.71794872 , 4909.23076923 , 4136.41025641 , 4138.46153846 , 2043.0 , 2033.0 , 319.399 , 0.0 , 0.0 , 0.0 , 0.0 , 

41.0 , 4133.33333333 , 4131.28205128 , 4131.28205128 , 4129.23076923 , 4136.41025641 , 4133.33333333 , 4125.12820513 , 4131.79487179 , 4136.92307692 , 4138.97435897 , 4194.35897436 , 4911.79487179 , 4136.92307692 , 4139.48717949 , 2045.0 , 2033.0 , 319.408 , 0.0 , 0.0 , 0.0 , 0.0 , 

42.0 , 4129.74358974 , 4132.30769231 , 4132.82051282 , 4132.30769231 , 4135.8974359 , 4133.84615385 , 4126.15384615 , 4128.20512821 , 4137.94871795 , 4137.94871795 , 4194.87179487 , 4912.30769231 , 4136.92307692 , 4138.46153846 , 2045.0 , 2035.0 , 319.416 , 0.0 , 0.0 , 0.0 , 0.0 , 

43.0 , 4130.25641026 , 4132.30769231 , 4132.30769231 , 4138.97435897 , 4135.38461538 , 4129.74358974 , 4128.20512821 , 4134.35897436 , 4136.92307692 , 4139.48717949 , 4190.25641026 , 4910.76923077 , 4136.41025641 , 4138.46153846 , 2043.0 , 2036.0 , 319.424 , 0.0 , 0.0 , 0.0 , 0.0 , 

44.0 , 4131.79487179 , 4130.25641026 , 4131.28205128 , 4137.43589744 , 4135.38461538 , 4129.23076923 , 4128.71794872 , 4140.0 , 4136.41025641 , 4144.61538462 , 4192.82051282 , 4909.74358974 , 4136.41025641 , 4140.51282051 , 2042.0 , 2038.0 , 319.43 , 0.0 , 0.0 , 0.0 , 0.0 , 

45.0 , 4132.82051282 , 4130.76923077 , 4130.25641026 , 4136.41025641 , 4135.38461538 , 4134.87179487 , 4128.20512821 , 4133.84615385 , 4137.43589744 , 4142.05128205 , 4193.84615385 , 4908.71794872 , 4134.87179487 , 4140.51282051 , 2042.0 , 2038.0 , 319.439 , 0.0 , 0.0 , 0.0 , 0.0 , 

46.0 , 4134.35897436 , 4132.30769231 , 4131.79487179 , 4135.8974359 , 4135.38461538 , 4134.35897436 , 4128.20512821 , 4130.25641026 , 4136.41025641 , 4137.43589744 , 4189.74358974 , 4910.25641026 , 4133.33333333 , 4140.51282051 , 2043.0 , 2036.0 , 319.451 , 0.0 , 0.0 , 0.0 , 0.0 , 

47.0 , 4134.87179487 , 4132.82051282 , 4134.35897436 , 4135.8974359 , 4135.38461538 , 4132.30769231 , 4128.20512821 , 4134.87179487 , 4135.8974359 , 4139.48717949 , 4189.74358974 , 4910.76923077 , 4134.87179487 , 4143.07692308 , 2040.0 , 2035.0 , 319.454 , 0.0 , 0.0 , 0.0 , 0.0 , 

48.0 , 4131.28205128 , 4130.25641026 , 4132.82051282 , 4138.97435897 , 4135.38461538 , 4135.38461538 , 4128.20512821 , 4136.92307692 , 4136.41025641 , 4141.02564103 , 4192.30769231 , 4909.23076923 , 4136.92307692 , 4141.53846154 , 2040.0 , 2032.0 , 319.462 , 0.0 , 0.0 , 0.0 , 0.0 , 

49.0 , 4130.25641026 , 4128.20512821 , 4131.79487179 , 4137.94871795 , 4135.8974359 , 4136.41025641 , 4128.71794872 , 4135.8974359 , 4137.43589744 , 4138.97435897 , 4191.79487179 , 4912.30769231 , 4136.92307692 , 4142.56410256 , 2041.0 , 2030.0 , 319.469 , 0.0 , 0.0 , 0.0 , 0.0 , 

50.0 , 4130.76923077 , 4128.71794872 , 4132.30769231 , 4134.35897436 , 4134.87179487 , 4135.38461538 , 4127.17948718 , 4136.41025641 , 4137.94871795 , 4137.43589744 , 4192.30769231 , 4912.82051282 , 4135.8974359 , 4146.66666667 , 2041.0 , 2032.0 , 319.482 , 0.0 , 0.0 , 0.0 , 0.0 , 

51.0 , 4132.30769231 , 4130.76923077 , 4131.79487179 , 4136.41025641 , 4134.87179487 , 4136.41025641 , 4126.15384615 , 4137.94871795 , 4137.43589744 , 4138.46153846 , 4192.82051282 , 4909.74358974 , 4136.92307692 , 4144.61538462 , 2040.0 , 2033.0 , 319.485 , 0.0 , 0.0 , 0.0 , 0.0 , 

52.0 , 4132.82051282 , 4130.76923077 , 4130.76923077 , 4136.92307692 , 4136.41025641 , 4135.38461538 , 4128.71794872 , 4137.94871795 , 4135.8974359 , 4140.0 , 4189.23076923 , 4911.28205128 , 4137.94871795 , 4139.48717949 , 2041.0 , 2033.0 , 319.493 , 0.0 , 0.0 , 0.0 , 0.0 , 

53.0 , 4131.28205128 , 4129.23076923 , 4132.82051282 , 4135.8974359 , 4133.33333333 , 4135.38461538 , 4129.23076923 , 4136.92307692 , 4135.8974359 , 4141.53846154 , 4190.25641026 , 4914.87179487 , 4136.92307692 , 4137.94871795 , 2041.0 , 2033.0 , 319.502 , 0.0 , 0.0 , 0.0 , 0.0 , 

54.0 , 4131.79487179 , 4130.25641026 , 4131.79487179 , 4138.97435897 , 4130.76923077 , 4135.8974359 , 4129.23076923 , 4136.92307692 , 4136.41025641 , 4139.48717949 , 4195.8974359 , 4911.79487179 , 4135.8974359 , 4138.97435897 , 2041.0 , 2032.0 , 319.515 , 0.0 , 0.0 , 0.0 , 0.0 , 

55.0 , 4134.87179487 , 4131.79487179 , 4130.25641026 , 4136.92307692 , 4133.33333333 , 4133.84615385 , 4130.76923077 , 4138.97435897 , 4137.43589744 , 4136.92307692 , 4194.35897436 , 4908.71794872 , 4135.8974359 , 4140.0 , 2041.0 , 2033.0 , 319.518 , 0.0 , 0.0 , 0.0 , 0.0 , 

56.0 , 4134.87179487 , 4129.74358974 , 4131.28205128 , 4132.82051282 , 4135.38461538 , 4133.33333333 , 4130.25641026 , 4138.97435897 , 4136.92307692 , 4138.46153846 , 4192.30769231 , 4909.74358974 , 4136.41025641 , 4143.58974359 , 2042.0 , 2033.0 , 319.527 , 0.0 , 0.0 , 0.0 , 0.0 , 

57.0 , 4133.84615385 , 4128.71794872 , 4132.82051282 , 4136.41025641 , 4133.84615385 , 4134.35897436 , 4126.66666667 , 4135.8974359 , 4135.38461538 , 4140.0 , 4194.87179487 , 4912.30769231 , 4136.41025641 , 4142.56410256 , 2043.0 , 2033.0 , 319.533 , 0.0 , 0.0 , 0.0 , 0.0 , 

58.0 , 4135.38461538 , 4130.25641026 , 4133.33333333 , 4138.97435897 , 4134.35897436 , 4132.30769231 , 4127.17948718 , 4135.38461538 , 4134.87179487 , 4138.97435897 , 4194.35897436 , 4913.33333333 , 4136.41025641 , 4139.48717949 , 2043.0 , 2034.0 , 319.545 , 0.0 , 0.0 , 0.0 , 0.0 , 

59.0 , 4134.35897436 , 4131.79487179 , 4133.84615385 , 4135.38461538 , 4135.38461538 , 4132.30769231 , 4129.23076923 , 4135.8974359 , 4136.92307692 , 4137.43589744 , 4190.25641026 , 4911.79487179 , 4135.8974359 , 4143.07692308 , 2043.0 , 2035.0 , 319.548 , 0.0 , 0.0 , 0.0 , 0.0 , 

60.0 , 4136.92307692 , 4130.25641026 , 4132.30769231 , 4134.35897436 , 4134.35897436 , 4135.8974359 , 4128.20512821 , 4134.87179487 , 4137.43589744 , 4138.46153846 , 4189.74358974 , 4908.71794872 , 4135.8974359 , 4142.56410256 , 2043.0 , 2035.0 , 319.556 , 0.0 , 0.0 , 0.0 , 0.0 , 

61.0 , 4139.48717949 , 4130.76923077 , 4131.79487179 , 4136.41025641 , 4134.87179487 , 4135.8974359 , 4127.69230769 , 4134.35897436 , 4135.8974359 , 4137.94871795 , 4186.66666667 , 4910.25641026 , 4134.87179487 , 4136.41025641 , 2044.0 , 2035.0 , 319.564 , 0.0 , 0.0 , 0.0 , 0.0 , 

62.0 , 4135.38461538 , 4134.35897436 , 4134.87179487 , 4134.35897436 , 4135.38461538 , 4136.41025641 , 4128.71794872 , 4132.82051282 , 4134.35897436 , 4138.46153846 , 4185.64102564 , 4913.33333333 , 4135.38461538 , 4137.43589744 , 2044.0 , 2034.0 , 319.576 , 0.0 , 0.0 , 0.0 , 0.0 , 

63.0 , 4134.35897436 , 4133.84615385 , 4133.33333333 , 4133.84615385 , 4134.87179487 , 4135.8974359 , 4126.66666667 , 4131.28205128 , 4135.38461538 , 4138.97435897 , 4186.66666667 , 4913.84615385 , 4135.8974359 , 4143.58974359 , 2044.0 , 2034.0 , 319.58 , 0.0 , 0.0 , 0.0 , 0.0 , 

64.0 , 4140.0 , 4131.28205128 , 4135.38461538 , 4137.43589744 , 4135.38461538 , 4131.79487179 , 4124.61538462 , 4133.33333333 , 4137.43589744 , 4138.46153846 , 4187.17948718 , 4911.79487179 , 4136.41025641 , 4141.53846154 , 2045.0 , 2033.0 , 319.589 , 0.0 , 0.0 , 0.0 , 0.0 , 

65.0 , 4136.41025641 , 4129.74358974 , 4139.48717949 , 4135.8974359 , 4135.8974359 , 4131.28205128 , 4123.58974359 , 4134.35897436 , 4136.41025641 , 4137.94871795 , 4188.71794872 , 4912.30769231 , 4137.43589744 , 4136.92307692 , 2043.0 , 2033.0 , 319.596 , 0.0 , 0.0 , 0.0 , 0.0 , 

66.0 , 4130.25641026 , 4130.25641026 , 4138.46153846 , 4135.38461538 , 4135.8974359 , 4130.76923077 , 4126.15384615 , 4131.79487179 , 4133.84615385 , 4139.48717949 , 4188.71794872 , 4913.84615385 , 4134.87179487 , 4138.97435897 , 2044.0 , 2034.0 , 319.608 , 0.0 , 0.0 , 0.0 , 0.0 , 

67.0 , 4132.82051282 , 4129.23076923 , 4134.87179487 , 4135.8974359 , 4135.8974359 , 4130.25641026 , 4128.20512821 , 4132.30769231 , 4134.87179487 , 4137.43589744 , 4188.20512821 , 4913.33333333 , 4131.28205128 , 4140.0 , 2045.0 , 2033.0 , 319.611 , 0.0 , 0.0 , 0.0 , 0.0 , 

68.0 , 4136.41025641 , 4129.74358974 , 4134.35897436 , 4130.76923077 , 4136.41025641 , 4134.35897436 , 4127.69230769 , 4135.8974359 , 4137.43589744 , 4135.8974359 , 4191.28205128 , 4913.84615385 , 4133.33333333 , 4138.97435897 , 2044.0 , 2034.0 , 319.619 , 0.0 , 0.0 , 0.0 , 0.0 , 

69.0 , 4133.84615385 , 4130.25641026 , 4132.82051282 , 4129.23076923 , 4135.8974359 , 4135.38461538 , 4127.17948718 , 4137.43589744 , 4136.92307692 , 4141.02564103 , 4192.30769231 , 4914.87179487 , 4136.92307692 , 4137.94871795 , 2044.0 , 2036.0 , 319.627 , 0.0 , 0.0 , 0.0 , 0.0 , 

70.0 , 4133.84615385 , 4131.79487179 , 4132.30769231 , 4135.8974359 , 4135.8974359 , 4132.30769231 , 4128.20512821 , 4135.8974359 , 4135.38461538 , 4143.58974359 , 4185.64102564 , 4913.33333333 , 4134.87179487 , 4138.46153846 , 2045.0 , 2036.0 , 319.639 , 0.0 , 0.0 , 0.0 , 0.0 , 

71.0 , 4133.84615385 , 4130.76923077 , 4133.84615385 , 4138.46153846 , 4136.41025641 , 4132.82051282 , 4128.20512821 , 4135.38461538 , 4136.41025641 , 4138.97435897 , 4187.69230769 , 4912.30769231 , 4133.33333333 , 4137.43589744 , 2044.0 , 2036.0 , 319.643 , 0.0 , 0.0 , 0.0 , 0.0 , 

72.0 , 4133.84615385 , 4129.74358974 , 4132.82051282 , 4135.8974359 , 4135.38461538 , 4131.79487179 , 4128.71794872 , 4134.87179487 , 4137.94871795 , 4135.38461538 , 4194.87179487 , 4913.84615385 , 4136.41025641 , 4136.92307692 , 2044.0 , 2038.0 , 319.653 , 0.0 , 0.0 , 0.0 , 0.0 , 

73.0 , 4133.84615385 , 4131.28205128 , 4130.76923077 , 4136.92307692 , 4134.35897436 , 4131.28205128 , 4130.76923077 , 4130.25641026 , 4137.43589744 , 4137.94871795 , 4195.38461538 , 4913.33333333 , 4137.94871795 , 4139.48717949 , 2043.0 , 2038.0 , 319.66 , 0.0 , 0.0 , 0.0 , 0.0 , 

74.0 , 4134.35897436 , 4132.30769231 , 4132.30769231 , 4136.92307692 , 4134.35897436 , 4132.82051282 , 4128.71794872 , 4130.76923077 , 4136.41025641 , 4138.97435897 , 4191.28205128 , 4911.28205128 , 4135.8974359 , 4141.53846154 , 2042.0 , 2036.0 , 319.669 , 0.0 , 0.0 , 0.0 , 0.0 , 

75.0 , 4132.82051282 , 4131.79487179 , 4132.82051282 , 4134.87179487 , 4134.35897436 , 4129.23076923 , 4126.15384615 , 4137.43589744 , 4136.41025641 , 4137.94871795 , 4189.23076923 , 4911.28205128 , 4134.35897436 , 4142.05128205 , 2043.0 , 2036.0 , 319.675 , 0.0 , 0.0 , 0.0 , 0.0 , 

76.0 , 4131.79487179 , 4133.33333333 , 4131.79487179 , 4135.8974359 , 4134.35897436 , 4129.23076923 , 4127.17948718 , 4138.46153846 , 4135.38461538 , 4137.94871795 , 4191.28205128 , 4913.33333333 , 4136.41025641 , 4140.0 , 2043.0 , 2035.0 , 319.683 , 0.0 , 0.0 , 0.0 , 0.0 , 

77.0 , 4133.33333333 , 4132.30769231 , 4130.76923077 , 4135.38461538 , 4134.87179487 , 4137.43589744 , 4129.74358974 , 4135.38461538 , 4136.41025641 , 4137.94871795 , 4192.82051282 , 4916.41025641 , 4138.46153846 , 4138.46153846 , 2043.0 , 2033.0 , 319.691 , 0.0 , 0.0 , 0.0 , 0.0 , 

78.0 , 4134.35897436 , 4128.71794872 , 4130.76923077 , 4134.87179487 , 4134.35897436 , 4133.84615385 , 4130.76923077 , 4136.41025641 , 4137.43589744 , 4137.43589744 , 4190.76923077 , 4914.35897436 , 4138.46153846 , 4137.94871795 , 2045.0 , 2032.0 , 319.703 , 0.0 , 0.0 , 0.0 , 0.0 , 

79.0 , 4133.33333333 , 4131.28205128 , 4130.76923077 , 4134.87179487 , 4134.87179487 , 4124.61538462 , 4129.74358974 , 4137.94871795 , 4136.92307692 , 4137.94871795 , 4188.71794872 , 4908.71794872 , 4137.43589744 , 4137.94871795 , 2045.0 , 2032.0 , 319.708 , 0.0 , 0.0 , 0.0 , 0.0 , 

80.0 , 4132.30769231 , 4132.82051282 , 4131.79487179 , 4135.38461538 , 4136.41025641 , 4130.76923077 , 4128.71794872 , 4136.41025641 , 4138.97435897 , 4139.48717949 , 4191.79487179 , 4908.20512821 , 4136.41025641 , 4138.46153846 , 2045.0 , 2032.0 , 319.714 , 0.0 , 0.0 , 0.0 , 0.0 , 

81.0 , 4132.82051282 , 4130.25641026 , 4134.35897436 , 4136.92307692 , 4136.41025641 , 4135.8974359 , 4128.20512821 , 4136.92307692 , 4139.48717949 , 4139.48717949 , 4192.82051282 , 4910.25641026 , 4136.92307692 , 4137.94871795 , 2043.0 , 2031.0 , 319.723 , 0.0 , 0.0 , 0.0 , 0.0 , 

82.0 , 4132.30769231 , 4130.25641026 , 4134.35897436 , 4133.84615385 , 4134.87179487 , 4132.30769231 , 4128.20512821 , 4136.92307692 , 4137.94871795 , 4137.94871795 , 4188.71794872 , 4911.28205128 , 4137.43589744 , 4137.43589744 , 2043.0 , 2031.0 , 319.733 , 0.0 , 0.0 , 0.0 , 0.0 , 

83.0 , 4130.76923077 , 4131.28205128 , 4131.28205128 , 4130.25641026 , 4134.87179487 , 4131.79487179 , 4128.71794872 , 4136.92307692 , 4137.94871795 , 4137.94871795 , 4190.25641026 , 4911.28205128 , 4136.92307692 , 4138.46153846 , 2042.0 , 2031.0 , 319.738 , 0.0 , 0.0 , 0.0 , 0.0 , 

84.0 , 4132.30769231 , 4130.25641026 , 4129.23076923 , 4133.33333333 , 4134.87179487 , 4133.33333333 , 4130.25641026 , 4135.8974359 , 4137.94871795 , 4137.43589744 , 4192.82051282 , 4909.74358974 , 4136.41025641 , 4140.51282051 , 2042.0 , 2036.0 , 319.745 , 0.0 , 0.0 , 0.0 , 0.0 , 

85.0 , 4134.87179487 , 4131.28205128 , 4130.76923077 , 4135.8974359 , 4134.87179487 , 4134.35897436 , 4130.76923077 , 4134.87179487 , 4136.41025641 , 4136.92307692 , 4185.64102564 , 4909.23076923 , 4136.92307692 , 4140.51282051 , 2042.0 , 2037.0 , 319.754 , 0.0 , 0.0 , 0.0 , 0.0 , 

86.0 , 4132.82051282 , 4133.33333333 , 4130.76923077 , 4134.35897436 , 4134.87179487 , 4133.33333333 , 4129.74358974 , 4136.92307692 , 4135.8974359 , 4136.92307692 , 4183.58974359 , 4912.30769231 , 4136.92307692 , 4138.97435897 , 2041.0 , 2037.0 , 319.766 , 0.0 , 0.0 , 0.0 , 0.0 , 

87.0 , 4132.82051282 , 4134.35897436 , 4130.25641026 , 4135.38461538 , 4134.87179487 , 4127.17948718 , 4129.23076923 , 4134.87179487 , 4135.8974359 , 4137.43589744 , 4195.8974359 , 4912.82051282 , 4136.41025641 , 4138.97435897 , 2041.0 , 2035.0 , 319.769 , 0.0 , 0.0 , 0.0 , 0.0 , 

88.0 , 4134.87179487 , 4133.33333333 , 4131.28205128 , 4136.92307692 , 4134.87179487 , 4125.12820513 , 4128.71794872 , 4130.25641026 , 4135.38461538 , 4138.46153846 , 4196.92307692 , 4909.23076923 , 4135.8974359 , 4139.48717949 , 2042.0 , 2032.0 , 319.778 , 0.0 , 0.0 , 0.0 , 0.0 , 

89.0 , 4134.87179487 , 4130.76923077 , 4133.33333333 , 4136.92307692 , 4134.87179487 , 4133.84615385 , 4129.23076923 , 4133.33333333 , 4136.41025641 , 4139.48717949 , 4185.12820513 , 4909.74358974 , 4136.41025641 , 4140.0 , 2043.0 , 2031.0 , 319.785 , 0.0 , 0.0 , 0.0 , 0.0 , 

90.0 , 4133.33333333 , 4128.71794872 , 4132.30769231 , 4136.92307692 , 4134.87179487 , 4137.43589744 , 4130.25641026 , 4136.92307692 , 4135.38461538 , 4139.48717949 , 4185.12820513 , 4913.84615385 , 4137.43589744 , 4138.46153846 , 2044.0 , 2031.0 , 319.798 , 0.0 , 0.0 , 0.0 , 0.0 , 

91.0 , 4133.84615385 , 4129.23076923 , 4131.79487179 , 4134.35897436 , 4134.87179487 , 4131.79487179 , 4129.23076923 , 4135.38461538 , 4135.38461538 , 4138.46153846 , 4188.71794872 , 4912.82051282 , 4136.92307692 , 4138.46153846 , 2043.0 , 2032.0 , 319.801 , 0.0 , 0.0 , 0.0 , 0.0 , 

92.0 , 4133.84615385 , 4128.71794872 , 4133.33333333 , 4132.30769231 , 4134.87179487 , 4127.69230769 , 4128.20512821 , 4137.43589744 , 4137.43589744 , 4138.97435897 , 4188.20512821 , 4909.74358974 , 4136.41025641 , 4143.07692308 , 2044.0 , 2033.0 , 319.808 , 0.0 , 0.0 , 0.0 , 0.0 , 

93.0 , 4134.87179487 , 4127.69230769 , 4134.87179487 , 4134.35897436 , 4134.87179487 , 4126.66666667 , 4127.69230769 , 4138.46153846 , 4136.41025641 , 4140.0 , 4193.33333333 , 4909.74358974 , 4136.92307692 , 4144.61538462 , 2043.0 , 2037.0 , 319.816 , 0.0 , 0.0 , 0.0 , 0.0 , 

94.0 , 4135.38461538 , 4129.23076923 , 4133.33333333 , 4133.84615385 , 4134.87179487 , 4128.20512821 , 4129.23076923 , 4135.38461538 , 4135.38461538 , 4140.51282051 , 4195.38461538 , 4910.25641026 , 4136.92307692 , 4139.48717949 , 2043.0 , 2037.0 , 319.829 , 0.0 , 0.0 , 0.0 , 0.0 , 

95.0 , 4132.82051282 , 4131.79487179 , 4133.33333333 , 4133.33333333 , 4134.87179487 , 4130.76923077 , 4130.25641026 , 4134.35897436 , 4136.41025641 , 4136.41025641 , 4186.15384615 , 4910.76923077 , 4136.92307692 , 4137.94871795 , 2043.0 , 2035.0 , 319.834 , 0.0 , 0.0 , 0.0 , 0.0 , 

96.0 , 4131.79487179 , 4132.30769231 , 4135.8974359 , 4136.92307692 , 4134.87179487 , 4132.82051282 , 4130.25641026 , 4134.87179487 , 4136.41025641 , 4137.94871795 , 4184.61538462 , 4910.25641026 , 4136.92307692 , 4140.51282051 , 2044.0 , 2035.0 , 319.841 , 0.0 , 0.0 , 0.0 , 0.0 , 

97.0 , 4131.28205128 , 4130.76923077 , 4134.35897436 , 4136.92307692 , 4134.87179487 , 4131.79487179 , 4129.23076923 , 4134.35897436 , 4135.38461538 , 4146.15384615 , 4193.33333333 , 4909.74358974 , 4135.8974359 , 4138.97435897 , 2044.0 , 2033.0 , 319.849 , 0.0 , 0.0 , 0.0 , 0.0 , 

98.0 , 4131.28205128 , 4130.76923077 , 4133.33333333 , 4135.38461538 , 4134.87179487 , 4130.25641026 , 4128.71794872 , 4132.30769231 , 4136.41025641 , 4145.64102564 , 4192.30769231 , 4910.25641026 , 4134.35897436 , 4138.97435897 , 2044.0 , 2033.0 , 319.862 , 0.0 , 0.0 , 0.0 , 0.0 , 

99.0 , 4135.38461538 , 4130.76923077 , 4135.38461538 , 4133.84615385 , 4134.87179487 , 4131.28205128 , 4128.20512821 , 4129.74358974 , 4136.92307692 , 4137.94871795 , 4188.71794872 , 4912.82051282 , 4136.41025641 , 4143.58974359 , 2044.0 , 2033.0 , 319.865 , 0.0 , 0.0 , 0.0 , 0.0 , 

100.0 , 4139.48717949 , 4130.25641026 , 4134.87179487 , 4130.25641026 , 4134.87179487 , 4134.35897436 , 4128.20512821 , 4132.82051282 , 4135.38461538 , 4138.97435897 , 4190.25641026 , 4911.79487179 , 4138.46153846 , 4141.53846154 , 2045.0 , 2032.0 , 319.871 , 0.0 , 0.0 , 0.0 , 0.0 , 

101.0 , 4134.87179487 , 4129.74358974 , 4133.84615385 , 4131.79487179 , 4134.87179487 , 4132.30769231 , 4128.71794872 , 4137.94871795 , 4135.8974359 , 4142.05128205 , 4191.79487179 , 4909.23076923 , 4136.92307692 , 4137.43589744 , 2044.0 , 2031.0 , 319.88 , 0.0 , 0.0 , 0.0 , 0.0 , 

102.0 , 4132.82051282 , 4129.74358974 , 4135.38461538 , 4137.43589744 , 4134.87179487 , 4130.25641026 , 4127.17948718 , 4135.8974359 , 4137.43589744 , 4138.46153846 , 4191.28205128 , 4911.79487179 , 4134.87179487 , 4138.46153846 , 2043.0 , 2031.0 , 319.893 , 0.0 , 0.0 , 0.0 , 0.0 , 

103.0 , 4137.43589744 , 4130.76923077 , 4135.8974359 , 4137.43589744 , 4134.87179487 , 4130.76923077 , 4125.12820513 , 4134.35897436 , 4136.41025641 , 4138.97435897 , 4189.74358974 , 4915.8974359 , 4136.41025641 , 4140.0 , 2042.0 , 2031.0 , 319.896 , 0.0 , 0.0 , 0.0 , 0.0 , 

104.0 , 4134.87179487 , 4131.79487179 , 4135.38461538 , 4135.38461538 , 4134.87179487 , 4129.74358974 , 4126.66666667 , 4136.41025641 , 4135.38461538 , 4141.53846154 , 4187.17948718 , 4915.38461538 , 4136.92307692 , 4137.43589744 , 2042.0 , 2031.0 , 319.904 , 0.0 , 0.0 , 0.0 , 0.0 , 

105.0 , 4128.71794872 , 4131.79487179 , 4132.30769231 , 4136.92307692 , 4134.87179487 , 4130.25641026 , 4127.69230769 , 4134.87179487 , 4136.92307692 , 4138.46153846 , 4187.17948718 , 4913.84615385 , 4136.92307692 , 4137.43589744 , 2042.0 , 2032.0 , 319.911 , 0.0 , 0.0 , 0.0 , 0.0 , 

106.0 , 4133.33333333 , 4131.28205128 , 4130.76923077 , 4138.46153846 , 4134.87179487 , 4128.71794872 , 4126.66666667 , 4133.84615385 , 4137.43589744 , 4137.94871795 , 4192.30769231 , 4913.84615385 , 4136.41025641 , 4138.46153846 , 2041.0 , 2034.0 , 319.924 , 0.0 , 0.0 , 0.0 , 0.0 , 

107.0 , 4135.8974359 , 4128.20512821 , 4131.79487179 , 4136.92307692 , 4134.87179487 , 4125.64102564 , 4124.1025641 , 4136.41025641 , 4135.8974359 , 4138.46153846 , 4192.30769231 , 4912.30769231 , 4135.8974359 , 4138.46153846 , 2042.0 , 2036.0 , 319.927 , 0.0 , 0.0 , 0.0 , 0.0 , 

108.0 , 4134.35897436 , 4130.76923077 , 4135.8974359 , 4136.92307692 , 4134.87179487 , 4130.25641026 , 4125.12820513 , 4137.43589744 , 4135.38461538 , 4137.94871795 , 4185.12820513 , 4910.25641026 , 4136.41025641 , 4138.97435897 , 2041.0 , 2038.0 , 319.934 , 0.0 , 0.0 , 0.0 , 0.0 , 

109.0 , 4135.8974359 , 4135.38461538 , 4136.41025641 , 4136.92307692 , 4134.87179487 , 4134.87179487 , 4127.69230769 , 4135.8974359 , 4136.41025641 , 4138.46153846 , 4187.17948718 , 4908.20512821 , 4136.92307692 , 4140.0 , 2043.0 , 2041.0 , 319.942 , 0.0 , 0.0 , 0.0 , 0.0 , 

110.0 , 4136.41025641 , 4131.79487179 , 4134.87179487 , 4135.8974359 , 4134.87179487 , 4128.20512821 , 4126.66666667 , 4134.35897436 , 4136.92307692 , 4138.97435897 , 4193.33333333 , 4908.20512821 , 4135.8974359 , 4140.51282051 , 2043.0 , 2040.0 , 319.954 , 0.0 , 0.0 , 0.0 , 0.0 , 

111.0 , 4133.84615385 , 4127.17948718 , 4135.8974359 , 4135.38461538 , 4134.87179487 , 4124.1025641 , 4126.66666667 , 4135.8974359 , 4136.41025641 , 4138.46153846 , 4190.76923077 , 4912.30769231 , 4135.38461538 , 4140.0 , 2044.0 , 2040.0 , 319.958 , 0.0 , 0.0 , 0.0 , 0.0 , 

112.0 , 4135.38461538 , 4133.84615385 , 4137.43589744 , 4135.8974359 , 4134.87179487 , 4132.82051282 , 4130.25641026 , 4136.92307692 , 4135.8974359 , 4140.51282051 , 4188.20512821 , 4914.87179487 , 4136.92307692 , 4136.92307692 , 2045.0 , 2038.0 , 319.966 , 0.0 , 0.0 , 0.0 , 0.0 , 

113.0 , 4135.8974359 , 4137.94871795 , 4134.35897436 , 4136.41025641 , 4134.87179487 , 4135.38461538 , 4132.30769231 , 4136.92307692 , 4136.92307692 , 4139.48717949 , 4192.82051282 , 4914.35897436 , 4137.43589744 , 4139.48717949 , 2044.0 , 2038.0 , 319.974 , 0.0 , 0.0 , 0.0 , 0.0 , 

114.0 , 4133.84615385 , 4132.82051282 , 4129.74358974 , 4135.38461538 , 4134.87179487 , 4133.33333333 , 4129.74358974 , 4137.43589744 , 4138.97435897 , 4135.8974359 , 4191.79487179 , 4914.87179487 , 4137.43589744 , 4146.66666667 , 2045.0 , 2033.0 , 319.985 , 0.0 , 0.0 , 0.0 , 0.0 , 

115.0 , 4131.28205128 , 4130.76923077 , 4131.28205128 , 4136.41025641 , 4134.87179487 , 4135.38461538 , 4129.23076923 , 4138.97435897 , 4139.48717949 , 4138.97435897 , 4188.71794872 , 4911.28205128 , 4137.43589744 , 4143.07692308 , 2044.0 , 2031.0 , 319.99 , 0.0 , 0.0 , 0.0 , 0.0 , 

116.0 , 4130.25641026 , 4131.28205128 , 4132.30769231 , 4136.41025641 , 4134.87179487 , 4137.43589744 , 4130.76923077 , 4138.46153846 , 4136.41025641 , 4141.53846154 , 4193.84615385 , 4906.66666667 , 4137.94871795 , 4133.33333333 , 2045.0 , 2030.0 , 319.997 , 0.0 , 0.0 , 0.0 , 0.0 , 

117.0 , 4132.30769231 , 4131.28205128 , 4130.76923077 , 4134.87179487 , 4134.87179487 , 4135.8974359 , 4131.79487179 , 4137.43589744 , 4135.38461538 , 4138.97435897 , 4194.87179487 , 4909.23076923 , 4138.46153846 , 4135.38461538 , 2045.0 , 2030.0 , 320.005 , 0.0 , 0.0 , 0.0 , 0.0 , 

118.0 , 4131.79487179 , 4131.28205128 , 4132.30769231 , 4135.38461538 , 4134.87179487 , 4135.38461538 , 4131.28205128 , 4137.94871795 , 4138.97435897 , 4137.94871795 , 4190.25641026 , 4913.84615385 , 4137.43589744 , 4142.05128205 , 2046.0 , 2032.0 , 320.016 , 0.0 , 0.0 , 0.0 , 0.0 , 

119.0 , 4128.20512821 , 4131.28205128 , 4135.38461538 , 4136.92307692 , 4134.87179487 , 4137.43589744 , 4130.25641026 , 4138.97435897 , 4140.51282051 , 4140.0 , 4188.20512821 , 4909.23076923 , 4136.92307692 , 4140.0 , 2045.0 , 2033.0 , 320.021 , 0.0 , 0.0 , 0.0 , 0.0 , 

120.0 , 4129.23076923 , 4129.23076923 , 4133.84615385 , 4134.87179487 , 4134.87179487 , 4135.38461538 , 4130.76923077 , 4138.46153846 , 4137.43589744 , 4143.07692308 , 4191.79487179 , 4905.64102564 , 4137.43589744 , 4137.43589744 , 2046.0 , 2035.0 , 320.029 , 0.0 , 0.0 , 0.0 , 0.0 , 

121.0 , 4130.25641026 , 4128.20512821 , 4131.79487179 , 4134.35897436 , 4134.87179487 , 4131.28205128 , 4132.82051282 , 4135.38461538 , 4136.92307692 , 4141.53846154 , 4195.8974359 , 4910.25641026 , 4134.87179487 , 4138.97435897 , 2045.0 , 2037.0 , 320.04 , 0.0 , 0.0 , 0.0 , 0.0 , 

122.0 , 4128.71794872 , 4129.23076923 , 4131.79487179 , 4137.43589744 , 4134.87179487 , 4131.79487179 , 4131.28205128 , 4133.84615385 , 4137.94871795 , 4138.97435897 , 4194.87179487 , 4912.30769231 , 4133.33333333 , 4137.43589744 , 2044.0 , 2038.0 , 320.043 , 0.0 , 0.0 , 0.0 , 0.0 , 

123.0 , 4131.28205128 , 4132.30769231 , 4132.82051282 , 4136.92307692 , 4134.87179487 , 4135.38461538 , 4128.71794872 , 4134.87179487 , 4136.92307692 , 4138.97435897 , 4192.82051282 , 4912.30769231 , 4135.38461538 , 4138.46153846 , 2042.0 , 2036.0 , 320.055 , 0.0 , 0.0 , 0.0 , 0.0 , 

124.0 , 4133.33333333 , 4132.82051282 , 4134.35897436 , 4133.33333333 , 4134.87179487 , 4132.30769231 , 4127.69230769 , 4135.8974359 , 4135.8974359 , 4140.51282051 , 4190.76923077 , 4912.30769231 , 4136.92307692 , 4141.53846154 , 2042.0 , 2037.0 , 320.06 , 0.0 , 0.0 , 0.0 , 0.0 , 

125.0 , 4131.79487179 , 4131.28205128 , 4135.38461538 , 4135.8974359 , 4134.87179487 , 4130.76923077 , 4128.71794872 , 4136.92307692 , 4135.38461538 , 4137.43589744 , 4189.23076923 , 4911.79487179 , 4136.41025641 , 4142.05128205 , 2043.0 , 2035.0 , 320.068 , 0.0 , 0.0 , 0.0 , 0.0 , 

126.0 , 4131.28205128 , 4130.76923077 , 4132.30769231 , 4137.94871795 , 4134.87179487 , 4135.8974359 , 4127.69230769 , 4137.43589744 , 4135.38461538 , 4136.92307692 , 4190.25641026 , 4912.82051282 , 4136.41025641 , 4143.07692308 , 2043.0 , 2035.0 , 320.08 , 0.0 , 0.0 , 0.0 , 0.0 , 

127.0 , 4133.33333333 , 4131.28205128 , 4131.79487179 , 4134.87179487 , 4134.87179487 , 4134.35897436 , 4127.17948718 , 4136.41025641 , 4135.8974359 , 4140.51282051 , 4192.30769231 , 4915.8974359 , 4136.92307692 , 4144.61538462 , 2043.0 , 2033.0 , 320.084 , 0.0 , 0.0 , 0.0 , 0.0 , 

128.0 , 4134.35897436 , 4132.82051282 , 4132.30769231 , 4133.84615385 , 4134.87179487 , 4129.23076923 , 4128.20512821 , 4136.41025641 , 4137.94871795 , 4140.51282051 , 4193.84615385 , 4916.41025641 , 4136.41025641 , 4140.0 , 2043.0 , 2031.0 , 320.091 , 0.0 , 0.0 , 0.0 , 0.0 , 

0.0 , 4133.84615385 , 4131.28205128 , 4131.28205128 , 4131.79487179 , 4134.87179487 , 4131.79487179 , 4128.20512821 , 4140.0 , 4140.0 , 4137.43589744 , 4195.38461538 , 4912.82051282 , 4136.92307692 , 4136.92307692 , 2043.0 , 2031.0 , 320.101 , 0.0 , 0.0 , 0.0 , 0.0 , 

1.0 , 4131.79487179 , 4129.23076923 , 4129.74358974 , 4129.74358974 , 4134.87179487 , 4134.87179487 , 4126.15384615 , 4139.48717949 , 4138.97435897 , 4140.0 , 4195.38461538 , 4911.79487179 , 4136.41025641 , 4139.48717949 , 2045.0 , 2030.0 , 320.114 , 0.0 , 0.0 , 0.0 , 0.0 , 

2.0 , 4131.79487179 , 4131.28205128 , 4131.79487179 , 4135.38461538 , 4134.87179487 , 4129.23076923 , 4127.69230769 , 4135.8974359 , 4136.41025641 , 4144.1025641 , 4192.30769231 , 4910.76923077 , 4136.41025641 , 4140.0 , 2044.0 , 2031.0 , 320.117 , 0.0 , 0.0 , 0.0 , 0.0 , 

3.0 , 4135.38461538 , 4133.33333333 , 4135.8974359 , 4140.0 , 4134.87179487 , 4128.20512821 , 4130.25641026 , 4136.92307692 , 4135.8974359 , 4143.07692308 , 4194.35897436 , 4908.71794872 , 4136.92307692 , 4138.46153846 , 2045.0 , 2035.0 , 320.123 , 0.0 , 0.0 , 0.0 , 0.0 , 

4.0 , 4135.38461538 , 4130.25641026 , 4135.8974359 , 4137.43589744 , 4134.87179487 , 4129.74358974 , 4128.71794872 , 4138.46153846 , 4136.92307692 , 4140.51282051 , 4194.87179487 , 4908.71794872 , 4136.92307692 , 4138.97435897 , 2046.0 , 2036.0 , 320.131 , 0.0 , 0.0 , 0.0 , 0.0 , 

5.0 , 4133.84615385 , 4128.20512821 , 4133.33333333 , 4136.92307692 , 4134.87179487 , 4128.20512821 , 4128.20512821 , 4134.87179487 , 4137.43589744 , 4141.53846154 , 4189.74358974 , 4909.23076923 , 4136.92307692 , 4142.05128205 , 2044.0 , 2036.0 , 320.143 , 0.0 , 0.0 , 0.0 , 0.0 , 

6.0 , 4134.35897436 , 4131.28205128 , 4133.84615385 , 4138.46153846 , 4134.87179487 , 4133.33333333 , 4130.25641026 , 4132.82051282 , 4136.92307692 , 4140.0 , 4189.74358974 , 4911.79487179 , 4136.92307692 , 4144.1025641 , 2043.0 , 2036.0 , 320.147 , 0.0 , 0.0 , 0.0 , 0.0 , 

7.0 , 4134.35897436 , 4132.30769231 , 4135.38461538 , 4137.43589744 , 4134.87179487 , 4136.92307692 , 4129.23076923 , 4131.79487179 , 4136.41025641 , 4136.92307692 , 4192.82051282 , 4912.30769231 , 4136.92307692 , 4142.05128205 , 2043.0 , 2037.0 , 320.155 , 0.0 , 0.0 , 0.0 , 0.0 , 

8.0 , 4133.33333333 , 4131.28205128 , 4132.30769231 , 4136.92307692 , 4134.87179487 , 4131.79487179 , 4127.17948718 , 4130.25641026 , 4135.8974359 , 4138.97435897 , 4194.35897436 , 4910.25641026 , 4136.41025641 , 4140.0 , 2040.0 , 2033.0 , 320.163 , 0.0 , 0.0 , 0.0 , 0.0 , 

9.0 , 4134.87179487 , 4132.82051282 , 4130.76923077 , 4135.38461538 , 4134.87179487 , 4134.87179487 , 4129.23076923 , 4133.84615385 , 4134.87179487 , 4143.07692308 , 4193.33333333 , 4909.23076923 , 4135.8974359 , 4141.02564103 , 2040.0 , 2031.0 , 320.176 , 0.0 , 0.0 , 0.0 , 0.0 , 

10.0 , 4133.33333333 , 4133.33333333 , 4134.35897436 , 4133.84615385 , 4134.87179487 , 4137.43589744 , 4129.23076923 , 4137.43589744 , 4134.35897436 , 4141.53846154 , 4190.25641026 , 4910.76923077 , 4135.8974359 , 4143.07692308 , 2042.0 , 2029.0 , 320.18 , 0.0 , 0.0 , 0.0 , 0.0 , 

11.0 , 4132.82051282 , 4130.25641026 , 4134.87179487 , 4136.92307692 , 4134.87179487 , 4127.69230769 , 4129.23076923 , 4136.41025641 , 4136.41025641 , 4137.94871795 , 4189.23076923 , 4909.74358974 , 4136.92307692 , 4143.58974359 , 2041.0 , 2028.0 , 320.187 , 0.0 , 0.0 , 0.0 , 0.0 , 

12.0 , 4134.35897436 , 4129.74358974 , 4130.76923077 , 4136.92307692 , 4134.87179487 , 4125.64102564 , 4131.28205128 , 4135.38461538 , 4136.92307692 , 4136.92307692 , 4193.33333333 , 4909.74358974 , 4136.92307692 , 4140.0 , 2044.0 , 2029.0 , 320.195 , 0.0 , 0.0 , 0.0 , 0.0 , 

13.0 , 4135.38461538 , 4131.79487179 , 4133.33333333 , 4135.38461538 , 4134.87179487 , 4130.76923077 , 4129.74358974 , 4135.38461538 , 4135.8974359 , 4138.46153846 , 4196.41025641 , 4912.30769231 , 4135.8974359 , 4138.46153846 , 2044.0 , 2029.0 , 320.207 , 0.0 , 0.0 , 0.0 , 0.0 , 

14.0 , 4134.35897436 , 4130.76923077 , 4136.92307692 , 4136.92307692 , 4134.87179487 , 4131.79487179 , 4126.15384615 , 4135.8974359 , 4136.92307692 , 4136.92307692 , 4194.87179487 , 4909.23076923 , 4136.92307692 , 4141.02564103 , 2044.0 , 2030.0 , 320.21 , 0.0 , 0.0 , 0.0 , 0.0 , 

15.0 , 4136.41025641 , 4130.25641026 , 4132.82051282 , 4136.92307692 , 4134.87179487 , 4130.25641026 , 4127.69230769 , 4137.94871795 , 4137.94871795 , 4139.48717949 , 4193.33333333 , 4907.69230769 , 4137.94871795 , 4138.97435897 , 2042.0 , 2034.0 , 320.218 , 0.0 , 0.0 , 0.0 , 0.0 , 

16.0 , 4136.92307692 , 4130.76923077 , 4129.74358974 , 4132.82051282 , 4134.87179487 , 4129.74358974 , 4127.69230769 , 4135.38461538 , 4136.92307692 , 4145.12820513 , 4193.84615385 , 4911.28205128 , 4136.92307692 , 4141.53846154 , 2042.0 , 2035.0 , 320.226 , 0.0 , 0.0 , 0.0 , 0.0 , 

17.0 , 4134.87179487 , 4131.79487179 , 4134.87179487 , 4134.87179487 , 4134.87179487 , 4131.79487179 , 4126.66666667 , 4134.87179487 , 4136.92307692 , 4143.58974359 , 4190.76923077 , 4911.28205128 , 4135.38461538 , 4147.69230769 , 2044.0 , 2036.0 , 320.238 , 0.0 , 0.0 , 0.0 , 0.0 , 

18.0 , 4133.84615385 , 4132.82051282 , 4134.35897436 , 4138.97435897 , 4134.87179487 , 4135.38461538 , 4128.20512821 , 4137.94871795 , 4136.92307692 , 4137.94871795 , 4188.20512821 , 4909.23076923 , 4136.41025641 , 4143.07692308 , 2045.0 , 2038.0 , 320.243 , 0.0 , 0.0 , 0.0 , 0.0 , 

19.0 , 4133.84615385 , 4133.33333333 , 4131.28205128 , 4135.38461538 , 4134.87179487 , 4133.84615385 , 4128.71794872 , 4137.94871795 , 4134.87179487 , 4138.46153846 , 4192.30769231 , 4910.25641026 , 4138.46153846 , 4137.94871795 , 2047.0 , 2041.0 , 320.25 , 0.0 , 0.0 , 0.0 , 0.0 , 

20.0 , 4134.35897436 , 4131.79487179 , 4132.82051282 , 4133.84615385 , 4134.87179487 , 4131.79487179 , 4127.17948718 , 4135.38461538 , 4136.92307692 , 4141.02564103 , 4195.8974359 , 4910.25641026 , 4138.97435897 , 4141.02564103 , 2046.0 , 2043.0 , 320.257 , 0.0 , 0.0 , 0.0 , 0.0 , 

21.0 , 4133.84615385 , 4130.76923077 , 4133.33333333 , 4136.92307692 , 4134.87179487 , 4130.25641026 , 4129.23076923 , 4135.8974359 , 4140.0 , 4138.46153846 , 4194.35897436 , 4908.71794872 , 4137.94871795 , 4143.58974359 , 2046.0 , 2044.0 , 320.269 , 0.0 , 0.0 , 0.0 , 0.0 , 

22.0 , 4131.79487179 , 4130.76923077 , 4131.79487179 , 4136.92307692 , 4134.87179487 , 4126.66666667 , 4130.25641026 , 4137.43589744 , 4140.0 , 4137.94871795 , 4194.35897436 , 4909.74358974 , 4137.43589744 , 4140.51282051 , 2044.0 , 2041.0 , 320.274 , 0.0 , 0.0 , 0.0 , 0.0 , 

23.0 , 4131.79487179 , 4129.74358974 , 4131.28205128 , 4135.8974359 , 4134.87179487 , 4131.28205128 , 4128.71794872 , 4138.46153846 , 4141.02564103 , 4138.46153846 , 4191.79487179 , 4911.79487179 , 4137.94871795 , 4135.8974359 , 2043.0 , 2040.0 , 320.281 , 0.0 , 0.0 , 0.0 , 0.0 , 

24.0 , 4130.76923077 , 4130.76923077 , 4130.76923077 , 4136.92307692 , 4134.87179487 , 4136.41025641 , 4130.25641026 , 4138.46153846 , 4141.02564103 , 4136.41025641 , 4188.20512821 , 4908.20512821 , 4137.94871795 , 4137.94871795 , 2041.0 , 2036.0 , 320.29 , 0.0 , 0.0 , 0.0 , 0.0 , 

25.0 , 4128.71794872 , 4129.74358974 , 4129.74358974 , 4136.92307692 , 4134.87179487 , 4133.33333333 , 4129.23076923 , 4137.43589744 , 4137.94871795 , 4136.92307692 , 4188.71794872 , 4908.20512821 , 4136.92307692 , 4145.12820513 , 2043.0 , 2034.0 , 320.301 , 0.0 , 0.0 , 0.0 , 0.0 , 

26.0 , 4129.74358974 , 4128.71794872 , 4130.76923077 , 4136.92307692 , 4134.87179487 , 4133.33333333 , 4128.71794872 , 4136.92307692 , 4136.92307692 , 4137.94871795 , 4191.79487179 , 4914.87179487 , 4135.8974359 , 4142.56410256 , 2041.0 , 2031.0 , 320.306 , 0.0 , 0.0 , 0.0 , 0.0 , 

27.0 , 4130.76923077 , 4131.28205128 , 4131.28205128 , 4133.33333333 , 4134.87179487 , 4135.8974359 , 4130.76923077 , 4138.46153846 , 4139.48717949 , 4142.56410256 , 4192.30769231 , 4916.41025641 , 4135.8974359 , 4141.02564103 , 2041.0 , 2031.0 , 320.314 , 0.0 , 0.0 , 0.0 , 0.0 , 

28.0 , 4130.76923077 , 4132.82051282 , 4131.28205128 , 4127.69230769 , 4134.87179487 , 4134.35897436 , 4130.76923077 , 4138.97435897 , 4139.48717949 , 4145.64102564 , 4190.76923077 , 4912.82051282 , 4136.92307692 , 4152.82051282 , 2041.0 , 2032.0 , 320.321 , 0.0 , 0.0 , 0.0 , 0.0 , 

29.0 , 4130.25641026 , 4129.74358974 , 4131.79487179 , 4130.76923077 , 4134.87179487 , 4132.82051282 , 4128.20512821 , 4137.94871795 , 4136.41025641 , 4141.02564103 , 4191.79487179 , 4911.28205128 , 4137.43589744 , 4151.79487179 , 2044.0 , 2033.0 , 320.333 , 0.0 , 0.0 , 0.0 , 0.0 , 

30.0 , 4132.30769231 , 4128.71794872 , 4132.30769231 , 4137.43589744 , 4134.87179487 , 4135.8974359 , 4128.71794872 , 4137.94871795 , 4136.92307692 , 4141.02564103 , 4194.87179487 , 4910.25641026 , 4137.43589744 , 4137.43589744 , 2043.0 , 2033.0 , 320.336 , 0.0 , 0.0 , 0.0 , 0.0 , 

31.0 , 4130.25641026 , 4130.25641026 , 4131.79487179 , 4137.43589744 , 4134.87179487 , 4133.33333333 , 4129.23076923 , 4138.46153846 , 4138.46153846 , 4146.15384615 , 4196.92307692 , 4912.30769231 , 4137.94871795 , 4138.97435897 , 2044.0 , 2035.0 , 320.345 , 0.0 , 0.0 , 0.0 , 0.0 , 

32.0 , 4129.74358974 , 4131.79487179 , 4132.30769231 , 4135.38461538 , 4134.87179487 , 4128.20512821 , 4127.69230769 , 4137.43589744 , 4138.97435897 , 4142.56410256 , 4194.87179487 , 4914.35897436 , 4137.94871795 , 4146.66666667 , 2045.0 , 2035.0 , 320.352 , 0.0 , 0.0 , 0.0 , 0.0 , 

33.0 , 4133.33333333 , 4130.76923077 , 4132.30769231 , 4137.94871795 , 4134.87179487 , 4129.74358974 , 4127.17948718 , 4137.94871795 , 4137.43589744 , 4136.41025641 , 4191.28205128 , 4914.35897436 , 4137.94871795 , 4138.97435897 , 2046.0 , 2035.0 , 320.364 , 0.0 , 0.0 , 0.0 , 0.0 , 

34.0 , 4136.41025641 , 4129.74358974 , 4132.82051282 , 4139.48717949 , 4134.87179487 , 4131.79487179 , 4127.69230769 , 4135.8974359 , 4137.94871795 , 4137.94871795 , 4189.74358974 , 4912.30769231 , 4137.94871795 , 4134.35897436 , 2045.0 , 2035.0 , 320.368 , 0.0 , 0.0 , 0.0 , 0.0 , 

35.0 , 4135.38461538 , 4130.25641026 , 4132.82051282 , 4136.41025641 , 4134.87179487 , 4130.76923077 , 4128.71794872 , 4133.84615385 , 4137.43589744 , 4140.51282051 , 4193.33333333 , 4910.25641026 , 4138.97435897 , 4143.07692308 , 2044.0 , 2036.0 , 320.377 , 0.0 , 0.0 , 0.0 , 0.0 , 

36.0 , 4135.38461538 , 4130.76923077 , 4132.30769231 , 4134.35897436 , 4134.87179487 , 4133.84615385 , 4131.79487179 , 4136.41025641 , 4137.43589744 , 4140.0 , 4194.87179487 , 4909.23076923 , 4140.0 , 4147.17948718 , 2043.0 , 2035.0 , 320.383 , 0.0 , 0.0 , 0.0 , 0.0 , 

37.0 , 4135.38461538 , 4131.79487179 , 4130.25641026 , 4135.8974359 , 4134.87179487 , 4134.35897436 , 4133.84615385 , 4137.94871795 , 4137.94871795 , 4138.97435897 , 4191.79487179 , 4910.25641026 , 4140.0 , 4142.05128205 , 2043.0 , 2038.0 , 320.396 , 0.0 , 0.0 , 0.0 , 0.0 , 

38.0 , 4132.82051282 , 4134.35897436 , 4130.76923077 , 4138.46153846 , 4134.87179487 , 4133.33333333 , 4132.82051282 , 4135.8974359 , 4136.92307692 , 4137.43589744 , 4190.76923077 , 4910.76923077 , 4137.94871795 , 4139.48717949 , 2042.0 , 2036.0 , 320.399 , 0.0 , 0.0 , 0.0 , 0.0 , 

39.0 , 4132.82051282 , 4133.84615385 , 4132.30769231 , 4136.92307692 , 4134.87179487 , 4135.8974359 , 4131.28205128 , 4136.41025641 , 4137.94871795 , 4137.94871795 , 4191.79487179 , 4909.23076923 , 4136.41025641 , 4142.56410256 , 2041.0 , 2034.0 , 320.407 , 0.0 , 0.0 , 0.0 , 0.0 , 

40.0 , 4135.38461538 , 4129.74358974 , 4133.84615385 , 4134.87179487 , 4134.87179487 , 4136.92307692 , 4129.23076923 , 4137.94871795 , 4136.92307692 , 4137.43589744 , 4188.20512821 , 4910.76923077 , 4137.43589744 , 4141.02564103 , 2042.0 , 2034.0 , 320.415 , 0.0 , 0.0 , 0.0 , 0.0 , 

41.0 , 4134.87179487 , 4128.71794872 , 4133.84615385 , 4135.8974359 , 4134.87179487 , 4134.35897436 , 4129.23076923 , 4136.41025641 , 4135.8974359 , 4138.46153846 , 4187.69230769 , 4912.30769231 , 4137.43589744 , 4140.51282051 , 2042.0 , 2035.0 , 320.427 , 0.0 , 0.0 , 0.0 , 0.0 , 

42.0 , 4131.79487179 , 4130.25641026 , 4131.28205128 , 4136.41025641 , 4134.87179487 , 4135.8974359 , 4130.25641026 , 4135.38461538 , 4135.8974359 , 4140.0 , 4191.28205128 , 4911.28205128 , 4135.38461538 , 4143.58974359 , 2042.0 , 2032.0 , 320.43 , 0.0 , 0.0 , 0.0 , 0.0 , 

43.0 , 4132.30769231 , 4131.79487179 , 4130.76923077 , 4135.38461538 , 4134.87179487 , 4135.38461538 , 4131.28205128 , 4135.8974359 , 4137.43589744 , 4137.43589744 , 4190.25641026 , 4911.79487179 , 4136.41025641 , 4145.12820513 , 2044.0 , 2033.0 , 320.439 , 0.0 , 0.0 , 0.0 , 0.0 , 

44.0 , 4133.84615385 , 4130.76923077 , 4132.30769231 , 4134.35897436 , 4134.87179487 , 4133.84615385 , 4129.23076923 , 4135.38461538 , 4138.97435897 , 4140.0 , 4189.23076923 , 4911.79487179 , 4137.94871795 , 4144.1025641 , 2044.0 , 2035.0 , 320.447 , 0.0 , 0.0 , 0.0 , 0.0 , 

45.0 , 4133.84615385 , 4131.28205128 , 4132.30769231 , 4134.35897436 , 4134.87179487 , 4134.35897436 , 4131.28205128 , 4136.92307692 , 4139.48717949 , 4147.17948718 , 4194.87179487 , 4909.23076923 , 4137.43589744 , 4142.56410256 , 2044.0 , 2034.0 , 320.458 , 0.0 , 0.0 , 0.0 , 0.0 , 

46.0 , 4133.33333333 , 4132.82051282 , 4130.25641026 , 4135.8974359 , 4134.87179487 , 4134.87179487 , 4133.33333333 , 4138.46153846 , 4138.97435897 , 4144.1025641 , 4195.8974359 , 4909.74358974 , 4136.92307692 , 4140.51282051 , 2044.0 , 2035.0 , 320.462 , 0.0 , 0.0 , 0.0 , 0.0 , 

47.0 , 4133.33333333 , 4132.82051282 , 4130.76923077 , 4135.38461538 , 4134.87179487 , 4135.38461538 , 4132.30769231 , 4136.92307692 , 4137.94871795 , 4137.43589744 , 4189.74358974 , 4910.25641026 , 4136.92307692 , 4139.48717949 , 2044.0 , 2038.0 , 320.47 , 0.0 , 0.0 , 0.0 , 0.0 , 

48.0 , 4130.76923077 , 4131.79487179 , 4132.30769231 , 4133.84615385 , 4134.87179487 , 4132.30769231 , 4130.76923077 , 4136.92307692 , 4137.94871795 , 4140.0 , 4189.74358974 , 4908.20512821 , 4135.8974359 , 4139.48717949 , 2044.0 , 2036.0 , 320.477 , 0.0 , 0.0 , 0.0 , 0.0 , 

49.0 , 4130.25641026 , 4132.30769231 , 4134.35897436 , 4135.8974359 , 4134.87179487 , 4130.76923077 , 4129.74358974 , 4137.43589744 , 4137.43589744 , 4142.05128205 , 4194.87179487 , 4910.25641026 , 4135.38461538 , 4139.48717949 , 2044.0 , 2036.0 , 320.49 , 0.0 , 0.0 , 0.0 , 0.0 , 

50.0 , 4131.79487179 , 4131.79487179 , 4133.33333333 , 4137.43589744 , 4134.87179487 , 4132.82051282 , 4130.25641026 , 4136.41025641 , 4136.92307692 , 4137.43589744 , 4190.25641026 , 4913.84615385 , 4136.92307692 , 4139.48717949 , 2043.0 , 2037.0 , 320.494 , 0.0 , 0.0 , 0.0 , 0.0 , 

51.0 , 4133.33333333 , 4132.82051282 , 4131.79487179 , 4135.38461538 , 4134.87179487 , 4133.84615385 , 4131.79487179 , 4137.94871795 , 4136.41025641 , 4137.94871795 , 4184.61538462 , 4911.28205128 , 4136.41025641 , 4139.48717949 , 2042.0 , 2036.0 , 320.502 , 0.0 , 0.0 , 0.0 , 0.0 , 

52.0 , 4131.79487179 , 4132.82051282 , 4132.30769231 , 4133.84615385 , 4134.87179487 , 4132.30769231 , 4131.28205128 , 4138.46153846 , 4136.41025641 , 4140.51282051 , 4187.69230769 , 4909.23076923 , 4135.38461538 , 4139.48717949 , 2042.0 , 2034.0 , 320.51 , 0.0 , 0.0 , 0.0 , 0.0 , 

53.0 , 4130.76923077 , 4131.28205128 , 4134.87179487 , 4135.38461538 , 4134.87179487 , 4131.79487179 , 4130.76923077 , 4136.41025641 , 4137.94871795 , 4140.0 , 4189.23076923 , 4909.74358974 , 4136.41025641 , 4140.0 , 2042.0 , 2035.0 , 320.522 , 0.0 , 0.0 , 0.0 , 0.0 , 

54.0 , 4131.79487179 , 4128.20512821 , 4133.33333333 , 4135.8974359 , 4134.87179487 , 4132.82051282 , 4131.28205128 , 4136.92307692 , 4137.94871795 , 4142.05128205 , 4187.17948718 , 4910.76923077 , 4136.41025641 , 4138.46153846 , 2041.0 , 2036.0 , 320.525 , 0.0 , 0.0 , 0.0 , 0.0 , 

55.0 , 4133.84615385 , 4130.76923077 , 4131.28205128 , 4135.8974359 , 4134.87179487 , 4130.76923077 , 4132.30769231 , 4138.97435897 , 4137.43589744 , 4144.61538462 , 4188.71794872 , 4910.76923077 , 4135.38461538 , 4139.48717949 , 2041.0 , 2035.0 , 320.533 , 0.0 , 0.0 , 0.0 , 0.0 , 

56.0 , 4133.33333333 , 4132.82051282 , 4132.30769231 , 4136.41025641 , 4134.87179487 , 4127.69230769 , 4132.30769231 , 4137.94871795 , 4137.94871795 , 4140.0 , 4192.82051282 , 4907.69230769 , 4136.41025641 , 4141.02564103 , 2041.0 , 2037.0 , 320.541 , 0.0 , 0.0 , 0.0 , 0.0 , 

57.0 , 4132.30769231 , 4130.25641026 , 4133.33333333 , 4137.43589744 , 4134.87179487 , 4131.28205128 , 4130.76923077 , 4136.92307692 , 4137.94871795 , 4136.41025641 , 4192.30769231 , 4908.71794872 , 4136.92307692 , 4138.97435897 , 2040.0 , 2035.0 , 320.555 , 0.0 , 0.0 , 0.0 , 0.0 , 

58.0 , 4135.38461538 , 4130.25641026 , 4132.30769231 , 4138.46153846 , 4134.87179487 , 4135.38461538 , 4130.76923077 , 4138.46153846 , 4137.94871795 , 4142.05128205 , 4192.30769231 , 4911.79487179 , 4136.92307692 , 4141.53846154 , 2039.0 , 2036.0 , 320.558 , 0.0 , 0.0 , 0.0 , 0.0 , 

59.0 , 4134.35897436 , 4132.82051282 , 4131.28205128 , 4136.41025641 , 4134.87179487 , 4135.38461538 , 4131.28205128 , 4136.92307692 , 4137.43589744 , 4145.12820513 , 4194.87179487 , 4909.74358974 , 4136.41025641 , 4144.61538462 , 2039.0 , 2033.0 , 320.565 , 0.0 , 0.0 , 0.0 , 0.0 , 

60.0 , 4135.38461538 , 4131.28205128 , 4132.82051282 , 4134.87179487 , 4134.87179487 , 4136.92307692 , 4131.79487179 , 4134.87179487 , 4136.92307692 , 4141.02564103 , 4195.8974359 , 4908.20512821 , 4136.92307692 , 4146.66666667 , 2040.0 , 2033.0 , 320.573 , 0.0 , 0.0 , 0.0 , 0.0 , 

61.0 , 4138.97435897 , 4128.20512821 , 4133.84615385 , 4135.38461538 , 4134.87179487 , 4136.41025641 , 4131.79487179 , 4133.84615385 , 4136.41025641 , 4142.56410256 , 4193.84615385 , 4911.28205128 , 4136.41025641 , 4147.17948718 , 2040.0 , 2031.0 , 320.584 , 0.0 , 0.0 , 0.0 , 0.0 , 

62.0 , 4135.38461538 , 4130.25641026 , 4131.28205128 , 4134.87179487 , 4134.87179487 , 4131.79487179 , 4130.76923077 , 4135.38461538 , 4137.43589744 , 4153.33333333 , 4188.71794872 , 4911.79487179 , 4135.38461538 , 4143.58974359 , 2040.0 , 2029.0 , 320.588 , 0.0 , 0.0 , 0.0 , 0.0 , 

63.0 , 4130.76923077 , 4131.28205128 , 4128.71794872 , 4132.82051282 , 4134.87179487 , 4132.82051282 , 4128.20512821 , 4138.97435897 , 4138.97435897 , 4150.76923077 , 4189.74358974 , 4909.74358974 , 4135.8974359 , 4138.97435897 , 2043.0 , 2031.0 , 320.596 , 0.0 , 0.0 , 0.0 , 0.0 , 

64.0 , 4133.84615385 , 4129.23076923 , 4130.76923077 , 4132.30769231 , 4134.87179487 , 4138.97435897 , 4127.69230769 , 4138.46153846 , 4138.97435897 , 4139.48717949 , 4193.84615385 , 4909.74358974 , 4136.41025641 , 4138.97435897 , 2044.0 , 2032.0 , 320.605 , 0.0 , 0.0 , 0.0 , 0.0 , 

65.0 , 4136.92307692 , 4128.20512821 , 4132.82051282 , 4134.35897436 , 4134.87179487 , 4134.87179487 , 4128.20512821 , 4136.92307692 , 4136.41025641 , 4143.58974359 , 4195.38461538 , 4910.76923077 , 4136.41025641 , 4139.48717949 , 2045.0 , 2033.0 , 320.617 , 0.0 , 0.0 , 0.0 , 0.0 , 

66.0 , 4134.87179487 , 4128.71794872 , 4134.87179487 , 4135.8974359 , 4134.87179487 , 4128.71794872 , 4127.69230769 , 4136.92307692 , 4135.38461538 , 4148.71794872 , 4194.87179487 , 4909.74358974 , 4136.92307692 , 4137.43589744 , 2047.0 , 2032.0 , 320.62 , 0.0 , 0.0 , 0.0 , 0.0 , 

67.0 , 4133.84615385 , 4129.74358974 , 4136.41025641 , 4135.8974359 , 4134.87179487 , 4129.74358974 , 4124.61538462 , 4137.43589744 , 4136.41025641 , 4138.97435897 , 4190.76923077 , 4909.74358974 , 4138.46153846 , 4138.46153846 , 2047.0 , 2036.0 , 320.63 , 0.0 , 0.0 , 0.0 , 0.0 , 

68.0 , 4134.87179487 , 4131.28205128 , 4136.41025641 , 4136.41025641 , 4134.87179487 , 4131.79487179 , 4125.64102564 , 4135.8974359 , 4135.8974359 , 4134.35897436 , 4185.12820513 , 4911.28205128 , 4137.43589744 , 4139.48717949 , 2046.0 , 2036.0 , 320.636 , 0.0 , 0.0 , 0.0 , 0.0 , 

69.0 , 4134.35897436 , 4130.76923077 , 4134.35897436 , 4136.41025641 , 4134.87179487 , 4131.28205128 , 4128.71794872 , 4135.8974359 , 4134.87179487 , 4140.0 , 4187.17948718 , 4910.76923077 , 4135.8974359 , 4139.48717949 , 2047.0 , 2037.0 , 320.649 , 0.0 , 0.0 , 0.0 , 0.0 , 

70.0 , 4133.84615385 , 4130.76923077 , 4135.38461538 , 4135.38461538 , 4134.87179487 , 4131.79487179 , 4130.76923077 , 4136.41025641 , 4135.38461538 , 4148.20512821 , 4193.84615385 , 4910.25641026 , 4135.8974359 , 4141.02564103 , 2048.0 , 2036.0 , 320.652 , 0.0 , 0.0 , 0.0 , 0.0 , 

71.0 , 4132.30769231 , 4131.28205128 , 4134.35897436 , 4135.8974359 , 4134.87179487 , 4132.82051282 , 4130.76923077 , 4133.33333333 , 4135.8974359 , 4154.35897436 , 4192.30769231 , 4911.79487179 , 4135.8974359 , 4141.02564103 , 2048.0 , 2037.0 , 320.658 , 0.0 , 0.0 , 0.0 , 0.0 , 

72.0 , 4135.38461538 , 4131.79487179 , 4131.79487179 , 4136.41025641 , 4134.87179487 , 4132.82051282 , 4129.74358974 , 4133.84615385 , 4135.8974359 , 4147.69230769 , 4187.69230769 , 4910.25641026 , 4136.41025641 , 4140.51282051 , 2047.0 , 2035.0 , 320.667 , 0.0 , 0.0 , 0.0 , 0.0 , 

73.0 , 4136.41025641 , 4129.74358974 , 4131.79487179 , 4134.35897436 , 4134.35897436 , 4133.33333333 , 4128.20512821 , 4136.92307692 , 4136.41025641 , 4138.46153846 , 4188.71794872 , 4908.20512821 , 4136.92307692 , 4138.97435897 , 2047.0 , 2034.0 , 320.68 , 0.0 , 0.0 , 0.0 , 0.0 , 

74.0 , 4134.35897436 , 4127.69230769 , 4134.87179487 , 4135.38461538 , 4135.8974359 , 4130.76923077 , 4128.71794872 , 4136.92307692 , 4136.92307692 , 4141.53846154 , 4188.20512821 , 4910.76923077 , 4136.41025641 , 4136.92307692 , 2046.0 , 2033.0 , 320.684 , 0.0 , 0.0 , 0.0 , 0.0 , 

75.0 , 4133.84615385 , 4129.23076923 , 4136.41025641 , 4136.41025641 , 4137.43589744 , 4130.25641026 , 4129.74358974 , 4135.38461538 , 4136.41025641 , 4142.56410256 , 4187.69230769 , 4911.28205128 , 4137.43589744 , 4136.92307692 , 2043.0 , 2033.0 , 320.691 , 0.0 , 0.0 , 0.0 , 0.0 , 

76.0 , 4133.33333333 , 4132.82051282 , 4134.87179487 , 4134.35897436 , 4136.92307692 , 4135.8974359 , 4128.20512821 , 4134.87179487 , 4137.94871795 , 4137.94871795 , 4191.28205128 , 4910.76923077 , 4136.92307692 , 4138.97435897 , 2043.0 , 2032.0 , 320.7 , 0.0 , 0.0 , 0.0 , 0.0 , 

77.0 , 4131.28205128 , 4131.28205128 , 4132.82051282 , 4136.41025641 , 4135.8974359 , 4132.82051282 , 4128.71794872 , 4136.41025641 , 4137.43589744 , 4137.94871795 , 4192.30769231 , 4911.79487179 , 4135.38461538 , 4138.46153846 , 2041.0 , 2032.0 , 320.711 , 0.0 , 0.0 , 0.0 , 0.0 , 

78.0 , 4131.79487179 , 4130.25641026 , 4131.79487179 , 4136.41025641 , 4135.8974359 , 4130.76923077 , 4129.23076923 , 4136.41025641 , 4136.41025641 , 4139.48717949 , 4192.82051282 , 4910.76923077 , 4136.41025641 , 4137.43589744 , 2041.0 , 2033.0 , 320.715 , 0.0 , 0.0 , 0.0 , 0.0 , 

79.0 , 4133.84615385 , 4132.82051282 , 4134.35897436 , 4133.33333333 , 4136.41025641 , 4135.8974359 , 4128.20512821 , 4134.87179487 , 4137.43589744 , 4137.94871795 , 4194.35897436 , 4910.25641026 , 4136.92307692 , 4137.94871795 , 2039.0 , 2034.0 , 320.723 , 0.0 , 0.0 , 0.0 , 0.0 , 

80.0 , 4133.33333333 , 4131.28205128 , 4135.8974359 , 4135.8974359 , 4135.8974359 , 4136.41025641 , 4127.17948718 , 4136.41025641 , 4137.43589744 , 4137.43589744 , 4189.23076923 , 4912.30769231 , 4134.35897436 , 4138.97435897 , 2038.0 , 2034.0 , 320.73 , 0.0 , 0.0 , 0.0 , 0.0 , 

81.0 , 4134.35897436 , 4129.23076923 , 4134.87179487 , 4135.8974359 , 4135.8974359 , 4136.92307692 , 4127.17948718 , 4137.43589744 , 4136.41025641 , 4136.41025641 , 4185.64102564 , 4912.30769231 , 4133.84615385 , 4139.48717949 , 2040.0 , 2035.0 , 320.742 , 0.0 , 0.0 , 0.0 , 0.0 , 

82.0 , 4133.84615385 , 4130.76923077 , 4134.87179487 , 4132.82051282 , 4135.8974359 , 4136.41025641 , 4129.23076923 , 4134.35897436 , 4136.41025641 , 4136.41025641 , 4186.66666667 , 4909.23076923 , 4137.43589744 , 4138.97435897 , 2039.0 , 2036.0 , 320.747 , 0.0 , 0.0 , 0.0 , 0.0 , 

83.0 , 4134.35897436 , 4132.30769231 , 4137.43589744 , 4134.87179487 , 4136.41025641 , 4127.69230769 , 4131.28205128 , 4133.33333333 , 4136.41025641 , 4136.92307692 , 4185.64102564 , 4910.76923077 , 4137.94871795 , 4138.46153846 , 2040.0 , 2036.0 , 320.756 , 0.0 , 0.0 , 0.0 , 0.0 , 

84.0 , 4135.38461538 , 4129.23076923 , 4138.97435897 , 4134.87179487 , 4135.8974359 , 4126.15384615 , 4129.23076923 , 4136.41025641 , 4135.38461538 , 4137.94871795 , 4185.12820513 , 4912.30769231 , 4135.38461538 , 4138.97435897 , 2038.0 , 2034.0 , 320.764 , 0.0 , 0.0 , 0.0 , 0.0 , 

85.0 , 4133.84615385 , 4128.20512821 , 4137.94871795 , 4134.87179487 , 4135.8974359 , 4137.43589744 , 4127.69230769 , 4137.43589744 , 4135.8974359 , 4140.51282051 , 4187.17948718 , 4910.76923077 , 4135.8974359 , 4140.0 , 2037.0 , 2032.0 , 320.775 , 0.0 , 0.0 , 0.0 , 0.0 , 

86.0 , 4132.82051282 , 4129.23076923 , 4134.35897436 , 4136.92307692 , 4136.41025641 , 4138.46153846 , 4127.69230769 , 4135.8974359 , 4137.94871795 , 4140.51282051 , 4186.66666667 , 4910.25641026 , 4135.8974359 , 4141.53846154 , 2039.0 , 2033.0 , 320.779 , 0.0 , 0.0 , 0.0 , 0.0 , 

87.0 , 4135.8974359 , 4131.79487179 , 4133.33333333 , 4134.87179487 , 4135.8974359 , 4130.76923077 , 4126.66666667 , 4136.41025641 , 4137.94871795 , 4139.48717949 , 4190.25641026 , 4912.30769231 , 4135.38461538 , 4141.53846154 , 2040.0 , 2031.0 , 320.787 , 0.0 , 0.0 , 0.0 , 0.0 , 

88.0 , 4135.38461538 , 4132.82051282 , 4134.87179487 , 4132.30769231 , 4134.87179487 , 4130.76923077 , 4126.66666667 , 4136.41025641 , 4136.41025641 , 4140.0 , 4193.84615385 , 4914.35897436 , 4135.8974359 , 4140.0 , 2040.0 , 2031.0 , 320.792 , 0.0 , 0.0 , 0.0 , 0.0 , 

89.0 , 4131.79487179 , 4130.76923077 , 4135.8974359 , 4135.8974359 , 4134.35897436 , 4134.87179487 , 4128.20512821 , 4134.87179487 , 4136.41025641 , 4138.97435897 , 4191.28205128 , 4913.33333333 , 4136.41025641 , 4138.97435897 , 2039.0 , 2033.0 , 320.808 , 0.0 , 0.0 , 0.0 , 0.0 , 

90.0 , 4131.28205128 , 4130.76923077 , 4132.30769231 , 4137.94871795 , 4134.35897436 , 4135.38461538 , 4129.23076923 , 4136.41025641 , 4137.94871795 , 4138.97435897 , 4188.71794872 , 4911.79487179 , 4136.41025641 , 4140.0 , 2040.0 , 2034.0 , 320.816 , 0.0 , 0.0 , 0.0 , 0.0 , 

91.0 , 4132.82051282 , 4132.82051282 , 4132.82051282 , 4136.92307692 , 4134.35897436 , 4130.76923077 , 4129.74358974 , 4136.92307692 , 4138.97435897 , 4140.0 , 4188.71794872 , 4911.79487179 , 4136.41025641 , 4141.02564103 , 2041.0 , 2037.0 , 320.819 , 0.0 , 0.0 , 0.0 , 0.0 , 

92.0 , 4134.87179487 , 4132.30769231 , 4135.38461538 , 4135.8974359 , 4134.35897436 , 4127.69230769 , 4129.74358974 , 4134.35897436 , 4137.43589744 , 4140.0 , 4189.23076923 , 4911.28205128 , 4135.8974359 , 4140.0 , 2042.0 , 2038.0 , 320.825 , 0.0 , 0.0 , 0.0 , 0.0 , 

93.0 , 4135.38461538 , 4130.25641026 , 4136.41025641 , 4134.87179487 , 4134.35897436 , 4132.82051282 , 4128.71794872 , 4134.87179487 , 4135.8974359 , 4142.05128205 , 4189.23076923 , 4909.74358974 , 4135.8974359 , 4138.97435897 , 2042.0 , 2040.0 , 320.838 , 0.0 , 0.0 , 0.0 , 0.0 , 

94.0 , 4133.33333333 , 4129.23076923 , 4135.8974359 , 4136.41025641 , 4134.35897436 , 4135.38461538 , 4126.66666667 , 4136.41025641 , 4136.41025641 , 4141.53846154 , 4188.71794872 , 4908.71794872 , 4136.41025641 , 4141.53846154 , 2043.0 , 2039.0 , 320.841 , 0.0 , 0.0 , 0.0 , 0.0 , 

95.0 , 4135.8974359 , 4128.71794872 , 4136.41025641 , 4136.92307692 , 4134.35897436 , 4131.79487179 , 4125.12820513 , 4133.84615385 , 4136.92307692 , 4137.43589744 , 4190.25641026 , 4912.30769231 , 4135.38461538 , 4142.56410256 , 2043.0 , 2038.0 , 320.849 , 0.0 , 0.0 , 0.0 , 0.0 , 

96.0 , 4139.48717949 , 4129.74358974 , 4137.94871795 , 4136.92307692 , 4134.35897436 , 4132.82051282 , 4126.15384615 , 4133.84615385 , 4135.8974359 , 4139.48717949 , 4189.23076923 , 4912.82051282 , 4136.41025641 , 4140.51282051 , 2045.0 , 2036.0 , 320.857 , 0.0 , 0.0 , 0.0 , 0.0 , 

97.0 , 4135.38461538 , 4130.76923077 , 4136.92307692 , 4136.92307692 , 4134.35897436 , 4136.92307692 , 4127.17948718 , 4136.92307692 , 4136.41025641 , 4144.61538462 , 4189.23076923 , 4911.79487179 , 4136.92307692 , 4140.51282051 , 2046.0 , 2035.0 , 320.868 , 0.0 , 0.0 , 0.0 , 0.0 , 

98.0 , 4132.30769231 , 4130.25641026 , 4135.38461538 , 4134.87179487 , 4134.35897436 , 4133.84615385 , 4128.20512821 , 4136.92307692 , 4137.94871795 , 4141.02564103 , 4191.28205128 , 4914.87179487 , 4136.41025641 , 4141.53846154 , 2045.0 , 2033.0 , 320.872 , 0.0 , 0.0 , 0.0 , 0.0 , 

99.0 , 4136.92307692 , 4132.82051282 , 4135.38461538 , 4134.35897436 , 4134.35897436 , 4130.76923077 , 4127.69230769 , 4137.43589744 , 4137.94871795 , 4136.92307692 , 4192.82051282 , 4914.35897436 , 4137.43589744 , 4138.97435897 , 2046.0 , 2034.0 , 320.88 , 0.0 , 0.0 , 0.0 , 0.0 , 

100.0 , 4136.92307692 , 4134.87179487 , 4134.35897436 , 4136.41025641 , 4134.35897436 , 4137.43589744 , 4128.71794872 , 4135.8974359 , 4136.92307692 , 4138.97435897 , 4191.28205128 , 4911.79487179 , 4134.87179487 , 4138.97435897 , 2044.0 , 2036.0 , 320.888 , 0.0 , 0.0 , 0.0 , 0.0 , 

101.0 , 4131.28205128 , 4131.28205128 , 4131.79487179 , 4137.43589744 , 4134.35897436 , 4136.92307692 , 4128.20512821 , 4132.30769231 , 4135.8974359 , 4138.46153846 , 4189.23076923 , 4913.84615385 , 4131.79487179 , 4141.02564103 , 2043.0 , 2036.0 , 320.899 , 0.0 , 0.0 , 0.0 , 0.0 , 

102.0 , 4130.76923077 , 4129.23076923 , 4134.87179487 , 4137.43589744 , 4134.35897436 , 4126.15384615 , 4126.66666667 , 4131.79487179 , 4135.38461538 , 4137.94871795 , 4186.66666667 , 4914.87179487 , 4133.84615385 , 4140.0 , 2043.0 , 2037.0 , 320.904 , 0.0 , 0.0 , 0.0 , 0.0 , 

103.0 , 4133.84615385 , 4131.28205128 , 4138.46153846 , 4135.38461538 , 4134.35897436 , 4125.64102564 , 4127.17948718 , 4132.82051282 , 4135.38461538 , 4138.97435897 , 4188.20512821 , 4910.76923077 , 4137.43589744 , 4137.94871795 , 2042.0 , 2036.0 , 320.913 , 0.0 , 0.0 , 0.0 , 0.0 , 

104.0 , 4134.35897436 , 4131.79487179 , 4138.46153846 , 4135.8974359 , 4134.35897436 , 4138.46153846 , 4129.74358974 , 4133.33333333 , 4135.8974359 , 4137.43589744 , 4192.82051282 , 4910.25641026 , 4135.8974359 , 4138.46153846 , 2040.0 , 2035.0 , 320.921 , 0.0 , 0.0 , 0.0 , 0.0 , 

105.0 , 4131.28205128 , 4130.76923077 , 4135.38461538 , 4137.43589744 , 4134.35897436 , 4137.94871795 , 4130.25641026 , 4133.84615385 , 4136.41025641 , 4138.97435897 , 4190.25641026 , 4911.28205128 , 4134.87179487 , 4140.0 , 2041.0 , 2036.0 , 320.932 , 0.0 , 0.0 , 0.0 , 0.0 , 

106.0 , 4132.30769231 , 4131.28205128 , 4134.87179487 , 4133.33333333 , 4134.35897436 , 4126.66666667 , 4127.69230769 , 4133.33333333 , 4136.41025641 , 4142.05128205 , 4185.64102564 , 4909.74358974 , 4136.41025641 , 4140.0 , 2040.0 , 2035.0 , 320.936 , 0.0 , 0.0 , 0.0 , 0.0 , 

107.0 , 4133.84615385 , 4130.76923077 , 4134.35897436 , 4128.71794872 , 4134.35897436 , 4127.69230769 , 4126.66666667 , 4133.33333333 , 4135.8974359 , 4140.0 , 4188.20512821 , 4910.25641026 , 4135.8974359 , 4139.48717949 , 2040.0 , 2034.0 , 320.943 , 0.0 , 0.0 , 0.0 , 0.0 , 

108.0 , 4132.82051282 , 4132.30769231 , 4134.87179487 , 4131.79487179 , 4134.35897436 , 4132.30769231 , 4127.69230769 , 4132.82051282 , 4136.41025641 , 4137.43589744 , 4189.74358974 , 4910.76923077 , 4135.8974359 , 4140.0 , 2040.0 , 2034.0 , 320.951 , 0.0 , 0.0 , 0.0 , 0.0 , 

109.0 , 4135.38461538 , 4132.82051282 , 4135.8974359 , 4134.35897436 , 4134.35897436 , 4131.28205128 , 4129.23076923 , 4135.8974359 , 4137.43589744 , 4137.94871795 , 4189.74358974 , 4911.28205128 , 4136.41025641 , 4139.48717949 , 2041.0 , 2037.0 , 320.962 , 0.0 , 0.0 , 0.0 , 0.0 , 

110.0 , 4137.94871795 , 4130.76923077 , 4134.35897436 , 4130.76923077 , 4134.87179487 , 4130.25641026 , 4130.25641026 , 4136.92307692 , 4136.92307692 , 4138.46153846 , 4190.76923077 , 4911.28205128 , 4135.38461538 , 4138.97435897 , 2042.0 , 2036.0 , 320.967 , 0.0 , 0.0 , 0.0 , 0.0 , 

111.0 , 4135.38461538 , 4130.25641026 , 4130.25641026 , 4130.25641026 , 4134.35897436 , 4131.28205128 , 4130.76923077 , 4130.76923077 , 4135.8974359 , 4137.43589744 , 4191.79487179 , 4910.25641026 , 4136.92307692 , 4139.48717949 , 2044.0 , 2037.0 , 320.976 , 0.0 , 0.0 , 0.0 , 0.0 , 

112.0 , 4133.84615385 , 4131.28205128 , 4133.33333333 , 4135.8974359 , 4134.35897436 , 4134.87179487 , 4131.79487179 , 4130.25641026 , 4137.94871795 , 4136.92307692 , 4190.76923077 , 4910.25641026 , 4137.94871795 , 4141.02564103 , 2045.0 , 2034.0 , 320.982 , 0.0 , 0.0 , 0.0 , 0.0 , 

113.0 , 4136.92307692 , 4132.30769231 , 4138.46153846 , 4139.48717949 , 4135.38461538 , 4137.94871795 , 4131.79487179 , 4137.94871795 , 4138.97435897 , 4137.94871795 , 4190.76923077 , 4910.25641026 , 4135.8974359 , 4138.97435897 , 2046.0 , 2033.0 , 320.995 , 0.0 , 0.0 , 0.0 , 0.0 , 

114.0 , 4135.8974359 , 4132.82051282 , 4136.41025641 , 4136.41025641 , 4137.43589744 , 4135.38461538 , 4129.74358974 , 4137.94871795 , 4138.97435897 , 4138.97435897 , 4187.69230769 , 4910.76923077 , 4134.35897436 , 4136.92307692 , 2043.0 , 2030.0 , 320.998 , 0.0 , 0.0 , 0.0 , 0.0 , 

115.0 , 4133.84615385 , 4131.79487179 , 4133.33333333 , 4134.35897436 , 4137.94871795 , 4130.76923077 , 4126.66666667 , 4132.82051282 , 4137.94871795 , 4138.97435897 , 4185.64102564 , 4910.25641026 , 4135.38461538 , 4138.97435897 , 2043.0 , 2028.0 , 321.007 , 0.0 , 0.0 , 0.0 , 0.0 , 

116.0 , 4132.82051282 , 4129.23076923 , 4134.87179487 , 4135.38461538 , 4136.41025641 , 4133.84615385 , 4127.69230769 , 4132.82051282 , 4136.41025641 , 4138.46153846 , 4190.76923077 , 4909.74358974 , 4136.41025641 , 4140.0 , 2043.0 , 2030.0 , 321.015 , 0.0 , 0.0 , 0.0 , 0.0 , 

117.0 , 4132.30769231 , 4128.71794872 , 4134.87179487 , 4130.25641026 , 4134.87179487 , 4135.8974359 , 4131.28205128 , 4137.43589744 , 4136.41025641 , 4138.46153846 , 4192.30769231 , 4910.76923077 , 4135.8974359 , 4138.97435897 , 2044.0 , 2032.0 , 321.026 , 0.0 , 0.0 , 0.0 , 0.0 , 

118.0 , 4134.87179487 , 4129.74358974 , 4133.33333333 , 4130.76923077 , 4135.38461538 , 4135.38461538 , 4130.76923077 , 4140.0 , 4137.94871795 , 4137.94871795 , 4190.76923077 , 4911.28205128 , 4136.41025641 , 4137.94871795 , 2042.0 , 2033.0 , 321.03 , 0.0 , 0.0 , 0.0 , 0.0 , 

119.0 , 4133.84615385 , 4132.30769231 , 4135.38461538 , 4137.43589744 , 4135.38461538 , 4135.38461538 , 4129.23076923 , 4134.87179487 , 4136.92307692 , 4140.0 , 4195.8974359 , 4909.74358974 , 4137.43589744 , 4138.97435897 , 2041.0 , 2036.0 , 321.039 , 0.0 , 0.0 , 0.0 , 0.0 , 

120.0 , 4128.71794872 , 4131.28205128 , 4134.87179487 , 4136.92307692 , 4134.35897436 , 4135.38461538 , 4129.23076923 , 4130.25641026 , 4136.41025641 , 4141.53846154 , 4192.82051282 , 4909.74358974 , 4136.92307692 , 4138.97435897 , 2041.0 , 2037.0 , 321.045 , 0.0 , 0.0 , 0.0 , 0.0 , 

121.0 , 4131.79487179 , 4129.74358974 , 4134.87179487 , 4136.92307692 , 4134.35897436 , 4136.41025641 , 4127.69230769 , 4128.71794872 , 4137.43589744 , 4140.0 , 4183.07692308 , 4911.28205128 , 4136.41025641 , 4138.97435897 , 2041.0 , 2036.0 , 321.059 , 0.0 , 0.0 , 0.0 , 0.0 , 

122.0 , 4135.38461538 , 4131.79487179 , 4135.8974359 , 4137.43589744 , 4134.87179487 , 4134.87179487 , 4126.15384615 , 4129.74358974 , 4135.8974359 , 4138.97435897 , 4187.69230769 , 4910.25641026 , 4135.8974359 , 4137.43589744 , 2041.0 , 2037.0 , 321.062 , 0.0 , 0.0 , 0.0 , 0.0 , 

123.0 , 4135.38461538 , 4133.33333333 , 4135.8974359 , 4130.25641026 , 4134.87179487 , 4134.87179487 , 4127.69230769 , 4128.20512821 , 4134.35897436 , 4138.46153846 , 4193.33333333 , 4909.74358974 , 4135.38461538 , 4137.94871795 , 2040.0 , 2036.0 , 321.07 , 0.0 , 0.0 , 0.0 , 0.0 , 

124.0 , 4136.41025641 , 4130.25641026 , 4135.38461538 , 4128.20512821 , 4134.35897436 , 4133.84615385 , 4128.20512821 , 4128.71794872 , 4136.92307692 , 4139.48717949 , 4191.28205128 , 4911.79487179 , 4135.8974359 , 4143.07692308 , 2041.0 , 2033.0 , 321.077 , 0.0 , 0.0 , 0.0 , 0.0 , 

125.0 , 4137.94871795 , 4129.23076923 , 4134.87179487 , 4136.41025641 , 4134.87179487 , 4127.69230769 , 4129.23076923 , 4132.30769231 , 4137.43589744 , 4140.51282051 , 4191.79487179 , 4913.33333333 , 4136.92307692 , 4144.1025641 , 2041.0 , 2032.0 , 321.09 , 0.0 , 0.0 , 0.0 , 0.0 , 

126.0 , 4136.92307692 , 4130.76923077 , 4133.33333333 , 4136.92307692 , 4136.41025641 , 4127.17948718 , 4129.23076923 , 4134.35897436 , 4136.41025641 , 4143.58974359 , 4192.82051282 , 4912.82051282 , 4136.92307692 , 4141.53846154 , 2040.0 , 2031.0 , 321.094 , 0.0 , 0.0 , 0.0 , 0.0 , 

127.0 , 4135.38461538 , 4131.28205128 , 4133.84615385 , 4134.87179487 , 4135.8974359 , 4130.25641026 , 4126.66666667 , 4134.87179487 , 4137.94871795 , 4145.64102564 , 4190.76923077 , 4911.79487179 , 4136.41025641 , 4141.53846154 , 2041.0 , 2032.0 , 321.102 , 0.0 , 0.0 , 0.0 , 0.0 , 

128.0 , 4131.79487179 , 4130.76923077 , 4132.82051282 , 4137.43589744 , 4134.35897436 , 4133.33333333 , 4125.64102564 , 4136.92307692 , 4138.97435897 , 4144.1025641 , 4192.30769231 , 4914.87179487 , 4136.92307692 , 4140.0 , 2041.0 , 2032.0 , 321.109 , 0.0 , 0.0 , 0.0 , 0.0 , 

0.0 , 4131.28205128 , 4131.28205128 , 4131.79487179 , 4137.43589744 , 4134.35897436 , 4132.30769231 , 4128.71794872 , 4137.43589744 , 4137.43589744 , 4141.53846154 , 4193.84615385 , 4914.35897436 , 4136.41025641 , 4136.92307692 , 2042.0 , 2032.0 , 321.121 , 0.0 , 0.0 , 0.0 , 0.0 , 

1.0 , 4132.82051282 , 4129.74358974 , 4132.30769231 , 4135.8974359 , 4134.35897436 , 4131.28205128 , 4128.71794872 , 4134.35897436 , 4136.92307692 , 4141.02564103 , 4191.79487179 , 4906.66666667 , 4136.41025641 , 4138.46153846 , 2042.0 , 2031.0 , 321.124 , 0.0 , 0.0 , 0.0 , 0.0 , 

2.0 , 4131.28205128 , 4130.76923077 , 4133.33333333 , 4136.92307692 , 4134.35897436 , 4133.33333333 , 4124.61538462 , 4134.35897436 , 4136.92307692 , 4141.02564103 , 4186.66666667 , 4906.66666667 , 4137.43589744 , 4140.51282051 , 2043.0 , 2032.0 , 321.133 , 0.0 , 0.0 , 0.0 , 0.0 , 

3.0 , 4133.33333333 , 4132.30769231 , 4130.76923077 , 4137.43589744 , 4133.84615385 , 4135.38461538 , 4128.20512821 , 4136.92307692 , 4137.43589744 , 4141.53846154 , 4185.12820513 , 4913.33333333 , 4137.94871795 , 4140.0 , 2045.0 , 2034.0 , 321.14 , 0.0 , 0.0 , 0.0 , 0.0 , 

4.0 , 4137.94871795 , 4131.79487179 , 4130.76923077 , 4135.8974359 , 4134.35897436 , 4134.87179487 , 4132.30769231 , 4133.84615385 , 4138.46153846 , 4140.51282051 , 4191.79487179 , 4912.30769231 , 4135.38461538 , 4141.53846154 , 2043.0 , 2034.0 , 321.153 , 0.0 , 0.0 , 0.0 , 0.0 , 

5.0 , 4134.87179487 , 4130.25641026 , 4133.84615385 , 4134.87179487 , 4134.35897436 , 4134.87179487 , 4128.71794872 , 4134.87179487 , 4137.94871795 , 4138.97435897 , 4194.87179487 , 4907.17948718 , 4136.41025641 , 4141.02564103 , 2043.0 , 2035.0 , 321.156 , 0.0 , 0.0 , 0.0 , 0.0 , 

6.0 , 4130.25641026 , 4128.71794872 , 4134.87179487 , 4134.87179487 , 4133.84615385 , 4136.92307692 , 4126.15384615 , 4137.43589744 , 4136.92307692 , 4142.05128205 , 4188.71794872 , 4909.74358974 , 4137.43589744 , 4138.97435897 , 2042.0 , 2036.0 , 321.164 , 0.0 , 0.0 , 0.0 , 0.0 , 

7.0 , 4133.84615385 , 4129.74358974 , 4135.8974359 , 4134.87179487 , 4134.35897436 , 4133.33333333 , 4129.74358974 , 4135.38461538 , 4136.92307692 , 4142.05128205 , 4189.23076923 , 4911.28205128 , 4133.33333333 , 4138.97435897 , 2041.0 , 2035.0 , 321.172 , 0.0 , 0.0 , 0.0 , 0.0 , 

8.0 , 4136.41025641 , 4131.28205128 , 4134.35897436 , 4135.38461538 , 4134.87179487 , 4131.28205128 , 4130.25641026 , 4131.79487179 , 4136.92307692 , 4136.92307692 , 4187.17948718 , 4909.23076923 , 4132.30769231 , 4140.51282051 , 2042.0 , 2035.0 , 321.184 , 0.0 , 0.0 , 0.0 , 0.0 , 

9.0 , 4133.33333333 , 4131.79487179 , 4132.30769231 , 4137.43589744 , 4134.87179487 , 4132.82051282 , 4128.20512821 , 4132.30769231 , 4136.92307692 , 4138.46153846 , 4183.07692308 , 4910.25641026 , 4135.38461538 , 4140.0 , 2041.0 , 2035.0 , 321.188 , 0.0 , 0.0 , 0.0 , 0.0 , 

10.0 , 4130.76923077 , 4129.74358974 , 4131.28205128 , 4136.41025641 , 4134.87179487 , 4130.76923077 , 4128.20512821 , 4134.35897436 , 4136.41025641 , 4142.05128205 , 4189.74358974 , 4913.84615385 , 4134.35897436 , 4136.41025641 , 2040.0 , 2033.0 , 321.195 , 0.0 , 0.0 , 0.0 , 0.0 , 

11.0 , 4131.79487179 , 4130.76923077 , 4132.30769231 , 4135.38461538 , 4134.87179487 , 4134.87179487 , 4128.71794872 , 4135.38461538 , 4136.92307692 , 4138.97435897 , 4194.35897436 , 4913.33333333 , 4132.82051282 , 4137.43589744 , 2043.0 , 2033.0 , 321.204 , 0.0 , 0.0 , 0.0 , 0.0 , 

12.0 , 4134.35897436 , 4131.28205128 , 4132.30769231 , 4134.35897436 , 4134.87179487 , 4137.94871795 , 4128.20512821 , 4135.38461538 , 4137.43589744 , 4137.94871795 , 4190.25641026 , 4910.76923077 , 4135.38461538 , 4142.56410256 , 2045.0 , 2034.0 , 321.217 , 0.0 , 0.0 , 0.0 , 0.0 , 

13.0 , 4136.41025641 , 4130.76923077 , 4132.30769231 , 4128.20512821 , 4134.87179487 , 4130.25641026 , 4128.20512821 , 4136.41025641 , 4137.43589744 , 4141.53846154 , 4187.69230769 , 4910.25641026 , 4136.92307692 , 4141.53846154 , 2045.0 , 2037.0 , 321.22 , 0.0 , 0.0 , 0.0 , 0.0 , 

14.0 , 4132.82051282 , 4132.82051282 , 4132.82051282 , 4129.23076923 , 4134.87179487 , 4127.17948718 , 4127.17948718 , 4137.43589744 , 4138.46153846 , 4139.48717949 , 4191.28205128 , 4909.23076923 , 4135.8974359 , 4137.94871795 , 2045.0 , 2036.0 , 321.227 , 0.0 , 0.0 , 0.0 , 0.0 , 

15.0 , 4130.76923077 , 4133.33333333 , 4132.30769231 , 4136.92307692 , 4134.87179487 , 4134.35897436 , 4128.20512821 , 4136.92307692 , 4140.0 , 4139.48717949 , 4192.30769231 , 4908.20512821 , 4135.8974359 , 4138.46153846 , 2045.0 , 2036.0 , 321.234 , 0.0 , 0.0 , 0.0 , 0.0 , 

16.0 , 4132.30769231 , 4131.28205128 , 4132.82051282 , 4137.43589744 , 4134.87179487 , 4135.38461538 , 4128.20512821 , 4134.35897436 , 4138.46153846 , 4142.05128205 , 4189.74358974 , 4908.71794872 , 4135.38461538 , 4138.97435897 , 2043.0 , 2035.0 , 321.245 , 0.0 , 0.0 , 0.0 , 0.0 , 

17.0 , 4133.33333333 , 4131.79487179 , 4134.87179487 , 4134.87179487 , 4134.35897436 , 4128.20512821 , 4128.71794872 , 4134.35897436 , 4135.8974359 , 4138.97435897 , 4193.33333333 , 4910.25641026 , 4135.38461538 , 4137.94871795 , 2044.0 , 2034.0 , 321.25 , 0.0 , 0.0 , 0.0 , 0.0 , 

18.0 , 4130.76923077 , 4132.30769231 , 4132.82051282 , 4136.41025641 , 4135.8974359 , 4129.23076923 , 4132.30769231 , 4135.38461538 , 4136.92307692 , 4138.97435897 , 4196.41025641 , 4911.79487179 , 4136.92307692 , 4137.94871795 , 2043.0 , 2034.0 , 321.258 , 0.0 , 0.0 , 0.0 , 0.0 , 

19.0 , 4130.76923077 , 4129.74358974 , 4130.25641026 , 4137.94871795 , 4137.43589744 , 4134.35897436 , 4132.30769231 , 4134.87179487 , 4137.43589744 , 4142.05128205 , 4191.79487179 , 4910.76923077 , 4136.41025641 , 4138.97435897 , 2042.0 , 2034.0 , 321.266 , 0.0 , 0.0 , 0.0 , 0.0 , 

20.0 , 4132.82051282 , 4129.74358974 , 4130.76923077 , 4137.43589744 , 4136.41025641 , 4133.84615385 , 4128.71794872 , 4135.38461538 , 4135.8974359 , 4138.46153846 , 4187.69230769 , 4907.17948718 , 4135.8974359 , 4140.51282051 , 2043.0 , 2033.0 , 321.278 , 0.0 , 0.0 , 0.0 , 0.0 , 

21.0 , 4131.79487179 , 4130.76923077 , 4132.30769231 , 4134.87179487 , 4135.8974359 , 4131.79487179 , 4128.71794872 , 4136.41025641 , 4135.38461538 , 4136.92307692 , 4192.82051282 , 4908.71794872 , 4136.92307692 , 4140.0 , 2043.0 , 2032.0 , 321.282 , 0.0 , 0.0 , 0.0 , 0.0 , 

22.0 , 4132.82051282 , 4129.23076923 , 4132.30769231 , 4132.30769231 , 4136.41025641 , 4132.30769231 , 4127.69230769 , 4136.41025641 , 4136.92307692 , 4138.46153846 , 4195.8974359 , 4912.82051282 , 4136.92307692 , 4140.0 , 2042.0 , 2031.0 , 321.29 , 0.0 , 0.0 , 0.0 , 0.0 , 

23.0 , 4135.38461538 , 4129.74358974 , 4134.35897436 , 4134.35897436 , 4135.38461538 , 4131.79487179 , 4124.61538462 , 4136.41025641 , 4136.92307692 , 4140.0 , 4192.30769231 , 4911.28205128 , 4135.8974359 , 4142.56410256 , 2042.0 , 2030.0 , 321.298 , 0.0 , 0.0 , 0.0 , 0.0 , 

24.0 , 4134.87179487 , 4132.82051282 , 4135.38461538 , 4135.8974359 , 4134.35897436 , 4131.28205128 , 4126.15384615 , 4137.43589744 , 4135.8974359 , 4148.71794872 , 4190.76923077 , 4908.20512821 , 4136.41025641 , 4142.05128205 , 2043.0 , 2031.0 , 321.31 , 0.0 , 0.0 , 0.0 , 0.0 , 

25.0 , 4132.30769231 , 4131.79487179 , 4132.30769231 , 4136.92307692 , 4133.84615385 , 4133.84615385 , 4129.74358974 , 4136.41025641 , 4136.92307692 , 4150.76923077 , 4189.23076923 , 4910.76923077 , 4135.8974359 , 4138.46153846 , 2043.0 , 2031.0 , 321.313 , 0.0 , 0.0 , 0.0 , 0.0 , 

26.0 , 4134.87179487 , 4130.76923077 , 4131.79487179 , 4136.92307692 , 4134.35897436 , 4135.8974359 , 4130.76923077 , 4135.8974359 , 4137.94871795 , 4140.51282051 , 4187.17948718 , 4912.30769231 , 4135.8974359 , 4137.94871795 , 2042.0 , 2032.0 , 321.321 , 0.0 , 0.0 , 0.0 , 0.0 , 

27.0 , 4136.92307692 , 4132.30769231 , 4132.30769231 , 4134.87179487 , 4134.35897436 , 4133.84615385 , 4131.79487179 , 4136.92307692 , 4136.92307692 , 4134.35897436 , 4191.28205128 , 4909.23076923 , 4138.97435897 , 4139.48717949 , 2043.0 , 2035.0 , 321.333 , 0.0 , 0.0 , 0.0 , 0.0 , 

28.0 , 4135.8974359 , 4134.35897436 , 4134.35897436 , 4135.8974359 , 4134.35897436 , 4130.25641026 , 4131.28205128 , 4136.92307692 , 4135.8974359 , 4136.92307692 , 4195.38461538 , 4908.71794872 , 4138.97435897 , 4139.48717949 , 2044.0 , 2035.0 , 321.34 , 0.0 , 0.0 , 0.0 , 0.0 , 

29.0 , 4134.35897436 , 4133.33333333 , 4134.87179487 , 4137.43589744 , 4133.84615385 , 4129.23076923 , 4128.71794872 , 4135.8974359 , 4135.8974359 , 4138.97435897 , 4190.76923077 , 4912.30769231 , 4136.41025641 , 4138.97435897 , 2043.0 , 2037.0 , 321.347 , 0.0 , 0.0 , 0.0 , 0.0 , 

30.0 , 4133.33333333 , 4132.82051282 , 4134.35897436 , 4134.35897436 , 4134.35897436 , 4136.41025641 , 4129.23076923 , 4135.8974359 , 4136.92307692 , 4140.51282051 , 4188.20512821 , 4912.82051282 , 4136.92307692 , 4137.94871795 , 2042.0 , 2038.0 , 321.353 , 0.0 , 0.0 , 0.0 , 0.0 , 

31.0 , 4133.84615385 , 4131.79487179 , 4130.76923077 , 4133.33333333 , 4135.8974359 , 4137.94871795 , 4130.76923077 , 4137.43589744 , 4135.8974359 , 4138.97435897 , 4191.28205128 , 4909.23076923 , 4137.43589744 , 4138.46153846 , 2043.0 , 2037.0 , 321.36 , 0.0 , 0.0 , 0.0 , 0.0 , 

32.0 , 4136.41025641 , 4133.84615385 , 4132.30769231 , 4136.92307692 , 4136.41025641 , 4129.23076923 , 4131.28205128 , 4135.8974359 , 4135.38461538 , 4135.8974359 , 4190.76923077 , 4908.20512821 , 4135.8974359 , 4141.02564103 , 2043.0 , 2035.0 , 321.374 , 0.0 , 0.0 , 0.0 , 0.0 , 

33.0 , 4134.87179487 , 4135.38461538 , 4136.92307692 , 4135.38461538 , 4134.87179487 , 4126.66666667 , 4130.76923077 , 4134.35897436 , 4137.43589744 , 4137.94871795 , 4187.17948718 , 4911.28205128 , 4134.87179487 , 4139.48717949 , 2042.0 , 2032.0 , 321.377 , 0.0 , 0.0 , 0.0 , 0.0 , 

34.0 , 4132.30769231 , 4132.30769231 , 4138.97435897 , 4134.87179487 , 4134.35897436 , 4133.84615385 , 4129.23076923 , 4134.87179487 , 4138.97435897 , 4138.46153846 , 4185.12820513 , 4911.28205128 , 4135.8974359 , 4138.46153846 , 2044.0 , 2029.0 , 321.385 , 0.0 , 0.0 , 0.0 , 0.0 , 

35.0 , 4132.82051282 , 4129.23076923 , 4136.41025641 , 4136.92307692 , 4134.35897436 , 4135.38461538 , 4129.23076923 , 4134.87179487 , 4137.94871795 , 4140.51282051 , 4188.71794872 , 4908.71794872 , 4136.41025641 , 4139.48717949 , 2044.0 , 2028.0 , 321.392 , 0.0 , 0.0 , 0.0 , 0.0 , 

36.0 , 4133.33333333 , 4130.76923077 , 4133.84615385 , 4133.84615385 , 4134.35897436 , 4132.82051282 , 4130.76923077 , 4134.35897436 , 4135.38461538 , 4142.56410256 , 4191.79487179 , 4910.25641026 , 4136.92307692 , 4140.0 , 2044.0 , 2029.0 , 321.405 , 0.0 , 0.0 , 0.0 , 0.0 , 

37.0 , 4130.76923077 , 4132.82051282 , 4134.87179487 , 4133.84615385 , 4134.35897436 , 4133.84615385 , 4131.28205128 , 4137.94871795 , 4135.8974359 , 4136.92307692 , 4193.84615385 , 4912.30769231 , 4137.94871795 , 4138.46153846 , 2044.0 , 2029.0 , 321.409 , 0.0 , 0.0 , 0.0 , 0.0 , 

38.0 , 4131.28205128 , 4132.30769231 , 4137.94871795 , 4133.84615385 , 4134.87179487 , 4134.35897436 , 4132.30769231 , 4136.92307692 , 4138.46153846 , 4141.02564103 , 4193.84615385 , 4910.25641026 , 4135.8974359 , 4137.94871795 , 2043.0 , 2032.0 , 321.417 , 0.0 , 0.0 , 0.0 , 0.0 , 

39.0 , 4134.35897436 , 4129.74358974 , 4139.48717949 , 4130.76923077 , 4135.38461538 , 4132.82051282 , 4132.82051282 , 4131.28205128 , 4138.97435897 , 4151.79487179 , 4192.82051282 , 4908.20512821 , 4134.87179487 , 4137.94871795 , 2043.0 , 2033.0 , 321.424 , 0.0 , 0.0 , 0.0 , 0.0 , 

40.0 , 4134.87179487 , 4128.71794872 , 4138.97435897 , 4132.30769231 , 4135.38461538 , 4131.79487179 , 4130.25641026 , 4132.30769231 , 4135.8974359 , 4145.64102564 , 4190.76923077 , 4911.28205128 , 4135.38461538 , 4138.97435897 , 2041.0 , 2033.0 , 321.437 , 0.0 , 0.0 , 0.0 , 0.0 , 

41.0 , 4133.84615385 , 4131.79487179 , 4136.92307692 , 4136.92307692 , 4135.38461538 , 4133.84615385 , 4130.76923077 , 4135.8974359 , 4136.41025641 , 4134.87179487 , 4191.79487179 , 4913.33333333 , 4135.38461538 , 4141.02564103 , 2042.0 , 2035.0 , 321.44 , 0.0 , 0.0 , 0.0 , 0.0 , 

42.0 , 4134.35897436 , 4134.87179487 , 4134.87179487 , 4136.41025641 , 4135.38461538 , 4133.33333333 , 4132.30769231 , 4135.38461538 , 4136.92307692 , 4137.94871795 , 4188.71794872 , 4910.25641026 , 4134.87179487 , 4139.48717949 , 2042.0 , 2034.0 , 321.449 , 0.0 , 0.0 , 0.0 , 0.0 , 

43.0 , 4134.35897436 , 4133.33333333 , 4133.33333333 , 4136.41025641 , 4135.38461538 , 4131.79487179 , 4129.23076923 , 4134.87179487 , 4136.92307692 , 4141.53846154 , 4184.61538462 , 4907.17948718 , 4136.41025641 , 4140.0 , 2041.0 , 2034.0 , 321.456 , 0.0 , 0.0 , 0.0 , 0.0 , 

44.0 , 4131.79487179 , 4131.28205128 , 4133.33333333 , 4135.8974359 , 4135.38461538 , 4131.28205128 , 4126.15384615 , 4135.38461538 , 4138.46153846 , 4139.48717949 , 4189.74358974 , 4909.74358974 , 4136.92307692 , 4143.07692308 , 2041.0 , 2033.0 , 321.468 , 0.0 , 0.0 , 0.0 , 0.0 , 

45.0 , 4132.82051282 , 4131.79487179 , 4134.87179487 , 4132.82051282 , 4135.38461538 , 4129.74358974 , 4130.25641026 , 4136.41025641 , 4137.94871795 , 4140.51282051 , 4194.35897436 , 4911.28205128 , 4136.92307692 , 4143.07692308 , 2041.0 , 2033.0 , 321.472 , 0.0 , 0.0 , 0.0 , 0.0 , 

46.0 , 4135.38461538 , 4130.76923077 , 4134.87179487 , 4135.8974359 , 4135.38461538 , 4127.17948718 , 4133.33333333 , 4136.41025641 , 4136.92307692 , 4140.51282051 , 4191.79487179 , 4910.25641026 , 4136.41025641 , 4142.05128205 , 2041.0 , 2033.0 , 321.479 , 0.0 , 0.0 , 0.0 , 0.0 , 

47.0 , 4134.87179487 , 4130.76923077 , 4134.35897436 , 4137.94871795 , 4135.38461538 , 4132.82051282 , 4130.76923077 , 4135.8974359 , 4137.94871795 , 4140.51282051 , 4191.79487179 , 4911.79487179 , 4136.92307692 , 4142.56410256 , 2040.0 , 2034.0 , 321.487 , 0.0 , 0.0 , 0.0 , 0.0 , 

48.0 , 4131.79487179 , 4131.28205128 , 4132.82051282 , 4134.87179487 , 4135.38461538 , 4134.87179487 , 4129.23076923 , 4135.8974359 , 4138.46153846 , 4140.0 , 4195.38461538 , 4912.82051282 , 4137.43589744 , 4141.53846154 , 2042.0 , 2033.0 , 321.499 , 0.0 , 0.0 , 0.0 , 0.0 , 

49.0 , 4132.30769231 , 4130.76923077 , 4133.84615385 , 4135.8974359 , 4135.38461538 , 4128.20512821 , 4131.28205128 , 4137.94871795 , 4137.43589744 , 4137.43589744 , 4192.30769231 , 4908.20512821 , 4137.94871795 , 4138.97435897 , 2045.0 , 2035.0 , 321.503 , 0.0 , 0.0 , 0.0 , 0.0 , 

50.0 , 4134.35897436 , 4130.25641026 , 4138.46153846 , 4139.48717949 , 4135.38461538 , 4127.69230769 , 4130.25641026 , 4136.92307692 , 4137.43589744 , 4137.94871795 , 4190.76923077 , 4905.64102564 , 4137.43589744 , 4138.46153846 , 2045.0 , 2034.0 , 321.51 , 0.0 , 0.0 , 0.0 , 0.0 , 

51.0 , 4134.35897436 , 4132.30769231 , 4138.46153846 , 4138.97435897 , 4135.38461538 , 4131.28205128 , 4129.74358974 , 4135.8974359 , 4136.92307692 , 4138.97435897 , 4194.35897436 , 4909.74358974 , 4136.92307692 , 4138.97435897 , 2045.0 , 2035.0 , 321.518 , 0.0 , 0.0 , 0.0 , 0.0 , 

52.0 , 4134.87179487 , 4132.30769231 , 4133.84615385 , 4135.8974359 , 4135.8974359 , 4130.25641026 , 4131.28205128 , 4137.43589744 , 4136.92307692 , 4137.43589744 , 4192.30769231 , 4913.84615385 , 4137.43589744 , 4138.97435897 , 2045.0 , 2037.0 , 321.53 , 0.0 , 0.0 , 0.0 , 0.0 , 

53.0 , 4135.38461538 , 4131.28205128 , 4133.33333333 , 4132.82051282 , 4134.87179487 , 4133.33333333 , 4130.76923077 , 4137.43589744 , 4137.94871795 , 4139.48717949 , 4187.69230769 , 4910.25641026 , 4137.94871795 , 4139.48717949 , 2046.0 , 2038.0 , 321.533 , 0.0 , 0.0 , 0.0 , 0.0 , 

54.0 , 4134.87179487 , 4133.33333333 , 4136.41025641 , 4133.33333333 , 4133.33333333 , 4133.33333333 , 4130.25641026 , 4136.41025641 , 4138.97435897 , 4140.0 , 4189.74358974 , 4906.66666667 , 4137.94871795 , 4138.97435897 , 2047.0 , 2041.0 , 321.544 , 0.0 , 0.0 , 0.0 , 0.0 , 

55.0 , 4133.33333333 , 4134.35897436 , 4135.38461538 , 4136.41025641 , 4132.82051282 , 4130.76923077 , 4130.76923077 , 4137.43589744 , 4138.46153846 , 4136.41025641 , 4192.30769231 , 4910.76923077 , 4136.41025641 , 4138.97435897 , 2048.0 , 2041.0 , 321.55 , 0.0 , 0.0 , 0.0 , 0.0 , 

56.0 , 4130.76923077 , 4132.82051282 , 4131.28205128 , 4136.41025641 , 4134.35897436 , 4134.35897436 , 4128.71794872 , 4138.46153846 , 4138.97435897 , 4138.46153846 , 4192.82051282 , 4912.30769231 , 4135.38461538 , 4138.46153846 , 2047.0 , 2041.0 , 321.563 , 0.0 , 0.0 , 0.0 , 0.0 , 

57.0 , 4128.71794872 , 4132.30769231 , 4130.76923077 , 4134.87179487 , 4134.35897436 , 4133.84615385 , 4127.69230769 , 4135.38461538 , 4138.46153846 , 4143.58974359 , 4192.30769231 , 4907.17948718 , 4136.92307692 , 4139.48717949 , 2045.0 , 2038.0 , 321.566 , 0.0 , 0.0 , 0.0 , 0.0 , 

58.0 , 4131.79487179 , 4131.79487179 , 4130.76923077 , 4135.8974359 , 4133.84615385 , 4128.71794872 , 4131.28205128 , 4134.35897436 , 4138.46153846 , 4141.02564103 , 4193.33333333 , 4908.71794872 , 4137.94871795 , 4138.46153846 , 2046.0 , 2036.0 , 321.574 , 0.0 , 0.0 , 0.0 , 0.0 , 

59.0 , 4131.79487179 , 4129.23076923 , 4130.25641026 , 4136.92307692 , 4133.84615385 , 4131.79487179 , 4132.30769231 , 4139.48717949 , 4138.97435897 , 4136.41025641 , 4193.84615385 , 4912.30769231 , 4136.41025641 , 4137.43589744 , 2042.0 , 2033.0 , 321.581 , 0.0 , 0.0 , 0.0 , 0.0 , 

60.0 , 4128.71794872 , 4128.71794872 , 4131.79487179 , 4137.43589744 , 4134.87179487 , 4134.87179487 , 4129.74358974 , 4140.51282051 , 4138.97435897 , 4137.94871795 , 4193.84615385 , 4908.71794872 , 4136.92307692 , 4139.48717949 , 2042.0 , 2032.0 , 321.594 , 0.0 , 0.0 , 0.0 , 0.0 , 

61.0 , 4130.25641026 , 4130.76923077 , 4133.84615385 , 4137.94871795 , 4135.38461538 , 4129.74358974 , 4130.25641026 , 4135.8974359 , 4138.97435897 , 4139.48717949 , 4190.76923077 , 4907.17948718 , 4137.43589744 , 4137.43589744 , 2042.0 , 2031.0 , 321.597 , 0.0 , 0.0 , 0.0 , 0.0 , 

62.0 , 4131.79487179 , 4131.28205128 , 4131.79487179 , 4136.92307692 , 4134.87179487 , 4130.76923077 , 4131.79487179 , 4134.87179487 , 4137.94871795 , 4137.43589744 , 4190.76923077 , 4909.74358974 , 4136.41025641 , 4135.8974359 , 2042.0 , 2034.0 , 321.605 , 0.0 , 0.0 , 0.0 , 0.0 , 

63.0 , 4130.25641026 , 4131.28205128 , 4130.76923077 , 4135.8974359 , 4134.87179487 , 4131.79487179 , 4128.71794872 , 4137.43589744 , 4137.94871795 , 4137.94871795 , 4191.79487179 , 4909.23076923 , 4136.41025641 , 4141.02564103 , 2042.0 , 2034.0 , 321.613 , 0.0 , 0.0 , 0.0 , 0.0 , 

64.0 , 4133.33333333 , 4133.33333333 , 4133.84615385 , 4135.38461538 , 4135.38461538 , 4128.20512821 , 4126.66666667 , 4135.8974359 , 4138.46153846 , 4140.0 , 4188.71794872 , 4906.66666667 , 4137.43589744 , 4144.61538462 , 2044.0 , 2035.0 , 321.625 , 0.0 , 0.0 , 0.0 , 0.0 , 

65.0 , 4133.33333333 , 4133.84615385 , 4134.87179487 , 4135.8974359 , 4135.38461538 , 4127.17948718 , 4128.71794872 , 4133.33333333 , 4136.92307692 , 4139.48717949 , 4189.74358974 , 4907.17948718 , 4137.43589744 , 4141.53846154 , 2043.0 , 2037.0 , 321.629 , 0.0 , 0.0 , 0.0 , 0.0 , 

66.0 , 4132.82051282 , 4130.25641026 , 4135.8974359 , 4135.8974359 , 4134.87179487 , 4128.71794872 , 4129.74358974 , 4134.87179487 , 4136.92307692 , 4139.48717949 , 4195.38461538 , 4908.20512821 , 4137.94871795 , 4139.48717949 , 2044.0 , 2036.0 , 321.638 , 0.0 , 0.0 , 0.0 , 0.0 , 

67.0 , 4135.38461538 , 4129.74358974 , 4135.8974359 , 4134.35897436 , 4135.38461538 , 4128.71794872 , 4127.17948718 , 4136.92307692 , 4137.43589744 , 4140.0 , 4195.38461538 , 4908.20512821 , 4137.43589744 , 4139.48717949 , 2045.0 , 2034.0 , 321.645 , 0.0 , 0.0 , 0.0 , 0.0 , 

68.0 , 4136.92307692 , 4131.79487179 , 4133.33333333 , 4134.87179487 , 4135.38461538 , 4126.66666667 , 4125.64102564 , 4135.8974359 , 4137.43589744 , 4139.48717949 , 4189.23076923 , 4908.71794872 , 4136.92307692 , 4138.46153846 , 2043.0 , 2033.0 , 321.658 , 0.0 , 0.0 , 0.0 , 0.0 , 

69.0 , 4135.8974359 , 4130.76923077 , 4134.35897436 , 4137.94871795 , 4135.38461538 , 4129.23076923 , 4126.66666667 , 4136.41025641 , 4136.41025641 , 4139.48717949 , 4187.17948718 , 4910.25641026 , 4135.8974359 , 4138.97435897 , 2043.0 , 2031.0 , 321.661 , 0.0 , 0.0 , 0.0 , 0.0 , 

70.0 , 4137.94871795 , 4130.25641026 , 4138.46153846 , 4137.94871795 , 4135.38461538 , 4132.82051282 , 4127.69230769 , 4135.38461538 , 4136.92307692 , 4138.97435897 , 4193.33333333 , 4910.76923077 , 4134.87179487 , 4140.0 , 2043.0 , 2031.0 , 321.67 , 0.0 , 0.0 , 0.0 , 0.0 , 

71.0 , 4134.35897436 , 4130.76923077 , 4135.38461538 , 4133.84615385 , 4135.38461538 , 4132.82051282 , 4127.69230769 , 4134.35897436 , 4136.92307692 , 4138.97435897 , 4191.79487179 , 4911.79487179 , 4137.43589744 , 4138.97435897 , 2042.0 , 2032.0 , 321.677 , 0.0 , 0.0 , 0.0 , 0.0 , 

72.0 , 4130.25641026 , 4129.74358974 , 4131.79487179 , 4132.30769231 , 4135.38461538 , 4131.28205128 , 4130.25641026 , 4133.33333333 , 4135.8974359 , 4138.46153846 , 4186.66666667 , 4910.76923077 , 4134.35897436 , 4138.46153846 , 2042.0 , 2032.0 , 321.688 , 0.0 , 0.0 , 0.0 , 0.0 , 

73.0 , 4131.79487179 , 4130.25641026 , 4134.35897436 , 4134.87179487 , 4135.38461538 , 4131.28205128 , 4130.76923077 , 4133.84615385 , 4136.41025641 , 4138.46153846 , 4188.71794872 , 4906.66666667 , 4127.69230769 , 4138.46153846 , 2041.0 , 2033.0 , 321.692 , 0.0 , 0.0 , 0.0 , 0.0 , 

74.0 , 4133.84615385 , 4131.79487179 , 4136.41025641 , 4136.92307692 , 4134.87179487 , 4135.38461538 , 4129.23076923 , 4131.79487179 , 4136.92307692 , 4137.94871795 , 4189.23076923 , 4909.23076923 , 4131.79487179 , 4138.97435897 , 2041.0 , 2034.0 , 321.7 , 0.0 , 0.0 , 0.0 , 0.0 , 

75.0 , 4133.33333333 , 4129.74358974 , 4133.33333333 , 4136.92307692 , 4135.38461538 , 4135.8974359 , 4128.20512821 , 4129.23076923 , 4136.92307692 , 4137.94871795 , 4184.61538462 , 4915.38461538 , 4138.97435897 , 4137.43589744 , 2041.0 , 2034.0 , 321.708 , 0.0 , 0.0 , 0.0 , 0.0 , 

76.0 , 4134.35897436 , 4129.74358974 , 4132.30769231 , 4137.43589744 , 4135.8974359 , 4135.38461538 , 4127.69230769 , 4131.79487179 , 4135.8974359 , 4139.48717949 , 4190.25641026 , 4915.38461538 , 4135.8974359 , 4136.41025641 , 2042.0 , 2036.0 , 321.719 , 0.0 , 0.0 , 0.0 , 0.0 , 

77.0 , 4134.35897436 , 4130.76923077 , 4135.38461538 , 4137.43589744 , 4135.8974359 , 4136.41025641 , 4129.23076923 , 4135.8974359 , 4136.41025641 , 4139.48717949 , 4196.92307692 , 4912.30769231 , 4132.30769231 , 4137.94871795 , 2041.0 , 2036.0 , 321.724 , 0.0 , 0.0 , 0.0 , 0.0 , 

78.0 , 4133.84615385 , 4129.23076923 , 4137.94871795 , 4135.38461538 , 4135.8974359 , 4134.35897436 , 4129.74358974 , 4135.8974359 , 4135.8974359 , 4137.43589744 , 4189.74358974 , 4910.76923077 , 4134.87179487 , 4139.48717949 , 2043.0 , 2036.0 , 321.731 , 0.0 , 0.0 , 0.0 , 0.0 , 

79.0 , 4134.35897436 , 4129.23076923 , 4136.92307692 , 4134.35897436 , 4135.8974359 , 4129.23076923 , 4125.64102564 , 4130.76923077 , 4136.41025641 , 4137.43589744 , 4186.66666667 , 4910.25641026 , 4136.92307692 , 4140.51282051 , 2044.0 , 2035.0 , 321.739 , 0.0 , 0.0 , 0.0 , 0.0 , 

80.0 , 4134.87179487 , 4131.28205128 , 4134.35897436 , 4135.38461538 , 4135.8974359 , 4126.66666667 , 4125.12820513 , 4129.23076923 , 4136.41025641 , 4141.02564103 , 4189.74358974 , 4912.30769231 , 4136.41025641 , 4138.46153846 , 2045.0 , 2034.0 , 321.751 , 0.0 , 0.0 , 0.0 , 0.0 , 

81.0 , 4136.41025641 , 4131.28205128 , 4137.43589744 , 4136.41025641 , 4135.8974359 , 4128.71794872 , 4128.20512821 , 4131.79487179 , 4134.35897436 , 4141.02564103 , 4189.23076923 , 4911.28205128 , 4135.38461538 , 4140.51282051 , 2045.0 , 2034.0 , 321.756 , 0.0 , 0.0 , 0.0 , 0.0 , 

82.0 , 4134.87179487 , 4131.79487179 , 4140.0 , 4135.38461538 , 4135.8974359 , 4130.76923077 , 4125.12820513 , 4133.84615385 , 4133.33333333 , 4138.97435897 , 4187.17948718 , 4909.23076923 , 4134.87179487 , 4143.58974359 , 2045.0 , 2034.0 , 321.763 , 0.0 , 0.0 , 0.0 , 0.0 , 

83.0 , 4132.30769231 , 4133.33333333 , 4135.8974359 , 4136.41025641 , 4135.38461538 , 4129.23076923 , 4123.07692308 , 4131.28205128 , 4135.8974359 , 4138.97435897 , 4187.69230769 , 4910.76923077 , 4131.79487179 , 4142.56410256 , 2045.0 , 2032.0 , 321.77 , 0.0 , 0.0 , 0.0 , 0.0 , 

84.0 , 4133.33333333 , 4132.30769231 , 4136.41025641 , 4137.43589744 , 4135.38461538 , 4127.69230769 , 4127.17948718 , 4128.71794872 , 4136.41025641 , 4138.46153846 , 4186.15384615 , 4910.76923077 , 4131.28205128 , 4140.51282051 , 2043.0 , 2030.0 , 321.782 , 0.0 , 0.0 , 0.0 , 0.0 , 

85.0 , 4131.79487179 , 4132.82051282 , 4143.07692308 , 4136.41025641 , 4135.38461538 , 4135.8974359 , 4128.71794872 , 4128.20512821 , 4134.35897436 , 4137.94871795 , 4186.66666667 , 4909.23076923 , 4131.79487179 , 4141.02564103 , 2044.0 , 2031.0 , 321.787 , 0.0 , 0.0 , 0.0 , 0.0 , 

86.0 , 4130.25641026 , 4133.33333333 , 4144.1025641 , 4134.35897436 , 4135.38461538 , 4138.97435897 , 4125.64102564 , 4127.69230769 , 4133.84615385 , 4135.8974359 , 4187.17948718 , 4909.74358974 , 4131.28205128 , 4137.43589744 , 2044.0 , 2031.0 , 321.794 , 0.0 , 0.0 , 0.0 , 0.0 , 

87.0 , 4133.33333333 , 4133.33333333 , 4141.53846154 , 4131.28205128 , 4135.38461538 , 4130.76923077 , 4125.12820513 , 4127.17948718 , 4129.74358974 , 4134.87179487 , 4185.12820513 , 4911.28205128 , 4128.71794872 , 4134.87179487 , 2043.0 , 2031.0 , 321.802 , 0.0 , 0.0 , 0.0 , 0.0 , 

88.0 , 4133.33333333 , 4134.87179487 , 4140.0 , 4130.76923077 , 4135.8974359 , 4129.23076923 , 4123.07692308 , 4129.23076923 , 4126.15384615 , 4136.41025641 , 4187.17948718 , 4913.33333333 , 4128.71794872 , 4138.97435897 , 2043.0 , 2031.0 , 321.814 , 0.0 , 0.0 , 0.0 , 0.0 , 

89.0 , 4131.79487179 , 4132.82051282 , 4138.97435897 , 4135.38461538 , 4135.8974359 , 4131.28205128 , 4122.56410256 , 4128.71794872 , 4132.30769231 , 4138.46153846 , 4186.66666667 , 4915.38461538 , 4129.23076923 , 4140.51282051 , 2041.0 , 2034.0 , 321.817 , 0.0 , 0.0 , 0.0 , 0.0 , 

90.0 , 4132.30769231 , 4128.71794872 , 4141.02564103 , 4138.46153846 , 4135.8974359 , 4129.74358974 , 4125.12820513 , 4129.74358974 , 4137.43589744 , 4138.46153846 , 4187.69230769 , 4913.33333333 , 4131.28205128 , 4136.92307692 , 2043.0 , 2034.0 , 321.827 , 0.0 , 0.0 , 0.0 , 0.0 , 

91.0 , 4133.33333333 , 4131.28205128 , 4142.05128205 , 4132.30769231 , 4135.8974359 , 4132.82051282 , 4126.15384615 , 4131.79487179 , 4135.8974359 , 4139.48717949 , 4193.33333333 , 4910.25641026 , 4131.79487179 , 4137.43589744 , 2041.0 , 2035.0 , 321.833 , 0.0 , 0.0 , 0.0 , 0.0 , 

92.0 , 4133.33333333 , 4133.33333333 , 4138.46153846 , 4129.74358974 , 4135.8974359 , 4134.35897436 , 4124.1025641 , 4130.25641026 , 4135.38461538 , 4138.97435897 , 4194.87179487 , 4909.74358974 , 4129.23076923 , 4138.46153846 , 2041.0 , 2035.0 , 321.846 , 0.0 , 0.0 , 0.0 , 0.0 , 

93.0 , 4133.33333333 , 4130.76923077 , 4141.02564103 , 4135.38461538 , 4135.8974359 , 4131.79487179 , 4124.1025641 , 4126.66666667 , 4136.92307692 , 4136.92307692 , 4189.74358974 , 4911.28205128 , 4127.17948718 , 4136.92307692 , 2041.0 , 2038.0 , 321.849 , 0.0 , 0.0 , 0.0 , 0.0 , 

94.0 , 4136.41025641 , 4130.25641026 , 4142.05128205 , 4138.46153846 , 4135.8974359 , 4134.35897436 , 4126.15384615 , 4126.66666667 , 4137.43589744 , 4137.94871795 , 4189.23076923 , 4911.79487179 , 4127.17948718 , 4140.0 , 2042.0 , 2035.0 , 321.857 , 0.0 , 0.0 , 0.0 , 0.0 , 

95.0 , 4139.48717949 , 4131.28205128 , 4140.51282051 , 4136.92307692 , 4135.8974359 , 4135.38461538 , 4125.12820513 , 4128.71794872 , 4136.92307692 , 4139.48717949 , 4188.71794872 , 4910.76923077 , 4128.20512821 , 4142.05128205 , 2041.0 , 2034.0 , 321.865 , 0.0 , 0.0 , 0.0 , 0.0 , 

96.0 , 4135.8974359 , 4131.28205128 , 4141.02564103 , 4136.41025641 , 4136.41025641 , 4130.25641026 , 4123.58974359 , 4127.17948718 , 4136.41025641 , 4138.46153846 , 4186.15384615 , 4911.28205128 , 4127.17948718 , 4137.94871795 , 2041.0 , 2036.0 , 321.877 , 0.0 , 0.0 , 0.0 , 0.0 , 

97.0 , 4131.79487179 , 4132.30769231 , 4137.43589744 , 4135.8974359 , 4135.8974359 , 4131.28205128 , 4124.61538462 , 4128.20512821 , 4135.8974359 , 4136.92307692 , 4190.76923077 , 4912.30769231 , 4127.17948718 , 4136.92307692 , 2041.0 , 2036.0 , 321.88 , 0.0 , 0.0 , 0.0 , 0.0 , 

98.0 , 4134.35897436 , 4134.87179487 , 4132.82051282 , 4134.87179487 , 4134.87179487 , 4137.94871795 , 4125.64102564 , 4134.35897436 , 4137.43589744 , 4136.41025641 , 4192.82051282 , 4911.28205128 , 4134.35897436 , 4139.48717949 , 2044.0 , 2037.0 , 321.89 , 0.0 , 0.0 , 0.0 , 0.0 , 

99.0 , 4133.33333333 , 4134.87179487 , 4135.8974359 , 4133.84615385 , 4133.84615385 , 4134.35897436 , 4123.58974359 , 4135.8974359 , 4137.43589744 , 4138.97435897 , 4189.74358974 , 4912.82051282 , 4135.8974359 , 4138.97435897 , 2043.0 , 2036.0 , 321.897 , 0.0 , 0.0 , 0.0 , 0.0 , 

100.0 , 4129.74358974 , 4132.82051282 , 4137.94871795 , 4132.30769231 , 4134.35897436 , 4127.17948718 , 4125.12820513 , 4132.82051282 , 4136.92307692 , 4142.05128205 , 4189.74358974 , 4912.82051282 , 4128.20512821 , 4137.94871795 , 2042.0 , 2036.0 , 321.909 , 0.0 , 0.0 , 0.0 , 0.0 , 

101.0 , 4131.28205128 , 4129.74358974 , 4135.8974359 , 4132.82051282 , 4134.35897436 , 4129.23076923 , 4127.17948718 , 4132.30769231 , 4136.41025641 , 4137.94871795 , 4194.35897436 , 4910.25641026 , 4128.20512821 , 4138.46153846 , 2044.0 , 2036.0 , 321.912 , 0.0 , 0.0 , 0.0 , 0.0 , 

102.0 , 4134.35897436 , 4131.28205128 , 4135.38461538 , 4137.94871795 , 4134.35897436 , 4132.82051282 , 4127.69230769 , 4135.38461538 , 4135.8974359 , 4134.87179487 , 4193.84615385 , 4908.71794872 , 4135.38461538 , 4140.0 , 2046.0 , 2037.0 , 321.922 , 0.0 , 0.0 , 0.0 , 0.0 , 

103.0 , 4133.84615385 , 4132.30769231 , 4134.35897436 , 4137.94871795 , 4134.35897436 , 4129.74358974 , 4126.66666667 , 4136.41025641 , 4135.8974359 , 4143.07692308 , 4192.82051282 , 4910.25641026 , 4133.33333333 , 4143.07692308 , 2046.0 , 2035.0 , 321.929 , 0.0 , 0.0 , 0.0 , 0.0 , 

104.0 , 4133.33333333 , 4130.25641026 , 4136.92307692 , 4129.74358974 , 4134.35897436 , 4132.82051282 , 4128.20512821 , 4137.43589744 , 4136.92307692 , 4145.64102564 , 4196.41025641 , 4910.25641026 , 4132.82051282 , 4142.56410256 , 2047.0 , 2033.0 , 321.942 , 0.0 , 0.0 , 0.0 , 0.0 , 

105.0 , 4133.84615385 , 4129.23076923 , 4137.43589744 , 4129.74358974 , 4134.35897436 , 4137.43589744 , 4128.20512821 , 4135.38461538 , 4138.46153846 , 4139.48717949 , 4192.82051282 , 4909.74358974 , 4136.41025641 , 4139.48717949 , 2048.0 , 2032.0 , 321.945 , 0.0 , 0.0 , 0.0 , 0.0 , 

106.0 , 4133.33333333 , 4132.30769231 , 4133.33333333 , 4137.43589744 , 4134.35897436 , 4131.28205128 , 4126.15384615 , 4135.38461538 , 4138.46153846 , 4140.0 , 4187.17948718 , 4910.25641026 , 4136.92307692 , 4138.97435897 , 2049.0 , 2031.0 , 321.952 , 0.0 , 0.0 , 0.0 , 0.0 , 

107.0 , 4132.30769231 , 4132.82051282 , 4133.33333333 , 4136.41025641 , 4134.35897436 , 4127.17948718 , 4127.17948718 , 4136.92307692 , 4136.92307692 , 4143.07692308 , 4187.17948718 , 4910.76923077 , 4135.8974359 , 4138.97435897 , 2048.0 , 2028.0 , 321.961 , 0.0 , 0.0 , 0.0 , 0.0 , 

108.0 , 4131.79487179 , 4130.25641026 , 4134.35897436 , 4133.84615385 , 4134.35897436 , 4130.76923077 , 4129.23076923 , 4134.87179487 , 4135.8974359 , 4140.51282051 , 4187.17948718 , 4909.74358974 , 4136.41025641 , 4138.46153846 , 2048.0 , 2027.0 , 321.972 , 0.0 , 0.0 , 0.0 , 0.0 , 

109.0 , 4132.30769231 , 4130.76923077 , 4130.76923077 , 4135.8974359 , 4135.38461538 , 4132.82051282 , 4126.15384615 , 4135.8974359 , 4135.38461538 , 4139.48717949 , 4187.17948718 , 4908.71794872 , 4135.8974359 , 4137.43589744 , 2048.0 , 2028.0 , 321.976 , 0.0 , 0.0 , 0.0 , 0.0 , 

110.0 , 4134.35897436 , 4133.84615385 , 4133.33333333 , 4136.92307692 , 4136.41025641 , 4127.69230769 , 4124.1025641 , 4134.35897436 , 4135.8974359 , 4141.02564103 , 4190.76923077 , 4908.71794872 , 4135.8974359 , 4136.92307692 , 2046.0 , 2027.0 , 321.987 , 0.0 , 0.0 , 0.0 , 0.0 , 

111.0 , 4134.35897436 , 4132.30769231 , 4138.97435897 , 4136.41025641 , 4136.41025641 , 4126.66666667 , 4125.64102564 , 4131.28205128 , 4137.94871795 , 4138.46153846 , 4191.79487179 , 4907.69230769 , 4136.92307692 , 4137.94871795 , 2046.0 , 2029.0 , 321.991 , 0.0 , 0.0 , 0.0 , 0.0 , 

112.0 , 4133.33333333 , 4130.25641026 , 4138.46153846 , 4137.43589744 , 4135.8974359 , 4129.74358974 , 4124.61538462 , 4130.76923077 , 4135.38461538 , 4137.43589744 , 4190.76923077 , 4908.20512821 , 4133.84615385 , 4140.0 , 2044.0 , 2032.0 , 322.002 , 0.0 , 0.0 , 0.0 , 0.0 , 

113.0 , 4132.30769231 , 4131.28205128 , 4137.43589744 , 4137.43589744 , 4136.41025641 , 4129.74358974 , 4125.12820513 , 4130.76923077 , 4133.33333333 , 4138.46153846 , 4190.76923077 , 4908.71794872 , 4134.35897436 , 4138.46153846 , 2043.0 , 2031.0 , 322.007 , 0.0 , 0.0 , 0.0 , 0.0 , 

114.0 , 4132.30769231 , 4133.33333333 , 4138.97435897 , 4137.94871795 , 4136.41025641 , 4131.28205128 , 4127.69230769 , 4129.74358974 , 4133.84615385 , 4139.48717949 , 4190.25641026 , 4909.23076923 , 4132.82051282 , 4135.8974359 , 2043.0 , 2033.0 , 322.015 , 0.0 , 0.0 , 0.0 , 0.0 , 

115.0 , 4133.33333333 , 4133.33333333 , 4137.43589744 , 4138.46153846 , 4135.8974359 , 4136.41025641 , 4126.66666667 , 4129.74358974 , 4135.38461538 , 4137.94871795 , 4189.74358974 , 4911.28205128 , 4128.71794872 , 4137.94871795 , 2042.0 , 2032.0 , 322.023 , 0.0 , 0.0 , 0.0 , 0.0 , 

116.0 , 4134.35897436 , 4131.28205128 , 4135.38461538 , 4137.43589744 , 4135.8974359 , 4133.84615385 , 4125.64102564 , 4127.69230769 , 4133.84615385 , 4136.41025641 , 4188.20512821 , 4911.79487179 , 4128.20512821 , 4139.48717949 , 2040.0 , 2034.0 , 322.035 , 0.0 , 0.0 , 0.0 , 0.0 , 

117.0 , 4134.35897436 , 4131.28205128 , 4137.43589744 , 4137.94871795 , 4136.41025641 , 4127.17948718 , 4127.17948718 , 4125.12820513 , 4134.87179487 , 4137.94871795 , 4186.15384615 , 4910.25641026 , 4128.71794872 , 4137.43589744 , 2039.0 , 2035.0 , 322.038 , 0.0 , 0.0 , 0.0 , 0.0 , 

