['COUNTER', 'AF3', 'F7', 'F3', 'FC5', 'T7', 'P7', 'O1', 'O2', 'P8', 'T8', 'FC6', 'F4', 'F8', 'AF4', 'GYROX', 'GYROY', 'TIMESTAMP', 'FUNC_ID', 'FUNC_VALUE', 'MARKER', 'SYNC_SIGNAL']
96.0 , 4131.79487179 , 4128.71794872 , 4131.28205128 , 4129.74358974 , 4129.74358974 , 4130.25641026 , 4125.64102564 , 4129.74358974 , 4125.64102564 , 4135.8974359 , 4123.58974359 , 4058.46153846 , 4126.15384615 , 4127.69230769 , 2043.0 , 2034.0 , 228.032 , 0.0 , 0.0 , 0.0 , 0.0 , 

97.0 , 4130.76923077 , 4128.71794872 , 4130.25641026 , 4129.74358974 , 4128.20512821 , 4125.64102564 , 4126.15384615 , 4126.15384615 , 4125.12820513 , 4135.8974359 , 4123.58974359 , 4057.43589744 , 4126.15384615 , 4127.69230769 , 2043.0 , 2034.0 , 228.04 , 0.0 , 0.0 , 0.0 , 0.0 , 

98.0 , 4129.23076923 , 4127.17948718 , 4130.25641026 , 4128.71794872 , 4129.23076923 , 4126.66666667 , 4125.64102564 , 4126.66666667 , 4126.66666667 , 4135.8974359 , 4123.58974359 , 4055.8974359 , 4127.17948718 , 4128.71794872 , 2041.0 , 2036.0 , 228.048 , 0.0 , 0.0 , 0.0 , 0.0 , 

99.0 , 4127.69230769 , 4126.15384615 , 4132.30769231 , 4127.69230769 , 4129.23076923 , 4128.71794872 , 4125.64102564 , 4125.64102564 , 4126.15384615 , 4135.8974359 , 4122.56410256 , 4056.92307692 , 4127.69230769 , 4128.20512821 , 2041.0 , 2037.0 , 228.056 , 0.0 , 0.0 , 0.0 , 0.0 , 

100.0 , 4129.74358974 , 4127.17948718 , 4131.79487179 , 4128.71794872 , 4129.23076923 , 4127.69230769 , 4129.74358974 , 4123.07692308 , 4125.12820513 , 4135.8974359 , 4122.56410256 , 4057.94871795 , 4125.64102564 , 4126.66666667 , 2042.0 , 2038.0 , 228.064 , 0.0 , 0.0 , 0.0 , 0.0 , 

101.0 , 4128.71794872 , 4129.23076923 , 4127.17948718 , 4130.25641026 , 4128.20512821 , 4126.15384615 , 4129.74358974 , 4126.15384615 , 4125.64102564 , 4135.8974359 , 4125.12820513 , 4055.8974359 , 4128.71794872 , 4126.66666667 , 2041.0 , 2039.0 , 228.072 , 0.0 , 0.0 , 0.0 , 0.0 , 

102.0 , 4128.71794872 , 4129.74358974 , 4129.23076923 , 4130.25641026 , 4127.69230769 , 4127.17948718 , 4130.76923077 , 4130.25641026 , 4125.12820513 , 4135.8974359 , 4126.15384615 , 4056.41025641 , 4128.20512821 , 4127.17948718 , 2042.0 , 2037.0 , 228.078 , 0.0 , 0.0 , 0.0 , 0.0 , 

103.0 , 4131.28205128 , 4128.20512821 , 4131.28205128 , 4127.69230769 , 4126.66666667 , 4127.17948718 , 4129.74358974 , 4127.17948718 , 4127.17948718 , 4135.8974359 , 4121.53846154 , 4057.43589744 , 4126.66666667 , 4126.15384615 , 2041.0 , 2037.0 , 228.078 , 0.0 , 0.0 , 0.0 , 0.0 , 

104.0 , 4130.76923077 , 4127.17948718 , 4130.25641026 , 4128.20512821 , 4127.17948718 , 4127.17948718 , 4127.17948718 , 4125.12820513 , 4127.69230769 , 4135.8974359 , 4121.53846154 , 4055.8974359 , 4128.71794872 , 4127.17948718 , 2042.0 , 2035.0 , 228.093 , 0.0 , 0.0 , 0.0 , 0.0 , 

105.0 , 4129.74358974 , 4127.69230769 , 4130.25641026 , 4130.76923077 , 4129.23076923 , 4128.20512821 , 4126.15384615 , 4127.17948718 , 4127.69230769 , 4135.8974359 , 4125.64102564 , 4055.38461538 , 4128.20512821 , 4128.71794872 , 2042.0 , 2034.0 , 228.093 , 0.0 , 0.0 , 0.0 , 0.0 , 

106.0 , 4130.25641026 , 4128.20512821 , 4130.76923077 , 4130.25641026 , 4129.74358974 , 4126.66666667 , 4127.17948718 , 4125.64102564 , 4128.20512821 , 4135.8974359 , 4124.1025641 , 4056.41025641 , 4124.61538462 , 4129.23076923 , 2042.0 , 2033.0 , 228.109 , 0.0 , 0.0 , 0.0 , 0.0 , 

107.0 , 4130.76923077 , 4128.20512821 , 4129.23076923 , 4127.17948718 , 4128.20512821 , 4126.15384615 , 4127.69230769 , 4122.56410256 , 4126.15384615 , 4135.8974359 , 4122.05128205 , 4056.92307692 , 4126.66666667 , 4129.23076923 , 2044.0 , 2033.0 , 228.109 , 0.0 , 0.0 , 0.0 , 0.0 , 

108.0 , 4129.23076923 , 4128.71794872 , 4129.74358974 , 4128.20512821 , 4126.66666667 , 4127.17948718 , 4127.69230769 , 4131.28205128 , 4125.12820513 , 4135.8974359 , 4123.58974359 , 4057.94871795 , 4130.25641026 , 4129.23076923 , 2043.0 , 2031.0 , 228.124 , 0.0 , 0.0 , 0.0 , 0.0 , 

109.0 , 4128.71794872 , 4127.17948718 , 4129.74358974 , 4130.25641026 , 4127.17948718 , 4127.17948718 , 4129.74358974 , 4139.48717949 , 4128.71794872 , 4135.8974359 , 4123.07692308 , 4057.94871795 , 4127.17948718 , 4128.20512821 , 2043.0 , 2032.0 , 228.124 , 0.0 , 0.0 , 0.0 , 0.0 , 

110.0 , 4128.20512821 , 4127.17948718 , 4126.66666667 , 4128.71794872 , 4129.23076923 , 4126.66666667 , 4129.23076923 , 4135.38461538 , 4126.66666667 , 4135.8974359 , 4121.02564103 , 4056.92307692 , 4126.15384615 , 4127.17948718 , 2045.0 , 2032.0 , 228.14 , 0.0 , 0.0 , 0.0 , 0.0 , 

111.0 , 4129.74358974 , 4128.71794872 , 4127.17948718 , 4128.20512821 , 4129.23076923 , 4127.17948718 , 4129.23076923 , 4132.82051282 , 4121.53846154 , 4135.8974359 , 4121.53846154 , 4057.43589744 , 4126.66666667 , 4126.66666667 , 2045.0 , 2033.0 , 228.14 , 0.0 , 0.0 , 0.0 , 0.0 , 

112.0 , 4130.25641026 , 4127.17948718 , 4130.25641026 , 4129.74358974 , 4126.66666667 , 4126.66666667 , 4129.23076923 , 4133.84615385 , 4126.15384615 , 4135.8974359 , 4122.05128205 , 4057.94871795 , 4126.15384615 , 4128.71794872 , 2044.0 , 2033.0 , 228.159 , 0.0 , 0.0 , 0.0 , 0.0 , 

113.0 , 4130.25641026 , 4126.66666667 , 4130.76923077 , 4128.20512821 , 4127.69230769 , 4127.17948718 , 4127.17948718 , 4128.20512821 , 4130.25641026 , 4135.8974359 , 4122.56410256 , 4055.38461538 , 4124.61538462 , 4130.25641026 , 2044.0 , 2034.0 , 228.166 , 0.0 , 0.0 , 0.0 , 0.0 , 

114.0 , 4128.20512821 , 4127.17948718 , 4126.66666667 , 4126.15384615 , 4129.74358974 , 4128.71794872 , 4126.15384615 , 4126.15384615 , 4127.17948718 , 4135.8974359 , 4126.15384615 , 4054.35897436 , 4127.69230769 , 4127.69230769 , 2045.0 , 2032.0 , 228.174 , 0.0 , 0.0 , 0.0 , 0.0 , 

115.0 , 4129.74358974 , 4127.69230769 , 4127.17948718 , 4128.20512821 , 4128.71794872 , 4128.71794872 , 4128.20512821 , 4132.30769231 , 4127.17948718 , 4135.8974359 , 4126.66666667 , 4056.92307692 , 4129.74358974 , 4127.17948718 , 2044.0 , 2033.0 , 228.182 , 0.0 , 0.0 , 0.0 , 0.0 , 

116.0 , 4129.74358974 , 4125.64102564 , 4130.25641026 , 4128.20512821 , 4127.17948718 , 4127.17948718 , 4129.74358974 , 4130.76923077 , 4129.74358974 , 4135.8974359 , 4122.05128205 , 4056.92307692 , 4128.71794872 , 4128.20512821 , 2043.0 , 2030.0 , 228.191 , 0.0 , 0.0 , 0.0 , 0.0 , 

117.0 , 4128.71794872 , 4126.66666667 , 4130.76923077 , 4127.17948718 , 4127.17948718 , 4127.69230769 , 4128.20512821 , 4125.12820513 , 4128.20512821 , 4135.8974359 , 4121.02564103 , 4055.8974359 , 4125.64102564 , 4127.69230769 , 2043.0 , 2031.0 , 228.199 , 0.0 , 0.0 , 0.0 , 0.0 , 

118.0 , 4127.17948718 , 4126.66666667 , 4128.20512821 , 4126.66666667 , 4127.69230769 , 4127.69230769 , 4127.69230769 , 4127.17948718 , 4127.17948718 , 4135.8974359 , 4123.58974359 , 4055.8974359 , 4126.66666667 , 4126.15384615 , 2043.0 , 2030.0 , 228.202 , 0.0 , 0.0 , 0.0 , 0.0 , 

119.0 , 4128.71794872 , 4126.15384615 , 4129.23076923 , 4126.15384615 , 4127.69230769 , 4127.17948718 , 4128.20512821 , 4130.25641026 , 4126.15384615 , 4135.8974359 , 4124.61538462 , 4056.41025641 , 4127.17948718 , 4127.69230769 , 2042.0 , 2032.0 , 228.202 , 0.0 , 0.0 , 0.0 , 0.0 , 

120.0 , 4131.28205128 , 4127.69230769 , 4129.74358974 , 4128.20512821 , 4127.69230769 , 4127.17948718 , 4128.20512821 , 4130.76923077 , 4126.66666667 , 4135.8974359 , 4125.64102564 , 4056.92307692 , 4126.15384615 , 4128.20512821 , 2042.0 , 2032.0 , 228.217 , 0.0 , 0.0 , 0.0 , 0.0 , 

121.0 , 4131.28205128 , 4128.20512821 , 4130.25641026 , 4130.76923077 , 4127.69230769 , 4129.74358974 , 4128.71794872 , 4129.23076923 , 4127.69230769 , 4135.8974359 , 4126.15384615 , 4056.92307692 , 4124.1025641 , 4129.23076923 , 2040.0 , 2032.0 , 228.217 , 0.0 , 0.0 , 0.0 , 0.0 , 

122.0 , 4126.15384615 , 4127.17948718 , 4130.25641026 , 4128.71794872 , 4128.71794872 , 4130.25641026 , 4128.20512821 , 4129.74358974 , 4127.69230769 , 4135.8974359 , 4125.64102564 , 4056.92307692 , 4126.15384615 , 4128.20512821 , 2041.0 , 2033.0 , 228.233 , 0.0 , 0.0 , 0.0 , 0.0 , 

123.0 , 4125.64102564 , 4126.15384615 , 4131.79487179 , 4126.15384615 , 4128.20512821 , 4127.17948718 , 4128.71794872 , 4129.74358974 , 4127.69230769 , 4135.8974359 , 4123.58974359 , 4057.43589744 , 4127.69230769 , 4126.66666667 , 2041.0 , 2036.0 , 228.233 , 0.0 , 0.0 , 0.0 , 0.0 , 

124.0 , 4130.76923077 , 4127.17948718 , 4132.30769231 , 4128.71794872 , 4128.20512821 , 4126.15384615 , 4129.23076923 , 4128.20512821 , 4129.23076923 , 4135.8974359 , 4122.05128205 , 4056.92307692 , 4126.66666667 , 4127.69230769 , 2041.0 , 2037.0 , 228.253 , 0.0 , 0.0 , 0.0 , 0.0 , 

125.0 , 4131.79487179 , 4127.17948718 , 4131.28205128 , 4131.28205128 , 4130.25641026 , 4128.20512821 , 4128.71794872 , 4131.79487179 , 4128.20512821 , 4135.8974359 , 4122.05128205 , 4055.8974359 , 4124.61538462 , 4128.20512821 , 2042.0 , 2037.0 , 228.257 , 0.0 , 0.0 , 0.0 , 0.0 , 

126.0 , 4127.69230769 , 4126.66666667 , 4129.74358974 , 4128.71794872 , 4130.76923077 , 4128.71794872 , 4127.69230769 , 4134.87179487 , 4127.17948718 , 4135.8974359 , 4123.58974359 , 4056.92307692 , 4125.12820513 , 4126.15384615 , 2042.0 , 2036.0 , 228.257 , 0.0 , 0.0 , 0.0 , 0.0 , 

127.0 , 4126.66666667 , 4126.66666667 , 4131.28205128 , 4126.66666667 , 4127.69230769 , 4128.20512821 , 4126.66666667 , 4129.74358974 , 4126.15384615 , 4135.8974359 , 4123.07692308 , 4057.94871795 , 4127.69230769 , 4125.64102564 , 2043.0 , 2035.0 , 228.272 , 0.0 , 0.0 , 0.0 , 0.0 , 

128.0 , 4128.20512821 , 4127.17948718 , 4131.28205128 , 4128.71794872 , 4126.66666667 , 4129.23076923 , 4126.66666667 , 4126.15384615 , 4125.64102564 , 4135.8974359 , 4121.53846154 , 4057.43589744 , 4127.69230769 , 4127.17948718 , 2044.0 , 2033.0 , 228.272 , 0.0 , 0.0 , 0.0 , 0.0 , 

0.0 , 4129.23076923 , 4128.20512821 , 4128.71794872 , 4129.23076923 , 4129.23076923 , 4128.71794872 , 4127.69230769 , 4129.23076923 , 4128.20512821 , 4135.8974359 , 4121.53846154 , 4057.43589744 , 4128.20512821 , 4127.17948718 , 2044.0 , 2031.0 , 228.288 , 0.0 , 0.0 , 0.0 , 0.0 , 

1.0 , 4130.25641026 , 4129.23076923 , 4130.25641026 , 4128.20512821 , 4129.74358974 , 4127.69230769 , 4129.23076923 , 4126.66666667 , 4131.79487179 , 4135.8974359 , 4123.07692308 , 4057.94871795 , 4126.66666667 , 4126.66666667 , 2042.0 , 2030.0 , 228.288 , 0.0 , 0.0 , 0.0 , 0.0 , 

2.0 , 4127.69230769 , 4128.20512821 , 4129.74358974 , 4128.71794872 , 4126.66666667 , 4127.69230769 , 4127.69230769 , 4126.66666667 , 4129.23076923 , 4135.8974359 , 4122.05128205 , 4056.92307692 , 4126.66666667 , 4126.66666667 , 2043.0 , 2030.0 , 228.303 , 0.0 , 0.0 , 0.0 , 0.0 , 

3.0 , 4126.15384615 , 4127.69230769 , 4128.20512821 , 4129.74358974 , 4126.66666667 , 4127.17948718 , 4127.69230769 , 4136.41025641 , 4125.64102564 , 4135.8974359 , 4121.02564103 , 4056.41025641 , 4125.64102564 , 4125.12820513 , 2045.0 , 2031.0 , 228.303 , 0.0 , 0.0 , 0.0 , 0.0 , 

4.0 , 4127.17948718 , 4128.71794872 , 4127.69230769 , 4127.17948718 , 4128.20512821 , 4126.66666667 , 4128.20512821 , 4133.84615385 , 4126.66666667 , 4135.8974359 , 4124.1025641 , 4055.38461538 , 4127.69230769 , 4124.1025641 , 2045.0 , 2032.0 , 228.319 , 0.0 , 0.0 , 0.0 , 0.0 , 

5.0 , 4130.76923077 , 4130.25641026 , 4129.74358974 , 4127.69230769 , 4128.20512821 , 4128.20512821 , 4127.69230769 , 4126.15384615 , 4125.64102564 , 4135.8974359 , 4125.64102564 , 4055.8974359 , 4127.17948718 , 4126.66666667 , 2043.0 , 2035.0 , 228.319 , 0.0 , 0.0 , 0.0 , 0.0 , 

6.0 , 4128.71794872 , 4128.71794872 , 4127.69230769 , 4129.23076923 , 4128.71794872 , 4128.20512821 , 4126.15384615 , 4128.71794872 , 4125.12820513 , 4135.8974359 , 4122.05128205 , 4057.43589744 , 4127.69230769 , 4127.69230769 , 2045.0 , 2037.0 , 228.335 , 0.0 , 0.0 , 0.0 , 0.0 , 

7.0 , 4129.23076923 , 4127.17948718 , 4129.23076923 , 4129.74358974 , 4128.71794872 , 4128.20512821 , 4127.69230769 , 4130.25641026 , 4127.17948718 , 4135.8974359 , 4120.51282051 , 4057.43589744 , 4125.12820513 , 4126.66666667 , 2045.0 , 2037.0 , 228.335 , 0.0 , 0.0 , 0.0 , 0.0 , 

8.0 , 4132.30769231 , 4126.15384615 , 4129.74358974 , 4129.74358974 , 4127.17948718 , 4127.17948718 , 4127.69230769 , 4126.15384615 , 4127.17948718 , 4135.8974359 , 4122.05128205 , 4055.38461538 , 4124.1025641 , 4124.1025641 , 2046.0 , 2036.0 , 228.35 , 0.0 , 0.0 , 0.0 , 0.0 , 

9.0 , 4132.30769231 , 4127.17948718 , 4131.28205128 , 4128.20512821 , 4128.20512821 , 4127.17948718 , 4126.15384615 , 4125.12820513 , 4124.61538462 , 4135.8974359 , 4123.07692308 , 4058.46153846 , 4125.12820513 , 4125.12820513 , 2046.0 , 2033.0 , 228.35 , 0.0 , 0.0 , 0.0 , 0.0 , 

10.0 , 4128.71794872 , 4127.17948718 , 4131.79487179 , 4127.69230769 , 4131.28205128 , 4129.23076923 , 4128.20512821 , 4127.17948718 , 4126.15384615 , 4135.8974359 , 4124.1025641 , 4062.05128205 , 4127.69230769 , 4128.20512821 , 2044.0 , 2032.0 , 228.372 , 0.0 , 0.0 , 0.0 , 0.0 , 

11.0 , 4129.23076923 , 4126.66666667 , 4131.28205128 , 4128.71794872 , 4132.30769231 , 4130.76923077 , 4131.28205128 , 4128.71794872 , 4129.23076923 , 4135.8974359 , 4124.1025641 , 4058.46153846 , 4128.71794872 , 4127.69230769 , 2044.0 , 2031.0 , 228.379 , 0.0 , 0.0 , 0.0 , 0.0 , 

12.0 , 4129.23076923 , 4126.66666667 , 4129.23076923 , 4128.20512821 , 4130.76923077 , 4128.71794872 , 4129.74358974 , 4129.74358974 , 4130.25641026 , 4135.8974359 , 4122.56410256 , 4054.87179487 , 4127.69230769 , 4126.66666667 , 2045.0 , 2032.0 , 228.387 , 0.0 , 0.0 , 0.0 , 0.0 , 

13.0 , 4126.15384615 , 4128.20512821 , 4128.20512821 , 4126.66666667 , 4128.20512821 , 4126.15384615 , 4127.17948718 , 4130.76923077 , 4128.20512821 , 4135.8974359 , 4122.05128205 , 4057.43589744 , 4127.17948718 , 4128.71794872 , 2044.0 , 2034.0 , 228.394 , 0.0 , 0.0 , 0.0 , 0.0 , 

14.0 , 4124.61538462 , 4127.69230769 , 4128.71794872 , 4126.66666667 , 4128.71794872 , 4127.69230769 , 4127.17948718 , 4128.71794872 , 4127.17948718 , 4135.8974359 , 4123.07692308 , 4056.92307692 , 4125.12820513 , 4128.71794872 , 2043.0 , 2036.0 , 228.394 , 0.0 , 0.0 , 0.0 , 0.0 , 

15.0 , 4125.64102564 , 4126.15384615 , 4129.23076923 , 4130.76923077 , 4130.76923077 , 4128.71794872 , 4128.20512821 , 4127.17948718 , 4128.20512821 , 4135.8974359 , 4125.12820513 , 4054.35897436 , 4123.07692308 , 4127.17948718 , 2042.0 , 2037.0 , 228.409 , 0.0 , 0.0 , 0.0 , 0.0 , 

16.0 , 4126.66666667 , 4127.69230769 , 4129.23076923 , 4132.82051282 , 4130.25641026 , 4128.20512821 , 4128.71794872 , 4128.71794872 , 4127.17948718 , 4135.8974359 , 4124.1025641 , 4055.8974359 , 4124.61538462 , 4128.20512821 , 2042.0 , 2038.0 , 228.409 , 0.0 , 0.0 , 0.0 , 0.0 , 

17.0 , 4130.25641026 , 4129.23076923 , 4130.25641026 , 4128.71794872 , 4129.74358974 , 4129.74358974 , 4128.71794872 , 4128.20512821 , 4125.64102564 , 4135.8974359 , 4122.56410256 , 4057.43589744 , 4126.66666667 , 4126.66666667 , 2041.0 , 2038.0 , 228.425 , 0.0 , 0.0 , 0.0 , 0.0 , 

18.0 , 4132.30769231 , 4128.20512821 , 4133.84615385 , 4125.64102564 , 4130.76923077 , 4129.23076923 , 4129.74358974 , 4127.17948718 , 4127.69230769 , 4136.41025641 , 4122.56410256 , 4057.94871795 , 4126.15384615 , 4127.17948718 , 2042.0 , 2038.0 , 228.425 , 0.0 , 0.0 , 0.0 , 0.0 , 

19.0 , 4129.74358974 , 4127.69230769 , 4131.79487179 , 4127.69230769 , 4128.71794872 , 4124.61538462 , 4128.71794872 , 4127.17948718 , 4128.20512821 , 4135.38461538 , 4123.07692308 , 4057.94871795 , 4129.23076923 , 4130.76923077 , 2042.0 , 2036.0 , 228.441 , 0.0 , 0.0 , 0.0 , 0.0 , 

20.0 , 4128.20512821 , 4129.74358974 , 4129.74358974 , 4129.23076923 , 4129.74358974 , 4122.05128205 , 4128.20512821 , 4127.69230769 , 4126.66666667 , 4134.35897436 , 4123.07692308 , 4056.92307692 , 4129.23076923 , 4132.30769231 , 2042.0 , 2034.0 , 228.441 , 0.0 , 0.0 , 0.0 , 0.0 , 

21.0 , 4127.69230769 , 4129.23076923 , 4130.76923077 , 4127.69230769 , 4130.76923077 , 4125.12820513 , 4127.17948718 , 4129.23076923 , 4127.69230769 , 4133.84615385 , 4122.56410256 , 4056.41025641 , 4127.17948718 , 4129.74358974 , 2042.0 , 2033.0 , 228.458 , 0.0 , 0.0 , 0.0 , 0.0 , 

22.0 , 4128.20512821 , 4127.69230769 , 4130.25641026 , 4128.71794872 , 4129.23076923 , 4127.69230769 , 4127.69230769 , 4129.23076923 , 4129.23076923 , 4134.35897436 , 4123.07692308 , 4055.38461538 , 4127.17948718 , 4128.20512821 , 2042.0 , 2033.0 , 228.466 , 0.0 , 0.0 , 0.0 , 0.0 , 

23.0 , 4126.66666667 , 4126.15384615 , 4127.69230769 , 4129.23076923 , 4128.71794872 , 4125.64102564 , 4128.20512821 , 4128.71794872 , 4129.23076923 , 4134.35897436 , 4124.1025641 , 4055.38461538 , 4131.28205128 , 4127.69230769 , 2041.0 , 2031.0 , 228.467 , 0.0 , 0.0 , 0.0 , 0.0 , 

24.0 , 4129.74358974 , 4126.15384615 , 4129.23076923 , 4129.74358974 , 4129.74358974 , 4124.61538462 , 4128.71794872 , 4134.87179487 , 4128.71794872 , 4134.35897436 , 4124.1025641 , 4057.94871795 , 4130.25641026 , 4130.25641026 , 2042.0 , 2032.0 , 228.467 , 0.0 , 0.0 , 0.0 , 0.0 , 

25.0 , 4130.25641026 , 4127.17948718 , 4127.69230769 , 4128.71794872 , 4127.17948718 , 4126.15384615 , 4129.23076923 , 4134.87179487 , 4128.71794872 , 4133.84615385 , 4122.05128205 , 4060.0 , 4131.28205128 , 4128.20512821 , 2042.0 , 2032.0 , 228.483 , 0.0 , 0.0 , 0.0 , 0.0 , 

26.0 , 4128.20512821 , 4129.74358974 , 4127.69230769 , 4128.20512821 , 4127.69230769 , 4128.20512821 , 4129.74358974 , 4126.66666667 , 4127.69230769 , 4134.35897436 , 4122.56410256 , 4057.94871795 , 4128.71794872 , 4126.66666667 , 2042.0 , 2034.0 , 228.483 , 0.0 , 0.0 , 0.0 , 0.0 , 

27.0 , 4127.17948718 , 4128.20512821 , 4131.79487179 , 4128.71794872 , 4130.25641026 , 4127.69230769 , 4128.71794872 , 4125.64102564 , 4127.69230769 , 4134.35897436 , 4126.15384615 , 4056.92307692 , 4127.69230769 , 4129.23076923 , 2043.0 , 2034.0 , 228.498 , 0.0 , 0.0 , 0.0 , 0.0 , 

28.0 , 4130.76923077 , 4125.64102564 , 4132.30769231 , 4130.25641026 , 4129.23076923 , 4126.15384615 , 4127.69230769 , 4126.66666667 , 4128.20512821 , 4133.84615385 , 4125.64102564 , 4058.46153846 , 4129.23076923 , 4129.23076923 , 2043.0 , 2035.0 , 228.498 , 0.0 , 0.0 , 0.0 , 0.0 , 

29.0 , 4130.25641026 , 4127.17948718 , 4127.69230769 , 4130.25641026 , 4127.69230769 , 4125.12820513 , 4126.66666667 , 4125.12820513 , 4128.20512821 , 4134.35897436 , 4123.58974359 , 4057.43589744 , 4128.71794872 , 4126.15384615 , 2045.0 , 2036.0 , 228.514 , 0.0 , 0.0 , 0.0 , 0.0 , 

30.0 , 4129.74358974 , 4128.71794872 , 4127.69230769 , 4131.28205128 , 4130.25641026 , 4127.17948718 , 4128.20512821 , 4129.74358974 , 4126.66666667 , 4136.92307692 , 4123.07692308 , 4056.92307692 , 4126.15384615 , 4128.20512821 , 2044.0 , 2035.0 , 228.53 , 0.0 , 0.0 , 0.0 , 0.0 , 

31.0 , 4132.30769231 , 4126.66666667 , 4129.74358974 , 4132.82051282 , 4131.79487179 , 4130.25641026 , 4127.69230769 , 4129.23076923 , 4126.66666667 , 4137.43589744 , 4123.07692308 , 4057.43589744 , 4127.17948718 , 4130.76923077 , 2046.0 , 2033.0 , 228.53 , 0.0 , 0.0 , 0.0 , 0.0 , 

32.0 , 4132.82051282 , 4125.64102564 , 4130.25641026 , 4130.25641026 , 4130.76923077 , 4129.74358974 , 4126.15384615 , 4123.07692308 , 4128.20512821 , 4135.8974359 , 4123.07692308 , 4055.8974359 , 4128.71794872 , 4129.74358974 , 2046.0 , 2032.0 , 228.53 , 0.0 , 0.0 , 0.0 , 0.0 , 

33.0 , 4129.23076923 , 4128.20512821 , 4127.69230769 , 4126.66666667 , 4128.71794872 , 4127.17948718 , 4128.71794872 , 4126.66666667 , 4129.23076923 , 4135.8974359 , 4123.58974359 , 4056.92307692 , 4125.64102564 , 4129.74358974 , 2044.0 , 2030.0 , 228.545 , 0.0 , 0.0 , 0.0 , 0.0 , 

34.0 , 4127.17948718 , 4128.20512821 , 4127.17948718 , 4128.71794872 , 4128.20512821 , 4126.66666667 , 4132.82051282 , 4131.79487179 , 4127.17948718 , 4136.41025641 , 4123.07692308 , 4058.97435897 , 4125.12820513 , 4129.23076923 , 2045.0 , 2030.0 , 228.545 , 0.0 , 0.0 , 0.0 , 0.0 , 

35.0 , 4128.71794872 , 4126.66666667 , 4129.74358974 , 4131.79487179 , 4130.25641026 , 4127.69230769 , 4132.82051282 , 4129.74358974 , 4128.71794872 , 4135.8974359 , 4121.53846154 , 4056.41025641 , 4127.17948718 , 4128.20512821 , 2045.0 , 2030.0 , 228.568 , 0.0 , 0.0 , 0.0 , 0.0 , 

36.0 , 4130.25641026 , 4127.69230769 , 4129.74358974 , 4130.25641026 , 4129.23076923 , 4126.66666667 , 4129.74358974 , 4128.71794872 , 4131.28205128 , 4135.8974359 , 4122.56410256 , 4053.33333333 , 4128.20512821 , 4130.25641026 , 2044.0 , 2029.0 , 228.577 , 0.0 , 0.0 , 0.0 , 0.0 , 

37.0 , 4130.25641026 , 4129.23076923 , 4126.66666667 , 4128.71794872 , 4127.69230769 , 4127.17948718 , 4127.69230769 , 4126.66666667 , 4129.74358974 , 4135.8974359 , 4124.61538462 , 4055.8974359 , 4124.61538462 , 4129.74358974 , 2043.0 , 2030.0 , 228.577 , 0.0 , 0.0 , 0.0 , 0.0 , 

38.0 , 4128.71794872 , 4127.69230769 , 4125.12820513 , 4131.28205128 , 4128.71794872 , 4128.71794872 , 4127.17948718 , 4128.20512821 , 4128.20512821 , 4135.8974359 , 4126.15384615 , 4058.97435897 , 4124.61538462 , 4125.64102564 , 2042.0 , 2033.0 , 228.577 , 0.0 , 0.0 , 0.0 , 0.0 , 

39.0 , 4128.71794872 , 4127.69230769 , 4129.23076923 , 4131.28205128 , 4128.71794872 , 4128.71794872 , 4127.69230769 , 4135.8974359 , 4129.74358974 , 4135.8974359 , 4124.61538462 , 4058.97435897 , 4126.15384615 , 4126.66666667 , 2041.0 , 2034.0 , 228.593 , 0.0 , 0.0 , 0.0 , 0.0 , 

40.0 , 4127.69230769 , 4127.69230769 , 4130.76923077 , 4129.74358974 , 4126.66666667 , 4126.66666667 , 4129.23076923 , 4132.82051282 , 4129.23076923 , 4135.8974359 , 4118.97435897 , 4057.94871795 , 4126.66666667 , 4129.23076923 , 2041.0 , 2031.0 , 228.609 , 0.0 , 0.0 , 0.0 , 0.0 , 

41.0 , 4130.25641026 , 4126.15384615 , 4130.76923077 , 4131.79487179 , 4129.23076923 , 4127.69230769 , 4130.25641026 , 4124.61538462 , 4128.20512821 , 4135.8974359 , 4119.48717949 , 4058.46153846 , 4125.64102564 , 4126.66666667 , 2041.0 , 2032.0 , 228.609 , 0.0 , 0.0 , 0.0 , 0.0 , 

42.0 , 4131.28205128 , 4126.66666667 , 4129.23076923 , 4131.79487179 , 4131.28205128 , 4129.23076923 , 4128.71794872 , 4128.71794872 , 4129.74358974 , 4135.8974359 , 4123.58974359 , 4058.46153846 , 4128.20512821 , 4124.1025641 , 2042.0 , 2032.0 , 228.609 , 0.0 , 0.0 , 0.0 , 0.0 , 

43.0 , 4129.23076923 , 4128.71794872 , 4129.74358974 , 4129.74358974 , 4129.23076923 , 4126.66666667 , 4129.23076923 , 4131.79487179 , 4128.20512821 , 4135.8974359 , 4123.07692308 , 4055.8974359 , 4127.17948718 , 4126.66666667 , 2043.0 , 2034.0 , 228.624 , 0.0 , 0.0 , 0.0 , 0.0 , 

44.0 , 4128.20512821 , 4128.20512821 , 4129.23076923 , 4129.23076923 , 4128.71794872 , 4125.64102564 , 4129.74358974 , 4123.07692308 , 4127.69230769 , 4135.8974359 , 4121.53846154 , 4054.35897436 , 4128.20512821 , 4126.66666667 , 2041.0 , 2035.0 , 228.64 , 0.0 , 0.0 , 0.0 , 0.0 , 

45.0 , 4130.25641026 , 4128.71794872 , 4129.23076923 , 4129.74358974 , 4131.28205128 , 4128.71794872 , 4128.20512821 , 4121.53846154 , 4128.71794872 , 4135.8974359 , 4124.61538462 , 4055.38461538 , 4129.74358974 , 4126.15384615 , 2043.0 , 2034.0 , 228.64 , 0.0 , 0.0 , 0.0 , 0.0 , 

46.0 , 4130.25641026 , 4127.17948718 , 4128.71794872 , 4128.20512821 , 4130.25641026 , 4129.74358974 , 4126.15384615 , 4127.69230769 , 4128.71794872 , 4135.8974359 , 4122.56410256 , 4054.87179487 , 4130.25641026 , 4127.17948718 , 2042.0 , 2034.0 , 228.655 , 0.0 , 0.0 , 0.0 , 0.0 , 

47.0 , 4130.25641026 , 4125.12820513 , 4129.23076923 , 4128.71794872 , 4128.71794872 , 4127.17948718 , 4128.20512821 , 4129.23076923 , 4129.74358974 , 4135.8974359 , 4120.0 , 4053.84615385 , 4129.23076923 , 4128.20512821 , 2042.0 , 2034.0 , 228.655 , 0.0 , 0.0 , 0.0 , 0.0 , 

48.0 , 4131.28205128 , 4128.20512821 , 4129.74358974 , 4130.76923077 , 4129.74358974 , 4127.17948718 , 4128.20512821 , 4128.71794872 , 4131.79487179 , 4135.8974359 , 4123.58974359 , 4055.8974359 , 4129.23076923 , 4127.69230769 , 2044.0 , 2035.0 , 228.671 , 0.0 , 0.0 , 0.0 , 0.0 , 

49.0 , 4131.28205128 , 4129.74358974 , 4129.23076923 , 4129.74358974 , 4129.23076923 , 4129.74358974 , 4127.17948718 , 4126.15384615 , 4129.23076923 , 4135.8974359 , 4125.12820513 , 4056.41025641 , 4128.71794872 , 4126.15384615 , 2043.0 , 2037.0 , 228.671 , 0.0 , 0.0 , 0.0 , 0.0 , 

50.0 , 4131.28205128 , 4128.71794872 , 4127.17948718 , 4130.25641026 , 4129.23076923 , 4128.71794872 , 4128.20512821 , 4126.66666667 , 4128.20512821 , 4136.41025641 , 4122.56410256 , 4057.43589744 , 4128.71794872 , 4125.12820513 , 2044.0 , 2038.0 , 228.671 , 0.0 , 0.0 , 0.0 , 0.0 , 

51.0 , 4130.25641026 , 4129.74358974 , 4129.23076923 , 4131.79487179 , 4130.25641026 , 4127.69230769 , 4128.71794872 , 4130.25641026 , 4128.71794872 , 4135.8974359 , 4124.61538462 , 4057.94871795 , 4128.71794872 , 4127.17948718 , 2045.0 , 2037.0 , 228.687 , 0.0 , 0.0 , 0.0 , 0.0 , 

52.0 , 4126.66666667 , 4129.23076923 , 4131.28205128 , 4130.25641026 , 4130.25641026 , 4126.66666667 , 4128.20512821 , 4127.69230769 , 4128.20512821 , 4135.8974359 , 4126.15384615 , 4055.8974359 , 4128.20512821 , 4128.20512821 , 2045.0 , 2039.0 , 228.702 , 0.0 , 0.0 , 0.0 , 0.0 , 

53.0 , 4127.17948718 , 4127.17948718 , 4129.23076923 , 4127.69230769 , 4128.71794872 , 4124.1025641 , 4128.71794872 , 4128.20512821 , 4126.66666667 , 4135.8974359 , 4123.07692308 , 4053.33333333 , 4131.79487179 , 4127.69230769 , 2044.0 , 2038.0 , 228.702 , 0.0 , 0.0 , 0.0 , 0.0 , 

54.0 , 4129.23076923 , 4128.71794872 , 4129.74358974 , 4130.25641026 , 4128.20512821 , 4126.15384615 , 4128.71794872 , 4135.8974359 , 4127.17948718 , 4135.8974359 , 4122.05128205 , 4054.35897436 , 4131.28205128 , 4128.71794872 , 2046.0 , 2037.0 , 228.718 , 0.0 , 0.0 , 0.0 , 0.0 , 

55.0 , 4125.64102564 , 4129.23076923 , 4132.82051282 , 4130.76923077 , 4127.17948718 , 4130.25641026 , 4127.69230769 , 4131.79487179 , 4129.23076923 , 4134.35897436 , 4123.07692308 , 4057.94871795 , 4128.71794872 , 4128.20512821 , 2045.0 , 2037.0 , 228.718 , 0.0 , 0.0 , 0.0 , 0.0 , 

56.0 , 4125.64102564 , 4126.66666667 , 4132.82051282 , 4129.23076923 , 4128.71794872 , 4130.25641026 , 4128.20512821 , 4123.07692308 , 4130.25641026 , 4133.84615385 , 4124.1025641 , 4057.43589744 , 4128.71794872 , 4126.66666667 , 2044.0 , 2033.0 , 228.734 , 0.0 , 0.0 , 0.0 , 0.0 , 

57.0 , 4129.23076923 , 4128.20512821 , 4129.74358974 , 4130.25641026 , 4131.28205128 , 4127.69230769 , 4128.71794872 , 4130.25641026 , 4127.69230769 , 4134.87179487 , 4124.61538462 , 4054.87179487 , 4130.76923077 , 4126.66666667 , 2042.0 , 2033.0 , 228.742 , 0.0 , 0.0 , 0.0 , 0.0 , 

58.0 , 4128.71794872 , 4130.25641026 , 4131.28205128 , 4130.25641026 , 4131.28205128 , 4126.66666667 , 4128.71794872 , 4137.43589744 , 4126.15384615 , 4135.38461538 , 4123.58974359 , 4057.43589744 , 4126.15384615 , 4126.66666667 , 2042.0 , 2028.0 , 228.749 , 0.0 , 0.0 , 0.0 , 0.0 , 

59.0 , 4125.12820513 , 4128.20512821 , 4131.28205128 , 4128.71794872 , 4129.74358974 , 4127.17948718 , 4128.20512821 , 4130.25641026 , 4127.17948718 , 4134.87179487 , 4123.07692308 , 4058.97435897 , 4127.17948718 , 4126.66666667 , 2041.0 , 2028.0 , 228.757 , 0.0 , 0.0 , 0.0 , 0.0 , 

60.0 , 4128.20512821 , 4128.71794872 , 4129.74358974 , 4130.25641026 , 4129.23076923 , 4128.20512821 , 4128.71794872 , 4126.66666667 , 4129.74358974 , 4134.35897436 , 4124.1025641 , 4056.92307692 , 4130.76923077 , 4128.20512821 , 2041.0 , 2030.0 , 228.765 , 0.0 , 0.0 , 0.0 , 0.0 , 

61.0 , 4130.25641026 , 4129.23076923 , 4128.20512821 , 4128.71794872 , 4129.74358974 , 4127.17948718 , 4127.69230769 , 4127.69230769 , 4130.76923077 , 4134.87179487 , 4124.1025641 , 4055.38461538 , 4130.76923077 , 4127.69230769 , 2041.0 , 2030.0 , 228.773 , 0.0 , 0.0 , 0.0 , 0.0 , 

62.0 , 4130.76923077 , 4128.20512821 , 4130.76923077 , 4127.17948718 , 4130.76923077 , 4127.17948718 , 4128.71794872 , 4124.1025641 , 4129.23076923 , 4134.87179487 , 4123.07692308 , 4056.41025641 , 4125.64102564 , 4127.69230769 , 2042.0 , 2030.0 , 228.781 , 0.0 , 0.0 , 0.0 , 0.0 , 

63.0 , 4129.74358974 , 4126.66666667 , 4130.25641026 , 4128.20512821 , 4129.23076923 , 4129.23076923 , 4128.71794872 , 4122.56410256 , 4127.69230769 , 4134.35897436 , 4123.07692308 , 4056.41025641 , 4125.64102564 , 4128.20512821 , 2042.0 , 2033.0 , 228.789 , 0.0 , 0.0 , 0.0 , 0.0 , 

64.0 , 4130.25641026 , 4127.69230769 , 4127.69230769 , 4130.25641026 , 4127.17948718 , 4130.25641026 , 4128.20512821 , 4128.71794872 , 4132.82051282 , 4134.35897436 , 4122.56410256 , 4056.92307692 , 4128.20512821 , 4129.23076923 , 2042.0 , 2034.0 , 228.793 , 0.0 , 0.0 , 0.0 , 0.0 , 

65.0 , 4130.76923077 , 4128.20512821 , 4126.66666667 , 4129.74358974 , 4128.71794872 , 4128.20512821 , 4127.17948718 , 4130.25641026 , 4135.38461538 , 4134.35897436 , 4122.05128205 , 4056.92307692 , 4131.28205128 , 4130.25641026 , 2042.0 , 2034.0 , 228.793 , 0.0 , 0.0 , 0.0 , 0.0 , 

66.0 , 4129.74358974 , 4128.71794872 , 4130.76923077 , 4129.74358974 , 4130.76923077 , 4127.69230769 , 4126.15384615 , 4125.12820513 , 4132.30769231 , 4134.35897436 , 4122.56410256 , 4055.38461538 , 4129.23076923 , 4129.74358974 , 2042.0 , 2034.0 , 228.809 , 0.0 , 0.0 , 0.0 , 0.0 , 

67.0 , 4128.71794872 , 4128.20512821 , 4132.30769231 , 4130.25641026 , 4129.74358974 , 4127.17948718 , 4125.64102564 , 4126.15384615 , 4131.79487179 , 4134.35897436 , 4123.07692308 , 4056.92307692 , 4127.17948718 , 4127.69230769 , 2042.0 , 2034.0 , 228.809 , 0.0 , 0.0 , 0.0 , 0.0 , 

68.0 , 4130.76923077 , 4127.17948718 , 4131.79487179 , 4129.23076923 , 4130.76923077 , 4126.66666667 , 4126.15384615 , 4131.79487179 , 4133.33333333 , 4134.35897436 , 4124.1025641 , 4058.46153846 , 4128.20512821 , 4129.23076923 , 2043.0 , 2035.0 , 228.824 , 0.0 , 0.0 , 0.0 , 0.0 , 

69.0 , 4130.25641026 , 4128.71794872 , 4129.74358974 , 4128.71794872 , 4133.33333333 , 4128.20512821 , 4127.17948718 , 4128.71794872 , 4135.38461538 , 4135.38461538 , 4123.58974359 , 4055.8974359 , 4128.20512821 , 4130.76923077 , 2043.0 , 2034.0 , 228.824 , 0.0 , 0.0 , 0.0 , 0.0 , 

70.0 , 4127.17948718 , 4129.23076923 , 4128.20512821 , 4129.74358974 , 4131.79487179 , 4129.23076923 , 4127.17948718 , 4123.07692308 , 4134.35897436 , 4136.41025641 , 4122.05128205 , 4054.35897436 , 4127.17948718 , 4128.71794872 , 2045.0 , 2034.0 , 228.84 , 0.0 , 0.0 , 0.0 , 0.0 , 

71.0 , 4126.66666667 , 4128.20512821 , 4128.20512821 , 4129.74358974 , 4129.23076923 , 4126.66666667 , 4128.20512821 , 4126.15384615 , 4130.25641026 , 4135.8974359 , 4123.58974359 , 4056.92307692 , 4129.23076923 , 4127.17948718 , 2045.0 , 2032.0 , 228.84 , 0.0 , 0.0 , 0.0 , 0.0 , 

72.0 , 4127.17948718 , 4128.71794872 , 4129.74358974 , 4127.69230769 , 4129.74358974 , 4123.58974359 , 4128.20512821 , 4130.76923077 , 4128.20512821 , 4135.8974359 , 4124.1025641 , 4056.92307692 , 4131.28205128 , 4126.66666667 , 2045.0 , 2032.0 , 228.855 , 0.0 , 0.0 , 0.0 , 0.0 , 

73.0 , 4127.17948718 , 4130.25641026 , 4130.76923077 , 4128.71794872 , 4130.76923077 , 4125.64102564 , 4128.20512821 , 4130.25641026 , 4129.74358974 , 4135.8974359 , 4123.58974359 , 4054.35897436 , 4128.20512821 , 4126.15384615 , 2047.0 , 2032.0 , 228.855 , 0.0 , 0.0 , 0.0 , 0.0 , 

74.0 , 4128.20512821 , 4127.69230769 , 4130.25641026 , 4130.76923077 , 4128.71794872 , 4127.69230769 , 4126.66666667 , 4127.69230769 , 4128.71794872 , 4135.8974359 , 4125.12820513 , 4055.8974359 , 4127.17948718 , 4126.66666667 , 2047.0 , 2033.0 , 228.876 , 0.0 , 0.0 , 0.0 , 0.0 , 

75.0 , 4131.28205128 , 4127.17948718 , 4129.74358974 , 4129.74358974 , 4128.20512821 , 4127.69230769 , 4127.69230769 , 4129.74358974 , 4127.69230769 , 4135.8974359 , 4125.64102564 , 4057.94871795 , 4127.69230769 , 4127.69230769 , 2047.0 , 2032.0 , 228.883 , 0.0 , 0.0 , 0.0 , 0.0 , 

76.0 , 4129.74358974 , 4128.20512821 , 4127.17948718 , 4128.71794872 , 4128.71794872 , 4127.17948718 , 4128.71794872 , 4130.25641026 , 4130.25641026 , 4135.8974359 , 4123.07692308 , 4054.87179487 , 4129.74358974 , 4125.12820513 , 2048.0 , 2032.0 , 228.891 , 0.0 , 0.0 , 0.0 , 0.0 , 

77.0 , 4126.66666667 , 4125.64102564 , 4127.17948718 , 4131.28205128 , 4128.71794872 , 4127.17948718 , 4127.17948718 , 4128.71794872 , 4126.15384615 , 4135.8974359 , 4122.05128205 , 4053.33333333 , 4126.66666667 , 4122.56410256 , 2045.0 , 2034.0 , 228.899 , 0.0 , 0.0 , 0.0 , 0.0 , 

78.0 , 4126.66666667 , 4123.58974359 , 4128.71794872 , 4130.25641026 , 4128.71794872 , 4126.66666667 , 4125.64102564 , 4130.25641026 , 4124.1025641 , 4135.8974359 , 4123.07692308 , 4054.87179487 , 4125.12820513 , 4124.61538462 , 2045.0 , 2034.0 , 228.903 , 0.0 , 0.0 , 0.0 , 0.0 , 

79.0 , 4128.20512821 , 4127.69230769 , 4129.74358974 , 4128.20512821 , 4129.23076923 , 4127.17948718 , 4127.69230769 , 4129.23076923 , 4129.23076923 , 4135.8974359 , 4124.1025641 , 4056.41025641 , 4127.69230769 , 4128.20512821 , 2045.0 , 2034.0 , 228.903 , 0.0 , 0.0 , 0.0 , 0.0 , 

80.0 , 4125.64102564 , 4129.23076923 , 4128.20512821 , 4129.74358974 , 4130.25641026 , 4127.17948718 , 4128.71794872 , 4127.17948718 , 4131.28205128 , 4135.8974359 , 4122.56410256 , 4056.92307692 , 4130.25641026 , 4126.66666667 , 2045.0 , 2034.0 , 228.919 , 0.0 , 0.0 , 0.0 , 0.0 , 

81.0 , 4126.15384615 , 4126.15384615 , 4129.23076923 , 4131.28205128 , 4129.23076923 , 4128.20512821 , 4127.17948718 , 4134.35897436 , 4128.71794872 , 4135.8974359 , 4122.05128205 , 4057.94871795 , 4126.66666667 , 4124.61538462 , 2044.0 , 2036.0 , 228.919 , 0.0 , 0.0 , 0.0 , 0.0 , 

82.0 , 4128.71794872 , 4125.64102564 , 4128.20512821 , 4128.71794872 , 4128.71794872 , 4129.74358974 , 4124.61538462 , 4136.92307692 , 4131.28205128 , 4135.8974359 , 4123.07692308 , 4058.46153846 , 4125.64102564 , 4126.66666667 , 2042.0 , 2036.0 , 228.935 , 0.0 , 0.0 , 0.0 , 0.0 , 

83.0 , 4129.23076923 , 4127.69230769 , 4127.17948718 , 4129.23076923 , 4129.23076923 , 4128.71794872 , 4126.66666667 , 4127.17948718 , 4131.79487179 , 4135.8974359 , 4124.1025641 , 4055.38461538 , 4126.66666667 , 4126.66666667 , 2042.0 , 2036.0 , 228.935 , 0.0 , 0.0 , 0.0 , 0.0 , 

84.0 , 4128.71794872 , 4129.23076923 , 4129.23076923 , 4130.25641026 , 4127.17948718 , 4127.17948718 , 4129.74358974 , 4122.56410256 , 4127.69230769 , 4135.8974359 , 4122.05128205 , 4053.33333333 , 4126.66666667 , 4125.12820513 , 2041.0 , 2036.0 , 228.95 , 0.0 , 0.0 , 0.0 , 0.0 , 

85.0 , 4130.76923077 , 4128.20512821 , 4130.76923077 , 4129.23076923 , 4126.15384615 , 4127.69230769 , 4128.71794872 , 4126.15384615 , 4127.17948718 , 4135.8974359 , 4121.53846154 , 4056.92307692 , 4126.66666667 , 4127.17948718 , 2041.0 , 2036.0 , 228.95 , 0.0 , 0.0 , 0.0 , 0.0 , 

86.0 , 4129.74358974 , 4126.15384615 , 4129.23076923 , 4127.69230769 , 4129.74358974 , 4127.17948718 , 4126.15384615 , 4126.66666667 , 4130.25641026 , 4135.8974359 , 4123.07692308 , 4058.46153846 , 4127.69230769 , 4127.69230769 , 2042.0 , 2032.0 , 228.966 , 0.0 , 0.0 , 0.0 , 0.0 , 

87.0 , 4129.23076923 , 4127.69230769 , 4130.25641026 , 4128.71794872 , 4130.76923077 , 4125.64102564 , 4126.15384615 , 4129.23076923 , 4130.25641026 , 4135.8974359 , 4123.07692308 , 4055.8974359 , 4127.69230769 , 4125.64102564 , 2042.0 , 2032.0 , 228.966 , 0.0 , 0.0 , 0.0 , 0.0 , 

88.0 , 4130.25641026 , 4130.25641026 , 4130.25641026 , 4128.71794872 , 4126.66666667 , 4127.69230769 , 4126.66666667 , 4131.28205128 , 4128.20512821 , 4135.8974359 , 4123.58974359 , 4055.8974359 , 4128.71794872 , 4126.15384615 , 2042.0 , 2033.0 , 228.981 , 0.0 , 0.0 , 0.0 , 0.0 , 

89.0 , 4129.23076923 , 4127.69230769 , 4127.69230769 , 4127.69230769 , 4126.66666667 , 4129.74358974 , 4127.17948718 , 4132.82051282 , 4127.69230769 , 4135.8974359 , 4124.61538462 , 4055.8974359 , 4128.71794872 , 4126.15384615 , 2043.0 , 2031.0 , 228.981 , 0.0 , 0.0 , 0.0 , 0.0 , 

90.0 , 4128.20512821 , 4123.58974359 , 4127.17948718 , 4128.71794872 , 4128.71794872 , 4127.69230769 , 4129.23076923 , 4135.38461538 , 4130.76923077 , 4135.8974359 , 4123.58974359 , 4055.38461538 , 4125.12820513 , 4125.12820513 , 2045.0 , 2031.0 , 228.997 , 0.0 , 0.0 , 0.0 , 0.0 , 

91.0 , 4127.69230769 , 4125.64102564 , 4129.23076923 , 4131.28205128 , 4127.69230769 , 4126.66666667 , 4127.69230769 , 4132.30769231 , 4132.30769231 , 4135.8974359 , 4122.56410256 , 4057.43589744 , 4124.61538462 , 4127.17948718 , 2044.0 , 2030.0 , 228.997 , 0.0 , 0.0 , 0.0 , 0.0 , 

92.0 , 4127.17948718 , 4131.79487179 , 4130.76923077 , 4131.28205128 , 4127.17948718 , 4128.20512821 , 4126.15384615 , 4128.71794872 , 4126.66666667 , 4135.8974359 , 4123.58974359 , 4058.46153846 , 4127.69230769 , 4129.23076923 , 2045.0 , 2032.0 , 229.013 , 0.0 , 0.0 , 0.0 , 0.0 , 

93.0 , 4125.64102564 , 4131.79487179 , 4129.23076923 , 4127.17948718 , 4129.23076923 , 4127.69230769 , 4127.17948718 , 4128.20512821 , 4125.64102564 , 4135.8974359 , 4124.1025641 , 4055.38461538 , 4129.23076923 , 4128.20512821 , 2045.0 , 2035.0 , 229.013 , 0.0 , 0.0 , 0.0 , 0.0 , 

94.0 , 4128.20512821 , 4129.74358974 , 4130.25641026 , 4127.17948718 , 4128.71794872 , 4127.69230769 , 4129.74358974 , 4128.20512821 , 4128.20512821 , 4135.8974359 , 4122.05128205 , 4055.8974359 , 4125.64102564 , 4127.69230769 , 2045.0 , 2037.0 , 229.028 , 0.0 , 0.0 , 0.0 , 0.0 , 

95.0 , 4128.71794872 , 4130.25641026 , 4131.28205128 , 4128.71794872 , 4125.12820513 , 4128.71794872 , 4129.23076923 , 4127.69230769 , 4127.17948718 , 4135.8974359 , 4121.53846154 , 4055.38461538 , 4125.64102564 , 4127.17948718 , 2044.0 , 2037.0 , 229.028 , 0.0 , 0.0 , 0.0 , 0.0 , 

96.0 , 4129.23076923 , 4131.28205128 , 4129.74358974 , 4129.74358974 , 4127.69230769 , 4129.23076923 , 4128.20512821 , 4129.23076923 , 4128.20512821 , 4135.8974359 , 4123.07692308 , 4052.30769231 , 4126.15384615 , 4127.69230769 , 2043.0 , 2036.0 , 229.044 , 0.0 , 0.0 , 0.0 , 0.0 , 

97.0 , 4129.74358974 , 4128.20512821 , 4128.20512821 , 4130.25641026 , 4131.28205128 , 4128.20512821 , 4129.74358974 , 4127.17948718 , 4127.17948718 , 4135.8974359 , 4122.05128205 , 4053.33333333 , 4127.17948718 , 4128.20512821 , 2042.0 , 2036.0 , 229.044 , 0.0 , 0.0 , 0.0 , 0.0 , 

98.0 , 4130.25641026 , 4128.71794872 , 4130.25641026 , 4129.74358974 , 4129.74358974 , 4128.71794872 , 4132.30769231 , 4124.61538462 , 4122.56410256 , 4135.8974359 , 4121.53846154 , 4057.94871795 , 4125.12820513 , 4129.23076923 , 2042.0 , 2035.0 , 229.06 , 0.0 , 0.0 , 0.0 , 0.0 , 

99.0 , 4129.74358974 , 4130.76923077 , 4129.23076923 , 4129.23076923 , 4128.71794872 , 4128.71794872 , 4133.33333333 , 4126.66666667 , 4123.58974359 , 4135.8974359 , 4121.53846154 , 4057.94871795 , 4128.20512821 , 4128.71794872 , 2042.0 , 2036.0 , 229.06 , 0.0 , 0.0 , 0.0 , 0.0 , 

100.0 , 4130.25641026 , 4128.71794872 , 4130.76923077 , 4130.76923077 , 4130.25641026 , 4128.20512821 , 4132.82051282 , 4131.28205128 , 4128.20512821 , 4135.8974359 , 4122.56410256 , 4056.41025641 , 4130.76923077 , 4127.17948718 , 2041.0 , 2033.0 , 229.075 , 0.0 , 0.0 , 0.0 , 0.0 , 

101.0 , 4130.76923077 , 4128.20512821 , 4130.25641026 , 4129.74358974 , 4129.23076923 , 4128.20512821 , 4131.28205128 , 4132.30769231 , 4128.71794872 , 4135.8974359 , 4122.05128205 , 4057.43589744 , 4129.23076923 , 4125.64102564 , 2041.0 , 2031.0 , 229.075 , 0.0 , 0.0 , 0.0 , 0.0 , 

102.0 , 4132.30769231 , 4129.74358974 , 4127.17948718 , 4127.69230769 , 4129.74358974 , 4129.74358974 , 4130.76923077 , 4129.23076923 , 4126.15384615 , 4135.8974359 , 4122.56410256 , 4057.94871795 , 4128.71794872 , 4126.66666667 , 2041.0 , 2032.0 , 229.094 , 0.0 , 0.0 , 0.0 , 0.0 , 

103.0 , 4131.28205128 , 4127.69230769 , 4127.69230769 , 4128.71794872 , 4130.25641026 , 4129.23076923 , 4131.79487179 , 4127.17948718 , 4127.17948718 , 4135.8974359 , 4122.56410256 , 4055.8974359 , 4130.76923077 , 4126.15384615 , 2040.0 , 2032.0 , 229.094 , 0.0 , 0.0 , 0.0 , 0.0 , 

104.0 , 4128.20512821 , 4127.69230769 , 4130.25641026 , 4130.76923077 , 4128.71794872 , 4128.20512821 , 4132.30769231 , 4128.20512821 , 4128.71794872 , 4135.8974359 , 4121.53846154 , 4052.82051282 , 4130.76923077 , 4126.15384615 , 2040.0 , 2033.0 , 229.11 , 0.0 , 0.0 , 0.0 , 0.0 , 

105.0 , 4127.17948718 , 4129.74358974 , 4129.23076923 , 4128.20512821 , 4128.71794872 , 4128.71794872 , 4131.79487179 , 4127.69230769 , 4127.17948718 , 4135.38461538 , 4122.05128205 , 4053.84615385 , 4128.20512821 , 4126.66666667 , 2042.0 , 2031.0 , 229.11 , 0.0 , 0.0 , 0.0 , 0.0 , 

106.0 , 4130.76923077 , 4129.23076923 , 4128.20512821 , 4126.15384615 , 4130.25641026 , 4128.71794872 , 4132.30769231 , 4126.15384615 , 4126.15384615 , 4135.38461538 , 4123.58974359 , 4056.92307692 , 4126.66666667 , 4126.15384615 , 2042.0 , 2033.0 , 229.125 , 0.0 , 0.0 , 0.0 , 0.0 , 

107.0 , 4129.74358974 , 4129.74358974 , 4130.25641026 , 4129.23076923 , 4129.23076923 , 4128.71794872 , 4131.79487179 , 4126.15384615 , 4129.23076923 , 4135.38461538 , 4122.56410256 , 4054.35897436 , 4126.66666667 , 4125.64102564 , 2043.0 , 2034.0 , 229.125 , 0.0 , 0.0 , 0.0 , 0.0 , 

108.0 , 4126.66666667 , 4132.82051282 , 4131.28205128 , 4130.25641026 , 4128.20512821 , 4128.20512821 , 4130.25641026 , 4127.69230769 , 4127.17948718 , 4135.38461538 , 4121.53846154 , 4052.82051282 , 4127.69230769 , 4127.69230769 , 2044.0 , 2036.0 , 229.141 , 0.0 , 0.0 , 0.0 , 0.0 , 

109.0 , 4128.71794872 , 4132.30769231 , 4130.76923077 , 4127.69230769 , 4127.69230769 , 4128.71794872 , 4129.74358974 , 4129.23076923 , 4122.56410256 , 4135.38461538 , 4122.56410256 , 4056.41025641 , 4125.64102564 , 4130.25641026 , 2044.0 , 2035.0 , 229.141 , 0.0 , 0.0 , 0.0 , 0.0 , 

110.0 , 4130.76923077 , 4129.23076923 , 4130.25641026 , 4129.23076923 , 4127.69230769 , 4128.20512821 , 4130.25641026 , 4130.76923077 , 4126.66666667 , 4135.38461538 , 4124.61538462 , 4058.97435897 , 4125.64102564 , 4127.69230769 , 2044.0 , 2035.0 , 229.159 , 0.0 , 0.0 , 0.0 , 0.0 , 

111.0 , 4130.25641026 , 4130.25641026 , 4131.28205128 , 4131.79487179 , 4129.74358974 , 4127.69230769 , 4129.74358974 , 4130.25641026 , 4129.74358974 , 4135.38461538 , 4124.1025641 , 4057.43589744 , 4127.17948718 , 4128.20512821 , 2045.0 , 2033.0 , 229.167 , 0.0 , 0.0 , 0.0 , 0.0 , 

112.0 , 4130.25641026 , 4130.76923077 , 4130.76923077 , 4130.76923077 , 4131.79487179 , 4127.17948718 , 4127.69230769 , 4126.66666667 , 4126.66666667 , 4135.38461538 , 4122.05128205 , 4056.41025641 , 4129.23076923 , 4129.23076923 , 2044.0 , 2031.0 , 229.176 , 0.0 , 0.0 , 0.0 , 0.0 , 

113.0 , 4130.76923077 , 4128.71794872 , 4130.25641026 , 4130.25641026 , 4129.74358974 , 4127.69230769 , 4129.23076923 , 4125.64102564 , 4127.69230769 , 4135.38461538 , 4122.05128205 , 4057.94871795 , 4127.69230769 , 4124.61538462 , 2046.0 , 2030.0 , 229.183 , 0.0 , 0.0 , 0.0 , 0.0 , 

114.0 , 4127.17948718 , 4128.20512821 , 4128.71794872 , 4130.76923077 , 4127.69230769 , 4127.69230769 , 4131.28205128 , 4127.69230769 , 4130.25641026 , 4135.38461538 , 4124.61538462 , 4057.43589744 , 4127.69230769 , 4123.07692308 , 2046.0 , 2029.0 , 229.191 , 0.0 , 0.0 , 0.0 , 0.0 , 

115.0 , 4127.17948718 , 4130.25641026 , 4128.71794872 , 4129.74358974 , 4130.76923077 , 4128.71794872 , 4131.28205128 , 4128.20512821 , 4128.20512821 , 4135.38461538 , 4124.61538462 , 4057.94871795 , 4125.12820513 , 4127.69230769 , 2046.0 , 2028.0 , 229.199 , 0.0 , 0.0 , 0.0 , 0.0 , 

116.0 , 4128.20512821 , 4128.71794872 , 4128.71794872 , 4128.71794872 , 4130.25641026 , 4129.74358974 , 4131.28205128 , 4127.69230769 , 4127.69230769 , 4135.38461538 , 4121.02564103 , 4057.94871795 , 4128.20512821 , 4128.20512821 , 2045.0 , 2032.0 , 229.207 , 0.0 , 0.0 , 0.0 , 0.0 , 

117.0 , 4129.23076923 , 4126.15384615 , 4130.25641026 , 4129.74358974 , 4128.71794872 , 4129.23076923 , 4133.84615385 , 4127.69230769 , 4128.20512821 , 4135.38461538 , 4120.51282051 , 4056.92307692 , 4130.76923077 , 4125.64102564 , 2043.0 , 2034.0 , 229.215 , 0.0 , 0.0 , 0.0 , 0.0 , 

118.0 , 4128.20512821 , 4128.20512821 , 4128.20512821 , 4128.71794872 , 4129.74358974 , 4127.17948718 , 4132.30769231 , 4127.69230769 , 4127.69230769 , 4135.38461538 , 4123.07692308 , 4055.38461538 , 4129.23076923 , 4126.66666667 , 2044.0 , 2035.0 , 229.223 , 0.0 , 0.0 , 0.0 , 0.0 , 

119.0 , 4129.74358974 , 4129.74358974 , 4128.71794872 , 4130.25641026 , 4130.25641026 , 4126.66666667 , 4129.23076923 , 4129.74358974 , 4128.20512821 , 4135.38461538 , 4122.56410256 , 4056.41025641 , 4127.17948718 , 4127.17948718 , 2043.0 , 2035.0 , 229.231 , 0.0 , 0.0 , 0.0 , 0.0 , 

120.0 , 4129.74358974 , 4127.17948718 , 4129.74358974 , 4131.79487179 , 4129.23076923 , 4127.69230769 , 4131.28205128 , 4129.23076923 , 4128.71794872 , 4135.38461538 , 4121.53846154 , 4057.43589744 , 4127.69230769 , 4126.15384615 , 2044.0 , 2034.0 , 229.239 , 0.0 , 0.0 , 0.0 , 0.0 , 

121.0 , 4129.74358974 , 4127.17948718 , 4129.74358974 , 4129.74358974 , 4130.25641026 , 4128.71794872 , 4134.35897436 , 4125.12820513 , 4128.20512821 , 4135.38461538 , 4123.58974359 , 4056.41025641 , 4124.61538462 , 4128.20512821 , 2041.0 , 2034.0 , 229.247 , 0.0 , 0.0 , 0.0 , 0.0 , 

122.0 , 4128.71794872 , 4128.20512821 , 4128.71794872 , 4127.69230769 , 4129.23076923 , 4128.20512821 , 4133.84615385 , 4125.12820513 , 4127.69230769 , 4135.38461538 , 4122.56410256 , 4055.38461538 , 4125.64102564 , 4127.69230769 , 2041.0 , 2034.0 , 229.254 , 0.0 , 0.0 , 0.0 , 0.0 , 

123.0 , 4129.74358974 , 4127.17948718 , 4128.20512821 , 4128.20512821 , 4128.71794872 , 4130.25641026 , 4134.87179487 , 4130.76923077 , 4124.61538462 , 4135.38461538 , 4120.51282051 , 4056.41025641 , 4129.74358974 , 4126.66666667 , 2042.0 , 2034.0 , 229.263 , 0.0 , 0.0 , 0.0 , 0.0 , 

124.0 , 4128.71794872 , 4127.17948718 , 4127.69230769 , 4127.17948718 , 4128.20512821 , 4131.28205128 , 4133.33333333 , 4130.76923077 , 4124.61538462 , 4135.38461538 , 4124.61538462 , 4055.8974359 , 4127.69230769 , 4126.66666667 , 2041.0 , 2034.0 , 229.27 , 0.0 , 0.0 , 0.0 , 0.0 , 

125.0 , 4126.66666667 , 4128.71794872 , 4130.76923077 , 4126.15384615 , 4127.17948718 , 4128.20512821 , 4128.71794872 , 4127.17948718 , 4124.61538462 , 4135.38461538 , 4127.17948718 , 4054.87179487 , 4124.61538462 , 4126.66666667 , 2040.0 , 2035.0 , 229.278 , 0.0 , 0.0 , 0.0 , 0.0 , 

126.0 , 4127.69230769 , 4129.23076923 , 4131.28205128 , 4128.71794872 , 4129.74358974 , 4125.64102564 , 4128.71794872 , 4128.20512821 , 4125.64102564 , 4135.38461538 , 4123.07692308 , 4055.8974359 , 4125.64102564 , 4127.17948718 , 2041.0 , 2035.0 , 229.286 , 0.0 , 0.0 , 0.0 , 0.0 , 

127.0 , 4129.23076923 , 4129.23076923 , 4128.20512821 , 4129.23076923 , 4132.30769231 , 4127.69230769 , 4131.28205128 , 4130.25641026 , 4128.20512821 , 4135.38461538 , 4121.02564103 , 4058.97435897 , 4129.74358974 , 4126.66666667 , 2039.0 , 2036.0 , 229.293 , 0.0 , 0.0 , 0.0 , 0.0 , 

128.0 , 4129.23076923 , 4129.23076923 , 4127.69230769 , 4127.17948718 , 4130.25641026 , 4129.74358974 , 4130.25641026 , 4129.74358974 , 4129.23076923 , 4135.38461538 , 4124.1025641 , 4059.48717949 , 4130.76923077 , 4127.17948718 , 2041.0 , 2036.0 , 229.301 , 0.0 , 0.0 , 0.0 , 0.0 , 

0.0 , 4127.69230769 , 4128.71794872 , 4128.71794872 , 4127.69230769 , 4129.23076923 , 4129.23076923 , 4128.20512821 , 4126.66666667 , 4127.17948718 , 4135.38461538 , 4125.12820513 , 4057.43589744 , 4132.30769231 , 4127.69230769 , 2042.0 , 2038.0 , 229.309 , 0.0 , 0.0 , 0.0 , 0.0 , 

1.0 , 4128.20512821 , 4128.71794872 , 4129.74358974 , 4128.71794872 , 4131.28205128 , 4127.17948718 , 4130.25641026 , 4126.66666667 , 4128.71794872 , 4135.38461538 , 4122.56410256 , 4056.41025641 , 4130.25641026 , 4128.71794872 , 2043.0 , 2038.0 , 229.317 , 0.0 , 0.0 , 0.0 , 0.0 , 

2.0 , 4128.71794872 , 4128.20512821 , 4127.17948718 , 4128.20512821 , 4129.23076923 , 4125.12820513 , 4130.76923077 , 4128.20512821 , 4126.66666667 , 4135.38461538 , 4122.05128205 , 4055.8974359 , 4130.25641026 , 4129.23076923 , 2043.0 , 2039.0 , 229.325 , 0.0 , 0.0 , 0.0 , 0.0 , 

3.0 , 4130.25641026 , 4127.69230769 , 4126.66666667 , 4129.23076923 , 4128.71794872 , 4125.64102564 , 4130.76923077 , 4130.25641026 , 4123.07692308 , 4135.38461538 , 4123.07692308 , 4057.43589744 , 4130.76923077 , 4129.74358974 , 2043.0 , 2040.0 , 229.333 , 0.0 , 0.0 , 0.0 , 0.0 , 

4.0 , 4129.23076923 , 4127.69230769 , 4127.69230769 , 4127.69230769 , 4129.74358974 , 4128.20512821 , 4129.23076923 , 4130.25641026 , 4126.66666667 , 4135.38461538 , 4123.07692308 , 4056.92307692 , 4131.28205128 , 4127.69230769 , 2043.0 , 2039.0 , 229.341 , 0.0 , 0.0 , 0.0 , 0.0 , 

5.0 , 4129.74358974 , 4129.74358974 , 4127.17948718 , 4127.17948718 , 4129.74358974 , 4128.20512821 , 4128.20512821 , 4130.76923077 , 4128.71794872 , 4135.38461538 , 4122.56410256 , 4054.87179487 , 4129.23076923 , 4127.17948718 , 2041.0 , 2038.0 , 229.348 , 0.0 , 0.0 , 0.0 , 0.0 , 

6.0 , 4130.25641026 , 4129.74358974 , 4125.12820513 , 4128.71794872 , 4128.71794872 , 4124.61538462 , 4129.74358974 , 4129.74358974 , 4125.12820513 , 4135.38461538 , 4121.02564103 , 4056.41025641 , 4132.30769231 , 4127.69230769 , 2043.0 , 2033.0 , 229.356 , 0.0 , 0.0 , 0.0 , 0.0 , 

7.0 , 4130.25641026 , 4129.74358974 , 4129.23076923 , 4128.71794872 , 4128.71794872 , 4125.12820513 , 4132.82051282 , 4128.71794872 , 4127.17948718 , 4135.38461538 , 4121.02564103 , 4057.43589744 , 4134.87179487 , 4127.17948718 , 2043.0 , 2034.0 , 229.364 , 0.0 , 0.0 , 0.0 , 0.0 , 

8.0 , 4128.20512821 , 4129.74358974 , 4130.76923077 , 4127.69230769 , 4128.20512821 , 4129.23076923 , 4130.76923077 , 4126.66666667 , 4129.23076923 , 4135.38461538 , 4123.07692308 , 4054.87179487 , 4130.76923077 , 4126.66666667 , 2044.0 , 2032.0 , 229.372 , 0.0 , 0.0 , 0.0 , 0.0 , 

9.0 , 4127.69230769 , 4128.71794872 , 4128.20512821 , 4128.71794872 , 4128.20512821 , 4129.74358974 , 4128.71794872 , 4125.12820513 , 4124.1025641 , 4135.38461538 , 4124.61538462 , 4055.8974359 , 4126.66666667 , 4128.71794872 , 2043.0 , 2031.0 , 229.381 , 0.0 , 0.0 , 0.0 , 0.0 , 

10.0 , 4128.71794872 , 4128.20512821 , 4125.64102564 , 4128.71794872 , 4127.69230769 , 4125.64102564 , 4132.30769231 , 4126.15384615 , 4123.07692308 , 4135.38461538 , 4122.05128205 , 4056.92307692 , 4130.25641026 , 4129.23076923 , 2043.0 , 2032.0 , 229.389 , 0.0 , 0.0 , 0.0 , 0.0 , 

11.0 , 4129.23076923 , 4129.23076923 , 4127.69230769 , 4127.17948718 , 4128.20512821 , 4126.66666667 , 4131.79487179 , 4128.20512821 , 4128.20512821 , 4135.38461538 , 4122.56410256 , 4054.87179487 , 4130.76923077 , 4127.69230769 , 2043.0 , 2033.0 , 229.395 , 0.0 , 0.0 , 0.0 , 0.0 , 

12.0 , 4127.69230769 , 4127.69230769 , 4128.71794872 , 4128.71794872 , 4130.76923077 , 4129.74358974 , 4127.69230769 , 4128.20512821 , 4126.66666667 , 4135.38461538 , 4125.64102564 , 4055.38461538 , 4127.69230769 , 4127.69230769 , 2043.0 , 2034.0 , 229.403 , 0.0 , 0.0 , 0.0 , 0.0 , 

13.0 , 4127.69230769 , 4126.66666667 , 4126.66666667 , 4130.25641026 , 4130.25641026 , 4126.66666667 , 4129.23076923 , 4127.69230769 , 4124.61538462 , 4135.38461538 , 4124.1025641 , 4055.8974359 , 4126.15384615 , 4128.71794872 , 2044.0 , 2033.0 , 229.412 , 0.0 , 0.0 , 0.0 , 0.0 , 

14.0 , 4130.25641026 , 4127.69230769 , 4127.17948718 , 4129.23076923 , 4126.66666667 , 4124.61538462 , 4129.74358974 , 4128.71794872 , 4134.35897436 , 4135.38461538 , 4122.56410256 , 4054.35897436 , 4127.17948718 , 4128.20512821 , 2044.0 , 2035.0 , 229.419 , 0.0 , 0.0 , 0.0 , 0.0 , 

15.0 , 4129.23076923 , 4127.17948718 , 4130.76923077 , 4128.20512821 , 4127.17948718 , 4128.20512821 , 4126.66666667 , 4129.74358974 , 4136.92307692 , 4135.38461538 , 4123.58974359 , 4054.87179487 , 4128.71794872 , 4128.71794872 , 2043.0 , 2035.0 , 229.427 , 0.0 , 0.0 , 0.0 , 0.0 , 

16.0 , 4127.17948718 , 4125.12820513 , 4130.76923077 , 4128.20512821 , 4128.20512821 , 4130.25641026 , 4128.71794872 , 4127.17948718 , 4127.69230769 , 4135.38461538 , 4124.1025641 , 4056.41025641 , 4129.74358974 , 4128.71794872 , 2043.0 , 2036.0 , 229.435 , 0.0 , 0.0 , 0.0 , 0.0 , 

17.0 , 4128.71794872 , 4126.15384615 , 4127.69230769 , 4128.71794872 , 4128.20512821 , 4128.20512821 , 4131.79487179 , 4124.61538462 , 4124.61538462 , 4135.8974359 , 4121.02564103 , 4055.8974359 , 4129.23076923 , 4125.64102564 , 2044.0 , 2035.0 , 229.443 , 0.0 , 0.0 , 0.0 , 0.0 , 

18.0 , 4130.76923077 , 4128.71794872 , 4129.74358974 , 4129.23076923 , 4130.76923077 , 4128.20512821 , 4129.23076923 , 4125.12820513 , 4128.20512821 , 4136.41025641 , 4120.51282051 , 4055.8974359 , 4127.17948718 , 4124.61538462 , 2041.0 , 2035.0 , 229.451 , 0.0 , 0.0 , 0.0 , 0.0 , 

19.0 , 4128.20512821 , 4129.23076923 , 4129.23076923 , 4127.69230769 , 4130.25641026 , 4127.17948718 , 4127.17948718 , 4125.64102564 , 4130.25641026 , 4136.41025641 , 4123.07692308 , 4057.43589744 , 4129.74358974 , 4128.20512821 , 2042.0 , 2033.0 , 229.459 , 0.0 , 0.0 , 0.0 , 0.0 , 

20.0 , 4129.74358974 , 4129.23076923 , 4128.71794872 , 4126.15384615 , 4128.20512821 , 4126.15384615 , 4128.20512821 , 4127.17948718 , 4131.28205128 , 4135.38461538 , 4125.12820513 , 4057.43589744 , 4128.20512821 , 4129.74358974 , 2043.0 , 2032.0 , 229.466 , 0.0 , 0.0 , 0.0 , 0.0 , 

21.0 , 4130.76923077 , 4127.69230769 , 4131.28205128 , 4127.17948718 , 4129.23076923 , 4127.17948718 , 4127.69230769 , 4129.23076923 , 4127.69230769 , 4134.87179487 , 4123.58974359 , 4055.38461538 , 4127.17948718 , 4126.66666667 , 2042.0 , 2030.0 , 229.474 , 0.0 , 0.0 , 0.0 , 0.0 , 

22.0 , 4129.74358974 , 4126.66666667 , 4132.82051282 , 4129.23076923 , 4128.71794872 , 4127.69230769 , 4129.23076923 , 4128.71794872 , 4123.07692308 , 4135.38461538 , 4123.07692308 , 4056.92307692 , 4126.66666667 , 4127.17948718 , 2042.0 , 2034.0 , 229.482 , 0.0 , 0.0 , 0.0 , 0.0 , 

23.0 , 4128.71794872 , 4128.20512821 , 4129.74358974 , 4128.20512821 , 4127.69230769 , 4129.23076923 , 4130.25641026 , 4128.71794872 , 4125.64102564 , 4135.8974359 , 4126.15384615 , 4060.0 , 4128.71794872 , 4129.74358974 , 2042.0 , 2033.0 , 229.49 , 0.0 , 0.0 , 0.0 , 0.0 , 

24.0 , 4130.25641026 , 4131.28205128 , 4130.76923077 , 4128.20512821 , 4130.76923077 , 4130.76923077 , 4129.74358974 , 4129.74358974 , 4126.66666667 , 4134.87179487 , 4126.66666667 , 4056.41025641 , 4128.20512821 , 4129.23076923 , 2042.0 , 2035.0 , 229.498 , 0.0 , 0.0 , 0.0 , 0.0 , 

25.0 , 4128.71794872 , 4129.23076923 , 4132.82051282 , 4128.20512821 , 4130.76923077 , 4127.69230769 , 4129.74358974 , 4126.15384615 , 4124.61538462 , 4134.87179487 , 4123.58974359 , 4051.79487179 , 4129.74358974 , 4126.66666667 , 2042.0 , 2034.0 , 229.507 , 0.0 , 0.0 , 0.0 , 0.0 , 

26.0 , 4129.74358974 , 4126.66666667 , 4131.28205128 , 4128.20512821 , 4129.74358974 , 4125.12820513 , 4131.28205128 , 4123.58974359 , 4126.66666667 , 4135.38461538 , 4122.05128205 , 4055.38461538 , 4129.23076923 , 4127.17948718 , 2042.0 , 2034.0 , 229.514 , 0.0 , 0.0 , 0.0 , 0.0 , 

27.0 , 4130.76923077 , 4127.69230769 , 4127.17948718 , 4128.20512821 , 4131.79487179 , 4126.15384615 , 4130.76923077 , 4127.69230769 , 4130.25641026 , 4134.87179487 , 4122.56410256 , 4058.97435897 , 4128.71794872 , 4127.17948718 , 2044.0 , 2034.0 , 229.523 , 0.0 , 0.0 , 0.0 , 0.0 , 

28.0 , 4129.74358974 , 4128.71794872 , 4128.20512821 , 4128.71794872 , 4130.76923077 , 4126.15384615 , 4129.74358974 , 4127.69230769 , 4128.71794872 , 4134.87179487 , 4122.56410256 , 4056.41025641 , 4128.20512821 , 4126.15384615 , 2044.0 , 2033.0 , 229.529 , 0.0 , 0.0 , 0.0 , 0.0 , 

29.0 , 4128.71794872 , 4129.23076923 , 4129.23076923 , 4129.23076923 , 4127.17948718 , 4126.15384615 , 4128.71794872 , 4126.15384615 , 4125.64102564 , 4135.38461538 , 4123.58974359 , 4055.8974359 , 4129.74358974 , 4127.17948718 , 2043.0 , 2031.0 , 229.537 , 0.0 , 0.0 , 0.0 , 0.0 , 

30.0 , 4129.23076923 , 4130.25641026 , 4127.69230769 , 4128.20512821 , 4129.23076923 , 4127.69230769 , 4127.17948718 , 4133.33333333 , 4127.69230769 , 4135.8974359 , 4123.58974359 , 4057.43589744 , 4128.20512821 , 4127.69230769 , 2044.0 , 2033.0 , 229.546 , 0.0 , 0.0 , 0.0 , 0.0 , 

31.0 , 4128.20512821 , 4128.71794872 , 4127.17948718 , 4127.69230769 , 4130.25641026 , 4128.20512821 , 4127.69230769 , 4134.35897436 , 4129.23076923 , 4135.8974359 , 4121.53846154 , 4055.8974359 , 4125.64102564 , 4127.17948718 , 2045.0 , 2034.0 , 229.553 , 0.0 , 0.0 , 0.0 , 0.0 , 

32.0 , 4128.71794872 , 4127.17948718 , 4128.20512821 , 4130.25641026 , 4127.17948718 , 4128.71794872 , 4128.20512821 , 4125.64102564 , 4125.64102564 , 4135.8974359 , 4122.56410256 , 4055.38461538 , 4126.66666667 , 4128.20512821 , 2045.0 , 2034.0 , 229.561 , 0.0 , 0.0 , 0.0 , 0.0 , 

33.0 , 4127.17948718 , 4128.71794872 , 4128.71794872 , 4130.25641026 , 4127.17948718 , 4128.71794872 , 4129.23076923 , 4123.07692308 , 4125.12820513 , 4135.8974359 , 4124.1025641 , 4054.87179487 , 4127.17948718 , 4129.23076923 , 2044.0 , 2034.0 , 229.569 , 0.0 , 0.0 , 0.0 , 0.0 , 

34.0 , 4124.1025641 , 4129.23076923 , 4129.74358974 , 4128.20512821 , 4129.74358974 , 4127.69230769 , 4129.74358974 , 4127.69230769 , 4126.66666667 , 4135.8974359 , 4123.07692308 , 4055.38461538 , 4128.20512821 , 4128.20512821 , 2043.0 , 2034.0 , 229.578 , 0.0 , 0.0 , 0.0 , 0.0 , 

35.0 , 4126.15384615 , 4128.20512821 , 4131.28205128 , 4129.23076923 , 4129.74358974 , 4128.20512821 , 4129.23076923 , 4128.20512821 , 4126.66666667 , 4135.8974359 , 4122.56410256 , 4055.8974359 , 4127.69230769 , 4127.69230769 , 2043.0 , 2036.0 , 229.586 , 0.0 , 0.0 , 0.0 , 0.0 , 

36.0 , 4129.23076923 , 4128.20512821 , 4131.28205128 , 4128.71794872 , 4127.69230769 , 4128.71794872 , 4128.20512821 , 4127.17948718 , 4126.15384615 , 4135.8974359 , 4123.07692308 , 4055.8974359 , 4126.15384615 , 4127.69230769 , 2044.0 , 2034.0 , 229.594 , 0.0 , 0.0 , 0.0 , 0.0 , 

37.0 , 4130.25641026 , 4129.74358974 , 4131.79487179 , 4127.69230769 , 4128.71794872 , 4128.71794872 , 4129.23076923 , 4129.23076923 , 4126.66666667 , 4135.8974359 , 4122.56410256 , 4057.94871795 , 4124.61538462 , 4130.25641026 , 2043.0 , 2034.0 , 229.601 , 0.0 , 0.0 , 0.0 , 0.0 , 

38.0 , 4128.20512821 , 4128.20512821 , 4130.25641026 , 4129.23076923 , 4130.25641026 , 4128.20512821 , 4128.71794872 , 4128.20512821 , 4126.15384615 , 4135.8974359 , 4123.58974359 , 4061.02564103 , 4129.23076923 , 4130.25641026 , 2045.0 , 2033.0 , 229.602 , 0.0 , 0.0 , 0.0 , 0.0 , 

39.0 , 4127.17948718 , 4128.71794872 , 4129.23076923 , 4131.79487179 , 4130.25641026 , 4128.71794872 , 4128.71794872 , 4126.66666667 , 4126.15384615 , 4135.8974359 , 4124.1025641 , 4059.48717949 , 4129.23076923 , 4127.69230769 , 2043.0 , 2032.0 , 229.602 , 0.0 , 0.0 , 0.0 , 0.0 , 

40.0 , 4127.69230769 , 4131.79487179 , 4128.71794872 , 4130.76923077 , 4128.71794872 , 4129.74358974 , 4128.20512821 , 4126.66666667 , 4126.66666667 , 4135.8974359 , 4121.53846154 , 4056.41025641 , 4127.69230769 , 4126.66666667 , 2043.0 , 2032.0 , 229.617 , 0.0 , 0.0 , 0.0 , 0.0 , 

41.0 , 4129.23076923 , 4131.28205128 , 4129.74358974 , 4127.69230769 , 4127.69230769 , 4129.23076923 , 4126.66666667 , 4128.20512821 , 4126.15384615 , 4135.8974359 , 4122.56410256 , 4057.43589744 , 4127.17948718 , 4128.71794872 , 2044.0 , 2030.0 , 229.633 , 0.0 , 0.0 , 0.0 , 0.0 , 

42.0 , 4125.64102564 , 4127.17948718 , 4128.71794872 , 4128.20512821 , 4128.71794872 , 4127.17948718 , 4125.64102564 , 4129.74358974 , 4127.17948718 , 4135.8974359 , 4125.12820513 , 4057.43589744 , 4127.69230769 , 4128.20512821 , 2044.0 , 2031.0 , 229.633 , 0.0 , 0.0 , 0.0 , 0.0 , 

43.0 , 4127.69230769 , 4127.17948718 , 4129.74358974 , 4132.30769231 , 4128.71794872 , 4128.20512821 , 4127.69230769 , 4125.12820513 , 4127.69230769 , 4135.8974359 , 4123.07692308 , 4057.94871795 , 4126.66666667 , 4127.69230769 , 2043.0 , 2031.0 , 229.649 , 0.0 , 0.0 , 0.0 , 0.0 , 

44.0 , 4128.20512821 , 4128.71794872 , 4129.74358974 , 4130.76923077 , 4127.17948718 , 4129.74358974 , 4129.23076923 , 4122.05128205 , 4128.71794872 , 4135.8974359 , 4122.05128205 , 4057.94871795 , 4131.28205128 , 4127.17948718 , 2044.0 , 2033.0 , 229.649 , 0.0 , 0.0 , 0.0 , 0.0 , 

45.0 , 4127.17948718 , 4127.69230769 , 4130.25641026 , 4125.64102564 , 4126.66666667 , 4128.71794872 , 4129.23076923 , 4125.64102564 , 4127.69230769 , 4135.8974359 , 4123.07692308 , 4056.41025641 , 4130.25641026 , 4126.15384615 , 2044.0 , 2038.0 , 229.649 , 0.0 , 0.0 , 0.0 , 0.0 , 

46.0 , 4128.71794872 , 4128.71794872 , 4127.17948718 , 4127.69230769 , 4127.69230769 , 4126.15384615 , 4131.28205128 , 4126.66666667 , 4126.15384615 , 4135.8974359 , 4122.56410256 , 4056.41025641 , 4123.07692308 , 4127.69230769 , 2043.0 , 2039.0 , 229.664 , 0.0 , 0.0 , 0.0 , 0.0 , 

47.0 , 4129.74358974 , 4131.28205128 , 4126.15384615 , 4132.30769231 , 4128.71794872 , 4126.66666667 , 4130.76923077 , 4123.07692308 , 4128.20512821 , 4135.8974359 , 4122.05128205 , 4056.92307692 , 4121.53846154 , 4129.23076923 , 2043.0 , 2039.0 , 229.68 , 0.0 , 0.0 , 0.0 , 0.0 , 

48.0 , 4126.15384615 , 4129.23076923 , 4126.66666667 , 4129.23076923 , 4127.17948718 , 4129.23076923 , 4127.17948718 , 4122.56410256 , 4130.25641026 , 4135.8974359 , 4122.56410256 , 4057.43589744 , 4126.66666667 , 4128.20512821 , 2043.0 , 2039.0 , 229.68 , 0.0 , 0.0 , 0.0 , 0.0 , 

49.0 , 4126.66666667 , 4127.69230769 , 4129.23076923 , 4126.15384615 , 4126.66666667 , 4130.76923077 , 4125.64102564 , 4127.17948718 , 4125.64102564 , 4135.8974359 , 4122.05128205 , 4057.94871795 , 4127.69230769 , 4129.23076923 , 2042.0 , 2038.0 , 229.696 , 0.0 , 0.0 , 0.0 , 0.0 , 

50.0 , 4130.25641026 , 4128.71794872 , 4130.76923077 , 4127.69230769 , 4128.71794872 , 4128.71794872 , 4126.66666667 , 4126.66666667 , 4122.56410256 , 4135.8974359 , 4123.07692308 , 4055.38461538 , 4126.15384615 , 4129.74358974 , 2042.0 , 2035.0 , 229.696 , 0.0 , 0.0 , 0.0 , 0.0 , 

51.0 , 4131.79487179 , 4128.71794872 , 4128.71794872 , 4129.23076923 , 4129.74358974 , 4127.69230769 , 4126.15384615 , 4124.61538462 , 4126.15384615 , 4135.8974359 , 4124.1025641 , 4053.33333333 , 4128.20512821 , 4127.69230769 , 2043.0 , 2035.0 , 229.711 , 0.0 , 0.0 , 0.0 , 0.0 , 

52.0 , 4130.76923077 , 4127.69230769 , 4128.71794872 , 4128.71794872 , 4128.20512821 , 4128.71794872 , 4126.66666667 , 4128.71794872 , 4128.71794872 , 4135.8974359 , 4122.56410256 , 4056.41025641 , 4129.74358974 , 4127.17948718 , 2044.0 , 2035.0 , 229.711 , 0.0 , 0.0 , 0.0 , 0.0 , 

53.0 , 4127.17948718 , 4128.71794872 , 4131.28205128 , 4129.23076923 , 4128.20512821 , 4128.20512821 , 4127.69230769 , 4130.25641026 , 4127.17948718 , 4135.8974359 , 4122.05128205 , 4057.94871795 , 4131.79487179 , 4127.17948718 , 2044.0 , 2033.0 , 229.727 , 0.0 , 0.0 , 0.0 , 0.0 , 

54.0 , 4129.74358974 , 4129.23076923 , 4131.28205128 , 4130.25641026 , 4129.74358974 , 4127.69230769 , 4127.17948718 , 4127.17948718 , 4128.20512821 , 4135.8974359 , 4123.58974359 , 4057.43589744 , 4130.76923077 , 4127.17948718 , 2043.0 , 2032.0 , 229.727 , 0.0 , 0.0 , 0.0 , 0.0 , 

55.0 , 4130.76923077 , 4126.66666667 , 4128.20512821 , 4129.74358974 , 4128.20512821 , 4128.20512821 , 4124.1025641 , 4125.64102564 , 4129.74358974 , 4135.8974359 , 4122.56410256 , 4059.48717949 , 4130.25641026 , 4126.66666667 , 2042.0 , 2034.0 , 229.742 , 0.0 , 0.0 , 0.0 , 0.0 , 

56.0 , 4128.20512821 , 4126.66666667 , 4130.25641026 , 4129.23076923 , 4128.20512821 , 4128.71794872 , 4124.1025641 , 4128.20512821 , 4128.20512821 , 4135.8974359 , 4122.05128205 , 4058.97435897 , 4130.25641026 , 4126.66666667 , 2043.0 , 2032.0 , 229.742 , 0.0 , 0.0 , 0.0 , 0.0 , 

57.0 , 4129.23076923 , 4128.20512821 , 4129.23076923 , 4128.71794872 , 4130.25641026 , 4128.71794872 , 4126.66666667 , 4129.23076923 , 4127.17948718 , 4135.8974359 , 4122.56410256 , 4056.92307692 , 4133.33333333 , 4127.69230769 , 2043.0 , 2033.0 , 229.758 , 0.0 , 0.0 , 0.0 , 0.0 , 

58.0 , 4132.30769231 , 4128.71794872 , 4128.20512821 , 4130.25641026 , 4129.23076923 , 4128.20512821 , 4126.66666667 , 4127.69230769 , 4127.17948718 , 4135.8974359 , 4123.58974359 , 4057.43589744 , 4130.25641026 , 4129.23076923 , 2043.0 , 2033.0 , 229.766 , 0.0 , 0.0 , 0.0 , 0.0 , 

59.0 , 4129.74358974 , 4126.15384615 , 4129.74358974 , 4130.76923077 , 4127.17948718 , 4126.66666667 , 4125.64102564 , 4127.17948718 , 4129.23076923 , 4135.8974359 , 4123.07692308 , 4056.41025641 , 4128.71794872 , 4128.20512821 , 2043.0 , 2033.0 , 229.776 , 0.0 , 0.0 , 0.0 , 0.0 , 

60.0 , 4129.74358974 , 4126.66666667 , 4132.30769231 , 4129.23076923 , 4128.20512821 , 4128.20512821 , 4128.20512821 , 4128.71794872 , 4130.76923077 , 4135.8974359 , 4122.56410256 , 4057.43589744 , 4129.74358974 , 4128.20512821 , 2043.0 , 2032.0 , 229.783 , 0.0 , 0.0 , 0.0 , 0.0 , 

61.0 , 4130.76923077 , 4129.74358974 , 4131.79487179 , 4127.69230769 , 4127.69230769 , 4128.20512821 , 4128.71794872 , 4127.69230769 , 4129.23076923 , 4135.8974359 , 4124.1025641 , 4058.46153846 , 4131.28205128 , 4127.17948718 , 2044.0 , 2031.0 , 229.79 , 0.0 , 0.0 , 0.0 , 0.0 , 

62.0 , 4130.25641026 , 4129.74358974 , 4130.76923077 , 4128.71794872 , 4127.17948718 , 4127.17948718 , 4126.66666667 , 4123.58974359 , 4128.71794872 , 4135.8974359 , 4125.12820513 , 4055.8974359 , 4127.17948718 , 4127.69230769 , 2043.0 , 2031.0 , 229.797 , 0.0 , 0.0 , 0.0 , 0.0 , 

63.0 , 4129.74358974 , 4127.69230769 , 4129.74358974 , 4129.74358974 , 4128.71794872 , 4128.71794872 , 4127.69230769 , 4125.12820513 , 4130.25641026 , 4135.8974359 , 4123.07692308 , 4055.38461538 , 4127.69230769 , 4129.74358974 , 2044.0 , 2030.0 , 229.798 , 0.0 , 0.0 , 0.0 , 0.0 , 

64.0 , 4129.74358974 , 4127.17948718 , 4129.74358974 , 4129.23076923 , 4129.23076923 , 4129.23076923 , 4128.20512821 , 4135.8974359 , 4129.74358974 , 4135.8974359 , 4123.07692308 , 4057.94871795 , 4128.71794872 , 4129.74358974 , 2044.0 , 2032.0 , 229.814 , 0.0 , 0.0 , 0.0 , 0.0 , 

65.0 , 4128.20512821 , 4128.20512821 , 4128.71794872 , 4128.20512821 , 4129.23076923 , 4128.20512821 , 4126.66666667 , 4136.41025641 , 4129.23076923 , 4135.8974359 , 4125.12820513 , 4057.43589744 , 4128.71794872 , 4127.17948718 , 2045.0 , 2031.0 , 229.814 , 0.0 , 0.0 , 0.0 , 0.0 , 

66.0 , 4129.74358974 , 4128.71794872 , 4130.76923077 , 4128.20512821 , 4129.23076923 , 4130.76923077 , 4127.17948718 , 4125.64102564 , 4127.69230769 , 4135.8974359 , 4123.07692308 , 4056.41025641 , 4128.71794872 , 4127.17948718 , 2045.0 , 2034.0 , 229.829 , 0.0 , 0.0 , 0.0 , 0.0 , 

67.0 , 4129.74358974 , 4128.71794872 , 4132.30769231 , 4128.20512821 , 4128.20512821 , 4130.76923077 , 4128.71794872 , 4124.1025641 , 4126.15384615 , 4134.87179487 , 4123.58974359 , 4055.38461538 , 4130.76923077 , 4126.15384615 , 2045.0 , 2033.0 , 229.829 , 0.0 , 0.0 , 0.0 , 0.0 , 

68.0 , 4129.74358974 , 4129.23076923 , 4132.82051282 , 4129.74358974 , 4126.66666667 , 4127.17948718 , 4128.20512821 , 4132.30769231 , 4127.69230769 , 4134.35897436 , 4126.15384615 , 4055.38461538 , 4128.71794872 , 4125.64102564 , 2043.0 , 2033.0 , 229.845 , 0.0 , 0.0 , 0.0 , 0.0 , 

69.0 , 4131.28205128 , 4128.71794872 , 4131.79487179 , 4130.25641026 , 4128.20512821 , 4126.15384615 , 4127.69230769 , 4130.25641026 , 4126.15384615 , 4134.35897436 , 4126.15384615 , 4056.41025641 , 4125.64102564 , 4127.17948718 , 2044.0 , 2034.0 , 229.845 , 0.0 , 0.0 , 0.0 , 0.0 , 

70.0 , 4130.25641026 , 4128.71794872 , 4130.25641026 , 4129.23076923 , 4129.74358974 , 4127.17948718 , 4128.20512821 , 4123.58974359 , 4124.61538462 , 4134.35897436 , 4124.61538462 , 4054.87179487 , 4125.64102564 , 4127.69230769 , 2045.0 , 2031.0 , 229.861 , 0.0 , 0.0 , 0.0 , 0.0 , 

71.0 , 4129.23076923 , 4128.71794872 , 4129.74358974 , 4128.20512821 , 4128.71794872 , 4128.20512821 , 4128.71794872 , 4126.15384615 , 4134.87179487 , 4134.35897436 , 4124.61538462 , 4054.87179487 , 4127.17948718 , 4126.66666667 , 2043.0 , 2030.0 , 229.861 , 0.0 , 0.0 , 0.0 , 0.0 , 

72.0 , 4129.74358974 , 4128.71794872 , 4130.25641026 , 4126.66666667 , 4128.20512821 , 4127.69230769 , 4128.20512821 , 4127.69230769 , 4138.46153846 , 4134.35897436 , 4124.61538462 , 4055.38461538 , 4130.25641026 , 4126.66666667 , 2044.0 , 2029.0 , 229.876 , 0.0 , 0.0 , 0.0 , 0.0 , 

73.0 , 4128.20512821 , 4127.69230769 , 4130.25641026 , 4128.20512821 , 4129.23076923 , 4127.17948718 , 4127.69230769 , 4127.69230769 , 4127.17948718 , 4134.35897436 , 4124.61538462 , 4053.84615385 , 4131.28205128 , 4126.66666667 , 2044.0 , 2031.0 , 229.876 , 0.0 , 0.0 , 0.0 , 0.0 , 

74.0 , 4125.64102564 , 4128.20512821 , 4129.23076923 , 4129.23076923 , 4127.69230769 , 4127.69230769 , 4126.15384615 , 4128.20512821 , 4125.64102564 , 4134.35897436 , 4124.1025641 , 4054.35897436 , 4131.28205128 , 4125.12820513 , 2044.0 , 2033.0 , 229.892 , 0.0 , 0.0 , 0.0 , 0.0 , 

75.0 , 4127.69230769 , 4130.25641026 , 4129.74358974 , 4129.74358974 , 4128.71794872 , 4127.69230769 , 4125.64102564 , 4130.76923077 , 4133.33333333 , 4134.35897436 , 4124.61538462 , 4058.97435897 , 4131.28205128 , 4123.07692308 , 2045.0 , 2035.0 , 229.892 , 0.0 , 0.0 , 0.0 , 0.0 , 

76.0 , 4128.71794872 , 4128.71794872 , 4128.71794872 , 4129.23076923 , 4131.79487179 , 4125.64102564 , 4127.17948718 , 4129.74358974 , 4129.74358974 , 4134.35897436 , 4122.56410256 , 4058.46153846 , 4130.25641026 , 4123.58974359 , 2045.0 , 2036.0 , 229.908 , 0.0 , 0.0 , 0.0 , 0.0 , 

77.0 , 4127.69230769 , 4128.20512821 , 4130.76923077 , 4129.74358974 , 4132.30769231 , 4125.12820513 , 4127.69230769 , 4125.64102564 , 4124.61538462 , 4134.35897436 , 4122.05128205 , 4055.38461538 , 4126.66666667 , 4127.69230769 , 2044.0 , 2036.0 , 229.912 , 0.0 , 0.0 , 0.0 , 0.0 , 

78.0 , 4128.20512821 , 4128.20512821 , 4130.25641026 , 4129.23076923 , 4129.74358974 , 4125.64102564 , 4124.61538462 , 4127.17948718 , 4129.23076923 , 4134.35897436 , 4125.64102564 , 4056.41025641 , 4129.74358974 , 4127.69230769 , 2045.0 , 2039.0 , 229.912 , 0.0 , 0.0 , 0.0 , 0.0 , 

79.0 , 4131.28205128 , 4129.74358974 , 4129.23076923 , 4129.74358974 , 4128.71794872 , 4127.17948718 , 4125.64102564 , 4129.74358974 , 4130.76923077 , 4136.41025641 , 4126.66666667 , 4057.43589744 , 4130.76923077 , 4127.17948718 , 2045.0 , 2038.0 , 229.928 , 0.0 , 0.0 , 0.0 , 0.0 , 

80.0 , 4128.20512821 , 4129.74358974 , 4128.71794872 , 4129.74358974 , 4129.23076923 , 4128.20512821 , 4127.17948718 , 4127.17948718 , 4126.15384615 , 4137.43589744 , 4123.07692308 , 4057.43589744 , 4129.23076923 , 4127.69230769 , 2044.0 , 2037.0 , 229.928 , 0.0 , 0.0 , 0.0 , 0.0 , 

81.0 , 4126.66666667 , 4128.20512821 , 4129.74358974 , 4129.23076923 , 4130.25641026 , 4129.23076923 , 4127.69230769 , 4126.66666667 , 4122.05128205 , 4136.41025641 , 4123.07692308 , 4057.43589744 , 4129.23076923 , 4127.69230769 , 2043.0 , 2035.0 , 229.943 , 0.0 , 0.0 , 0.0 , 0.0 , 

82.0 , 4128.20512821 , 4126.66666667 , 4128.71794872 , 4129.74358974 , 4128.20512821 , 4127.17948718 , 4129.23076923 , 4129.23076923 , 4125.64102564 , 4135.38461538 , 4123.58974359 , 4056.41025641 , 4129.23076923 , 4129.23076923 , 2043.0 , 2034.0 , 229.943 , 0.0 , 0.0 , 0.0 , 0.0 , 

83.0 , 4130.25641026 , 4128.71794872 , 4128.20512821 , 4128.71794872 , 4126.66666667 , 4125.64102564 , 4129.23076923 , 4128.20512821 , 4131.28205128 , 4136.41025641 , 4124.1025641 , 4056.92307692 , 4126.15384615 , 4129.74358974 , 2043.0 , 2033.0 , 229.963 , 0.0 , 0.0 , 0.0 , 0.0 , 

84.0 , 4129.23076923 , 4128.71794872 , 4128.20512821 , 4128.20512821 , 4127.69230769 , 4127.69230769 , 4127.69230769 , 4126.15384615 , 4128.71794872 , 4135.8974359 , 4124.61538462 , 4057.94871795 , 4128.20512821 , 4126.15384615 , 2042.0 , 2033.0 , 229.971 , 0.0 , 0.0 , 0.0 , 0.0 , 

85.0 , 4128.71794872 , 4127.17948718 , 4129.23076923 , 4128.71794872 , 4128.20512821 , 4130.25641026 , 4128.20512821 , 4125.64102564 , 4124.61538462 , 4135.8974359 , 4123.58974359 , 4056.92307692 , 4130.76923077 , 4125.64102564 , 2041.0 , 2031.0 , 229.979 , 0.0 , 0.0 , 0.0 , 0.0 , 

86.0 , 4127.17948718 , 4127.17948718 , 4128.20512821 , 4127.69230769 , 4126.66666667 , 4128.20512821 , 4128.20512821 , 4124.61538462 , 4127.69230769 , 4135.8974359 , 4122.56410256 , 4054.87179487 , 4129.23076923 , 4126.15384615 , 2041.0 , 2031.0 , 229.987 , 0.0 , 0.0 , 0.0 , 0.0 , 

87.0 , 4126.66666667 , 4127.17948718 , 4127.17948718 , 4127.69230769 , 4128.71794872 , 4126.15384615 , 4127.69230769 , 4127.17948718 , 4128.71794872 , 4135.8974359 , 4123.58974359 , 4055.38461538 , 4129.23076923 , 4125.12820513 , 2041.0 , 2034.0 , 229.994 , 0.0 , 0.0 , 0.0 , 0.0 , 

88.0 , 4127.17948718 , 4128.20512821 , 4128.71794872 , 4130.25641026 , 4130.25641026 , 4127.17948718 , 4128.71794872 , 4128.20512821 , 4125.64102564 , 4135.8974359 , 4123.07692308 , 4056.92307692 , 4130.25641026 , 4125.12820513 , 2040.0 , 2037.0 , 230.002 , 0.0 , 0.0 , 0.0 , 0.0 , 

89.0 , 4127.69230769 , 4127.69230769 , 4132.82051282 , 4130.76923077 , 4127.69230769 , 4126.66666667 , 4128.20512821 , 4126.15384615 , 4126.66666667 , 4135.8974359 , 4121.53846154 , 4055.8974359 , 4129.74358974 , 4126.66666667 , 2041.0 , 2037.0 , 230.009 , 0.0 , 0.0 , 0.0 , 0.0 , 

90.0 , 4126.66666667 , 4125.12820513 , 4132.82051282 , 4127.69230769 , 4128.20512821 , 4126.15384615 , 4126.66666667 , 4124.1025641 , 4129.74358974 , 4135.8974359 , 4124.61538462 , 4054.87179487 , 4128.20512821 , 4127.17948718 , 2041.0 , 2037.0 , 230.009 , 0.0 , 0.0 , 0.0 , 0.0 , 

91.0 , 4124.1025641 , 4125.12820513 , 4127.69230769 , 4126.66666667 , 4129.74358974 , 4127.17948718 , 4126.66666667 , 4122.05128205 , 4126.15384615 , 4135.8974359 , 4126.66666667 , 4054.35897436 , 4129.23076923 , 4127.17948718 , 2042.0 , 2039.0 , 230.024 , 0.0 , 0.0 , 0.0 , 0.0 , 

92.0 , 4125.12820513 , 4127.69230769 , 4125.64102564 , 4128.20512821 , 4128.71794872 , 4128.20512821 , 4127.69230769 , 4127.17948718 , 4123.58974359 , 4135.8974359 , 4125.64102564 , 4054.87179487 , 4129.74358974 , 4126.66666667 , 2041.0 , 2037.0 , 230.024 , 0.0 , 0.0 , 0.0 , 0.0 , 

93.0 , 4127.69230769 , 4129.23076923 , 4129.23076923 , 4128.71794872 , 4129.23076923 , 4128.71794872 , 4127.69230769 , 4131.28205128 , 4126.66666667 , 4135.8974359 , 4124.1025641 , 4055.8974359 , 4130.25641026 , 4127.17948718 , 2041.0 , 2036.0 , 230.04 , 0.0 , 0.0 , 0.0 , 0.0 , 

94.0 , 4127.69230769 , 4129.23076923 , 4131.79487179 , 4127.17948718 , 4131.28205128 , 4129.23076923 , 4127.69230769 , 4128.20512821 , 4130.76923077 , 4135.8974359 , 4124.1025641 , 4056.41025641 , 4128.20512821 , 4127.69230769 , 2041.0 , 2034.0 , 230.04 , 0.0 , 0.0 , 0.0 , 0.0 , 

95.0 , 4126.66666667 , 4129.74358974 , 4129.23076923 , 4126.15384615 , 4128.20512821 , 4128.71794872 , 4128.71794872 , 4126.66666667 , 4131.28205128 , 4135.8974359 , 4124.1025641 , 4055.8974359 , 4130.25641026 , 4125.64102564 , 2041.0 , 2034.0 , 230.056 , 0.0 , 0.0 , 0.0 , 0.0 , 

96.0 , 4128.71794872 , 4128.71794872 , 4131.28205128 , 4127.69230769 , 4126.66666667 , 4128.20512821 , 4131.79487179 , 4130.76923077 , 4128.20512821 , 4135.38461538 , 4123.58974359 , 4054.87179487 , 4130.76923077 , 4126.66666667 , 2042.0 , 2031.0 , 230.056 , 0.0 , 0.0 , 0.0 , 0.0 , 

97.0 , 4129.23076923 , 4127.69230769 , 4130.76923077 , 4126.66666667 , 4129.74358974 , 4127.69230769 , 4131.28205128 , 4129.23076923 , 4127.69230769 , 4134.35897436 , 4121.53846154 , 4053.33333333 , 4129.74358974 , 4127.69230769 , 2041.0 , 2031.0 , 230.071 , 0.0 , 0.0 , 0.0 , 0.0 , 

98.0 , 4128.20512821 , 4127.69230769 , 4129.74358974 , 4126.15384615 , 4131.28205128 , 4127.69230769 , 4130.76923077 , 4125.64102564 , 4129.23076923 , 4133.84615385 , 4122.56410256 , 4055.38461538 , 4131.28205128 , 4127.69230769 , 2043.0 , 2032.0 , 230.071 , 0.0 , 0.0 , 0.0 , 0.0 , 

99.0 , 4126.15384615 , 4128.20512821 , 4130.25641026 , 4129.23076923 , 4128.71794872 , 4127.17948718 , 4130.25641026 , 4124.61538462 , 4127.69230769 , 4134.87179487 , 4123.58974359 , 4057.94871795 , 4134.87179487 , 4127.69230769 , 2045.0 , 2031.0 , 230.087 , 0.0 , 0.0 , 0.0 , 0.0 , 

100.0 , 4129.23076923 , 4128.71794872 , 4131.79487179 , 4130.25641026 , 4127.69230769 , 4127.69230769 , 4129.74358974 , 4126.15384615 , 4126.15384615 , 4136.92307692 , 4122.05128205 , 4057.43589744 , 4131.28205128 , 4127.17948718 , 2044.0 , 2032.0 , 230.087 , 0.0 , 0.0 , 0.0 , 0.0 , 

101.0 , 4131.79487179 , 4126.15384615 , 4129.23076923 , 4128.71794872 , 4130.25641026 , 4129.23076923 , 4129.23076923 , 4128.71794872 , 4129.74358974 , 4136.92307692 , 4122.05128205 , 4055.8974359 , 4127.69230769 , 4126.66666667 , 2045.0 , 2032.0 , 230.102 , 0.0 , 0.0 , 0.0 , 0.0 , 

102.0 , 4128.71794872 , 4124.61538462 , 4129.23076923 , 4129.23076923 , 4130.25641026 , 4128.71794872 , 4129.74358974 , 4127.69230769 , 4128.71794872 , 4135.8974359 , 4123.07692308 , 4055.8974359 , 4126.66666667 , 4127.17948718 , 2045.0 , 2032.0 , 230.102 , 0.0 , 0.0 , 0.0 , 0.0 , 

103.0 , 4127.17948718 , 4128.71794872 , 4129.74358974 , 4129.74358974 , 4127.69230769 , 4127.17948718 , 4128.71794872 , 4126.66666667 , 4124.61538462 , 4135.8974359 , 4122.56410256 , 4057.43589744 , 4128.20512821 , 4128.20512821 , 2044.0 , 2034.0 , 230.121 , 0.0 , 0.0 , 0.0 , 0.0 , 

104.0 , 4128.71794872 , 4132.82051282 , 4129.74358974 , 4127.69230769 , 4127.17948718 , 4128.20512821 , 4129.23076923 , 4129.23076923 , 4128.20512821 , 4136.41025641 , 4123.58974359 , 4057.94871795 , 4129.23076923 , 4128.71794872 , 2046.0 , 2035.0 , 230.129 , 0.0 , 0.0 , 0.0 , 0.0 , 

105.0 , 4128.20512821 , 4129.23076923 , 4130.25641026 , 4127.17948718 , 4128.20512821 , 4130.25641026 , 4131.28205128 , 4131.79487179 , 4131.28205128 , 4135.8974359 , 4121.02564103 , 4055.8974359 , 4126.66666667 , 4128.71794872 , 2046.0 , 2036.0 , 230.136 , 0.0 , 0.0 , 0.0 , 0.0 , 

106.0 , 4129.23076923 , 4126.66666667 , 4130.25641026 , 4128.20512821 , 4128.20512821 , 4129.74358974 , 4132.30769231 , 4130.76923077 , 4126.66666667 , 4135.8974359 , 4120.0 , 4054.35897436 , 4127.17948718 , 4128.71794872 , 2046.0 , 2036.0 , 230.144 , 0.0 , 0.0 , 0.0 , 0.0 , 

107.0 , 4130.25641026 , 4130.76923077 , 4129.74358974 , 4128.20512821 , 4129.74358974 , 4127.17948718 , 4130.25641026 , 4128.71794872 , 4125.64102564 , 4135.8974359 , 4123.07692308 , 4055.38461538 , 4130.76923077 , 4130.76923077 , 2045.0 , 2036.0 , 230.144 , 0.0 , 0.0 , 0.0 , 0.0 , 

108.0 , 4127.17948718 , 4132.30769231 , 4129.74358974 , 4127.69230769 , 4130.76923077 , 4127.17948718 , 4127.69230769 , 4128.20512821 , 4128.71794872 , 4135.8974359 , 4123.58974359 , 4057.43589744 , 4130.76923077 , 4129.74358974 , 2046.0 , 2034.0 , 230.159 , 0.0 , 0.0 , 0.0 , 0.0 , 

109.0 , 4128.20512821 , 4129.23076923 , 4130.25641026 , 4130.25641026 , 4127.69230769 , 4128.71794872 , 4127.17948718 , 4125.12820513 , 4128.20512821 , 4135.8974359 , 4121.02564103 , 4056.92307692 , 4128.20512821 , 4127.69230769 , 2046.0 , 2034.0 , 230.159 , 0.0 , 0.0 , 0.0 , 0.0 , 

110.0 , 4130.25641026 , 4126.15384615 , 4129.23076923 , 4131.79487179 , 4127.69230769 , 4128.20512821 , 4127.69230769 , 4128.20512821 , 4126.66666667 , 4135.8974359 , 4121.02564103 , 4054.87179487 , 4130.25641026 , 4128.20512821 , 2043.0 , 2033.0 , 230.175 , 0.0 , 0.0 , 0.0 , 0.0 , 

111.0 , 4128.71794872 , 4128.20512821 , 4128.20512821 , 4130.25641026 , 4131.28205128 , 4127.17948718 , 4127.69230769 , 4136.92307692 , 4127.69230769 , 4135.8974359 , 4122.56410256 , 4056.41025641 , 4127.69230769 , 4127.69230769 , 2043.0 , 2032.0 , 230.175 , 0.0 , 0.0 , 0.0 , 0.0 , 

112.0 , 4127.69230769 , 4130.76923077 , 4129.23076923 , 4128.71794872 , 4129.74358974 , 4128.20512821 , 4127.69230769 , 4133.33333333 , 4129.74358974 , 4135.8974359 , 4123.07692308 , 4057.94871795 , 4128.71794872 , 4126.66666667 , 2044.0 , 2034.0 , 230.191 , 0.0 , 0.0 , 0.0 , 0.0 , 

113.0 , 4129.74358974 , 4129.74358974 , 4130.25641026 , 4129.74358974 , 4128.20512821 , 4129.23076923 , 4127.69230769 , 4125.12820513 , 4131.79487179 , 4135.8974359 , 4122.56410256 , 4055.38461538 , 4131.28205128 , 4126.66666667 , 2044.0 , 2033.0 , 230.199 , 0.0 , 0.0 , 0.0 , 0.0 , 

114.0 , 4126.66666667 , 4128.20512821 , 4128.20512821 , 4129.23076923 , 4128.20512821 , 4129.23076923 , 4127.69230769 , 4125.12820513 , 4131.79487179 , 4135.8974359 , 4123.07692308 , 4054.35897436 , 4130.25641026 , 4126.66666667 , 2041.0 , 2034.0 , 230.208 , 0.0 , 0.0 , 0.0 , 0.0 , 

115.0 , 4125.12820513 , 4128.71794872 , 4128.71794872 , 4128.20512821 , 4129.74358974 , 4128.71794872 , 4128.20512821 , 4128.71794872 , 4129.74358974 , 4135.8974359 , 4124.1025641 , 4056.41025641 , 4125.64102564 , 4125.64102564 , 2043.0 , 2034.0 , 230.216 , 0.0 , 0.0 , 0.0 , 0.0 , 

116.0 , 4127.69230769 , 4127.69230769 , 4129.23076923 , 4128.20512821 , 4129.74358974 , 4127.69230769 , 4127.17948718 , 4127.69230769 , 4128.71794872 , 4135.8974359 , 4122.05128205 , 4056.41025641 , 4128.71794872 , 4124.61538462 , 2043.0 , 2034.0 , 230.224 , 0.0 , 0.0 , 0.0 , 0.0 , 

117.0 , 4130.25641026 , 4127.69230769 , 4131.28205128 , 4130.25641026 , 4128.71794872 , 4127.69230769 , 4126.66666667 , 4127.17948718 , 4129.23076923 , 4135.8974359 , 4120.51282051 , 4055.38461538 , 4129.74358974 , 4126.15384615 , 2043.0 , 2034.0 , 230.232 , 0.0 , 0.0 , 0.0 , 0.0 , 

118.0 , 4129.23076923 , 4128.20512821 , 4130.25641026 , 4131.28205128 , 4128.71794872 , 4127.17948718 , 4126.15384615 , 4127.17948718 , 4129.74358974 , 4135.8974359 , 4123.07692308 , 4056.41025641 , 4129.74358974 , 4126.15384615 , 2044.0 , 2034.0 , 230.24 , 0.0 , 0.0 , 0.0 , 0.0 , 

119.0 , 4131.79487179 , 4127.69230769 , 4129.23076923 , 4130.76923077 , 4130.76923077 , 4127.17948718 , 4128.20512821 , 4126.66666667 , 4127.69230769 , 4135.8974359 , 4123.58974359 , 4056.92307692 , 4127.17948718 , 4125.12820513 , 2042.0 , 2033.0 , 230.248 , 0.0 , 0.0 , 0.0 , 0.0 , 

120.0 , 4131.28205128 , 4128.71794872 , 4127.69230769 , 4130.25641026 , 4130.25641026 , 4125.64102564 , 4127.17948718 , 4128.20512821 , 4127.17948718 , 4135.8974359 , 4122.56410256 , 4055.38461538 , 4126.15384615 , 4125.12820513 , 2043.0 , 2032.0 , 230.256 , 0.0 , 0.0 , 0.0 , 0.0 , 

121.0 , 4127.69230769 , 4130.25641026 , 4128.20512821 , 4129.74358974 , 4129.23076923 , 4125.64102564 , 4124.61538462 , 4129.23076923 , 4128.71794872 , 4135.8974359 , 4122.05128205 , 4055.38461538 , 4128.71794872 , 4127.17948718 , 2043.0 , 2030.0 , 230.263 , 0.0 , 0.0 , 0.0 , 0.0 , 

122.0 , 4128.71794872 , 4128.71794872 , 4128.20512821 , 4128.20512821 , 4129.74358974 , 4128.20512821 , 4126.15384615 , 4128.20512821 , 4128.20512821 , 4135.8974359 , 4123.07692308 , 4055.8974359 , 4131.79487179 , 4127.69230769 , 2044.0 , 2030.0 , 230.263 , 0.0 , 0.0 , 0.0 , 0.0 , 

123.0 , 4132.30769231 , 4127.69230769 , 4128.20512821 , 4127.69230769 , 4130.25641026 , 4128.71794872 , 4128.20512821 , 4124.1025641 , 4129.23076923 , 4135.8974359 , 4125.12820513 , 4055.8974359 , 4129.74358974 , 4126.15384615 , 2045.0 , 2029.0 , 230.278 , 0.0 , 0.0 , 0.0 , 0.0 , 

124.0 , 4129.74358974 , 4128.20512821 , 4129.23076923 , 4128.20512821 , 4129.23076923 , 4125.64102564 , 4126.66666667 , 4124.61538462 , 4129.74358974 , 4135.8974359 , 4124.61538462 , 4055.8974359 , 4128.20512821 , 4125.64102564 , 2043.0 , 2026.0 , 230.278 , 0.0 , 0.0 , 0.0 , 0.0 , 

125.0 , 4128.71794872 , 4127.69230769 , 4132.30769231 , 4129.74358974 , 4129.23076923 , 4125.12820513 , 4127.69230769 , 4129.23076923 , 4123.07692308 , 4135.8974359 , 4121.53846154 , 4056.92307692 , 4130.76923077 , 4126.66666667 , 2043.0 , 2029.0 , 230.294 , 0.0 , 0.0 , 0.0 , 0.0 , 

126.0 , 4129.23076923 , 4127.17948718 , 4132.82051282 , 4130.25641026 , 4129.74358974 , 4127.17948718 , 4130.76923077 , 4127.69230769 , 4123.07692308 , 4135.8974359 , 4122.05128205 , 4055.8974359 , 4130.76923077 , 4124.61538462 , 2045.0 , 2034.0 , 230.294 , 0.0 , 0.0 , 0.0 , 0.0 , 

127.0 , 4125.12820513 , 4128.20512821 , 4128.20512821 , 4128.71794872 , 4130.25641026 , 4126.15384615 , 4126.66666667 , 4125.64102564 , 4131.28205128 , 4135.8974359 , 4124.1025641 , 4054.87179487 , 4129.23076923 , 4123.58974359 , 2044.0 , 2036.0 , 230.311 , 0.0 , 0.0 , 0.0 , 0.0 , 

128.0 , 4127.17948718 , 4129.74358974 , 4128.71794872 , 4129.74358974 , 4129.23076923 , 4126.15384615 , 4124.61538462 , 4127.17948718 , 4128.71794872 , 4135.8974359 , 4124.1025641 , 4057.94871795 , 4126.66666667 , 4125.64102564 , 2044.0 , 2039.0 , 230.317 , 0.0 , 0.0 , 0.0 , 0.0 , 

0.0 , 4130.76923077 , 4129.74358974 , 4132.30769231 , 4129.74358974 , 4127.69230769 , 4127.17948718 , 4129.23076923 , 4125.64102564 , 4125.64102564 , 4135.8974359 , 4122.56410256 , 4057.43589744 , 4125.12820513 , 4126.15384615 , 2045.0 , 2038.0 , 230.322 , 0.0 , 0.0 , 0.0 , 0.0 , 

1.0 , 4130.76923077 , 4127.17948718 , 4131.28205128 , 4128.20512821 , 4126.66666667 , 4127.17948718 , 4129.23076923 , 4124.1025641 , 4130.76923077 , 4135.8974359 , 4122.56410256 , 4054.87179487 , 4125.12820513 , 4127.17948718 , 2044.0 , 2037.0 , 230.322 , 0.0 , 0.0 , 0.0 , 0.0 , 

2.0 , 4128.20512821 , 4125.64102564 , 4128.71794872 , 4127.69230769 , 4129.74358974 , 4126.66666667 , 4124.61538462 , 4125.12820513 , 4128.20512821 , 4135.8974359 , 4123.07692308 , 4055.8974359 , 4126.66666667 , 4129.23076923 , 2045.0 , 2035.0 , 230.338 , 0.0 , 0.0 , 0.0 , 0.0 , 

3.0 , 4127.69230769 , 4127.69230769 , 4131.79487179 , 4128.20512821 , 4132.30769231 , 4127.17948718 , 4125.64102564 , 4128.20512821 , 4122.56410256 , 4135.8974359 , 4122.56410256 , 4057.43589744 , 4125.64102564 , 4126.66666667 , 2046.0 , 2035.0 , 230.338 , 0.0 , 0.0 , 0.0 , 0.0 , 

4.0 , 4127.69230769 , 4129.23076923 , 4129.74358974 , 4128.20512821 , 4129.23076923 , 4126.66666667 , 4127.17948718 , 4129.74358974 , 4128.20512821 , 4135.8974359 , 4121.53846154 , 4057.43589744 , 4127.69230769 , 4125.64102564 , 2047.0 , 2031.0 , 230.353 , 0.0 , 0.0 , 0.0 , 0.0 , 

5.0 , 4129.23076923 , 4128.20512821 , 4129.23076923 , 4128.71794872 , 4127.17948718 , 4127.17948718 , 4128.20512821 , 4132.30769231 , 4131.28205128 , 4135.8974359 , 4122.56410256 , 4058.46153846 , 4130.25641026 , 4129.74358974 , 2046.0 , 2031.0 , 230.353 , 0.0 , 0.0 , 0.0 , 0.0 , 

6.0 , 4127.69230769 , 4126.15384615 , 4133.33333333 , 4127.17948718 , 4128.71794872 , 4128.20512821 , 4129.74358974 , 4130.25641026 , 4127.17948718 , 4135.8974359 , 4124.1025641 , 4056.92307692 , 4131.28205128 , 4128.20512821 , 2044.0 , 2031.0 , 230.369 , 0.0 , 0.0 , 0.0 , 0.0 , 

7.0 , 4126.66666667 , 4126.66666667 , 4132.82051282 , 4127.17948718 , 4128.71794872 , 4127.17948718 , 4130.76923077 , 4126.15384615 , 4126.66666667 , 4135.8974359 , 4122.05128205 , 4055.38461538 , 4129.23076923 , 4124.1025641 , 2043.0 , 2033.0 , 230.369 , 0.0 , 0.0 , 0.0 , 0.0 , 

8.0 , 4127.69230769 , 4127.17948718 , 4126.15384615 , 4129.23076923 , 4127.69230769 , 4126.15384615 , 4128.71794872 , 4127.17948718 , 4127.17948718 , 4135.8974359 , 4120.51282051 , 4057.43589744 , 4127.69230769 , 4123.58974359 , 2042.0 , 2035.0 , 230.385 , 0.0 , 0.0 , 0.0 , 0.0 , 

9.0 , 4128.71794872 , 4127.17948718 , 4127.17948718 , 4129.74358974 , 4129.23076923 , 4127.69230769 , 4127.17948718 , 4128.20512821 , 4124.1025641 , 4135.8974359 , 4121.53846154 , 4056.92307692 , 4126.15384615 , 4126.15384615 , 2042.0 , 2035.0 , 230.385 , 0.0 , 0.0 , 0.0 , 0.0 , 

10.0 , 4128.20512821 , 4128.20512821 , 4130.25641026 , 4128.71794872 , 4129.23076923 , 4128.20512821 , 4126.66666667 , 4127.17948718 , 4123.58974359 , 4135.8974359 , 4123.07692308 , 4055.38461538 , 4128.20512821 , 4127.69230769 , 2042.0 , 2035.0 , 230.404 , 0.0 , 0.0 , 0.0 , 0.0 , 

11.0 , 4129.23076923 , 4129.23076923 , 4128.71794872 , 4130.25641026 , 4128.20512821 , 4127.17948718 , 4128.20512821 , 4127.17948718 , 4128.71794872 , 4135.8974359 , 4123.58974359 , 4056.41025641 , 4128.20512821 , 4128.20512821 , 2042.0 , 2035.0 , 230.413 , 0.0 , 0.0 , 0.0 , 0.0 , 

12.0 , 4127.69230769 , 4128.20512821 , 4128.20512821 , 4129.74358974 , 4129.23076923 , 4126.66666667 , 4128.71794872 , 4128.71794872 , 4130.76923077 , 4135.8974359 , 4123.58974359 , 4056.92307692 , 4126.66666667 , 4127.69230769 , 2040.0 , 2034.0 , 230.42 , 0.0 , 0.0 , 0.0 , 0.0 , 

13.0 , 4127.69230769 , 4127.17948718 , 4132.30769231 , 4130.76923077 , 4129.74358974 , 4127.69230769 , 4128.71794872 , 4128.71794872 , 4125.64102564 , 4136.41025641 , 4123.07692308 , 4055.8974359 , 4126.15384615 , 4127.69230769 , 2041.0 , 2032.0 , 230.423 , 0.0 , 0.0 , 0.0 , 0.0 , 

14.0 , 4129.23076923 , 4129.23076923 , 4131.79487179 , 4130.76923077 , 4128.20512821 , 4128.71794872 , 4128.71794872 , 4127.17948718 , 4122.05128205 , 4135.8974359 , 4122.56410256 , 4055.8974359 , 4125.64102564 , 4128.71794872 , 2041.0 , 2031.0 , 230.423 , 0.0 , 0.0 , 0.0 , 0.0 , 

15.0 , 4129.74358974 , 4129.23076923 , 4130.76923077 , 4127.69230769 , 4127.69230769 , 4127.69230769 , 4128.20512821 , 4125.64102564 , 4125.64102564 , 4135.8974359 , 4123.07692308 , 4056.92307692 , 4128.71794872 , 4127.69230769 , 2041.0 , 2029.0 , 230.439 , 0.0 , 0.0 , 0.0 , 0.0 , 

16.0 , 4129.74358974 , 4127.17948718 , 4130.76923077 , 4127.17948718 , 4128.71794872 , 4127.69230769 , 4128.71794872 , 4126.15384615 , 4129.74358974 , 4136.41025641 , 4124.1025641 , 4056.92307692 , 4130.25641026 , 4127.17948718 , 2042.0 , 2031.0 , 230.439 , 0.0 , 0.0 , 0.0 , 0.0 , 

17.0 , 4128.20512821 , 4127.69230769 , 4129.74358974 , 4129.74358974 , 4128.71794872 , 4128.20512821 , 4130.25641026 , 4131.28205128 , 4126.66666667 , 4135.8974359 , 4123.58974359 , 4056.41025641 , 4126.15384615 , 4127.17948718 , 2042.0 , 2030.0 , 230.454 , 0.0 , 0.0 , 0.0 , 0.0 , 

18.0 , 4129.23076923 , 4128.20512821 , 4130.25641026 , 4129.23076923 , 4129.74358974 , 4125.12820513 , 4127.17948718 , 4131.79487179 , 4124.61538462 , 4134.87179487 , 4123.07692308 , 4055.38461538 , 4124.61538462 , 4128.20512821 , 2042.0 , 2033.0 , 230.454 , 0.0 , 0.0 , 0.0 , 0.0 , 

19.0 , 4129.23076923 , 4127.17948718 , 4129.23076923 , 4126.66666667 , 4130.76923077 , 4125.12820513 , 4122.56410256 , 4129.74358974 , 4126.15384615 , 4133.84615385 , 4123.58974359 , 4055.38461538 , 4130.76923077 , 4128.20512821 , 2043.0 , 2035.0 , 230.47 , 0.0 , 0.0 , 0.0 , 0.0 , 

20.0 , 4129.74358974 , 4127.69230769 , 4127.17948718 , 4129.74358974 , 4129.23076923 , 4130.25641026 , 4125.64102564 , 4129.23076923 , 4127.17948718 , 4133.84615385 , 4123.07692308 , 4054.87179487 , 4129.23076923 , 4127.17948718 , 2043.0 , 2037.0 , 230.47 , 0.0 , 0.0 , 0.0 , 0.0 , 

21.0 , 4130.25641026 , 4127.17948718 , 4127.69230769 , 4133.33333333 , 4127.69230769 , 4128.71794872 , 4128.71794872 , 4127.17948718 , 4127.17948718 , 4134.87179487 , 4122.56410256 , 4055.38461538 , 4126.15384615 , 4127.17948718 , 2044.0 , 2039.0 , 230.492 , 0.0 , 0.0 , 0.0 , 0.0 , 

22.0 , 4129.74358974 , 4126.15384615 , 4131.79487179 , 4130.76923077 , 4128.71794872 , 4125.64102564 , 4127.69230769 , 4126.15384615 , 4128.20512821 , 4135.8974359 , 4122.56410256 , 4056.92307692 , 4125.12820513 , 4128.20512821 , 2046.0 , 2040.0 , 230.5 , 0.0 , 0.0 , 0.0 , 0.0 , 

23.0 , 4127.17948718 , 4126.15384615 , 4130.25641026 , 4127.17948718 , 4129.74358974 , 4127.17948718 , 4127.69230769 , 4126.66666667 , 4128.20512821 , 4136.41025641 , 4121.53846154 , 4056.92307692 , 4125.12820513 , 4126.66666667 , 2045.0 , 2037.0 , 230.508 , 0.0 , 0.0 , 0.0 , 0.0 , 

24.0 , 4126.66666667 , 4127.69230769 , 4129.23076923 , 4126.66666667 , 4130.25641026 , 4129.23076923 , 4128.71794872 , 4128.20512821 , 4126.66666667 , 4135.8974359 , 4122.56410256 , 4056.92307692 , 4123.58974359 , 4127.17948718 , 2045.0 , 2035.0 , 230.515 , 0.0 , 0.0 , 0.0 , 0.0 , 

25.0 , 4127.17948718 , 4129.23076923 , 4130.76923077 , 4126.15384615 , 4128.71794872 , 4128.20512821 , 4126.66666667 , 4128.71794872 , 4126.15384615 , 4135.8974359 , 4122.56410256 , 4057.43589744 , 4127.17948718 , 4129.23076923 , 2046.0 , 2034.0 , 230.522 , 0.0 , 0.0 , 0.0 , 0.0 , 

26.0 , 4129.23076923 , 4129.23076923 , 4130.76923077 , 4126.15384615 , 4127.69230769 , 4129.23076923 , 4127.17948718 , 4129.74358974 , 4126.15384615 , 4135.8974359 , 4121.53846154 , 4057.94871795 , 4128.71794872 , 4129.74358974 , 2047.0 , 2032.0 , 230.531 , 0.0 , 0.0 , 0.0 , 0.0 , 

27.0 , 4126.15384615 , 4128.20512821 , 4127.17948718 , 4127.17948718 , 4130.25641026 , 4129.74358974 , 4128.20512821 , 4130.76923077 , 4125.64102564 , 4135.8974359 , 4124.1025641 , 4057.43589744 , 4129.23076923 , 4128.71794872 , 2045.0 , 2033.0 , 230.538 , 0.0 , 0.0 , 0.0 , 0.0 , 

28.0 , 4124.61538462 , 4129.23076923 , 4127.69230769 , 4126.66666667 , 4130.76923077 , 4130.25641026 , 4127.17948718 , 4128.71794872 , 4125.64102564 , 4135.8974359 , 4125.64102564 , 4056.41025641 , 4129.23076923 , 4126.66666667 , 2046.0 , 2033.0 , 230.543 , 0.0 , 0.0 , 0.0 , 0.0 , 

29.0 , 4127.69230769 , 4128.20512821 , 4130.25641026 , 4122.56410256 , 4127.69230769 , 4129.23076923 , 4126.66666667 , 4126.15384615 , 4127.17948718 , 4135.8974359 , 4122.05128205 , 4054.87179487 , 4129.74358974 , 4125.64102564 , 2045.0 , 2033.0 , 230.543 , 0.0 , 0.0 , 0.0 , 0.0 , 

30.0 , 4130.25641026 , 4127.17948718 , 4131.28205128 , 4123.07692308 , 4128.71794872 , 4126.66666667 , 4127.69230769 , 4126.15384615 , 4127.17948718 , 4135.8974359 , 4122.56410256 , 4056.41025641 , 4129.23076923 , 4127.69230769 , 2044.0 , 2034.0 , 230.558 , 0.0 , 0.0 , 0.0 , 0.0 , 

31.0 , 4128.71794872 , 4128.20512821 , 4130.25641026 , 4126.66666667 , 4131.28205128 , 4129.23076923 , 4127.17948718 , 4129.23076923 , 4126.15384615 , 4135.8974359 , 4125.12820513 , 4057.94871795 , 4127.17948718 , 4128.71794872 , 2043.0 , 2035.0 , 230.558 , 0.0 , 0.0 , 0.0 , 0.0 , 

32.0 , 4131.28205128 , 4129.74358974 , 4129.23076923 , 4128.71794872 , 4130.76923077 , 4130.76923077 , 4126.66666667 , 4130.25641026 , 4126.15384615 , 4135.8974359 , 4122.05128205 , 4055.8974359 , 4127.17948718 , 4125.64102564 , 2042.0 , 2034.0 , 230.574 , 0.0 , 0.0 , 0.0 , 0.0 , 

33.0 , 4130.25641026 , 4128.20512821 , 4128.20512821 , 4128.71794872 , 4129.23076923 , 4127.17948718 , 4128.71794872 , 4129.74358974 , 4127.69230769 , 4135.8974359 , 4122.05128205 , 4054.87179487 , 4126.15384615 , 4125.64102564 , 2043.0 , 2036.0 , 230.574 , 0.0 , 0.0 , 0.0 , 0.0 , 

34.0 , 4125.12820513 , 4126.15384615 , 4129.74358974 , 4129.23076923 , 4128.71794872 , 4126.66666667 , 4128.71794872 , 4128.71794872 , 4125.64102564 , 4135.8974359 , 4124.61538462 , 4054.35897436 , 4126.15384615 , 4128.71794872 , 2041.0 , 2035.0 , 230.59 , 0.0 , 0.0 , 0.0 , 0.0 , 

35.0 , 4129.23076923 , 4127.17948718 , 4129.74358974 , 4128.20512821 , 4129.23076923 , 4128.71794872 , 4128.20512821 , 4127.17948718 , 4126.15384615 , 4135.8974359 , 4122.56410256 , 4054.87179487 , 4125.64102564 , 4127.69230769 , 2041.0 , 2035.0 , 230.59 , 0.0 , 0.0 , 0.0 , 0.0 , 

36.0 , 4131.79487179 , 4127.17948718 , 4127.69230769 , 4126.15384615 , 4128.20512821 , 4127.69230769 , 4128.71794872 , 4127.69230769 , 4129.74358974 , 4135.8974359 , 4121.02564103 , 4055.8974359 , 4129.74358974 , 4125.64102564 , 2042.0 , 2036.0 , 230.609 , 0.0 , 0.0 , 0.0 , 0.0 , 

37.0 , 4129.23076923 , 4124.61538462 , 4130.25641026 , 4127.69230769 , 4127.17948718 , 4127.69230769 , 4128.71794872 , 4128.20512821 , 4128.71794872 , 4135.8974359 , 4124.61538462 , 4056.41025641 , 4128.20512821 , 4126.15384615 , 2043.0 , 2036.0 , 230.618 , 0.0 , 0.0 , 0.0 , 0.0 , 

38.0 , 4128.71794872 , 4123.58974359 , 4131.79487179 , 4129.23076923 , 4129.23076923 , 4130.25641026 , 4126.15384615 , 4126.66666667 , 4127.17948718 , 4135.8974359 , 4126.15384615 , 4055.8974359 , 4121.53846154 , 4126.15384615 , 2044.0 , 2036.0 , 230.625 , 0.0 , 0.0 , 0.0 , 0.0 , 

39.0 , 4130.76923077 , 4127.17948718 , 4131.79487179 , 4128.71794872 , 4131.28205128 , 4127.69230769 , 4125.64102564 , 4127.69230769 , 4129.23076923 , 4135.8974359 , 4125.12820513 , 4055.8974359 , 4124.1025641 , 4128.20512821 , 2043.0 , 2034.0 , 230.633 , 0.0 , 0.0 , 0.0 , 0.0 , 

40.0 , 4128.20512821 , 4129.23076923 , 4130.25641026 , 4127.17948718 , 4128.71794872 , 4124.61538462 , 4125.12820513 , 4128.20512821 , 4129.23076923 , 4135.8974359 , 4125.64102564 , 4055.8974359 , 4132.30769231 , 4127.69230769 , 2044.0 , 2033.0 , 230.641 , 0.0 , 0.0 , 0.0 , 0.0 , 

41.0 , 4128.20512821 , 4127.69230769 , 4129.74358974 , 4127.17948718 , 4127.17948718 , 4128.71794872 , 4127.17948718 , 4127.69230769 , 4128.20512821 , 4135.8974359 , 4125.64102564 , 4056.41025641 , 4127.17948718 , 4126.15384615 , 2042.0 , 2031.0 , 230.648 , 0.0 , 0.0 , 0.0 , 0.0 , 

42.0 , 4129.74358974 , 4126.66666667 , 4128.20512821 , 4127.69230769 , 4127.69230769 , 4129.23076923 , 4130.76923077 , 4128.20512821 , 4128.20512821 , 4135.8974359 , 4123.07692308 , 4056.92307692 , 4125.12820513 , 4125.64102564 , 2043.0 , 2031.0 , 230.652 , 0.0 , 0.0 , 0.0 , 0.0 , 

43.0 , 4128.20512821 , 4128.20512821 , 4130.76923077 , 4129.74358974 , 4128.20512821 , 4126.66666667 , 4128.71794872 , 4129.23076923 , 4125.12820513 , 4135.8974359 , 4122.56410256 , 4058.46153846 , 4131.28205128 , 4126.66666667 , 2044.0 , 2029.0 , 230.652 , 0.0 , 0.0 , 0.0 , 0.0 , 

44.0 , 4125.12820513 , 4129.23076923 , 4132.30769231 , 4130.76923077 , 4127.69230769 , 4127.17948718 , 4124.1025641 , 4127.69230769 , 4124.1025641 , 4135.8974359 , 4123.58974359 , 4058.46153846 , 4131.79487179 , 4124.1025641 , 2044.0 , 2030.0 , 230.668 , 0.0 , 0.0 , 0.0 , 0.0 , 

45.0 , 4128.20512821 , 4128.71794872 , 4129.74358974 , 4129.74358974 , 4128.71794872 , 4129.74358974 , 4128.20512821 , 4128.20512821 , 4128.20512821 , 4135.8974359 , 4123.07692308 , 4056.92307692 , 4124.61538462 , 4124.61538462 , 2044.0 , 2031.0 , 230.668 , 0.0 , 0.0 , 0.0 , 0.0 , 

46.0 , 4129.74358974 , 4128.20512821 , 4126.66666667 , 4127.69230769 , 4128.71794872 , 4129.23076923 , 4131.28205128 , 4129.23076923 , 4129.23076923 , 4136.41025641 , 4125.64102564 , 4056.41025641 , 4126.15384615 , 4127.17948718 , 2045.0 , 2032.0 , 230.683 , 0.0 , 0.0 , 0.0 , 0.0 , 

47.0 , 4128.71794872 , 4128.20512821 , 4130.25641026 , 4127.17948718 , 4128.20512821 , 4128.71794872 , 4127.17948718 , 4126.66666667 , 4125.12820513 , 4135.8974359 , 4127.17948718 , 4056.41025641 , 4130.25641026 , 4128.71794872 , 2045.0 , 2031.0 , 230.683 , 0.0 , 0.0 , 0.0 , 0.0 , 

48.0 , 4127.17948718 , 4127.17948718 , 4130.25641026 , 4128.71794872 , 4128.20512821 , 4128.71794872 , 4125.64102564 , 4126.15384615 , 4123.58974359 , 4134.35897436 , 4123.07692308 , 4055.8974359 , 4127.69230769 , 4129.23076923 , 2043.0 , 2036.0 , 230.699 , 0.0 , 0.0 , 0.0 , 0.0 , 

49.0 , 4129.23076923 , 4128.20512821 , 4128.20512821 , 4130.25641026 , 4131.28205128 , 4128.20512821 , 4129.23076923 , 4130.76923077 , 4127.17948718 , 4135.8974359 , 4120.0 , 4055.8974359 , 4124.1025641 , 4124.61538462 , 2044.0 , 2034.0 , 230.699 , 0.0 , 0.0 , 0.0 , 0.0 , 

50.0 , 4128.20512821 , 4130.76923077 , 4131.79487179 , 4129.23076923 , 4129.74358974 , 4128.71794872 , 4130.25641026 , 4131.28205128 , 4128.71794872 , 4137.43589744 , 4123.58974359 , 4056.41025641 , 4127.17948718 , 4121.53846154 , 2043.0 , 2035.0 , 230.715 , 0.0 , 0.0 , 0.0 , 0.0 , 

51.0 , 4126.66666667 , 4130.25641026 , 4134.35897436 , 4129.23076923 , 4125.12820513 , 4128.71794872 , 4128.71794872 , 4127.17948718 , 4125.12820513 , 4136.41025641 , 4126.15384615 , 4053.84615385 , 4130.76923077 , 4127.17948718 , 2044.0 , 2033.0 , 230.715 , 0.0 , 0.0 , 0.0 , 0.0 , 

52.0 , 4129.23076923 , 4128.20512821 , 4130.76923077 , 4128.71794872 , 4127.17948718 , 4127.17948718 , 4129.74358974 , 4126.66666667 , 4124.61538462 , 4135.8974359 , 4124.61538462 , 4052.30769231 , 4128.20512821 , 4130.25641026 , 2042.0 , 2031.0 , 230.736 , 0.0 , 0.0 , 0.0 , 0.0 , 

53.0 , 4130.25641026 , 4128.20512821 , 4129.74358974 , 4126.15384615 , 4130.76923077 , 4124.61538462 , 4129.74358974 , 4127.17948718 , 4125.64102564 , 4135.8974359 , 4123.58974359 , 4053.84615385 , 4127.69230769 , 4124.1025641 , 2042.0 , 2031.0 , 230.744 , 0.0 , 0.0 , 0.0 , 0.0 , 

54.0 , 4129.23076923 , 4129.23076923 , 4133.33333333 , 4127.69230769 , 4129.74358974 , 4124.61538462 , 4128.71794872 , 4124.61538462 , 4127.69230769 , 4135.38461538 , 4124.1025641 , 4056.92307692 , 4126.66666667 , 4123.58974359 , 2042.0 , 2031.0 , 230.752 , 0.0 , 0.0 , 0.0 , 0.0 , 

55.0 , 4128.71794872 , 4127.69230769 , 4132.82051282 , 4130.76923077 , 4129.74358974 , 4127.69230769 , 4128.20512821 , 4125.12820513 , 4130.25641026 , 4134.35897436 , 4122.56410256 , 4056.92307692 , 4125.12820513 , 4127.17948718 , 2042.0 , 2030.0 , 230.759 , 0.0 , 0.0 , 0.0 , 0.0 , 

56.0 , 4129.74358974 , 4128.71794872 , 4129.74358974 , 4129.23076923 , 4131.79487179 , 4129.23076923 , 4130.25641026 , 4129.74358974 , 4130.25641026 , 4135.38461538 , 4120.51282051 , 4055.8974359 , 4125.12820513 , 4127.17948718 , 2041.0 , 2029.0 , 230.767 , 0.0 , 0.0 , 0.0 , 0.0 , 

57.0 , 4128.71794872 , 4130.76923077 , 4128.20512821 , 4126.15384615 , 4130.25641026 , 4127.69230769 , 4130.25641026 , 4129.23076923 , 4126.66666667 , 4134.87179487 , 4121.53846154 , 4054.87179487 , 4127.69230769 , 4127.17948718 , 2042.0 , 2032.0 , 230.775 , 0.0 , 0.0 , 0.0 , 0.0 , 

58.0 , 4127.69230769 , 4128.71794872 , 4129.74358974 , 4127.69230769 , 4130.76923077 , 4126.66666667 , 4128.20512821 , 4127.17948718 , 4127.17948718 , 4134.87179487 , 4123.07692308 , 4054.35897436 , 4125.12820513 , 4126.15384615 , 2043.0 , 2034.0 , 230.782 , 0.0 , 0.0 , 0.0 , 0.0 , 

59.0 , 4127.17948718 , 4125.64102564 , 4130.76923077 , 4128.71794872 , 4131.79487179 , 4128.20512821 , 4127.69230769 , 4129.74358974 , 4129.23076923 , 4136.41025641 , 4123.58974359 , 4055.8974359 , 4124.61538462 , 4124.1025641 , 2041.0 , 2036.0 , 230.79 , 0.0 , 0.0 , 0.0 , 0.0 , 

60.0 , 4128.20512821 , 4127.69230769 , 4132.30769231 , 4127.17948718 , 4128.20512821 , 4129.23076923 , 4130.76923077 , 4129.74358974 , 4126.66666667 , 4136.41025641 , 4124.61538462 , 4057.94871795 , 4125.64102564 , 4126.15384615 , 2043.0 , 2038.0 , 230.798 , 0.0 , 0.0 , 0.0 , 0.0 , 

61.0 , 4127.17948718 , 4128.20512821 , 4129.74358974 , 4126.66666667 , 4127.69230769 , 4127.17948718 , 4131.28205128 , 4124.1025641 , 4127.69230769 , 4135.38461538 , 4124.61538462 , 4057.43589744 , 4130.25641026 , 4127.69230769 , 2044.0 , 2038.0 , 230.806 , 0.0 , 0.0 , 0.0 , 0.0 , 

62.0 , 4126.66666667 , 4127.69230769 , 4130.76923077 , 4128.71794872 , 4131.79487179 , 4127.17948718 , 4127.69230769 , 4124.1025641 , 4130.25641026 , 4135.38461538 , 4123.07692308 , 4056.92307692 , 4128.20512821 , 4126.66666667 , 2044.0 , 2035.0 , 230.814 , 0.0 , 0.0 , 0.0 , 0.0 , 

63.0 , 4126.15384615 , 4127.69230769 , 4132.30769231 , 4130.25641026 , 4131.79487179 , 4129.23076923 , 4127.69230769 , 4127.69230769 , 4128.20512821 , 4135.38461538 , 4122.05128205 , 4057.94871795 , 4126.15384615 , 4125.64102564 , 2044.0 , 2034.0 , 230.822 , 0.0 , 0.0 , 0.0 , 0.0 , 

64.0 , 4126.66666667 , 4127.69230769 , 4131.28205128 , 4129.74358974 , 4129.74358974 , 4128.20512821 , 4130.76923077 , 4127.69230769 , 4126.66666667 , 4134.87179487 , 4123.58974359 , 4055.8974359 , 4129.23076923 , 4127.17948718 , 2044.0 , 2033.0 , 230.83 , 0.0 , 0.0 , 0.0 , 0.0 , 

65.0 , 4127.69230769 , 4128.20512821 , 4129.23076923 , 4128.71794872 , 4129.74358974 , 4127.17948718 , 4128.20512821 , 4127.69230769 , 4127.69230769 , 4134.87179487 , 4125.12820513 , 4055.8974359 , 4129.23076923 , 4127.69230769 , 2045.0 , 2031.0 , 230.838 , 0.0 , 0.0 , 0.0 , 0.0 , 

66.0 , 4129.23076923 , 4128.20512821 , 4128.71794872 , 4128.71794872 , 4127.69230769 , 4129.23076923 , 4126.15384615 , 4129.74358974 , 4126.66666667 , 4134.87179487 , 4123.58974359 , 4057.94871795 , 4124.1025641 , 4126.66666667 , 2043.0 , 2032.0 , 230.846 , 0.0 , 0.0 , 0.0 , 0.0 , 

67.0 , 4129.23076923 , 4127.17948718 , 4127.17948718 , 4127.69230769 , 4126.15384615 , 4131.79487179 , 4126.15384615 , 4130.76923077 , 4125.64102564 , 4134.87179487 , 4122.05128205 , 4055.8974359 , 4125.12820513 , 4124.1025641 , 2043.0 , 2031.0 , 230.853 , 0.0 , 0.0 , 0.0 , 0.0 , 

68.0 , 4129.74358974 , 4127.17948718 , 4128.20512821 , 4127.69230769 , 4129.23076923 , 4130.25641026 , 4124.61538462 , 4129.74358974 , 4126.66666667 , 4134.87179487 , 4123.58974359 , 4054.35897436 , 4129.23076923 , 4125.12820513 , 2043.0 , 2031.0 , 230.861 , 0.0 , 0.0 , 0.0 , 0.0 , 

69.0 , 4129.74358974 , 4127.17948718 , 4130.25641026 , 4128.20512821 , 4129.74358974 , 4126.66666667 , 4125.12820513 , 4125.64102564 , 4126.66666667 , 4134.87179487 , 4123.58974359 , 4056.41025641 , 4128.20512821 , 4128.71794872 , 2043.0 , 2032.0 , 230.869 , 0.0 , 0.0 , 0.0 , 0.0 , 

70.0 , 4130.25641026 , 4127.69230769 , 4130.76923077 , 4127.17948718 , 4128.20512821 , 4126.66666667 , 4128.71794872 , 4123.58974359 , 4127.69230769 , 4134.87179487 , 4120.51282051 , 4056.41025641 , 4128.71794872 , 4128.71794872 , 2044.0 , 2033.0 , 230.876 , 0.0 , 0.0 , 0.0 , 0.0 , 

71.0 , 4129.23076923 , 4128.71794872 , 4132.30769231 , 4127.69230769 , 4129.23076923 , 4127.17948718 , 4129.23076923 , 4128.71794872 , 4128.71794872 , 4134.87179487 , 4122.56410256 , 4056.41025641 , 4130.76923077 , 4128.71794872 , 2044.0 , 2035.0 , 230.885 , 0.0 , 0.0 , 0.0 , 0.0 , 

72.0 , 4124.61538462 , 4127.69230769 , 4130.76923077 , 4128.71794872 , 4130.25641026 , 4125.64102564 , 4128.20512821 , 4132.30769231 , 4127.69230769 , 4134.87179487 , 4125.64102564 , 4057.94871795 , 4129.74358974 , 4127.17948718 , 2044.0 , 2036.0 , 230.893 , 0.0 , 0.0 , 0.0 , 0.0 , 

73.0 , 4126.15384615 , 4127.69230769 , 4127.17948718 , 4128.71794872 , 4129.74358974 , 4126.66666667 , 4128.71794872 , 4128.20512821 , 4128.20512821 , 4134.87179487 , 4123.58974359 , 4056.41025641 , 4125.12820513 , 4125.64102564 , 2045.0 , 2035.0 , 230.901 , 0.0 , 0.0 , 0.0 , 0.0 , 

74.0 , 4130.25641026 , 4129.23076923 , 4126.66666667 , 4128.20512821 , 4129.23076923 , 4128.71794872 , 4127.17948718 , 4125.64102564 , 4126.66666667 , 4134.87179487 , 4120.51282051 , 4054.87179487 , 4125.64102564 , 4125.64102564 , 2044.0 , 2035.0 , 230.91 , 0.0 , 0.0 , 0.0 , 0.0 , 

75.0 , 4128.20512821 , 4131.28205128 , 4129.23076923 , 4129.23076923 , 4130.25641026 , 4127.69230769 , 4125.64102564 , 4130.25641026 , 4124.1025641 , 4134.87179487 , 4121.53846154 , 4056.92307692 , 4127.17948718 , 4128.20512821 , 2043.0 , 2034.0 , 230.916 , 0.0 , 0.0 , 0.0 , 0.0 , 

76.0 , 4123.58974359 , 4131.28205128 , 4128.71794872 , 4128.71794872 , 4128.20512821 , 4127.69230769 , 4125.64102564 , 4131.79487179 , 4125.12820513 , 4134.87179487 , 4124.1025641 , 4056.41025641 , 4128.20512821 , 4128.20512821 , 2044.0 , 2031.0 , 230.925 , 0.0 , 0.0 , 0.0 , 0.0 , 

77.0 , 4126.15384615 , 4129.23076923 , 4129.74358974 , 4129.23076923 , 4128.20512821 , 4130.25641026 , 4126.15384615 , 4127.17948718 , 4128.71794872 , 4134.87179487 , 4124.61538462 , 4054.35897436 , 4128.20512821 , 4126.15384615 , 2043.0 , 2030.0 , 230.933 , 0.0 , 0.0 , 0.0 , 0.0 , 

78.0 , 4128.71794872 , 4127.69230769 , 4130.76923077 , 4128.71794872 , 4129.74358974 , 4129.74358974 , 4127.17948718 , 4124.1025641 , 4129.23076923 , 4134.87179487 , 4124.1025641 , 4056.41025641 , 4127.69230769 , 4125.64102564 , 2044.0 , 2031.0 , 230.941 , 0.0 , 0.0 , 0.0 , 0.0 , 

79.0 , 4130.25641026 , 4126.66666667 , 4131.79487179 , 4127.69230769 , 4130.76923077 , 4128.20512821 , 4127.69230769 , 4125.64102564 , 4129.74358974 , 4134.87179487 , 4125.12820513 , 4058.97435897 , 4125.12820513 , 4127.69230769 , 2043.0 , 2032.0 , 230.948 , 0.0 , 0.0 , 0.0 , 0.0 , 

80.0 , 4128.71794872 , 4126.15384615 , 4129.23076923 , 4127.17948718 , 4129.74358974 , 4127.69230769 , 4125.12820513 , 4125.12820513 , 4130.25641026 , 4134.87179487 , 4125.12820513 , 4057.43589744 , 4128.71794872 , 4129.23076923 , 2044.0 , 2036.0 , 230.956 , 0.0 , 0.0 , 0.0 , 0.0 , 

81.0 , 4129.23076923 , 4126.66666667 , 4129.74358974 , 4129.74358974 , 4128.71794872 , 4127.17948718 , 4125.64102564 , 4126.15384615 , 4127.69230769 , 4134.87179487 , 4123.58974359 , 4057.43589744 , 4130.25641026 , 4128.71794872 , 2043.0 , 2036.0 , 230.964 , 0.0 , 0.0 , 0.0 , 0.0 , 

82.0 , 4130.76923077 , 4126.66666667 , 4130.25641026 , 4128.71794872 , 4128.20512821 , 4127.69230769 , 4127.69230769 , 4128.71794872 , 4125.64102564 , 4134.87179487 , 4123.07692308 , 4060.0 , 4127.17948718 , 4127.69230769 , 2044.0 , 2037.0 , 230.972 , 0.0 , 0.0 , 0.0 , 0.0 , 

83.0 , 4131.28205128 , 4126.66666667 , 4130.76923077 , 4127.69230769 , 4129.23076923 , 4128.71794872 , 4126.15384615 , 4127.17948718 , 4123.58974359 , 4134.87179487 , 4123.07692308 , 4058.46153846 , 4125.12820513 , 4128.20512821 , 2044.0 , 2039.0 , 230.979 , 0.0 , 0.0 , 0.0 , 0.0 , 

84.0 , 4130.25641026 , 4127.69230769 , 4130.25641026 , 4128.71794872 , 4130.76923077 , 4128.71794872 , 4125.12820513 , 4126.66666667 , 4126.15384615 , 4134.87179487 , 4121.02564103 , 4055.8974359 , 4127.17948718 , 4126.66666667 , 2044.0 , 2038.0 , 230.987 , 0.0 , 0.0 , 0.0 , 0.0 , 

85.0 , 4129.23076923 , 4127.69230769 , 4129.74358974 , 4128.71794872 , 4129.23076923 , 4129.74358974 , 4127.17948718 , 4129.74358974 , 4129.74358974 , 4134.87179487 , 4121.53846154 , 4055.8974359 , 4126.66666667 , 4125.12820513 , 2044.0 , 2037.0 , 230.995 , 0.0 , 0.0 , 0.0 , 0.0 , 

86.0 , 4125.12820513 , 4126.66666667 , 4128.71794872 , 4129.23076923 , 4128.20512821 , 4130.76923077 , 4129.23076923 , 4129.74358974 , 4129.23076923 , 4134.87179487 , 4126.15384615 , 4055.8974359 , 4126.66666667 , 4126.66666667 , 2045.0 , 2035.0 , 231.003 , 0.0 , 0.0 , 0.0 , 0.0 , 

87.0 , 4124.1025641 , 4128.71794872 , 4128.71794872 , 4130.25641026 , 4130.76923077 , 4129.23076923 , 4130.76923077 , 4127.17948718 , 4127.69230769 , 4134.87179487 , 4125.64102564 , 4056.41025641 , 4130.25641026 , 4128.71794872 , 2045.0 , 2034.0 , 231.011 , 0.0 , 0.0 , 0.0 , 0.0 , 

88.0 , 4127.17948718 , 4129.23076923 , 4130.25641026 , 4129.23076923 , 4130.76923077 , 4127.17948718 , 4129.74358974 , 4127.17948718 , 4127.69230769 , 4134.87179487 , 4123.58974359 , 4058.46153846 , 4132.82051282 , 4128.71794872 , 2044.0 , 2033.0 , 231.019 , 0.0 , 0.0 , 0.0 , 0.0 , 

89.0 , 4127.69230769 , 4126.66666667 , 4131.28205128 , 4128.20512821 , 4129.23076923 , 4126.66666667 , 4128.20512821 , 4126.15384615 , 4129.23076923 , 4134.87179487 , 4125.64102564 , 4056.92307692 , 4132.82051282 , 4128.71794872 , 2043.0 , 2032.0 , 231.027 , 0.0 , 0.0 , 0.0 , 0.0 , 

90.0 , 4126.66666667 , 4127.17948718 , 4130.76923077 , 4128.71794872 , 4131.28205128 , 4128.20512821 , 4130.25641026 , 4127.69230769 , 4129.23076923 , 4134.87179487 , 4124.61538462 , 4055.38461538 , 4129.74358974 , 4128.71794872 , 2043.0 , 2030.0 , 231.035 , 0.0 , 0.0 , 0.0 , 0.0 , 

91.0 , 4126.66666667 , 4129.74358974 , 4129.74358974 , 4128.71794872 , 4130.25641026 , 4129.23076923 , 4129.23076923 , 4130.25641026 , 4131.28205128 , 4134.87179487 , 4123.07692308 , 4057.94871795 , 4128.71794872 , 4127.69230769 , 2043.0 , 2031.0 , 231.042 , 0.0 , 0.0 , 0.0 , 0.0 , 

92.0 , 4128.20512821 , 4130.25641026 , 4129.74358974 , 4131.28205128 , 4126.15384615 , 4129.74358974 , 4127.17948718 , 4129.74358974 , 4134.35897436 , 4134.87179487 , 4124.61538462 , 4056.41025641 , 4127.17948718 , 4128.20512821 , 2042.0 , 2032.0 , 231.05 , 0.0 , 0.0 , 0.0 , 0.0 , 

93.0 , 4126.66666667 , 4127.69230769 , 4129.74358974 , 4131.28205128 , 4127.69230769 , 4129.74358974 , 4128.71794872 , 4127.17948718 , 4134.35897436 , 4134.87179487 , 4123.07692308 , 4053.33333333 , 4127.69230769 , 4128.20512821 , 2042.0 , 2032.0 , 231.058 , 0.0 , 0.0 , 0.0 , 0.0 , 

94.0 , 4128.20512821 , 4127.69230769 , 4130.76923077 , 4128.71794872 , 4130.76923077 , 4128.20512821 , 4130.25641026 , 4125.12820513 , 4131.28205128 , 4134.87179487 , 4120.0 , 4056.92307692 , 4127.17948718 , 4127.17948718 , 2040.0 , 2033.0 , 231.06 , 0.0 , 0.0 , 0.0 , 0.0 , 

95.0 , 4128.71794872 , 4128.71794872 , 4129.23076923 , 4129.23076923 , 4127.69230769 , 4126.15384615 , 4128.20512821 , 4127.69230769 , 4127.69230769 , 4134.87179487 , 4122.05128205 , 4058.97435897 , 4128.71794872 , 4126.66666667 , 2041.0 , 2033.0 , 231.06 , 0.0 , 0.0 , 0.0 , 0.0 , 

96.0 , 4130.25641026 , 4128.71794872 , 4130.25641026 , 4131.28205128 , 4127.17948718 , 4128.20512821 , 4128.71794872 , 4130.76923077 , 4129.23076923 , 4134.87179487 , 4123.58974359 , 4057.43589744 , 4126.15384615 , 4126.15384615 , 2040.0 , 2033.0 , 231.076 , 0.0 , 0.0 , 0.0 , 0.0 , 

97.0 , 4130.76923077 , 4128.20512821 , 4130.25641026 , 4130.25641026 , 4128.71794872 , 4129.23076923 , 4129.74358974 , 4128.71794872 , 4131.28205128 , 4134.87179487 , 4122.56410256 , 4055.38461538 , 4126.66666667 , 4126.15384615 , 2042.0 , 2032.0 , 231.076 , 0.0 , 0.0 , 0.0 , 0.0 , 

98.0 , 4131.28205128 , 4127.69230769 , 4132.30769231 , 4130.76923077 , 4128.20512821 , 4127.69230769 , 4129.74358974 , 4127.17948718 , 4130.25641026 , 4134.87179487 , 4124.1025641 , 4054.35897436 , 4127.17948718 , 4126.15384615 , 2042.0 , 2031.0 , 231.092 , 0.0 , 0.0 , 0.0 , 0.0 , 

99.0 , 4130.25641026 , 4126.15384615 , 4130.76923077 , 4131.28205128 , 4128.20512821 , 4126.66666667 , 4128.20512821 , 4127.69230769 , 4129.23076923 , 4134.87179487 , 4124.1025641 , 4055.38461538 , 4129.23076923 , 4128.20512821 , 2043.0 , 2031.0 , 231.092 , 0.0 , 0.0 , 0.0 , 0.0 , 

100.0 , 4130.76923077 , 4127.17948718 , 4131.28205128 , 4131.28205128 , 4129.74358974 , 4129.23076923 , 4127.69230769 , 4125.64102564 , 4128.20512821 , 4134.87179487 , 4122.05128205 , 4057.43589744 , 4129.23076923 , 4129.74358974 , 2043.0 , 2031.0 , 231.107 , 0.0 , 0.0 , 0.0 , 0.0 , 

101.0 , 4131.79487179 , 4129.74358974 , 4131.79487179 , 4129.74358974 , 4129.23076923 , 4128.71794872 , 4128.71794872 , 4122.56410256 , 4129.23076923 , 4134.87179487 , 4123.07692308 , 4056.41025641 , 4127.69230769 , 4127.17948718 , 2045.0 , 2033.0 , 231.107 , 0.0 , 0.0 , 0.0 , 0.0 , 

102.0 , 4129.23076923 , 4129.74358974 , 4129.74358974 , 4129.74358974 , 4129.74358974 , 4126.66666667 , 4128.71794872 , 4125.12820513 , 4129.23076923 , 4134.87179487 , 4125.12820513 , 4056.41025641 , 4126.15384615 , 4125.12820513 , 2045.0 , 2033.0 , 231.123 , 0.0 , 0.0 , 0.0 , 0.0 , 

103.0 , 4127.69230769 , 4129.74358974 , 4128.20512821 , 4129.74358974 , 4129.74358974 , 4125.64102564 , 4127.17948718 , 4126.66666667 , 4126.66666667 , 4134.87179487 , 4123.07692308 , 4058.97435897 , 4127.69230769 , 4126.66666667 , 2045.0 , 2034.0 , 231.123 , 0.0 , 0.0 , 0.0 , 0.0 , 

104.0 , 4131.28205128 , 4130.25641026 , 4127.69230769 , 4129.74358974 , 4128.71794872 , 4126.15384615 , 4128.71794872 , 4126.15384615 , 4126.15384615 , 4134.87179487 , 4121.02564103 , 4059.48717949 , 4127.17948718 , 4127.69230769 , 2045.0 , 2035.0 , 231.138 , 0.0 , 0.0 , 0.0 , 0.0 , 

105.0 , 4130.76923077 , 4128.20512821 , 4127.69230769 , 4128.71794872 , 4128.71794872 , 4127.69230769 , 4129.23076923 , 4129.74358974 , 4128.71794872 , 4134.87179487 , 4123.58974359 , 4058.46153846 , 4124.61538462 , 4124.1025641 , 2045.0 , 2034.0 , 231.138 , 0.0 , 0.0 , 0.0 , 0.0 , 

106.0 , 4127.17948718 , 4128.20512821 , 4130.25641026 , 4127.17948718 , 4129.23076923 , 4129.23076923 , 4127.69230769 , 4131.28205128 , 4128.20512821 , 4134.87179487 , 4124.1025641 , 4058.97435897 , 4128.20512821 , 4124.61538462 , 2045.0 , 2034.0 , 231.154 , 0.0 , 0.0 , 0.0 , 0.0 , 

107.0 , 4128.71794872 , 4128.71794872 , 4130.76923077 , 4128.20512821 , 4128.20512821 , 4128.20512821 , 4127.17948718 , 4126.15384615 , 4125.64102564 , 4134.87179487 , 4122.05128205 , 4060.0 , 4132.30769231 , 4127.17948718 , 2045.0 , 2035.0 , 231.154 , 0.0 , 0.0 , 0.0 , 0.0 , 

108.0 , 4130.76923077 , 4128.20512821 , 4127.69230769 , 4128.71794872 , 4126.15384615 , 4126.66666667 , 4128.20512821 , 4124.1025641 , 4127.17948718 , 4134.87179487 , 4120.51282051 , 4057.94871795 , 4129.74358974 , 4125.12820513 , 2045.0 , 2034.0 , 231.17 , 0.0 , 0.0 , 0.0 , 0.0 , 

109.0 , 4130.76923077 , 4129.74358974 , 4130.25641026 , 4128.71794872 , 4127.69230769 , 4128.71794872 , 4129.23076923 , 4128.20512821 , 4128.71794872 , 4134.87179487 , 4122.56410256 , 4056.92307692 , 4126.66666667 , 4125.12820513 , 2044.0 , 2033.0 , 231.17 , 0.0 , 0.0 , 0.0 , 0.0 , 

110.0 , 4130.25641026 , 4130.25641026 , 4131.28205128 , 4129.74358974 , 4129.74358974 , 4128.20512821 , 4129.23076923 , 4124.1025641 , 4126.15384615 , 4134.87179487 , 4126.15384615 , 4057.94871795 , 4130.25641026 , 4128.71794872 , 2043.0 , 2032.0 , 231.193 , 0.0 , 0.0 , 0.0 , 0.0 , 

111.0 , 4131.28205128 , 4128.71794872 , 4130.76923077 , 4130.76923077 , 4130.25641026 , 4126.66666667 , 4127.69230769 , 4122.56410256 , 4125.64102564 , 4134.87179487 , 4124.61538462 , 4056.41025641 , 4127.69230769 , 4130.76923077 , 2044.0 , 2032.0 , 231.2 , 0.0 , 0.0 , 0.0 , 0.0 , 

112.0 , 4129.23076923 , 4129.74358974 , 4131.28205128 , 4127.69230769 , 4128.71794872 , 4128.20512821 , 4126.15384615 , 4127.69230769 , 4125.64102564 , 4134.87179487 , 4121.53846154 , 4054.87179487 , 4126.15384615 , 4126.15384615 , 2041.0 , 2033.0 , 231.208 , 0.0 , 0.0 , 0.0 , 0.0 , 

113.0 , 4127.17948718 , 4130.25641026 , 4132.30769231 , 4129.74358974 , 4128.20512821 , 4128.71794872 , 4126.66666667 , 4128.71794872 , 4124.61538462 , 4134.87179487 , 4122.56410256 , 4056.92307692 , 4128.20512821 , 4123.58974359 , 2041.0 , 2035.0 , 231.217 , 0.0 , 0.0 , 0.0 , 0.0 , 

114.0 , 4123.58974359 , 4126.66666667 , 4128.71794872 , 4132.82051282 , 4128.71794872 , 4128.71794872 , 4127.69230769 , 4127.69230769 , 4125.12820513 , 4134.87179487 , 4123.58974359 , 4057.43589744 , 4130.76923077 , 4126.15384615 , 2042.0 , 2037.0 , 231.224 , 0.0 , 0.0 , 0.0 , 0.0 , 

115.0 , 4125.64102564 , 4127.17948718 , 4129.74358974 , 4130.25641026 , 4129.23076923 , 4128.71794872 , 4128.71794872 , 4130.25641026 , 4127.69230769 , 4134.87179487 , 4122.05128205 , 4056.41025641 , 4126.66666667 , 4128.20512821 , 2041.0 , 2036.0 , 231.232 , 0.0 , 0.0 , 0.0 , 0.0 , 

116.0 , 4129.74358974 , 4129.23076923 , 4131.28205128 , 4128.20512821 , 4129.23076923 , 4128.20512821 , 4129.23076923 , 4128.71794872 , 4130.25641026 , 4134.87179487 , 4123.07692308 , 4057.43589744 , 4127.17948718 , 4126.66666667 , 2041.0 , 2038.0 , 231.24 , 0.0 , 0.0 , 0.0 , 0.0 , 

117.0 , 4130.76923077 , 4128.20512821 , 4130.76923077 , 4129.74358974 , 4130.76923077 , 4129.23076923 , 4127.17948718 , 4126.66666667 , 4129.23076923 , 4134.87179487 , 4123.58974359 , 4057.94871795 , 4130.25641026 , 4125.64102564 , 2041.0 , 2039.0 , 231.245 , 0.0 , 0.0 , 0.0 , 0.0 , 

118.0 , 4126.15384615 , 4126.15384615 , 4129.23076923 , 4130.76923077 , 4128.71794872 , 4130.76923077 , 4127.17948718 , 4131.28205128 , 4127.69230769 , 4134.87179487 , 4122.56410256 , 4056.41025641 , 4130.25641026 , 4127.17948718 , 2042.0 , 2039.0 , 231.245 , 0.0 , 0.0 , 0.0 , 0.0 , 

119.0 , 4124.61538462 , 4127.17948718 , 4131.28205128 , 4130.76923077 , 4127.17948718 , 4129.74358974 , 4130.76923077 , 4133.33333333 , 4128.71794872 , 4134.87179487 , 4123.07692308 , 4055.8974359 , 4126.66666667 , 4127.17948718 , 2042.0 , 2037.0 , 231.261 , 0.0 , 0.0 , 0.0 , 0.0 , 

120.0 , 4128.20512821 , 4129.74358974 , 4131.28205128 , 4129.74358974 , 4128.71794872 , 4128.71794872 , 4128.20512821 , 4128.71794872 , 4129.74358974 , 4134.87179487 , 4121.53846154 , 4056.92307692 , 4128.71794872 , 4125.64102564 , 2044.0 , 2038.0 , 231.261 , 0.0 , 0.0 , 0.0 , 0.0 , 

121.0 , 4131.79487179 , 4130.25641026 , 4130.25641026 , 4129.74358974 , 4129.74358974 , 4128.20512821 , 4125.64102564 , 4127.17948718 , 4125.12820513 , 4134.87179487 , 4121.02564103 , 4057.94871795 , 4131.79487179 , 4125.64102564 , 2046.0 , 2037.0 , 231.276 , 0.0 , 0.0 , 0.0 , 0.0 , 

122.0 , 4128.20512821 , 4126.66666667 , 4130.76923077 , 4130.25641026 , 4126.66666667 , 4128.71794872 , 4127.69230769 , 4130.25641026 , 4124.1025641 , 4134.87179487 , 4123.58974359 , 4057.43589744 , 4129.23076923 , 4126.66666667 , 2045.0 , 2032.0 , 231.276 , 0.0 , 0.0 , 0.0 , 0.0 , 

123.0 , 4125.64102564 , 4126.15384615 , 4132.30769231 , 4129.23076923 , 4126.15384615 , 4129.23076923 , 4128.20512821 , 4131.79487179 , 4128.20512821 , 4134.87179487 , 4124.61538462 , 4057.94871795 , 4126.66666667 , 4127.17948718 , 2045.0 , 2032.0 , 231.292 , 0.0 , 0.0 , 0.0 , 0.0 , 

124.0 , 4129.74358974 , 4128.71794872 , 4131.28205128 , 4127.17948718 , 4129.23076923 , 4129.74358974 , 4128.20512821 , 4128.71794872 , 4129.23076923 , 4134.87179487 , 4123.07692308 , 4058.46153846 , 4128.20512821 , 4128.20512821 , 2045.0 , 2032.0 , 231.292 , 0.0 , 0.0 , 0.0 , 0.0 , 

125.0 , 4131.79487179 , 4129.74358974 , 4129.74358974 , 4129.74358974 , 4129.74358974 , 4129.74358974 , 4129.74358974 , 4128.20512821 , 4126.15384615 , 4134.87179487 , 4121.02564103 , 4055.38461538 , 4128.71794872 , 4127.69230769 , 2046.0 , 2033.0 , 231.307 , 0.0 , 0.0 , 0.0 , 0.0 , 

126.0 , 4130.76923077 , 4127.69230769 , 4131.28205128 , 4130.25641026 , 4129.74358974 , 4128.71794872 , 4130.76923077 , 4127.69230769 , 4125.12820513 , 4134.87179487 , 4123.07692308 , 4055.8974359 , 4126.66666667 , 4127.17948718 , 2044.0 , 2034.0 , 231.307 , 0.0 , 0.0 , 0.0 , 0.0 , 

127.0 , 4130.76923077 , 4126.15384615 , 4131.79487179 , 4127.17948718 , 4129.74358974 , 4128.20512821 , 4127.69230769 , 4124.61538462 , 4128.20512821 , 4134.87179487 , 4124.1025641 , 4058.97435897 , 4128.71794872 , 4126.66666667 , 2046.0 , 2033.0 , 231.326 , 0.0 , 0.0 , 0.0 , 0.0 , 

128.0 , 4131.28205128 , 4126.66666667 , 4131.28205128 , 4129.23076923 , 4128.71794872 , 4129.23076923 , 4126.15384615 , 4125.64102564 , 4128.20512821 , 4134.87179487 , 4122.56410256 , 4056.92307692 , 4129.23076923 , 4126.66666667 , 2046.0 , 2033.0 , 231.334 , 0.0 , 0.0 , 0.0 , 0.0 , 

0.0 , 4127.17948718 , 4128.20512821 , 4130.76923077 , 4130.76923077 , 4127.17948718 , 4128.20512821 , 4127.69230769 , 4130.25641026 , 4126.66666667 , 4134.87179487 , 4122.56410256 , 4054.87179487 , 4128.71794872 , 4126.15384615 , 2044.0 , 2033.0 , 231.342 , 0.0 , 0.0 , 0.0 , 0.0 , 

