['COUNTER', 'AF3', 'F7', 'F3', 'FC5', 'T7', 'P7', 'O1', 'O2', 'P8', 'T8', 'FC6', 'F4', 'F8', 'AF4', 'GYROX', 'GYROY', 'TIMESTAMP', 'FUNC_ID', 'FUNC_VALUE', 'MARKER', 'SYNC_SIGNAL']
29.0 , 4135.8974359 , 4130.25641026 , 4138.97435897 , 4132.82051282 , 4130.76923077 , 4126.66666667 , 4127.17948718 , 4134.35897436 , 4134.87179487 , 4137.94871795 , 4193.84615385 , 4913.84615385 , 4133.33333333 , 4142.56410256 , 2044.0 , 2040.0 , 169.732 , 0.0 , 0.0 , 0.0 , 0.0 , 

30.0 , 4133.33333333 , 4132.82051282 , 4133.84615385 , 4132.30769231 , 4130.76923077 , 4124.61538462 , 4124.61538462 , 4137.94871795 , 4133.84615385 , 4139.48717949 , 4193.84615385 , 4911.79487179 , 4134.87179487 , 4138.97435897 , 2042.0 , 2041.0 , 169.741 , 0.0 , 0.0 , 0.0 , 0.0 , 

31.0 , 4132.30769231 , 4130.76923077 , 4134.87179487 , 4132.30769231 , 4130.25641026 , 4127.69230769 , 4123.58974359 , 4138.46153846 , 4135.38461538 , 4139.48717949 , 4194.35897436 , 4912.82051282 , 4136.41025641 , 4143.58974359 , 2042.0 , 2039.0 , 169.752 , 0.0 , 0.0 , 0.0 , 0.0 , 

32.0 , 4131.79487179 , 4127.69230769 , 4137.94871795 , 4134.35897436 , 4131.79487179 , 4133.84615385 , 4126.66666667 , 4136.92307692 , 4136.92307692 , 4137.94871795 , 4193.84615385 , 4916.92307692 , 4136.92307692 , 4146.15384615 , 2042.0 , 2040.0 , 169.756 , 0.0 , 0.0 , 0.0 , 0.0 , 

33.0 , 4132.30769231 , 4128.71794872 , 4136.41025641 , 4134.35897436 , 4131.79487179 , 4132.82051282 , 4126.15384615 , 4136.41025641 , 4137.43589744 , 4136.41025641 , 4193.33333333 , 4917.94871795 , 4138.46153846 , 4145.12820513 , 2043.0 , 2041.0 , 169.763 , 0.0 , 0.0 , 0.0 , 0.0 , 

34.0 , 4132.82051282 , 4129.74358974 , 4133.84615385 , 4134.35897436 , 4131.28205128 , 4129.74358974 , 4126.15384615 , 4134.87179487 , 4136.41025641 , 4137.43589744 , 4194.35897436 , 4914.35897436 , 4137.43589744 , 4144.61538462 , 2043.0 , 2039.0 , 169.772 , 0.0 , 0.0 , 0.0 , 0.0 , 

35.0 , 4130.76923077 , 4130.25641026 , 4135.8974359 , 4136.41025641 , 4131.79487179 , 4130.25641026 , 4127.69230769 , 4134.35897436 , 4137.43589744 , 4139.48717949 , 4194.35897436 , 4913.33333333 , 4136.41025641 , 4144.61538462 , 2042.0 , 2038.0 , 169.784 , 0.0 , 0.0 , 0.0 , 0.0 , 

36.0 , 4130.25641026 , 4130.76923077 , 4138.46153846 , 4134.87179487 , 4132.30769231 , 4129.74358974 , 4127.17948718 , 4134.87179487 , 4136.41025641 , 4138.97435897 , 4193.33333333 , 4914.87179487 , 4135.38461538 , 4142.56410256 , 2043.0 , 2038.0 , 169.786 , 0.0 , 0.0 , 0.0 , 0.0 , 

37.0 , 4132.82051282 , 4129.23076923 , 4136.41025641 , 4132.82051282 , 4133.33333333 , 4127.17948718 , 4125.12820513 , 4134.87179487 , 4134.87179487 , 4138.46153846 , 4192.82051282 , 4912.30769231 , 4133.84615385 , 4137.94871795 , 2042.0 , 2038.0 , 169.796 , 0.0 , 0.0 , 0.0 , 0.0 , 

38.0 , 4135.38461538 , 4128.20512821 , 4137.94871795 , 4134.35897436 , 4133.84615385 , 4123.58974359 , 4123.58974359 , 4134.87179487 , 4134.35897436 , 4138.97435897 , 4191.79487179 , 4911.28205128 , 4132.30769231 , 4140.51282051 , 2042.0 , 2037.0 , 169.803 , 0.0 , 0.0 , 0.0 , 0.0 , 

39.0 , 4134.35897436 , 4129.23076923 , 4140.51282051 , 4136.41025641 , 4132.30769231 , 4126.66666667 , 4126.15384615 , 4137.94871795 , 4135.38461538 , 4138.97435897 , 4192.82051282 , 4911.28205128 , 4134.35897436 , 4138.97435897 , 2043.0 , 2036.0 , 169.815 , 0.0 , 0.0 , 0.0 , 0.0 , 

40.0 , 4136.41025641 , 4127.17948718 , 4140.0 , 4132.82051282 , 4131.28205128 , 4129.74358974 , 4129.23076923 , 4137.94871795 , 4136.41025641 , 4138.97435897 , 4194.87179487 , 4912.82051282 , 4135.38461538 , 4137.94871795 , 2042.0 , 2036.0 , 169.818 , 0.0 , 0.0 , 0.0 , 0.0 , 

41.0 , 4136.92307692 , 4127.17948718 , 4136.41025641 , 4130.76923077 , 4132.30769231 , 4129.23076923 , 4130.25641026 , 4135.8974359 , 4136.41025641 , 4139.48717949 , 4193.33333333 , 4911.28205128 , 4135.38461538 , 4138.46153846 , 2043.0 , 2036.0 , 169.827 , 0.0 , 0.0 , 0.0 , 0.0 , 

42.0 , 4134.35897436 , 4129.74358974 , 4137.94871795 , 4131.79487179 , 4131.79487179 , 4127.69230769 , 4126.66666667 , 4135.8974359 , 4134.87179487 , 4137.94871795 , 4190.25641026 , 4913.84615385 , 4134.87179487 , 4146.15384615 , 2042.0 , 2036.0 , 169.834 , 0.0 , 0.0 , 0.0 , 0.0 , 

43.0 , 4132.30769231 , 4130.25641026 , 4138.46153846 , 4134.87179487 , 4131.28205128 , 4132.82051282 , 4127.69230769 , 4139.48717949 , 4136.41025641 , 4136.92307692 , 4191.79487179 , 4913.84615385 , 4135.38461538 , 4143.58974359 , 2044.0 , 2036.0 , 169.847 , 0.0 , 0.0 , 0.0 , 0.0 , 

44.0 , 4136.92307692 , 4130.25641026 , 4137.43589744 , 4134.35897436 , 4130.76923077 , 4134.87179487 , 4129.74358974 , 4137.94871795 , 4136.41025641 , 4138.97435897 , 4194.87179487 , 4914.87179487 , 4136.41025641 , 4143.58974359 , 2043.0 , 2037.0 , 169.85 , 0.0 , 0.0 , 0.0 , 0.0 , 

45.0 , 4136.92307692 , 4130.25641026 , 4136.92307692 , 4132.82051282 , 4131.79487179 , 4133.84615385 , 4129.23076923 , 4132.30769231 , 4133.84615385 , 4137.94871795 , 4192.82051282 , 4913.84615385 , 4136.92307692 , 4142.05128205 , 2043.0 , 2037.0 , 169.858 , 0.0 , 0.0 , 0.0 , 0.0 , 

46.0 , 4134.35897436 , 4128.71794872 , 4138.97435897 , 4131.79487179 , 4131.79487179 , 4130.25641026 , 4128.20512821 , 4131.79487179 , 4133.84615385 , 4135.8974359 , 4192.30769231 , 4914.87179487 , 4135.8974359 , 4144.61538462 , 2044.0 , 2039.0 , 169.866 , 0.0 , 0.0 , 0.0 , 0.0 , 

47.0 , 4134.35897436 , 4130.25641026 , 4138.97435897 , 4133.84615385 , 4132.30769231 , 4129.23076923 , 4130.76923077 , 4135.38461538 , 4135.8974359 , 4136.92307692 , 4195.38461538 , 4914.87179487 , 4134.35897436 , 4144.1025641 , 2043.0 , 2038.0 , 169.879 , 0.0 , 0.0 , 0.0 , 0.0 , 

48.0 , 4136.92307692 , 4132.30769231 , 4137.43589744 , 4133.33333333 , 4131.79487179 , 4129.74358974 , 4129.74358974 , 4133.33333333 , 4133.84615385 , 4138.46153846 , 4194.35897436 , 4915.38461538 , 4135.38461538 , 4144.1025641 , 2042.0 , 2039.0 , 169.881 , 0.0 , 0.0 , 0.0 , 0.0 , 

49.0 , 4132.82051282 , 4132.30769231 , 4133.84615385 , 4134.35897436 , 4129.74358974 , 4128.20512821 , 4126.15384615 , 4134.87179487 , 4133.33333333 , 4137.94871795 , 4191.79487179 , 4911.79487179 , 4136.41025641 , 4140.0 , 2044.0 , 2038.0 , 169.89 , 0.0 , 0.0 , 0.0 , 0.0 , 

50.0 , 4131.79487179 , 4132.30769231 , 4133.84615385 , 4135.8974359 , 4129.74358974 , 4126.15384615 , 4124.61538462 , 4138.97435897 , 4134.87179487 , 4137.43589744 , 4193.33333333 , 4910.25641026 , 4135.38461538 , 4140.51282051 , 2042.0 , 2039.0 , 169.896 , 0.0 , 0.0 , 0.0 , 0.0 , 

51.0 , 4134.35897436 , 4133.84615385 , 4135.38461538 , 4137.43589744 , 4132.30769231 , 4129.74358974 , 4128.71794872 , 4135.38461538 , 4135.8974359 , 4136.41025641 , 4192.82051282 , 4911.79487179 , 4134.35897436 , 4140.51282051 , 2041.0 , 2040.0 , 169.909 , 0.0 , 0.0 , 0.0 , 0.0 , 

52.0 , 4133.84615385 , 4133.33333333 , 4136.92307692 , 4136.41025641 , 4132.30769231 , 4131.79487179 , 4126.66666667 , 4131.79487179 , 4134.87179487 , 4136.92307692 , 4191.28205128 , 4912.82051282 , 4135.8974359 , 4140.51282051 , 2042.0 , 2039.0 , 169.912 , 0.0 , 0.0 , 0.0 , 0.0 , 

53.0 , 4133.33333333 , 4130.76923077 , 4136.92307692 , 4134.35897436 , 4129.74358974 , 4128.71794872 , 4122.05128205 , 4132.30769231 , 4134.87179487 , 4137.94871795 , 4193.33333333 , 4912.30769231 , 4135.38461538 , 4143.07692308 , 2043.0 , 2039.0 , 169.922 , 0.0 , 0.0 , 0.0 , 0.0 , 

54.0 , 4133.84615385 , 4131.28205128 , 4137.43589744 , 4133.33333333 , 4130.25641026 , 4129.74358974 , 4125.12820513 , 4132.30769231 , 4135.38461538 , 4138.46153846 , 4195.38461538 , 4911.79487179 , 4134.87179487 , 4143.07692308 , 2045.0 , 2039.0 , 169.929 , 0.0 , 0.0 , 0.0 , 0.0 , 

55.0 , 4134.87179487 , 4132.30769231 , 4137.43589744 , 4131.79487179 , 4130.76923077 , 4130.25641026 , 4128.20512821 , 4132.82051282 , 4135.38461538 , 4138.97435897 , 4192.82051282 , 4911.79487179 , 4136.41025641 , 4144.1025641 , 2041.0 , 2038.0 , 169.941 , 0.0 , 0.0 , 0.0 , 0.0 , 

56.0 , 4133.33333333 , 4133.84615385 , 4135.8974359 , 4132.30769231 , 4132.30769231 , 4127.17948718 , 4126.66666667 , 4134.87179487 , 4135.8974359 , 4138.46153846 , 4191.79487179 , 4911.79487179 , 4138.46153846 , 4142.56410256 , 2043.0 , 2037.0 , 169.944 , 0.0 , 0.0 , 0.0 , 0.0 , 

57.0 , 4132.82051282 , 4133.84615385 , 4138.46153846 , 4131.28205128 , 4134.35897436 , 4126.66666667 , 4127.69230769 , 4135.8974359 , 4136.92307692 , 4138.46153846 , 4193.84615385 , 4915.38461538 , 4137.43589744 , 4143.58974359 , 2044.0 , 2037.0 , 169.954 , 0.0 , 0.0 , 0.0 , 0.0 , 

58.0 , 4132.30769231 , 4132.30769231 , 4138.97435897 , 4131.28205128 , 4133.84615385 , 4130.25641026 , 4131.79487179 , 4138.97435897 , 4138.46153846 , 4138.97435897 , 4192.30769231 , 4914.87179487 , 4136.92307692 , 4143.07692308 , 2043.0 , 2038.0 , 169.961 , 0.0 , 0.0 , 0.0 , 0.0 , 

59.0 , 4135.8974359 , 4130.76923077 , 4138.97435897 , 4131.79487179 , 4130.76923077 , 4131.79487179 , 4130.25641026 , 4138.46153846 , 4134.87179487 , 4138.46153846 , 4191.79487179 , 4913.84615385 , 4135.8974359 , 4146.15384615 , 2043.0 , 2038.0 , 170.044 , 0.0 , 0.0 , 0.0 , 0.0 , 

60.0 , 4136.92307692 , 4131.79487179 , 4138.46153846 , 4135.38461538 , 4130.25641026 , 4130.25641026 , 4131.79487179 , 4135.38461538 , 4134.87179487 , 4138.46153846 , 4194.35897436 , 4910.76923077 , 4135.38461538 , 4142.05128205 , 2041.0 , 2037.0 , 170.047 , 0.0 , 0.0 , 0.0 , 0.0 , 

61.0 , 4137.94871795 , 4131.79487179 , 4137.43589744 , 4133.84615385 , 4129.74358974 , 4128.20512821 , 4130.25641026 , 4134.87179487 , 4136.41025641 , 4139.48717949 , 4194.87179487 , 4911.28205128 , 4135.38461538 , 4141.02564103 , 2042.0 , 2038.0 , 170.047 , 0.0 , 0.0 , 0.0 , 0.0 , 

62.0 , 4135.8974359 , 4132.82051282 , 4135.8974359 , 4132.82051282 , 4129.74358974 , 4133.33333333 , 4127.17948718 , 4139.48717949 , 4135.8974359 , 4138.97435897 , 4191.79487179 , 4913.84615385 , 4134.87179487 , 4135.38461538 , 2044.0 , 2037.0 , 170.047 , 0.0 , 0.0 , 0.0 , 0.0 , 

63.0 , 4135.8974359 , 4133.33333333 , 4136.92307692 , 4134.87179487 , 4130.25641026 , 4133.33333333 , 4127.17948718 , 4136.41025641 , 4134.35897436 , 4139.48717949 , 4192.82051282 , 4916.41025641 , 4133.84615385 , 4136.92307692 , 2045.0 , 2036.0 , 170.047 , 0.0 , 0.0 , 0.0 , 0.0 , 

64.0 , 4134.87179487 , 4132.82051282 , 4134.87179487 , 4136.41025641 , 4129.74358974 , 4129.23076923 , 4130.25641026 , 4132.82051282 , 4135.8974359 , 4140.51282051 , 4193.33333333 , 4912.30769231 , 4135.38461538 , 4139.48717949 , 2045.0 , 2034.0 , 170.047 , 0.0 , 0.0 , 0.0 , 0.0 , 

65.0 , 4136.41025641 , 4131.28205128 , 4133.33333333 , 4134.35897436 , 4129.23076923 , 4128.20512821 , 4129.74358974 , 4132.30769231 , 4137.43589744 , 4136.92307692 , 4192.30769231 , 4911.28205128 , 4136.92307692 , 4143.58974359 , 2046.0 , 2033.0 , 170.047 , 0.0 , 0.0 , 0.0 , 0.0 , 

66.0 , 4135.8974359 , 4130.76923077 , 4137.43589744 , 4134.35897436 , 4131.79487179 , 4131.79487179 , 4129.23076923 , 4133.33333333 , 4137.43589744 , 4135.38461538 , 4192.82051282 , 4911.79487179 , 4134.87179487 , 4141.53846154 , 2046.0 , 2032.0 , 170.047 , 0.0 , 0.0 , 0.0 , 0.0 , 

67.0 , 4137.43589744 , 4132.30769231 , 4138.46153846 , 4133.33333333 , 4132.30769231 , 4129.74358974 , 4128.71794872 , 4133.84615385 , 4135.8974359 , 4140.0 , 4194.35897436 , 4912.30769231 , 4135.38461538 , 4144.61538462 , 2046.0 , 2033.0 , 170.047 , 0.0 , 0.0 , 0.0 , 0.0 , 

68.0 , 4136.41025641 , 4131.79487179 , 4136.41025641 , 4131.28205128 , 4130.76923077 , 4129.74358974 , 4129.74358974 , 4134.35897436 , 4135.38461538 , 4140.51282051 , 4193.33333333 , 4911.79487179 , 4137.43589744 , 4145.64102564 , 2045.0 , 2033.0 , 170.047 , 0.0 , 0.0 , 0.0 , 0.0 , 

69.0 , 4134.35897436 , 4129.23076923 , 4138.46153846 , 4131.28205128 , 4130.25641026 , 4130.25641026 , 4127.69230769 , 4134.35897436 , 4137.43589744 , 4136.92307692 , 4193.33333333 , 4912.82051282 , 4137.94871795 , 4145.64102564 , 2044.0 , 2034.0 , 170.047 , 0.0 , 0.0 , 0.0 , 0.0 , 

70.0 , 4133.84615385 , 4129.23076923 , 4137.94871795 , 4132.82051282 , 4131.79487179 , 4127.17948718 , 4125.64102564 , 4132.82051282 , 4137.94871795 , 4138.97435897 , 4194.35897436 , 4912.30769231 , 4134.35897436 , 4145.64102564 , 2046.0 , 2034.0 , 170.059 , 0.0 , 0.0 , 0.0 , 0.0 , 

71.0 , 4133.33333333 , 4129.74358974 , 4135.8974359 , 4133.33333333 , 4132.82051282 , 4127.17948718 , 4127.17948718 , 4133.33333333 , 4133.84615385 , 4140.51282051 , 4193.84615385 , 4911.79487179 , 4134.87179487 , 4143.58974359 , 2043.0 , 2036.0 , 170.063 , 0.0 , 0.0 , 0.0 , 0.0 , 

72.0 , 4132.82051282 , 4128.71794872 , 4134.35897436 , 4134.35897436 , 4133.84615385 , 4131.28205128 , 4128.20512821 , 4134.35897436 , 4133.33333333 , 4137.43589744 , 4193.33333333 , 4913.33333333 , 4136.41025641 , 4143.07692308 , 2044.0 , 2037.0 , 170.072 , 0.0 , 0.0 , 0.0 , 0.0 , 

73.0 , 4132.82051282 , 4130.76923077 , 4133.33333333 , 4135.38461538 , 4131.79487179 , 4131.79487179 , 4126.66666667 , 4133.84615385 , 4137.43589744 , 4137.94871795 , 4194.87179487 , 4914.35897436 , 4135.8974359 , 4143.07692308 , 2043.0 , 2036.0 , 170.079 , 0.0 , 0.0 , 0.0 , 0.0 , 

74.0 , 4133.84615385 , 4132.30769231 , 4134.35897436 , 4133.84615385 , 4129.23076923 , 4128.71794872 , 4126.15384615 , 4132.30769231 , 4136.41025641 , 4140.0 , 4194.87179487 , 4913.84615385 , 4133.33333333 , 4142.05128205 , 2042.0 , 2037.0 , 170.091 , 0.0 , 0.0 , 0.0 , 0.0 , 

75.0 , 4133.84615385 , 4131.28205128 , 4134.87179487 , 4133.84615385 , 4130.76923077 , 4128.20512821 , 4126.66666667 , 4133.84615385 , 4133.33333333 , 4138.97435897 , 4193.33333333 , 4910.76923077 , 4133.84615385 , 4141.02564103 , 2041.0 , 2036.0 , 170.094 , 0.0 , 0.0 , 0.0 , 0.0 , 

76.0 , 4136.41025641 , 4129.23076923 , 4134.35897436 , 4133.84615385 , 4132.30769231 , 4129.74358974 , 4123.58974359 , 4133.84615385 , 4133.84615385 , 4140.0 , 4193.33333333 , 4910.76923077 , 4133.33333333 , 4144.1025641 , 2041.0 , 2037.0 , 170.103 , 0.0 , 0.0 , 0.0 , 0.0 , 

77.0 , 4132.82051282 , 4128.71794872 , 4132.82051282 , 4133.84615385 , 4131.79487179 , 4132.30769231 , 4126.15384615 , 4132.82051282 , 4136.92307692 , 4141.02564103 , 4192.82051282 , 4911.79487179 , 4131.79487179 , 4139.48717949 , 2042.0 , 2037.0 , 170.109 , 0.0 , 0.0 , 0.0 , 0.0 , 

78.0 , 4131.79487179 , 4127.17948718 , 4137.43589744 , 4132.30769231 , 4130.76923077 , 4131.28205128 , 4129.23076923 , 4131.79487179 , 4135.8974359 , 4139.48717949 , 4193.33333333 , 4911.28205128 , 4132.30769231 , 4141.02564103 , 2043.0 , 2036.0 , 170.123 , 0.0 , 0.0 , 0.0 , 0.0 , 

79.0 , 4134.35897436 , 4132.30769231 , 4140.51282051 , 4133.33333333 , 4131.79487179 , 4130.76923077 , 4130.25641026 , 4132.82051282 , 4134.87179487 , 4138.46153846 , 4195.8974359 , 4907.17948718 , 4136.41025641 , 4141.02564103 , 2042.0 , 2034.0 , 170.126 , 0.0 , 0.0 , 0.0 , 0.0 , 

80.0 , 4137.43589744 , 4134.87179487 , 4138.97435897 , 4132.82051282 , 4131.28205128 , 4130.76923077 , 4130.25641026 , 4132.82051282 , 4134.35897436 , 4138.46153846 , 4195.38461538 , 4910.25641026 , 4137.43589744 , 4141.53846154 , 2042.0 , 2037.0 , 170.135 , 0.0 , 0.0 , 0.0 , 0.0 , 

81.0 , 4134.35897436 , 4134.87179487 , 4134.35897436 , 4131.79487179 , 4132.30769231 , 4133.84615385 , 4133.33333333 , 4133.84615385 , 4134.87179487 , 4137.43589744 , 4192.30769231 , 4911.28205128 , 4135.8974359 , 4142.05128205 , 2041.0 , 2038.0 , 170.142 , 0.0 , 0.0 , 0.0 , 0.0 , 

82.0 , 4135.8974359 , 4136.41025641 , 4133.84615385 , 4132.30769231 , 4133.33333333 , 4134.35897436 , 4131.79487179 , 4133.84615385 , 4133.84615385 , 4137.43589744 , 4192.82051282 , 4911.79487179 , 4135.8974359 , 4150.25641026 , 2042.0 , 2038.0 , 170.154 , 0.0 , 0.0 , 0.0 , 0.0 , 

83.0 , 4137.94871795 , 4134.87179487 , 4135.8974359 , 4135.38461538 , 4131.79487179 , 4134.35897436 , 4131.28205128 , 4133.84615385 , 4133.33333333 , 4137.94871795 , 4193.84615385 , 4913.33333333 , 4137.43589744 , 4145.64102564 , 2043.0 , 2037.0 , 170.157 , 0.0 , 0.0 , 0.0 , 0.0 , 

84.0 , 4137.43589744 , 4129.74358974 , 4136.92307692 , 4136.92307692 , 4128.71794872 , 4131.79487179 , 4129.74358974 , 4133.84615385 , 4133.33333333 , 4137.43589744 , 4193.84615385 , 4915.38461538 , 4134.87179487 , 4140.51282051 , 2041.0 , 2038.0 , 170.165 , 0.0 , 0.0 , 0.0 , 0.0 , 

85.0 , 4135.38461538 , 4131.28205128 , 4136.92307692 , 4135.8974359 , 4130.76923077 , 4132.82051282 , 4127.17948718 , 4132.30769231 , 4134.35897436 , 4137.43589744 , 4192.82051282 , 4910.76923077 , 4131.79487179 , 4138.97435897 , 2043.0 , 2036.0 , 170.174 , 0.0 , 0.0 , 0.0 , 0.0 , 

86.0 , 4136.41025641 , 4134.87179487 , 4137.94871795 , 4130.76923077 , 4131.79487179 , 4132.30769231 , 4127.17948718 , 4128.20512821 , 4133.33333333 , 4138.46153846 , 4192.30769231 , 4909.23076923 , 4131.79487179 , 4142.05128205 , 2043.0 , 2037.0 , 170.185 , 0.0 , 0.0 , 0.0 , 0.0 , 

87.0 , 4136.92307692 , 4133.84615385 , 4137.43589744 , 4132.30769231 , 4129.74358974 , 4131.28205128 , 4129.74358974 , 4127.17948718 , 4133.33333333 , 4138.46153846 , 4191.28205128 , 4911.28205128 , 4131.28205128 , 4139.48717949 , 2042.0 , 2037.0 , 170.189 , 0.0 , 0.0 , 0.0 , 0.0 , 

88.0 , 4137.43589744 , 4132.82051282 , 4136.41025641 , 4136.41025641 , 4129.74358974 , 4132.30769231 , 4129.74358974 , 4131.28205128 , 4135.38461538 , 4138.46153846 , 4192.30769231 , 4912.82051282 , 4132.82051282 , 4137.94871795 , 2042.0 , 2035.0 , 170.198 , 0.0 , 0.0 , 0.0 , 0.0 , 

89.0 , 4137.43589744 , 4132.82051282 , 4139.48717949 , 4134.35897436 , 4130.76923077 , 4131.79487179 , 4130.25641026 , 4133.84615385 , 4135.8974359 , 4140.0 , 4192.82051282 , 4911.79487179 , 4134.35897436 , 4140.51282051 , 2044.0 , 2037.0 , 170.205 , 0.0 , 0.0 , 0.0 , 0.0 , 

90.0 , 4137.94871795 , 4132.82051282 , 4140.51282051 , 4131.28205128 , 4131.28205128 , 4130.25641026 , 4131.28205128 , 4131.79487179 , 4135.38461538 , 4140.0 , 4192.82051282 , 4912.30769231 , 4134.87179487 , 4141.53846154 , 2044.0 , 2037.0 , 170.217 , 0.0 , 0.0 , 0.0 , 0.0 , 

91.0 , 4138.46153846 , 4133.33333333 , 4135.38461538 , 4134.87179487 , 4132.82051282 , 4130.25641026 , 4130.76923077 , 4129.74358974 , 4135.38461538 , 4138.97435897 , 4192.30769231 , 4912.82051282 , 4135.38461538 , 4140.51282051 , 2044.0 , 2037.0 , 170.22 , 0.0 , 0.0 , 0.0 , 0.0 , 

92.0 , 4138.97435897 , 4133.84615385 , 4133.84615385 , 4138.97435897 , 4132.30769231 , 4130.76923077 , 4130.76923077 , 4133.33333333 , 4135.38461538 , 4138.97435897 , 4192.82051282 , 4912.30769231 , 4137.43589744 , 4141.02564103 , 2044.0 , 2039.0 , 170.229 , 0.0 , 0.0 , 0.0 , 0.0 , 

93.0 , 4140.0 , 4134.35897436 , 4138.97435897 , 4135.38461538 , 4130.25641026 , 4129.23076923 , 4131.28205128 , 4134.87179487 , 4133.33333333 , 4139.48717949 , 4192.30769231 , 4914.35897436 , 4134.35897436 , 4145.64102564 , 2043.0 , 2037.0 , 170.237 , 0.0 , 0.0 , 0.0 , 0.0 , 

94.0 , 4137.94871795 , 4134.35897436 , 4139.48717949 , 4131.28205128 , 4133.84615385 , 4129.74358974 , 4130.76923077 , 4134.35897436 , 4134.87179487 , 4138.97435897 , 4190.76923077 , 4912.30769231 , 4133.84615385 , 4141.53846154 , 2044.0 , 2037.0 , 170.248 , 0.0 , 0.0 , 0.0 , 0.0 , 

95.0 , 4137.43589744 , 4132.30769231 , 4136.41025641 , 4130.76923077 , 4134.35897436 , 4129.23076923 , 4129.23076923 , 4132.30769231 , 4134.87179487 , 4140.0 , 4192.82051282 , 4910.76923077 , 4135.38461538 , 4141.02564103 , 2044.0 , 2037.0 , 170.252 , 0.0 , 0.0 , 0.0 , 0.0 , 

96.0 , 4132.82051282 , 4130.76923077 , 4134.87179487 , 4135.8974359 , 4130.76923077 , 4128.71794872 , 4129.23076923 , 4133.33333333 , 4132.82051282 , 4139.48717949 , 4194.35897436 , 4911.79487179 , 4135.38461538 , 4142.05128205 , 2045.0 , 2037.0 , 170.261 , 0.0 , 0.0 , 0.0 , 0.0 , 

97.0 , 4132.30769231 , 4130.25641026 , 4134.87179487 , 4137.94871795 , 4129.23076923 , 4129.74358974 , 4127.69230769 , 4132.82051282 , 4132.82051282 , 4138.97435897 , 4192.82051282 , 4914.35897436 , 4133.84615385 , 4143.07692308 , 2045.0 , 2036.0 , 170.268 , 0.0 , 0.0 , 0.0 , 0.0 , 

98.0 , 4132.82051282 , 4130.25641026 , 4133.84615385 , 4136.41025641 , 4130.76923077 , 4132.30769231 , 4126.66666667 , 4131.79487179 , 4135.8974359 , 4138.97435897 , 4191.79487179 , 4911.79487179 , 4133.84615385 , 4136.92307692 , 2046.0 , 2035.0 , 170.28 , 0.0 , 0.0 , 0.0 , 0.0 , 

99.0 , 4135.38461538 , 4131.28205128 , 4135.38461538 , 4132.82051282 , 4129.23076923 , 4130.76923077 , 4126.15384615 , 4131.28205128 , 4134.87179487 , 4139.48717949 , 4194.87179487 , 4913.84615385 , 4134.35897436 , 4141.02564103 , 2046.0 , 2036.0 , 170.284 , 0.0 , 0.0 , 0.0 , 0.0 , 

100.0 , 4134.35897436 , 4132.30769231 , 4137.43589744 , 4134.35897436 , 4129.74358974 , 4129.74358974 , 4129.74358974 , 4133.33333333 , 4131.28205128 , 4139.48717949 , 4193.84615385 , 4914.35897436 , 4137.43589744 , 4140.51282051 , 2045.0 , 2036.0 , 170.292 , 0.0 , 0.0 , 0.0 , 0.0 , 

101.0 , 4133.33333333 , 4131.79487179 , 4137.94871795 , 4135.38461538 , 4132.30769231 , 4128.71794872 , 4128.20512821 , 4135.38461538 , 4132.82051282 , 4136.92307692 , 4191.79487179 , 4913.33333333 , 4136.92307692 , 4140.51282051 , 2046.0 , 2035.0 , 170.299 , 0.0 , 0.0 , 0.0 , 0.0 , 

102.0 , 4131.79487179 , 4132.30769231 , 4133.84615385 , 4134.87179487 , 4133.33333333 , 4128.71794872 , 4126.66666667 , 4137.43589744 , 4135.8974359 , 4136.41025641 , 4190.76923077 , 4912.82051282 , 4133.33333333 , 4136.41025641 , 2045.0 , 2036.0 , 170.311 , 0.0 , 0.0 , 0.0 , 0.0 , 

103.0 , 4134.35897436 , 4131.79487179 , 4131.79487179 , 4133.84615385 , 4131.28205128 , 4126.66666667 , 4127.17948718 , 4137.43589744 , 4134.35897436 , 4140.0 , 4190.76923077 , 4914.87179487 , 4133.84615385 , 4138.97435897 , 2045.0 , 2036.0 , 170.315 , 0.0 , 0.0 , 0.0 , 0.0 , 

104.0 , 4134.87179487 , 4130.76923077 , 4136.41025641 , 4134.87179487 , 4131.28205128 , 4128.71794872 , 4127.17948718 , 4135.8974359 , 4134.87179487 , 4140.0 , 4191.79487179 , 4910.25641026 , 4136.41025641 , 4142.56410256 , 2046.0 , 2036.0 , 170.323 , 0.0 , 0.0 , 0.0 , 0.0 , 

105.0 , 4133.33333333 , 4131.79487179 , 4139.48717949 , 4135.38461538 , 4131.79487179 , 4130.25641026 , 4123.07692308 , 4132.82051282 , 4135.8974359 , 4137.43589744 , 4193.84615385 , 4909.74358974 , 4136.92307692 , 4145.12820513 , 2044.0 , 2037.0 , 170.331 , 0.0 , 0.0 , 0.0 , 0.0 , 

106.0 , 4132.82051282 , 4131.79487179 , 4134.87179487 , 4134.35897436 , 4131.79487179 , 4127.17948718 , 4126.15384615 , 4133.84615385 , 4133.84615385 , 4137.43589744 , 4193.84615385 , 4912.30769231 , 4135.8974359 , 4142.56410256 , 2045.0 , 2037.0 , 170.344 , 0.0 , 0.0 , 0.0 , 0.0 , 

107.0 , 4133.84615385 , 4128.20512821 , 4131.79487179 , 4133.84615385 , 4132.82051282 , 4125.12820513 , 4129.23076923 , 4134.35897436 , 4134.35897436 , 4137.94871795 , 4192.82051282 , 4912.30769231 , 4135.8974359 , 4143.07692308 , 2044.0 , 2038.0 , 170.347 , 0.0 , 0.0 , 0.0 , 0.0 , 

108.0 , 4133.84615385 , 4128.20512821 , 4134.35897436 , 4135.38461538 , 4134.35897436 , 4128.71794872 , 4125.64102564 , 4134.87179487 , 4137.43589744 , 4137.43589744 , 4192.30769231 , 4911.79487179 , 4133.33333333 , 4143.58974359 , 2043.0 , 2037.0 , 170.356 , 0.0 , 0.0 , 0.0 , 0.0 , 

109.0 , 4134.87179487 , 4132.30769231 , 4136.41025641 , 4136.92307692 , 4132.30769231 , 4130.25641026 , 4125.12820513 , 4136.92307692 , 4137.43589744 , 4138.46153846 , 4192.82051282 , 4914.35897436 , 4133.84615385 , 4143.07692308 , 2043.0 , 2035.0 , 170.362 , 0.0 , 0.0 , 0.0 , 0.0 , 

110.0 , 4136.41025641 , 4132.82051282 , 4135.38461538 , 4134.87179487 , 4130.25641026 , 4126.15384615 , 4127.17948718 , 4136.92307692 , 4133.33333333 , 4138.46153846 , 4193.84615385 , 4916.92307692 , 4134.87179487 , 4146.66666667 , 2041.0 , 2037.0 , 170.374 , 0.0 , 0.0 , 0.0 , 0.0 , 

111.0 , 4136.41025641 , 4131.79487179 , 4132.82051282 , 4133.84615385 , 4131.28205128 , 4124.61538462 , 4127.17948718 , 4135.38461538 , 4135.38461538 , 4136.92307692 , 4193.33333333 , 4913.33333333 , 4135.38461538 , 4142.56410256 , 2042.0 , 2036.0 , 170.378 , 0.0 , 0.0 , 0.0 , 0.0 , 

112.0 , 4136.41025641 , 4130.76923077 , 4134.87179487 , 4135.38461538 , 4131.79487179 , 4126.15384615 , 4127.17948718 , 4134.87179487 , 4139.48717949 , 4137.94871795 , 4192.82051282 , 4912.82051282 , 4135.38461538 , 4137.94871795 , 2042.0 , 2036.0 , 170.387 , 0.0 , 0.0 , 0.0 , 0.0 , 

113.0 , 4133.33333333 , 4130.76923077 , 4137.43589744 , 4135.8974359 , 4130.76923077 , 4128.20512821 , 4131.28205128 , 4136.92307692 , 4136.92307692 , 4140.0 , 4191.79487179 , 4914.35897436 , 4137.94871795 , 4136.41025641 , 2042.0 , 2036.0 , 170.394 , 0.0 , 0.0 , 0.0 , 0.0 , 

114.0 , 4132.30769231 , 4130.25641026 , 4138.46153846 , 4133.84615385 , 4130.25641026 , 4127.17948718 , 4130.76923077 , 4134.35897436 , 4131.28205128 , 4139.48717949 , 4191.79487179 , 4915.38461538 , 4138.46153846 , 4140.0 , 2042.0 , 2035.0 , 170.405 , 0.0 , 0.0 , 0.0 , 0.0 , 

115.0 , 4129.23076923 , 4131.28205128 , 4137.43589744 , 4135.38461538 , 4131.28205128 , 4128.20512821 , 4128.20512821 , 4133.33333333 , 4132.82051282 , 4137.94871795 , 4192.82051282 , 4911.79487179 , 4135.8974359 , 4137.43589744 , 2042.0 , 2037.0 , 170.408 , 0.0 , 0.0 , 0.0 , 0.0 , 

116.0 , 4131.28205128 , 4131.79487179 , 4138.97435897 , 4133.84615385 , 4130.76923077 , 4131.28205128 , 4125.64102564 , 4134.87179487 , 4135.8974359 , 4138.46153846 , 4194.35897436 , 4912.30769231 , 4134.35897436 , 4139.48717949 , 2042.0 , 2038.0 , 170.418 , 0.0 , 0.0 , 0.0 , 0.0 , 

117.0 , 4135.8974359 , 4131.79487179 , 4137.43589744 , 4133.33333333 , 4130.25641026 , 4132.30769231 , 4127.17948718 , 4137.43589744 , 4134.35897436 , 4138.97435897 , 4193.84615385 , 4911.79487179 , 4134.87179487 , 4141.02564103 , 2043.0 , 2038.0 , 170.425 , 0.0 , 0.0 , 0.0 , 0.0 , 

118.0 , 4137.94871795 , 4128.71794872 , 4136.41025641 , 4133.84615385 , 4132.30769231 , 4127.69230769 , 4128.71794872 , 4135.38461538 , 4133.84615385 , 4138.97435897 , 4194.35897436 , 4913.33333333 , 4133.84615385 , 4145.12820513 , 2043.0 , 2038.0 , 170.437 , 0.0 , 0.0 , 0.0 , 0.0 , 

119.0 , 4131.79487179 , 4127.17948718 , 4138.46153846 , 4134.35897436 , 4134.35897436 , 4129.74358974 , 4129.74358974 , 4135.38461538 , 4135.8974359 , 4138.97435897 , 4193.33333333 , 4913.33333333 , 4132.82051282 , 4140.0 , 2043.0 , 2037.0 , 170.44 , 0.0 , 0.0 , 0.0 , 0.0 , 

120.0 , 4133.33333333 , 4128.71794872 , 4140.0 , 4131.28205128 , 4131.79487179 , 4132.30769231 , 4128.20512821 , 4136.41025641 , 4133.33333333 , 4138.46153846 , 4191.79487179 , 4912.82051282 , 4133.33333333 , 4138.46153846 , 2044.0 , 2035.0 , 170.45 , 0.0 , 0.0 , 0.0 , 0.0 , 

121.0 , 4134.35897436 , 4132.30769231 , 4136.41025641 , 4133.33333333 , 4129.74358974 , 4130.25641026 , 4129.74358974 , 4134.87179487 , 4132.30769231 , 4138.46153846 , 4193.33333333 , 4909.74358974 , 4134.35897436 , 4140.0 , 2043.0 , 2035.0 , 170.458 , 0.0 , 0.0 , 0.0 , 0.0 , 

122.0 , 4131.28205128 , 4132.30769231 , 4135.38461538 , 4134.87179487 , 4130.76923077 , 4128.20512821 , 4128.20512821 , 4131.28205128 , 4132.82051282 , 4138.46153846 , 4194.87179487 , 4912.30769231 , 4134.87179487 , 4143.07692308 , 2043.0 , 2036.0 , 170.468 , 0.0 , 0.0 , 0.0 , 0.0 , 

123.0 , 4129.74358974 , 4131.79487179 , 4138.97435897 , 4134.87179487 , 4133.33333333 , 4132.30769231 , 4127.17948718 , 4134.35897436 , 4132.82051282 , 4138.46153846 , 4193.84615385 , 4915.38461538 , 4136.41025641 , 4139.48717949 , 2043.0 , 2038.0 , 170.473 , 0.0 , 0.0 , 0.0 , 0.0 , 

124.0 , 4134.35897436 , 4131.28205128 , 4137.94871795 , 4134.87179487 , 4131.79487179 , 4130.76923077 , 4128.71794872 , 4137.94871795 , 4134.35897436 , 4139.48717949 , 4193.84615385 , 4915.8974359 , 4136.41025641 , 4141.02564103 , 2043.0 , 2037.0 , 170.481 , 0.0 , 0.0 , 0.0 , 0.0 , 

125.0 , 4135.38461538 , 4130.76923077 , 4136.41025641 , 4135.8974359 , 4130.25641026 , 4128.71794872 , 4130.25641026 , 4137.94871795 , 4136.41025641 , 4139.48717949 , 4193.33333333 , 4913.84615385 , 4134.35897436 , 4140.0 , 2042.0 , 2037.0 , 170.489 , 0.0 , 0.0 , 0.0 , 0.0 , 

126.0 , 4133.33333333 , 4131.79487179 , 4137.94871795 , 4134.35897436 , 4132.82051282 , 4130.25641026 , 4128.71794872 , 4135.38461538 , 4136.41025641 , 4137.94871795 , 4193.33333333 , 4912.82051282 , 4134.35897436 , 4138.97435897 , 2042.0 , 2037.0 , 170.501 , 0.0 , 0.0 , 0.0 , 0.0 , 

127.0 , 4134.35897436 , 4133.84615385 , 4136.41025641 , 4133.84615385 , 4134.35897436 , 4128.71794872 , 4127.17948718 , 4132.82051282 , 4134.87179487 , 4137.94871795 , 4194.35897436 , 4913.84615385 , 4132.82051282 , 4142.56410256 , 2043.0 , 2038.0 , 170.504 , 0.0 , 0.0 , 0.0 , 0.0 , 

128.0 , 4137.43589744 , 4133.33333333 , 4133.33333333 , 4134.87179487 , 4131.79487179 , 4127.17948718 , 4128.71794872 , 4131.79487179 , 4134.35897436 , 4138.46153846 , 4194.35897436 , 4912.30769231 , 4132.30769231 , 4142.56410256 , 2043.0 , 2039.0 , 170.513 , 0.0 , 0.0 , 0.0 , 0.0 , 

0.0 , 4135.8974359 , 4131.79487179 , 4135.38461538 , 4133.33333333 , 4129.74358974 , 4129.23076923 , 4129.23076923 , 4132.82051282 , 4133.84615385 , 4137.94871795 , 4193.33333333 , 4911.79487179 , 4131.28205128 , 4140.0 , 2044.0 , 2039.0 , 170.52 , 0.0 , 0.0 , 0.0 , 0.0 , 

1.0 , 4131.79487179 , 4132.82051282 , 4136.41025641 , 4133.84615385 , 4130.76923077 , 4130.76923077 , 4129.74358974 , 4134.35897436 , 4134.87179487 , 4138.46153846 , 4192.82051282 , 4912.30769231 , 4132.82051282 , 4137.94871795 , 2043.0 , 2039.0 , 170.533 , 0.0 , 0.0 , 0.0 , 0.0 , 

2.0 , 4133.84615385 , 4131.79487179 , 4134.87179487 , 4135.8974359 , 4131.28205128 , 4130.25641026 , 4126.66666667 , 4134.35897436 , 4134.35897436 , 4140.0 , 4192.82051282 , 4913.84615385 , 4133.33333333 , 4141.53846154 , 2041.0 , 2036.0 , 170.535 , 0.0 , 0.0 , 0.0 , 0.0 , 

3.0 , 4134.35897436 , 4131.79487179 , 4134.87179487 , 4135.8974359 , 4132.30769231 , 4132.82051282 , 4125.64102564 , 4134.87179487 , 4134.35897436 , 4138.97435897 , 4192.82051282 , 4911.79487179 , 4132.82051282 , 4141.02564103 , 2043.0 , 2037.0 , 170.543 , 0.0 , 0.0 , 0.0 , 0.0 , 

4.0 , 4134.87179487 , 4134.87179487 , 4138.46153846 , 4133.84615385 , 4133.33333333 , 4131.79487179 , 4128.20512821 , 4134.87179487 , 4133.84615385 , 4135.8974359 , 4194.35897436 , 4913.33333333 , 4131.28205128 , 4144.1025641 , 2043.0 , 2035.0 , 170.551 , 0.0 , 0.0 , 0.0 , 0.0 , 

5.0 , 4134.87179487 , 4135.8974359 , 4135.8974359 , 4133.84615385 , 4134.35897436 , 4127.69230769 , 4131.79487179 , 4136.41025641 , 4134.87179487 , 4136.92307692 , 4194.87179487 , 4914.87179487 , 4131.79487179 , 4140.51282051 , 2043.0 , 2036.0 , 170.564 , 0.0 , 0.0 , 0.0 , 0.0 , 

6.0 , 4136.92307692 , 4130.25641026 , 4135.38461538 , 4132.82051282 , 4131.79487179 , 4127.69230769 , 4128.20512821 , 4134.35897436 , 4135.38461538 , 4140.51282051 , 4194.35897436 , 4915.8974359 , 4132.82051282 , 4141.53846154 , 2043.0 , 2034.0 , 170.567 , 0.0 , 0.0 , 0.0 , 0.0 , 

7.0 , 4133.33333333 , 4127.17948718 , 4138.97435897 , 4136.92307692 , 4130.76923077 , 4132.82051282 , 4126.66666667 , 4131.79487179 , 4135.38461538 , 4138.46153846 , 4192.82051282 , 4912.30769231 , 4133.33333333 , 4141.53846154 , 2041.0 , 2034.0 , 170.575 , 0.0 , 0.0 , 0.0 , 0.0 , 

8.0 , 4133.84615385 , 4129.74358974 , 4141.02564103 , 4138.46153846 , 4133.33333333 , 4130.25641026 , 4127.69230769 , 4134.35897436 , 4132.82051282 , 4137.43589744 , 4193.33333333 , 4912.30769231 , 4131.79487179 , 4142.05128205 , 2042.0 , 2035.0 , 170.584 , 0.0 , 0.0 , 0.0 , 0.0 , 

9.0 , 4133.84615385 , 4133.33333333 , 4136.92307692 , 4137.43589744 , 4133.84615385 , 4126.66666667 , 4129.23076923 , 4136.92307692 , 4133.84615385 , 4140.51282051 , 4192.30769231 , 4911.79487179 , 4132.30769231 , 4136.92307692 , 2042.0 , 2034.0 , 170.596 , 0.0 , 0.0 , 0.0 , 0.0 , 

10.0 , 4133.84615385 , 4132.30769231 , 4136.92307692 , 4136.41025641 , 4130.76923077 , 4128.20512821 , 4127.69230769 , 4132.82051282 , 4138.46153846 , 4137.94871795 , 4190.76923077 , 4913.84615385 , 4134.35897436 , 4141.02564103 , 2043.0 , 2035.0 , 170.599 , 0.0 , 0.0 , 0.0 , 0.0 , 

11.0 , 4133.84615385 , 4130.76923077 , 4137.94871795 , 4136.92307692 , 4131.79487179 , 4132.30769231 , 4128.20512821 , 4131.79487179 , 4139.48717949 , 4135.38461538 , 4190.76923077 , 4912.30769231 , 4133.84615385 , 4141.02564103 , 2042.0 , 2034.0 , 170.607 , 0.0 , 0.0 , 0.0 , 0.0 , 

12.0 , 4135.38461538 , 4131.28205128 , 4137.43589744 , 4135.38461538 , 4134.35897436 , 4132.30769231 , 4128.71794872 , 4133.84615385 , 4134.35897436 , 4138.97435897 , 4193.33333333 , 4912.30769231 , 4133.84615385 , 4141.02564103 , 2043.0 , 2034.0 , 170.614 , 0.0 , 0.0 , 0.0 , 0.0 , 

13.0 , 4133.33333333 , 4133.84615385 , 4135.8974359 , 4136.41025641 , 4133.33333333 , 4131.28205128 , 4128.71794872 , 4133.33333333 , 4134.35897436 , 4140.51282051 , 4192.30769231 , 4914.87179487 , 4132.30769231 , 4140.0 , 2045.0 , 2036.0 , 170.626 , 0.0 , 0.0 , 0.0 , 0.0 , 

14.0 , 4134.87179487 , 4131.79487179 , 4136.41025641 , 4137.43589744 , 4130.76923077 , 4131.79487179 , 4127.69230769 , 4132.82051282 , 4135.8974359 , 4137.43589744 , 4191.28205128 , 4914.87179487 , 4132.30769231 , 4139.48717949 , 2044.0 , 2037.0 , 170.629 , 0.0 , 0.0 , 0.0 , 0.0 , 

15.0 , 4140.0 , 4128.20512821 , 4138.97435897 , 4135.38461538 , 4132.30769231 , 4134.35897436 , 4129.74358974 , 4132.30769231 , 4133.84615385 , 4136.41025641 , 4192.30769231 , 4912.30769231 , 4134.87179487 , 4138.97435897 , 2043.0 , 2037.0 , 170.639 , 0.0 , 0.0 , 0.0 , 0.0 , 

16.0 , 4138.97435897 , 4130.76923077 , 4137.94871795 , 4135.8974359 , 4133.84615385 , 4134.87179487 , 4131.79487179 , 4130.25641026 , 4133.84615385 , 4139.48717949 , 4191.79487179 , 4912.82051282 , 4136.92307692 , 4140.0 , 2045.0 , 2036.0 , 170.646 , 0.0 , 0.0 , 0.0 , 0.0 , 

17.0 , 4135.8974359 , 4134.35897436 , 4135.8974359 , 4136.41025641 , 4132.82051282 , 4132.82051282 , 4129.74358974 , 4131.79487179 , 4134.87179487 , 4141.02564103 , 4190.76923077 , 4915.38461538 , 4134.35897436 , 4141.53846154 , 2046.0 , 2037.0 , 170.658 , 0.0 , 0.0 , 0.0 , 0.0 , 

18.0 , 4135.8974359 , 4133.33333333 , 4137.94871795 , 4135.8974359 , 4132.30769231 , 4132.82051282 , 4127.69230769 , 4134.35897436 , 4135.38461538 , 4140.0 , 4192.82051282 , 4915.38461538 , 4137.94871795 , 4142.56410256 , 2044.0 , 2038.0 , 170.661 , 0.0 , 0.0 , 0.0 , 0.0 , 

19.0 , 4137.43589744 , 4132.30769231 , 4137.94871795 , 4135.8974359 , 4132.30769231 , 4131.79487179 , 4130.25641026 , 4130.76923077 , 4135.8974359 , 4139.48717949 , 4194.35897436 , 4914.87179487 , 4141.02564103 , 4147.69230769 , 2044.0 , 2037.0 , 170.67 , 0.0 , 0.0 , 0.0 , 0.0 , 

20.0 , 4134.35897436 , 4133.84615385 , 4134.35897436 , 4136.41025641 , 4130.76923077 , 4131.79487179 , 4131.28205128 , 4129.74358974 , 4136.41025641 , 4141.02564103 , 4192.30769231 , 4913.84615385 , 4136.92307692 , 4144.61538462 , 2044.0 , 2037.0 , 170.678 , 0.0 , 0.0 , 0.0 , 0.0 , 

21.0 , 4133.33333333 , 4133.84615385 , 4135.38461538 , 4135.38461538 , 4129.23076923 , 4132.82051282 , 4126.66666667 , 4133.84615385 , 4135.38461538 , 4140.0 , 4192.30769231 , 4913.84615385 , 4133.84615385 , 4141.53846154 , 2044.0 , 2037.0 , 170.69 , 0.0 , 0.0 , 0.0 , 0.0 , 

22.0 , 4134.87179487 , 4135.38461538 , 4135.8974359 , 4136.41025641 , 4131.79487179 , 4134.35897436 , 4126.66666667 , 4134.35897436 , 4135.8974359 , 4137.94871795 , 4192.82051282 , 4911.79487179 , 4136.92307692 , 4140.0 , 2043.0 , 2038.0 , 170.693 , 0.0 , 0.0 , 0.0 , 0.0 , 

23.0 , 4138.46153846 , 4135.8974359 , 4135.8974359 , 4135.8974359 , 4132.82051282 , 4132.82051282 , 4129.23076923 , 4130.76923077 , 4134.87179487 , 4137.94871795 , 4192.82051282 , 4912.82051282 , 4137.43589744 , 4146.66666667 , 2044.0 , 2039.0 , 170.701 , 0.0 , 0.0 , 0.0 , 0.0 , 

24.0 , 4136.92307692 , 4135.8974359 , 4138.46153846 , 4135.38461538 , 4130.76923077 , 4133.33333333 , 4128.71794872 , 4131.79487179 , 4134.35897436 , 4137.94871795 , 4191.79487179 , 4910.76923077 , 4135.8974359 , 4144.61538462 , 2044.0 , 2038.0 , 170.709 , 0.0 , 0.0 , 0.0 , 0.0 , 

25.0 , 4139.48717949 , 4134.35897436 , 4140.51282051 , 4134.87179487 , 4127.69230769 , 4131.28205128 , 4125.64102564 , 4131.28205128 , 4135.8974359 , 4138.46153846 , 4193.33333333 , 4910.76923077 , 4135.8974359 , 4142.05128205 , 2042.0 , 2038.0 , 170.721 , 0.0 , 0.0 , 0.0 , 0.0 , 

26.0 , 4142.56410256 , 4132.82051282 , 4138.46153846 , 4135.8974359 , 4130.25641026 , 4129.23076923 , 4126.66666667 , 4130.25641026 , 4135.8974359 , 4140.0 , 4193.84615385 , 4909.74358974 , 4137.43589744 , 4141.02564103 , 2045.0 , 2038.0 , 170.725 , 0.0 , 0.0 , 0.0 , 0.0 , 

27.0 , 4140.51282051 , 4133.84615385 , 4138.46153846 , 4135.38461538 , 4131.79487179 , 4130.25641026 , 4126.66666667 , 4132.82051282 , 4133.33333333 , 4138.97435897 , 4194.35897436 , 4915.38461538 , 4137.94871795 , 4147.69230769 , 2044.0 , 2038.0 , 170.734 , 0.0 , 0.0 , 0.0 , 0.0 , 

28.0 , 4133.84615385 , 4135.8974359 , 4140.51282051 , 4136.92307692 , 4131.28205128 , 4132.30769231 , 4128.71794872 , 4136.41025641 , 4133.33333333 , 4138.97435897 , 4194.35897436 , 4915.8974359 , 4136.92307692 , 4144.1025641 , 2041.0 , 2037.0 , 170.741 , 0.0 , 0.0 , 0.0 , 0.0 , 

29.0 , 4135.38461538 , 4132.82051282 , 4140.0 , 4135.8974359 , 4131.28205128 , 4130.76923077 , 4128.71794872 , 4133.84615385 , 4133.33333333 , 4139.48717949 , 4193.33333333 , 4912.82051282 , 4134.35897436 , 4141.53846154 , 2042.0 , 2036.0 , 170.751 , 0.0 , 0.0 , 0.0 , 0.0 , 

30.0 , 4136.92307692 , 4131.28205128 , 4137.43589744 , 4133.84615385 , 4131.79487179 , 4130.25641026 , 4126.66666667 , 4133.33333333 , 4134.35897436 , 4137.94871795 , 4192.30769231 , 4909.23076923 , 4133.84615385 , 4140.51282051 , 2041.0 , 2036.0 , 170.756 , 0.0 , 0.0 , 0.0 , 0.0 , 

31.0 , 4137.43589744 , 4132.82051282 , 4135.38461538 , 4134.35897436 , 4131.28205128 , 4129.74358974 , 4124.1025641 , 4133.84615385 , 4134.35897436 , 4138.46153846 , 4192.82051282 , 4909.74358974 , 4135.8974359 , 4141.02564103 , 2043.0 , 2035.0 , 170.764 , 0.0 , 0.0 , 0.0 , 0.0 , 

32.0 , 4136.41025641 , 4135.8974359 , 4135.8974359 , 4135.8974359 , 4131.79487179 , 4129.23076923 , 4127.17948718 , 4133.33333333 , 4134.87179487 , 4140.51282051 , 4194.35897436 , 4912.30769231 , 4135.8974359 , 4141.53846154 , 2043.0 , 2036.0 , 170.772 , 0.0 , 0.0 , 0.0 , 0.0 , 

33.0 , 4133.84615385 , 4133.33333333 , 4137.43589744 , 4135.8974359 , 4132.30769231 , 4128.20512821 , 4129.23076923 , 4133.84615385 , 4134.35897436 , 4138.97435897 , 4193.33333333 , 4914.87179487 , 4135.8974359 , 4144.1025641 , 2044.0 , 2036.0 , 170.785 , 0.0 , 0.0 , 0.0 , 0.0 , 

34.0 , 4133.33333333 , 4129.23076923 , 4134.35897436 , 4133.84615385 , 4131.79487179 , 4129.23076923 , 4127.17948718 , 4134.87179487 , 4134.87179487 , 4138.97435897 , 4192.30769231 , 4916.41025641 , 4137.43589744 , 4141.02564103 , 2044.0 , 2037.0 , 170.788 , 0.0 , 0.0 , 0.0 , 0.0 , 

35.0 , 4135.38461538 , 4128.20512821 , 4132.30769231 , 4133.33333333 , 4131.79487179 , 4129.74358974 , 4126.15384615 , 4135.8974359 , 4137.94871795 , 4141.02564103 , 4192.30769231 , 4914.87179487 , 4137.94871795 , 4138.97435897 , 2043.0 , 2035.0 , 170.795 , 0.0 , 0.0 , 0.0 , 0.0 , 

36.0 , 4132.82051282 , 4131.79487179 , 4134.87179487 , 4134.35897436 , 4131.28205128 , 4129.23076923 , 4126.15384615 , 4137.43589744 , 4137.43589744 , 4139.48717949 , 4192.30769231 , 4914.87179487 , 4134.87179487 , 4141.02564103 , 2044.0 , 2036.0 , 170.804 , 0.0 , 0.0 , 0.0 , 0.0 , 

37.0 , 4129.74358974 , 4132.82051282 , 4134.87179487 , 4135.8974359 , 4130.25641026 , 4128.71794872 , 4124.61538462 , 4138.46153846 , 4136.41025641 , 4138.97435897 , 4193.33333333 , 4916.41025641 , 4135.38461538 , 4141.53846154 , 2044.0 , 2035.0 , 170.816 , 0.0 , 0.0 , 0.0 , 0.0 , 

38.0 , 4133.33333333 , 4129.23076923 , 4131.28205128 , 4133.84615385 , 4130.76923077 , 4128.20512821 , 4122.05128205 , 4136.92307692 , 4136.41025641 , 4141.53846154 , 4193.33333333 , 4917.43589744 , 4135.8974359 , 4143.58974359 , 2044.0 , 2035.0 , 170.818 , 0.0 , 0.0 , 0.0 , 0.0 , 

39.0 , 4132.30769231 , 4130.76923077 , 4132.82051282 , 4135.38461538 , 4131.79487179 , 4128.71794872 , 4124.1025641 , 4136.41025641 , 4136.92307692 , 4140.51282051 , 4192.30769231 , 4914.35897436 , 4134.87179487 , 4141.53846154 , 2044.0 , 2035.0 , 170.828 , 0.0 , 0.0 , 0.0 , 0.0 , 

40.0 , 4130.76923077 , 4135.38461538 , 4135.8974359 , 4135.38461538 , 4131.79487179 , 4127.69230769 , 4127.69230769 , 4136.41025641 , 4135.8974359 , 4136.41025641 , 4193.84615385 , 4913.84615385 , 4136.41025641 , 4144.1025641 , 2045.0 , 2037.0 , 170.836 , 0.0 , 0.0 , 0.0 , 0.0 , 

41.0 , 4131.79487179 , 4135.38461538 , 4132.30769231 , 4134.35897436 , 4130.76923077 , 4128.71794872 , 4128.20512821 , 4134.87179487 , 4137.43589744 , 4137.43589744 , 4193.33333333 , 4913.84615385 , 4137.94871795 , 4145.64102564 , 2045.0 , 2037.0 , 170.849 , 0.0 , 0.0 , 0.0 , 0.0 , 

42.0 , 4135.38461538 , 4132.30769231 , 4130.25641026 , 4133.33333333 , 4129.74358974 , 4130.25641026 , 4125.64102564 , 4132.82051282 , 4137.43589744 , 4140.0 , 4192.30769231 , 4915.8974359 , 4133.84615385 , 4147.17948718 , 2043.0 , 2037.0 , 170.851 , 0.0 , 0.0 , 0.0 , 0.0 , 

43.0 , 4131.79487179 , 4130.25641026 , 4132.30769231 , 4135.38461538 , 4132.30769231 , 4130.76923077 , 4128.71794872 , 4135.38461538 , 4136.41025641 , 4139.48717949 , 4192.30769231 , 4913.84615385 , 4133.33333333 , 4144.61538462 , 2043.0 , 2037.0 , 170.859 , 0.0 , 0.0 , 0.0 , 0.0 , 

44.0 , 4129.74358974 , 4127.69230769 , 4133.33333333 , 4135.38461538 , 4132.82051282 , 4127.17948718 , 4128.20512821 , 4137.94871795 , 4136.92307692 , 4138.46153846 , 4194.35897436 , 4915.38461538 , 4135.8974359 , 4151.28205128 , 2042.0 , 2037.0 , 170.868 , 0.0 , 0.0 , 0.0 , 0.0 , 

45.0 , 4126.66666667 , 4127.69230769 , 4129.74358974 , 4135.38461538 , 4130.76923077 , 4128.20512821 , 4123.58974359 , 4140.51282051 , 4140.0 , 4138.97435897 , 4194.87179487 , 4915.38461538 , 4135.8974359 , 4151.79487179 , 2044.0 , 2037.0 , 170.879 , 0.0 , 0.0 , 0.0 , 0.0 , 

46.0 , 4125.64102564 , 4129.23076923 , 4131.28205128 , 4134.35897436 , 4129.74358974 , 4130.25641026 , 4124.1025641 , 4140.0 , 4140.0 , 4140.51282051 , 4194.87179487 , 4916.92307692 , 4134.35897436 , 4149.74358974 , 2042.0 , 2036.0 , 170.882 , 0.0 , 0.0 , 0.0 , 0.0 , 

47.0 , 4126.66666667 , 4127.69230769 , 4133.33333333 , 4135.8974359 , 4131.79487179 , 4128.20512821 , 4128.71794872 , 4137.94871795 , 4136.92307692 , 4140.0 , 4192.82051282 , 4916.41025641 , 4134.87179487 , 4143.58974359 , 2043.0 , 2036.0 , 170.891 , 0.0 , 0.0 , 0.0 , 0.0 , 

48.0 , 4132.82051282 , 4124.61538462 , 4132.30769231 , 4135.8974359 , 4131.79487179 , 4124.1025641 , 4123.58974359 , 4136.92307692 , 4135.8974359 , 4137.43589744 , 4193.33333333 , 4917.43589744 , 4137.94871795 , 4141.02564103 , 2044.0 , 2035.0 , 170.898 , 0.0 , 0.0 , 0.0 , 0.0 , 

49.0 , 4135.8974359 , 4129.74358974 , 4134.87179487 , 4133.33333333 , 4131.79487179 , 4126.66666667 , 4119.48717949 , 4140.0 , 4137.43589744 , 4138.46153846 , 4192.82051282 , 4915.8974359 , 4138.97435897 , 4136.92307692 , 2044.0 , 2036.0 , 170.911 , 0.0 , 0.0 , 0.0 , 0.0 , 

50.0 , 4135.8974359 , 4134.87179487 , 4137.43589744 , 4130.76923077 , 4131.28205128 , 4129.23076923 , 4123.07692308 , 4136.92307692 , 4135.8974359 , 4142.05128205 , 4192.82051282 , 4912.82051282 , 4136.92307692 , 4137.43589744 , 2044.0 , 2036.0 , 170.914 , 0.0 , 0.0 , 0.0 , 0.0 , 

51.0 , 4134.35897436 , 4134.87179487 , 4135.38461538 , 4133.84615385 , 4130.25641026 , 4129.74358974 , 4127.69230769 , 4131.28205128 , 4132.82051282 , 4142.05128205 , 4193.33333333 , 4912.30769231 , 4135.38461538 , 4138.97435897 , 2042.0 , 2036.0 , 170.923 , 0.0 , 0.0 , 0.0 , 0.0 , 

52.0 , 4132.82051282 , 4133.84615385 , 4134.35897436 , 4136.41025641 , 4130.76923077 , 4129.74358974 , 4127.17948718 , 4132.30769231 , 4134.35897436 , 4139.48717949 , 4192.82051282 , 4913.84615385 , 4137.43589744 , 4138.97435897 , 2042.0 , 2037.0 , 170.931 , 0.0 , 0.0 , 0.0 , 0.0 , 

53.0 , 4134.87179487 , 4132.82051282 , 4137.94871795 , 4134.35897436 , 4131.79487179 , 4130.76923077 , 4126.15384615 , 4136.92307692 , 4136.41025641 , 4140.0 , 4192.82051282 , 4913.84615385 , 4135.8974359 , 4140.0 , 2043.0 , 2035.0 , 170.942 , 0.0 , 0.0 , 0.0 , 0.0 , 

54.0 , 4137.43589744 , 4131.79487179 , 4137.43589744 , 4131.79487179 , 4132.30769231 , 4129.74358974 , 4126.66666667 , 4137.94871795 , 4137.43589744 , 4139.48717949 , 4193.33333333 , 4912.82051282 , 4135.8974359 , 4140.0 , 2044.0 , 2035.0 , 170.945 , 0.0 , 0.0 , 0.0 , 0.0 , 

55.0 , 4133.33333333 , 4131.79487179 , 4133.33333333 , 4132.82051282 , 4132.30769231 , 4128.20512821 , 4126.15384615 , 4133.33333333 , 4136.92307692 , 4136.92307692 , 4193.33333333 , 4913.33333333 , 4136.92307692 , 4142.05128205 , 2045.0 , 2035.0 , 170.954 , 0.0 , 0.0 , 0.0 , 0.0 , 

56.0 , 4130.76923077 , 4133.33333333 , 4131.28205128 , 4135.38461538 , 4130.76923077 , 4129.74358974 , 4127.17948718 , 4132.82051282 , 4135.38461538 , 4136.92307692 , 4193.33333333 , 4913.84615385 , 4136.41025641 , 4142.56410256 , 2046.0 , 2037.0 , 170.962 , 0.0 , 0.0 , 0.0 , 0.0 , 

57.0 , 4137.94871795 , 4133.33333333 , 4135.38461538 , 4135.8974359 , 4130.25641026 , 4131.28205128 , 4125.64102564 , 4133.33333333 , 4135.38461538 , 4138.97435897 , 4194.87179487 , 4915.38461538 , 4136.41025641 , 4144.1025641 , 2045.0 , 2035.0 , 170.973 , 0.0 , 0.0 , 0.0 , 0.0 , 

58.0 , 4135.38461538 , 4132.82051282 , 4138.46153846 , 4136.41025641 , 4133.33333333 , 4131.28205128 , 4124.61538462 , 4135.38461538 , 4138.97435897 , 4140.0 , 4194.35897436 , 4911.79487179 , 4137.94871795 , 4140.51282051 , 2045.0 , 2035.0 , 170.977 , 0.0 , 0.0 , 0.0 , 0.0 , 

59.0 , 4129.74358974 , 4131.28205128 , 4136.41025641 , 4135.8974359 , 4133.84615385 , 4129.23076923 , 4123.58974359 , 4136.41025641 , 4137.94871795 , 4140.0 , 4193.33333333 , 4910.25641026 , 4135.8974359 , 4141.53846154 , 2044.0 , 2036.0 , 170.985 , 0.0 , 0.0 , 0.0 , 0.0 , 

60.0 , 4131.79487179 , 4131.28205128 , 4135.8974359 , 4134.87179487 , 4131.79487179 , 4130.25641026 , 4126.66666667 , 4137.43589744 , 4134.87179487 , 4138.97435897 , 4191.28205128 , 4911.28205128 , 4133.33333333 , 4137.94871795 , 2044.0 , 2037.0 , 170.993 , 0.0 , 0.0 , 0.0 , 0.0 , 

61.0 , 4136.41025641 , 4131.28205128 , 4140.0 , 4133.33333333 , 4131.28205128 , 4131.79487179 , 4127.17948718 , 4133.84615385 , 4135.8974359 , 4137.94871795 , 4192.30769231 , 4914.87179487 , 4133.33333333 , 4140.51282051 , 2043.0 , 2035.0 , 171.005 , 0.0 , 0.0 , 0.0 , 0.0 , 

62.0 , 4134.35897436 , 4131.28205128 , 4137.43589744 , 4134.35897436 , 4132.30769231 , 4132.82051282 , 4125.64102564 , 4134.35897436 , 4138.97435897 , 4137.94871795 , 4194.87179487 , 4911.28205128 , 4134.87179487 , 4140.51282051 , 2044.0 , 2036.0 , 171.009 , 0.0 , 0.0 , 0.0 , 0.0 , 

63.0 , 4136.41025641 , 4129.23076923 , 4134.87179487 , 4134.87179487 , 4130.25641026 , 4130.76923077 , 4126.15384615 , 4136.41025641 , 4135.8974359 , 4138.97435897 , 4195.38461538 , 4910.76923077 , 4133.33333333 , 4142.56410256 , 2045.0 , 2036.0 , 171.016 , 0.0 , 0.0 , 0.0 , 0.0 , 

64.0 , 4135.8974359 , 4131.28205128 , 4135.8974359 , 4135.8974359 , 4130.76923077 , 4132.30769231 , 4130.25641026 , 4135.38461538 , 4133.84615385 , 4138.97435897 , 4192.82051282 , 4910.25641026 , 4131.79487179 , 4140.0 , 2043.0 , 2035.0 , 171.024 , 0.0 , 0.0 , 0.0 , 0.0 , 

65.0 , 4133.84615385 , 4134.35897436 , 4135.8974359 , 4135.38461538 , 4134.87179487 , 4131.28205128 , 4129.74358974 , 4133.33333333 , 4135.8974359 , 4138.46153846 , 4193.33333333 , 4914.87179487 , 4134.87179487 , 4141.02564103 , 2044.0 , 2035.0 , 171.037 , 0.0 , 0.0 , 0.0 , 0.0 , 

66.0 , 4132.30769231 , 4132.30769231 , 4133.84615385 , 4136.41025641 , 4133.84615385 , 4130.76923077 , 4126.66666667 , 4133.84615385 , 4136.92307692 , 4138.46153846 , 4193.84615385 , 4916.41025641 , 4135.38461538 , 4137.94871795 , 2043.0 , 2036.0 , 171.04 , 0.0 , 0.0 , 0.0 , 0.0 , 

67.0 , 4133.33333333 , 4129.23076923 , 4133.33333333 , 4135.8974359 , 4128.71794872 , 4130.76923077 , 4125.12820513 , 4132.30769231 , 4134.87179487 , 4139.48717949 , 4191.79487179 , 4915.38461538 , 4132.30769231 , 4141.53846154 , 2044.0 , 2035.0 , 171.048 , 0.0 , 0.0 , 0.0 , 0.0 , 

68.0 , 4133.33333333 , 4132.30769231 , 4133.84615385 , 4136.92307692 , 4129.74358974 , 4131.28205128 , 4127.17948718 , 4134.35897436 , 4133.84615385 , 4138.97435897 , 4191.28205128 , 4913.84615385 , 4134.35897436 , 4142.05128205 , 2044.0 , 2035.0 , 171.056 , 0.0 , 0.0 , 0.0 , 0.0 , 

69.0 , 4134.35897436 , 4133.33333333 , 4134.35897436 , 4137.43589744 , 4130.76923077 , 4129.23076923 , 4127.17948718 , 4139.48717949 , 4135.38461538 , 4137.43589744 , 4193.84615385 , 4915.38461538 , 4137.43589744 , 4138.97435897 , 2042.0 , 2036.0 , 171.068 , 0.0 , 0.0 , 0.0 , 0.0 , 

70.0 , 4134.35897436 , 4130.76923077 , 4133.33333333 , 4137.94871795 , 4128.20512821 , 4127.69230769 , 4126.66666667 , 4137.43589744 , 4134.87179487 , 4139.48717949 , 4193.33333333 , 4915.8974359 , 4134.35897436 , 4136.41025641 , 2044.0 , 2034.0 , 171.072 , 0.0 , 0.0 , 0.0 , 0.0 , 

71.0 , 4136.92307692 , 4132.30769231 , 4133.33333333 , 4136.92307692 , 4129.23076923 , 4129.74358974 , 4127.17948718 , 4131.79487179 , 4133.84615385 , 4138.97435897 , 4193.33333333 , 4913.84615385 , 4134.35897436 , 4139.48717949 , 2043.0 , 2034.0 , 171.079 , 0.0 , 0.0 , 0.0 , 0.0 , 

72.0 , 4136.92307692 , 4133.33333333 , 4137.94871795 , 4133.33333333 , 4132.30769231 , 4131.28205128 , 4125.64102564 , 4133.84615385 , 4135.8974359 , 4135.8974359 , 4194.87179487 , 4912.30769231 , 4137.94871795 , 4143.07692308 , 2044.0 , 2034.0 , 171.087 , 0.0 , 0.0 , 0.0 , 0.0 , 

73.0 , 4133.84615385 , 4130.76923077 , 4140.51282051 , 4132.82051282 , 4131.79487179 , 4129.23076923 , 4124.61538462 , 4138.97435897 , 4135.38461538 , 4136.92307692 , 4193.33333333 , 4914.35897436 , 4139.48717949 , 4140.0 , 2043.0 , 2036.0 , 171.099 , 0.0 , 0.0 , 0.0 , 0.0 , 

74.0 , 4133.33333333 , 4128.71794872 , 4138.46153846 , 4135.38461538 , 4131.28205128 , 4126.15384615 , 4127.17948718 , 4136.41025641 , 4131.79487179 , 4140.0 , 4191.28205128 , 4918.97435897 , 4135.8974359 , 4137.94871795 , 2041.0 , 2035.0 , 171.103 , 0.0 , 0.0 , 0.0 , 0.0 , 

75.0 , 4133.84615385 , 4130.76923077 , 4137.43589744 , 4135.8974359 , 4131.79487179 , 4128.71794872 , 4127.17948718 , 4133.84615385 , 4133.33333333 , 4139.48717949 , 4192.30769231 , 4916.41025641 , 4133.84615385 , 4140.0 , 2041.0 , 2035.0 , 171.111 , 0.0 , 0.0 , 0.0 , 0.0 , 

76.0 , 4136.92307692 , 4135.38461538 , 4138.97435897 , 4132.30769231 , 4133.33333333 , 4130.76923077 , 4121.53846154 , 4133.84615385 , 4136.41025641 , 4137.94871795 , 4193.84615385 , 4911.79487179 , 4135.38461538 , 4145.64102564 , 2042.0 , 2034.0 , 171.12 , 0.0 , 0.0 , 0.0 , 0.0 , 

77.0 , 4135.38461538 , 4134.87179487 , 4135.38461538 , 4133.84615385 , 4133.33333333 , 4131.79487179 , 4124.1025641 , 4135.8974359 , 4136.92307692 , 4138.97435897 , 4191.79487179 , 4913.33333333 , 4136.92307692 , 4143.07692308 , 2042.0 , 2034.0 , 171.131 , 0.0 , 0.0 , 0.0 , 0.0 , 

78.0 , 4133.33333333 , 4128.71794872 , 4134.87179487 , 4134.87179487 , 4130.25641026 , 4131.28205128 , 4129.23076923 , 4134.87179487 , 4136.41025641 , 4140.51282051 , 4191.28205128 , 4915.8974359 , 4135.38461538 , 4144.61538462 , 2041.0 , 2035.0 , 171.134 , 0.0 , 0.0 , 0.0 , 0.0 , 

79.0 , 4132.82051282 , 4130.25641026 , 4137.94871795 , 4133.33333333 , 4130.76923077 , 4132.30769231 , 4129.74358974 , 4134.35897436 , 4137.94871795 , 4140.51282051 , 4191.79487179 , 4910.25641026 , 4135.38461538 , 4143.58974359 , 2042.0 , 2036.0 , 171.143 , 0.0 , 0.0 , 0.0 , 0.0 , 

80.0 , 4136.92307692 , 4134.35897436 , 4138.97435897 , 4132.30769231 , 4132.30769231 , 4131.79487179 , 4126.15384615 , 4132.82051282 , 4135.8974359 , 4139.48717949 , 4192.82051282 , 4912.30769231 , 4135.38461538 , 4145.64102564 , 2042.0 , 2037.0 , 171.15 , 0.0 , 0.0 , 0.0 , 0.0 , 

81.0 , 4134.35897436 , 4134.87179487 , 4135.8974359 , 4134.87179487 , 4131.28205128 , 4130.76923077 , 4127.69230769 , 4133.33333333 , 4135.38461538 , 4139.48717949 , 4193.84615385 , 4914.87179487 , 4135.8974359 , 4142.05128205 , 2043.0 , 2036.0 , 171.162 , 0.0 , 0.0 , 0.0 , 0.0 , 

82.0 , 4134.35897436 , 4131.79487179 , 4137.94871795 , 4133.84615385 , 4130.25641026 , 4130.25641026 , 4128.20512821 , 4134.87179487 , 4136.41025641 , 4140.0 , 4193.84615385 , 4914.87179487 , 4134.87179487 , 4141.02564103 , 2042.0 , 2037.0 , 171.166 , 0.0 , 0.0 , 0.0 , 0.0 , 

83.0 , 4135.8974359 , 4132.82051282 , 4137.43589744 , 4133.84615385 , 4131.79487179 , 4131.79487179 , 4127.69230769 , 4135.38461538 , 4134.87179487 , 4138.97435897 , 4193.33333333 , 4912.82051282 , 4131.79487179 , 4138.97435897 , 2043.0 , 2037.0 , 171.175 , 0.0 , 0.0 , 0.0 , 0.0 , 

84.0 , 4135.8974359 , 4134.35897436 , 4132.82051282 , 4134.87179487 , 4132.30769231 , 4129.74358974 , 4126.66666667 , 4130.76923077 , 4134.35897436 , 4137.94871795 , 4192.30769231 , 4912.82051282 , 4133.84615385 , 4141.02564103 , 2043.0 , 2037.0 , 171.183 , 0.0 , 0.0 , 0.0 , 0.0 , 

85.0 , 4133.84615385 , 4136.41025641 , 4132.82051282 , 4137.43589744 , 4131.79487179 , 4129.23076923 , 4127.69230769 , 4131.28205128 , 4136.41025641 , 4138.97435897 , 4192.30769231 , 4909.74358974 , 4136.92307692 , 4140.0 , 2044.0 , 2039.0 , 171.195 , 0.0 , 0.0 , 0.0 , 0.0 , 

86.0 , 4135.38461538 , 4134.35897436 , 4137.43589744 , 4135.8974359 , 4131.79487179 , 4129.23076923 , 4125.64102564 , 4135.38461538 , 4134.87179487 , 4138.97435897 , 4192.30769231 , 4910.76923077 , 4134.35897436 , 4141.02564103 , 2045.0 , 2040.0 , 171.198 , 0.0 , 0.0 , 0.0 , 0.0 , 

87.0 , 4136.41025641 , 4131.79487179 , 4137.94871795 , 4133.33333333 , 4131.79487179 , 4128.20512821 , 4125.12820513 , 4135.38461538 , 4134.35897436 , 4137.94871795 , 4192.30769231 , 4912.30769231 , 4133.33333333 , 4138.46153846 , 2044.0 , 2038.0 , 171.207 , 0.0 , 0.0 , 0.0 , 0.0 , 

88.0 , 4135.38461538 , 4132.82051282 , 4135.8974359 , 4133.84615385 , 4131.79487179 , 4129.74358974 , 4126.66666667 , 4132.30769231 , 4134.87179487 , 4140.0 , 4192.82051282 , 4913.33333333 , 4136.41025641 , 4138.97435897 , 2044.0 , 2039.0 , 171.213 , 0.0 , 0.0 , 0.0 , 0.0 , 

89.0 , 4132.82051282 , 4134.35897436 , 4135.8974359 , 4135.38461538 , 4131.79487179 , 4132.30769231 , 4127.17948718 , 4133.33333333 , 4134.87179487 , 4141.02564103 , 4192.82051282 , 4912.82051282 , 4136.41025641 , 4140.0 , 2043.0 , 2038.0 , 171.225 , 0.0 , 0.0 , 0.0 , 0.0 , 

90.0 , 4132.82051282 , 4133.33333333 , 4137.94871795 , 4134.35897436 , 4130.76923077 , 4131.28205128 , 4126.66666667 , 4133.84615385 , 4135.8974359 , 4138.46153846 , 4192.82051282 , 4912.30769231 , 4134.87179487 , 4139.48717949 , 2044.0 , 2034.0 , 171.228 , 0.0 , 0.0 , 0.0 , 0.0 , 

91.0 , 4136.92307692 , 4129.74358974 , 4138.97435897 , 4131.79487179 , 4133.33333333 , 4131.79487179 , 4126.66666667 , 4132.30769231 , 4135.8974359 , 4138.46153846 , 4193.84615385 , 4914.87179487 , 4134.87179487 , 4140.51282051 , 2044.0 , 2036.0 , 171.237 , 0.0 , 0.0 , 0.0 , 0.0 , 

92.0 , 4135.38461538 , 4129.74358974 , 4135.8974359 , 4133.33333333 , 4134.35897436 , 4132.82051282 , 4125.64102564 , 4132.82051282 , 4134.87179487 , 4140.0 , 4192.82051282 , 4914.87179487 , 4135.8974359 , 4141.02564103 , 2045.0 , 2037.0 , 171.246 , 0.0 , 0.0 , 0.0 , 0.0 , 

93.0 , 4131.79487179 , 4133.84615385 , 4134.87179487 , 4132.82051282 , 4131.79487179 , 4130.76923077 , 4125.64102564 , 4133.33333333 , 4134.87179487 , 4138.46153846 , 4192.30769231 , 4915.8974359 , 4132.30769231 , 4143.58974359 , 2045.0 , 2036.0 , 171.257 , 0.0 , 0.0 , 0.0 , 0.0 , 

94.0 , 4132.30769231 , 4135.38461538 , 4137.43589744 , 4132.30769231 , 4130.76923077 , 4130.25641026 , 4127.69230769 , 4134.35897436 , 4136.41025641 , 4136.41025641 , 4193.33333333 , 4916.41025641 , 4131.28205128 , 4142.56410256 , 2045.0 , 2037.0 , 171.261 , 0.0 , 0.0 , 0.0 , 0.0 , 

95.0 , 4136.92307692 , 4131.28205128 , 4137.43589744 , 4132.30769231 , 4131.28205128 , 4130.76923077 , 4124.61538462 , 4136.41025641 , 4135.38461538 , 4138.97435897 , 4192.82051282 , 4917.43589744 , 4136.41025641 , 4142.05128205 , 2045.0 , 2036.0 , 171.269 , 0.0 , 0.0 , 0.0 , 0.0 , 

96.0 , 4135.8974359 , 4128.20512821 , 4135.8974359 , 4133.33333333 , 4131.79487179 , 4131.79487179 , 4123.07692308 , 4136.92307692 , 4135.8974359 , 4140.51282051 , 4190.76923077 , 4914.35897436 , 4137.94871795 , 4136.92307692 , 2044.0 , 2036.0 , 171.277 , 0.0 , 0.0 , 0.0 , 0.0 , 

97.0 , 4137.43589744 , 4129.74358974 , 4138.46153846 , 4133.84615385 , 4132.30769231 , 4129.23076923 , 4127.17948718 , 4134.35897436 , 4139.48717949 , 4139.48717949 , 4192.82051282 , 4915.8974359 , 4133.33333333 , 4140.51282051 , 2045.0 , 2038.0 , 171.289 , 0.0 , 0.0 , 0.0 , 0.0 , 

98.0 , 4133.84615385 , 4131.28205128 , 4135.8974359 , 4136.41025641 , 4131.28205128 , 4129.74358974 , 4128.20512821 , 4134.87179487 , 4138.46153846 , 4137.94871795 , 4193.33333333 , 4913.33333333 , 4133.84615385 , 4140.51282051 , 2044.0 , 2036.0 , 171.292 , 0.0 , 0.0 , 0.0 , 0.0 , 

99.0 , 4132.30769231 , 4132.30769231 , 4134.35897436 , 4137.43589744 , 4128.71794872 , 4129.23076923 , 4122.05128205 , 4134.87179487 , 4133.84615385 , 4138.97435897 , 4191.28205128 , 4911.79487179 , 4134.87179487 , 4142.05128205 , 2045.0 , 2038.0 , 171.3 , 0.0 , 0.0 , 0.0 , 0.0 , 

100.0 , 4131.79487179 , 4133.84615385 , 4134.35897436 , 4136.92307692 , 4129.74358974 , 4130.25641026 , 4123.58974359 , 4133.84615385 , 4134.35897436 , 4139.48717949 , 4191.79487179 , 4911.79487179 , 4132.82051282 , 4139.48717949 , 2044.0 , 2037.0 , 171.308 , 0.0 , 0.0 , 0.0 , 0.0 , 

101.0 , 4134.35897436 , 4131.79487179 , 4135.38461538 , 4133.33333333 , 4129.23076923 , 4129.74358974 , 4127.69230769 , 4133.33333333 , 4136.41025641 , 4137.43589744 , 4194.87179487 , 4914.35897436 , 4133.84615385 , 4144.1025641 , 2043.0 , 2037.0 , 171.32 , 0.0 , 0.0 , 0.0 , 0.0 , 

102.0 , 4133.84615385 , 4131.79487179 , 4136.92307692 , 4132.30769231 , 4129.23076923 , 4129.74358974 , 4129.23076923 , 4135.38461538 , 4135.38461538 , 4135.8974359 , 4193.84615385 , 4914.35897436 , 4135.8974359 , 4144.1025641 , 2042.0 , 2036.0 , 171.324 , 0.0 , 0.0 , 0.0 , 0.0 , 

103.0 , 4133.84615385 , 4134.35897436 , 4139.48717949 , 4133.84615385 , 4130.76923077 , 4129.23076923 , 4127.69230769 , 4134.87179487 , 4133.33333333 , 4137.43589744 , 4192.30769231 , 4914.87179487 , 4134.35897436 , 4142.05128205 , 2041.0 , 2035.0 , 171.332 , 0.0 , 0.0 , 0.0 , 0.0 , 

104.0 , 4132.30769231 , 4134.35897436 , 4138.46153846 , 4136.92307692 , 4132.82051282 , 4130.76923077 , 4125.64102564 , 4133.84615385 , 4134.87179487 , 4138.97435897 , 4192.30769231 , 4910.76923077 , 4133.84615385 , 4137.43589744 , 2042.0 , 2036.0 , 171.34 , 0.0 , 0.0 , 0.0 , 0.0 , 

105.0 , 4133.33333333 , 4133.33333333 , 4137.43589744 , 4136.92307692 , 4131.79487179 , 4131.28205128 , 4124.1025641 , 4132.82051282 , 4135.8974359 , 4138.46153846 , 4192.30769231 , 4910.25641026 , 4135.38461538 , 4141.53846154 , 2042.0 , 2036.0 , 171.352 , 0.0 , 0.0 , 0.0 , 0.0 , 

106.0 , 4133.84615385 , 4134.87179487 , 4137.43589744 , 4134.35897436 , 4130.76923077 , 4130.25641026 , 4127.17948718 , 4134.35897436 , 4136.92307692 , 4138.46153846 , 4191.28205128 , 4914.35897436 , 4133.84615385 , 4144.1025641 , 2041.0 , 2034.0 , 171.355 , 0.0 , 0.0 , 0.0 , 0.0 , 

107.0 , 4131.79487179 , 4132.82051282 , 4137.43589744 , 4132.82051282 , 4130.76923077 , 4130.76923077 , 4127.69230769 , 4135.8974359 , 4134.35897436 , 4138.97435897 , 4191.28205128 , 4915.8974359 , 4133.84615385 , 4141.53846154 , 2042.0 , 2034.0 , 171.364 , 0.0 , 0.0 , 0.0 , 0.0 , 

108.0 , 4130.76923077 , 4129.74358974 , 4135.8974359 , 4133.84615385 , 4130.76923077 , 4130.76923077 , 4126.66666667 , 4134.35897436 , 4132.82051282 , 4137.94871795 , 4192.82051282 , 4912.30769231 , 4135.8974359 , 4137.43589744 , 2043.0 , 2034.0 , 171.372 , 0.0 , 0.0 , 0.0 , 0.0 , 

109.0 , 4132.82051282 , 4131.79487179 , 4133.84615385 , 4135.38461538 , 4130.25641026 , 4129.23076923 , 4127.69230769 , 4133.84615385 , 4135.38461538 , 4137.43589744 , 4192.82051282 , 4911.79487179 , 4135.38461538 , 4137.94871795 , 2043.0 , 2034.0 , 171.382 , 0.0 , 0.0 , 0.0 , 0.0 , 

110.0 , 4133.84615385 , 4131.79487179 , 4134.87179487 , 4134.35897436 , 4131.79487179 , 4127.17948718 , 4127.17948718 , 4133.84615385 , 4134.87179487 , 4138.97435897 , 4190.25641026 , 4914.35897436 , 4134.35897436 , 4142.56410256 , 2043.0 , 2033.0 , 171.386 , 0.0 , 0.0 , 0.0 , 0.0 , 

111.0 , 4133.33333333 , 4131.79487179 , 4135.8974359 , 4135.8974359 , 4132.30769231 , 4128.20512821 , 4124.1025641 , 4132.30769231 , 4134.35897436 , 4140.51282051 , 4188.71794872 , 4913.84615385 , 4134.87179487 , 4142.56410256 , 2042.0 , 2034.0 , 171.396 , 0.0 , 0.0 , 0.0 , 0.0 , 

112.0 , 4133.33333333 , 4133.33333333 , 4136.92307692 , 4135.8974359 , 4131.28205128 , 4128.20512821 , 4125.64102564 , 4132.30769231 , 4136.92307692 , 4140.0 , 4192.30769231 , 4914.35897436 , 4132.30769231 , 4140.51282051 , 2043.0 , 2035.0 , 171.404 , 0.0 , 0.0 , 0.0 , 0.0 , 

113.0 , 4133.33333333 , 4132.30769231 , 4137.43589744 , 4133.84615385 , 4131.79487179 , 4129.23076923 , 4131.28205128 , 4135.8974359 , 4137.94871795 , 4139.48717949 , 4194.87179487 , 4914.35897436 , 4131.79487179 , 4139.48717949 , 2044.0 , 2035.0 , 171.415 , 0.0 , 0.0 , 0.0 , 0.0 , 

114.0 , 4134.87179487 , 4130.76923077 , 4136.41025641 , 4135.38461538 , 4131.28205128 , 4130.25641026 , 4130.76923077 , 4134.87179487 , 4134.35897436 , 4138.46153846 , 4192.30769231 , 4913.84615385 , 4132.30769231 , 4145.64102564 , 2043.0 , 2034.0 , 171.418 , 0.0 , 0.0 , 0.0 , 0.0 , 

115.0 , 4132.30769231 , 4134.35897436 , 4133.33333333 , 4137.43589744 , 4130.76923077 , 4131.79487179 , 4127.69230769 , 4132.82051282 , 4134.87179487 , 4138.46153846 , 4189.74358974 , 4910.76923077 , 4132.82051282 , 4142.56410256 , 2044.0 , 2036.0 , 171.426 , 0.0 , 0.0 , 0.0 , 0.0 , 

116.0 , 4133.33333333 , 4135.8974359 , 4135.8974359 , 4135.38461538 , 4131.79487179 , 4130.76923077 , 4127.17948718 , 4132.82051282 , 4135.8974359 , 4138.46153846 , 4192.30769231 , 4911.79487179 , 4133.33333333 , 4140.51282051 , 2044.0 , 2035.0 , 171.434 , 0.0 , 0.0 , 0.0 , 0.0 , 

117.0 , 4134.87179487 , 4133.84615385 , 4136.41025641 , 4137.43589744 , 4132.30769231 , 4130.76923077 , 4129.74358974 , 4134.35897436 , 4135.38461538 , 4138.46153846 , 4193.33333333 , 4912.82051282 , 4135.38461538 , 4139.48717949 , 2044.0 , 2035.0 , 171.446 , 0.0 , 0.0 , 0.0 , 0.0 , 

118.0 , 4135.38461538 , 4132.30769231 , 4134.87179487 , 4141.53846154 , 4131.28205128 , 4129.23076923 , 4127.69230769 , 4132.82051282 , 4134.87179487 , 4139.48717949 , 4191.28205128 , 4914.35897436 , 4135.38461538 , 4144.61538462 , 2044.0 , 2034.0 , 171.45 , 0.0 , 0.0 , 0.0 , 0.0 , 

119.0 , 4130.76923077 , 4134.35897436 , 4133.84615385 , 4139.48717949 , 4132.30769231 , 4129.23076923 , 4127.17948718 , 4132.30769231 , 4135.38461538 , 4140.0 , 4191.79487179 , 4914.35897436 , 4135.38461538 , 4140.51282051 , 2043.0 , 2033.0 , 171.459 , 0.0 , 0.0 , 0.0 , 0.0 , 

120.0 , 4129.74358974 , 4132.30769231 , 4135.8974359 , 4133.84615385 , 4131.79487179 , 4128.20512821 , 4127.69230769 , 4132.30769231 , 4135.38461538 , 4139.48717949 , 4193.84615385 , 4916.92307692 , 4136.41025641 , 4142.05128205 , 2044.0 , 2034.0 , 171.466 , 0.0 , 0.0 , 0.0 , 0.0 , 

121.0 , 4131.79487179 , 4130.76923077 , 4135.38461538 , 4135.8974359 , 4131.79487179 , 4128.71794872 , 4128.71794872 , 4133.84615385 , 4136.41025641 , 4138.46153846 , 4192.30769231 , 4914.35897436 , 4135.8974359 , 4144.1025641 , 2043.0 , 2036.0 , 171.476 , 0.0 , 0.0 , 0.0 , 0.0 , 

122.0 , 4134.87179487 , 4134.35897436 , 4135.8974359 , 4137.94871795 , 4133.33333333 , 4129.23076923 , 4124.61538462 , 4134.87179487 , 4135.38461538 , 4137.43589744 , 4191.28205128 , 4912.30769231 , 4134.35897436 , 4144.1025641 , 2043.0 , 2035.0 , 171.481 , 0.0 , 0.0 , 0.0 , 0.0 , 

123.0 , 4132.30769231 , 4134.87179487 , 4135.8974359 , 4136.41025641 , 4133.33333333 , 4128.71794872 , 4124.61538462 , 4134.35897436 , 4133.84615385 , 4137.94871795 , 4192.30769231 , 4911.79487179 , 4131.28205128 , 4138.97435897 , 2042.0 , 2035.0 , 171.49 , 0.0 , 0.0 , 0.0 , 0.0 , 

124.0 , 4131.79487179 , 4130.76923077 , 4133.84615385 , 4135.8974359 , 4130.76923077 , 4126.15384615 , 4128.20512821 , 4133.33333333 , 4134.35897436 , 4138.97435897 , 4193.84615385 , 4911.79487179 , 4131.79487179 , 4138.97435897 , 2042.0 , 2034.0 , 171.498 , 0.0 , 0.0 , 0.0 , 0.0 , 

125.0 , 4134.35897436 , 4131.79487179 , 4133.33333333 , 4137.94871795 , 4131.28205128 , 4127.69230769 , 4128.20512821 , 4133.33333333 , 4135.38461538 , 4141.02564103 , 4191.79487179 , 4909.23076923 , 4134.35897436 , 4141.02564103 , 2042.0 , 2035.0 , 171.511 , 0.0 , 0.0 , 0.0 , 0.0 , 

126.0 , 4134.35897436 , 4132.30769231 , 4135.38461538 , 4139.48717949 , 4130.76923077 , 4130.25641026 , 4124.61538462 , 4134.87179487 , 4135.38461538 , 4138.46153846 , 4189.74358974 , 4911.79487179 , 4136.92307692 , 4142.05128205 , 2041.0 , 2037.0 , 171.513 , 0.0 , 0.0 , 0.0 , 0.0 , 

127.0 , 4131.79487179 , 4130.25641026 , 4136.41025641 , 4137.94871795 , 4128.20512821 , 4129.74358974 , 4127.17948718 , 4134.87179487 , 4135.38461538 , 4135.38461538 , 4190.25641026 , 4914.87179487 , 4136.92307692 , 4142.05128205 , 2042.0 , 2036.0 , 171.521 , 0.0 , 0.0 , 0.0 , 0.0 , 

128.0 , 4131.79487179 , 4131.79487179 , 4135.38461538 , 4135.8974359 , 4130.25641026 , 4129.74358974 , 4129.74358974 , 4134.35897436 , 4135.38461538 , 4137.94871795 , 4191.79487179 , 4914.35897436 , 4134.35897436 , 4141.02564103 , 2043.0 , 2037.0 , 171.529 , 0.0 , 0.0 , 0.0 , 0.0 , 

0.0 , 4133.84615385 , 4132.82051282 , 4135.38461538 , 4134.35897436 , 4132.82051282 , 4129.74358974 , 4126.66666667 , 4133.84615385 , 4132.82051282 , 4141.02564103 , 4193.33333333 , 4914.87179487 , 4134.35897436 , 4142.05128205 , 2041.0 , 2035.0 , 171.542 , 0.0 , 0.0 , 0.0 , 0.0 , 

1.0 , 4131.28205128 , 4131.79487179 , 4134.35897436 , 4135.8974359 , 4133.33333333 , 4128.71794872 , 4126.66666667 , 4133.33333333 , 4135.8974359 , 4140.51282051 , 4193.84615385 , 4914.87179487 , 4137.94871795 , 4141.53846154 , 2042.0 , 2037.0 , 171.544 , 0.0 , 0.0 , 0.0 , 0.0 , 

2.0 , 4130.76923077 , 4131.28205128 , 4134.35897436 , 4134.35897436 , 4132.82051282 , 4129.23076923 , 4128.71794872 , 4130.76923077 , 4138.46153846 , 4138.97435897 , 4193.33333333 , 4913.84615385 , 4136.41025641 , 4142.05128205 , 2041.0 , 2036.0 , 171.552 , 0.0 , 0.0 , 0.0 , 0.0 , 

3.0 , 4132.30769231 , 4132.82051282 , 4134.35897436 , 4134.35897436 , 4131.79487179 , 4130.76923077 , 4129.74358974 , 4133.33333333 , 4136.92307692 , 4140.0 , 4192.82051282 , 4910.25641026 , 4133.84615385 , 4138.97435897 , 2042.0 , 2036.0 , 171.56 , 0.0 , 0.0 , 0.0 , 0.0 , 

4.0 , 4134.87179487 , 4134.35897436 , 4135.8974359 , 4134.35897436 , 4131.28205128 , 4128.71794872 , 4129.74358974 , 4134.87179487 , 4135.8974359 , 4143.07692308 , 4193.84615385 , 4911.79487179 , 4134.87179487 , 4140.51282051 , 2043.0 , 2036.0 , 171.572 , 0.0 , 0.0 , 0.0 , 0.0 , 

5.0 , 4132.82051282 , 4134.35897436 , 4136.41025641 , 4133.84615385 , 4132.30769231 , 4129.74358974 , 4130.76923077 , 4134.35897436 , 4137.43589744 , 4142.56410256 , 4192.30769231 , 4910.76923077 , 4135.8974359 , 4140.0 , 2042.0 , 2038.0 , 171.577 , 0.0 , 0.0 , 0.0 , 0.0 , 

6.0 , 4133.33333333 , 4131.28205128 , 4135.8974359 , 4133.33333333 , 4130.76923077 , 4130.25641026 , 4129.74358974 , 4134.87179487 , 4134.87179487 , 4136.92307692 , 4189.74358974 , 4913.33333333 , 4133.84615385 , 4142.56410256 , 2042.0 , 2035.0 , 171.585 , 0.0 , 0.0 , 0.0 , 0.0 , 

7.0 , 4134.35897436 , 4132.82051282 , 4135.38461538 , 4134.35897436 , 4130.76923077 , 4129.23076923 , 4131.79487179 , 4137.94871795 , 4135.38461538 , 4137.43589744 , 4191.28205128 , 4913.84615385 , 4132.82051282 , 4141.02564103 , 2042.0 , 2035.0 , 171.593 , 0.0 , 0.0 , 0.0 , 0.0 , 

8.0 , 4133.84615385 , 4134.87179487 , 4136.41025641 , 4134.35897436 , 4132.30769231 , 4128.20512821 , 4130.76923077 , 4136.41025641 , 4138.46153846 , 4142.05128205 , 4194.35897436 , 4913.84615385 , 4134.35897436 , 4142.56410256 , 2043.0 , 2034.0 , 171.605 , 0.0 , 0.0 , 0.0 , 0.0 , 

9.0 , 4130.76923077 , 4133.84615385 , 4134.87179487 , 4134.87179487 , 4131.79487179 , 4133.33333333 , 4129.23076923 , 4134.87179487 , 4138.97435897 , 4139.48717949 , 4191.79487179 , 4912.30769231 , 4137.43589744 , 4141.53846154 , 2042.0 , 2034.0 , 171.608 , 0.0 , 0.0 , 0.0 , 0.0 , 

10.0 , 4132.82051282 , 4131.79487179 , 4135.8974359 , 4136.41025641 , 4129.23076923 , 4132.30769231 , 4126.66666667 , 4133.84615385 , 4135.38461538 , 4136.41025641 , 4190.76923077 , 4914.35897436 , 4134.35897436 , 4146.15384615 , 2043.0 , 2032.0 , 171.615 , 0.0 , 0.0 , 0.0 , 0.0 , 

11.0 , 4132.30769231 , 4131.79487179 , 4135.38461538 , 4137.94871795 , 4130.76923077 , 4128.71794872 , 4126.66666667 , 4133.33333333 , 4133.84615385 , 4137.94871795 , 4192.82051282 , 4912.30769231 , 4129.74358974 , 4145.64102564 , 2043.0 , 2033.0 , 171.624 , 0.0 , 0.0 , 0.0 , 0.0 , 

12.0 , 4133.84615385 , 4132.30769231 , 4133.33333333 , 4137.43589744 , 4131.28205128 , 4127.69230769 , 4126.66666667 , 4133.33333333 , 4136.92307692 , 4138.97435897 , 4193.84615385 , 4911.79487179 , 4132.30769231 , 4145.12820513 , 2044.0 , 2033.0 , 171.636 , 0.0 , 0.0 , 0.0 , 0.0 , 

13.0 , 4135.8974359 , 4132.82051282 , 4136.92307692 , 4135.8974359 , 4129.74358974 , 4130.76923077 , 4129.23076923 , 4135.8974359 , 4138.97435897 , 4137.94871795 , 4191.28205128 , 4913.84615385 , 4135.8974359 , 4143.07692308 , 2044.0 , 2034.0 , 171.64 , 0.0 , 0.0 , 0.0 , 0.0 , 

14.0 , 4133.84615385 , 4130.76923077 , 4140.51282051 , 4134.87179487 , 4130.25641026 , 4130.76923077 , 4128.71794872 , 4136.92307692 , 4135.38461538 , 4137.43589744 , 4192.30769231 , 4914.35897436 , 4135.8974359 , 4143.07692308 , 2043.0 , 2034.0 , 171.648 , 0.0 , 0.0 , 0.0 , 0.0 , 

15.0 , 4130.76923077 , 4131.28205128 , 4134.35897436 , 4135.38461538 , 4132.82051282 , 4129.23076923 , 4127.69230769 , 4135.38461538 , 4132.30769231 , 4137.94871795 , 4193.84615385 , 4911.28205128 , 4134.87179487 , 4142.56410256 , 2044.0 , 2035.0 , 171.656 , 0.0 , 0.0 , 0.0 , 0.0 , 

16.0 , 4133.84615385 , 4133.33333333 , 4132.82051282 , 4134.35897436 , 4133.84615385 , 4130.25641026 , 4129.74358974 , 4133.33333333 , 4135.38461538 , 4136.92307692 , 4191.79487179 , 4912.82051282 , 4136.92307692 , 4141.02564103 , 2042.0 , 2036.0 , 171.667 , 0.0 , 0.0 , 0.0 , 0.0 , 

17.0 , 4135.38461538 , 4132.82051282 , 4137.94871795 , 4134.35897436 , 4131.79487179 , 4130.76923077 , 4131.28205128 , 4133.33333333 , 4140.0 , 4137.94871795 , 4191.28205128 , 4914.35897436 , 4135.38461538 , 4140.51282051 , 2042.0 , 2037.0 , 171.67 , 0.0 , 0.0 , 0.0 , 0.0 , 

18.0 , 4131.79487179 , 4132.30769231 , 4135.8974359 , 4135.38461538 , 4131.28205128 , 4129.74358974 , 4128.71794872 , 4136.92307692 , 4137.94871795 , 4140.0 , 4194.35897436 , 4910.76923077 , 4133.84615385 , 4141.02564103 , 2042.0 , 2036.0 , 171.678 , 0.0 , 0.0 , 0.0 , 0.0 , 

19.0 , 4132.82051282 , 4132.82051282 , 4135.38461538 , 4134.87179487 , 4131.28205128 , 4128.71794872 , 4128.20512821 , 4135.8974359 , 4133.33333333 , 4137.94871795 , 4193.84615385 , 4911.28205128 , 4133.84615385 , 4142.56410256 , 2044.0 , 2036.0 , 171.686 , 0.0 , 0.0 , 0.0 , 0.0 , 

20.0 , 4134.87179487 , 4133.33333333 , 4138.46153846 , 4135.8974359 , 4131.28205128 , 4130.76923077 , 4128.71794872 , 4134.87179487 , 4135.8974359 , 4136.41025641 , 4190.76923077 , 4912.82051282 , 4136.41025641 , 4139.48717949 , 2044.0 , 2036.0 , 171.698 , 0.0 , 0.0 , 0.0 , 0.0 , 

21.0 , 4135.38461538 , 4133.84615385 , 4137.94871795 , 4135.8974359 , 4131.28205128 , 4131.79487179 , 4127.17948718 , 4134.87179487 , 4138.46153846 , 4140.0 , 4192.82051282 , 4913.33333333 , 4136.92307692 , 4142.56410256 , 2043.0 , 2036.0 , 171.701 , 0.0 , 0.0 , 0.0 , 0.0 , 

22.0 , 4131.79487179 , 4134.87179487 , 4133.33333333 , 4136.41025641 , 4131.79487179 , 4131.79487179 , 4128.71794872 , 4133.84615385 , 4137.43589744 , 4140.0 , 4194.35897436 , 4911.79487179 , 4134.35897436 , 4143.58974359 , 2042.0 , 2035.0 , 171.711 , 0.0 , 0.0 , 0.0 , 0.0 , 

23.0 , 4133.33333333 , 4131.28205128 , 4136.41025641 , 4133.84615385 , 4131.79487179 , 4131.79487179 , 4129.23076923 , 4134.35897436 , 4135.38461538 , 4136.41025641 , 4192.30769231 , 4912.82051282 , 4134.35897436 , 4143.58974359 , 2042.0 , 2035.0 , 171.718 , 0.0 , 0.0 , 0.0 , 0.0 , 

24.0 , 4135.38461538 , 4132.30769231 , 4138.97435897 , 4133.33333333 , 4133.33333333 , 4131.79487179 , 4128.71794872 , 4140.0 , 4136.41025641 , 4137.94871795 , 4191.79487179 , 4911.79487179 , 4137.43589744 , 4142.56410256 , 2042.0 , 2036.0 , 171.73 , 0.0 , 0.0 , 0.0 , 0.0 , 

25.0 , 4134.87179487 , 4135.8974359 , 4137.43589744 , 4134.35897436 , 4134.35897436 , 4128.20512821 , 4126.66666667 , 4138.46153846 , 4134.35897436 , 4139.48717949 , 4192.82051282 , 4914.87179487 , 4137.43589744 , 4147.69230769 , 2042.0 , 2035.0 , 171.733 , 0.0 , 0.0 , 0.0 , 0.0 , 

26.0 , 4131.28205128 , 4134.87179487 , 4136.92307692 , 4136.92307692 , 4134.35897436 , 4128.20512821 , 4127.69230769 , 4133.33333333 , 4135.8974359 , 4138.46153846 , 4193.33333333 , 4914.87179487 , 4135.38461538 , 4146.15384615 , 2041.0 , 2034.0 , 171.742 , 0.0 , 0.0 , 0.0 , 0.0 , 

27.0 , 4134.87179487 , 4131.28205128 , 4140.0 , 4134.87179487 , 4134.35897436 , 4129.23076923 , 4127.17948718 , 4131.79487179 , 4137.94871795 , 4141.02564103 , 4194.35897436 , 4915.8974359 , 4136.92307692 , 4144.1025641 , 2041.0 , 2033.0 , 171.749 , 0.0 , 0.0 , 0.0 , 0.0 , 

28.0 , 4136.41025641 , 4131.79487179 , 4139.48717949 , 4136.92307692 , 4132.82051282 , 4131.79487179 , 4128.20512821 , 4132.82051282 , 4138.97435897 , 4142.56410256 , 4193.84615385 , 4914.35897436 , 4138.97435897 , 4138.46153846 , 2042.0 , 2034.0 , 171.762 , 0.0 , 0.0 , 0.0 , 0.0 , 

29.0 , 4135.38461538 , 4133.84615385 , 4137.43589744 , 4135.38461538 , 4129.74358974 , 4129.74358974 , 4125.64102564 , 4133.33333333 , 4136.92307692 , 4138.97435897 , 4192.82051282 , 4913.33333333 , 4136.92307692 , 4142.05128205 , 2043.0 , 2034.0 , 171.765 , 0.0 , 0.0 , 0.0 , 0.0 , 

30.0 , 4135.8974359 , 4135.38461538 , 4138.46153846 , 4132.30769231 , 4130.76923077 , 4128.71794872 , 4123.07692308 , 4135.8974359 , 4134.87179487 , 4136.92307692 , 4192.30769231 , 4911.28205128 , 4136.41025641 , 4142.05128205 , 2042.0 , 2035.0 , 171.773 , 0.0 , 0.0 , 0.0 , 0.0 , 

31.0 , 4136.92307692 , 4131.79487179 , 4140.51282051 , 4133.84615385 , 4131.79487179 , 4128.71794872 , 4124.1025641 , 4135.8974359 , 4136.41025641 , 4138.97435897 , 4192.82051282 , 4913.84615385 , 4138.46153846 , 4140.51282051 , 2042.0 , 2036.0 , 171.781 , 0.0 , 0.0 , 0.0 , 0.0 , 

32.0 , 4135.38461538 , 4128.71794872 , 4139.48717949 , 4135.8974359 , 4130.76923077 , 4130.76923077 , 4127.69230769 , 4135.8974359 , 4137.94871795 , 4139.48717949 , 4192.82051282 , 4913.33333333 , 4135.38461538 , 4136.92307692 , 2043.0 , 2033.0 , 171.793 , 0.0 , 0.0 , 0.0 , 0.0 , 

33.0 , 4136.41025641 , 4132.30769231 , 4138.97435897 , 4133.33333333 , 4130.76923077 , 4131.28205128 , 4129.23076923 , 4137.43589744 , 4137.43589744 , 4137.94871795 , 4192.30769231 , 4909.74358974 , 4132.30769231 , 4139.48717949 , 2042.0 , 2034.0 , 171.797 , 0.0 , 0.0 , 0.0 , 0.0 , 

34.0 , 4134.87179487 , 4135.38461538 , 4135.8974359 , 4133.33333333 , 4130.76923077 , 4130.25641026 , 4128.20512821 , 4136.92307692 , 4137.94871795 , 4136.41025641 , 4192.82051282 , 4911.28205128 , 4135.8974359 , 4142.05128205 , 2041.0 , 2033.0 , 171.804 , 0.0 , 0.0 , 0.0 , 0.0 , 

35.0 , 4131.79487179 , 4134.35897436 , 4134.35897436 , 4134.35897436 , 4131.79487179 , 4129.74358974 , 4126.66666667 , 4134.35897436 , 4138.97435897 , 4137.94871795 , 4194.35897436 , 4914.35897436 , 4137.43589744 , 4143.07692308 , 2042.0 , 2034.0 , 171.812 , 0.0 , 0.0 , 0.0 , 0.0 , 

36.0 , 4133.33333333 , 4133.84615385 , 4136.41025641 , 4135.38461538 , 4133.84615385 , 4130.25641026 , 4127.17948718 , 4132.82051282 , 4136.41025641 , 4140.51282051 , 4191.79487179 , 4913.33333333 , 4132.30769231 , 4143.07692308 , 2041.0 , 2035.0 , 171.825 , 0.0 , 0.0 , 0.0 , 0.0 , 

37.0 , 4135.8974359 , 4133.33333333 , 4137.43589744 , 4136.92307692 , 4132.30769231 , 4132.30769231 , 4130.25641026 , 4134.35897436 , 4134.35897436 , 4138.46153846 , 4190.76923077 , 4912.82051282 , 4133.84615385 , 4143.07692308 , 2043.0 , 2034.0 , 171.828 , 0.0 , 0.0 , 0.0 , 0.0 , 

38.0 , 4137.43589744 , 4130.25641026 , 4135.8974359 , 4135.38461538 , 4130.25641026 , 4131.79487179 , 4129.23076923 , 4133.33333333 , 4134.35897436 , 4135.8974359 , 4194.87179487 , 4915.38461538 , 4137.94871795 , 4146.15384615 , 2043.0 , 2035.0 , 171.836 , 0.0 , 0.0 , 0.0 , 0.0 , 

39.0 , 4136.41025641 , 4131.79487179 , 4136.41025641 , 4134.87179487 , 4131.79487179 , 4131.28205128 , 4127.69230769 , 4131.28205128 , 4134.87179487 , 4138.97435897 , 4195.38461538 , 4914.35897436 , 4136.92307692 , 4139.48717949 , 2043.0 , 2032.0 , 171.844 , 0.0 , 0.0 , 0.0 , 0.0 , 

40.0 , 4135.8974359 , 4134.35897436 , 4140.0 , 4137.43589744 , 4132.82051282 , 4130.76923077 , 4128.20512821 , 4132.82051282 , 4136.41025641 , 4140.51282051 , 4191.79487179 , 4912.30769231 , 4133.33333333 , 4141.02564103 , 2043.0 , 2033.0 , 171.856 , 0.0 , 0.0 , 0.0 , 0.0 , 

41.0 , 4134.35897436 , 4133.84615385 , 4140.0 , 4138.97435897 , 4133.33333333 , 4130.76923077 , 4130.76923077 , 4137.43589744 , 4137.94871795 , 4138.46153846 , 4191.79487179 , 4909.74358974 , 4134.87179487 , 4143.07692308 , 2043.0 , 2032.0 , 171.86 , 0.0 , 0.0 , 0.0 , 0.0 , 

42.0 , 4134.35897436 , 4131.79487179 , 4138.46153846 , 4136.92307692 , 4132.82051282 , 4129.23076923 , 4129.74358974 , 4134.87179487 , 4136.41025641 , 4136.41025641 , 4194.87179487 , 4911.28205128 , 4135.38461538 , 4143.58974359 , 2042.0 , 2033.0 , 171.869 , 0.0 , 0.0 , 0.0 , 0.0 , 

43.0 , 4132.30769231 , 4131.28205128 , 4137.43589744 , 4136.41025641 , 4131.79487179 , 4131.79487179 , 4129.74358974 , 4132.82051282 , 4137.43589744 , 4138.46153846 , 4193.84615385 , 4911.79487179 , 4135.38461538 , 4138.46153846 , 2042.0 , 2033.0 , 171.874 , 0.0 , 0.0 , 0.0 , 0.0 , 

44.0 , 4134.35897436 , 4129.23076923 , 4137.94871795 , 4136.41025641 , 4129.74358974 , 4132.30769231 , 4128.20512821 , 4134.87179487 , 4135.8974359 , 4140.0 , 4191.28205128 , 4915.38461538 , 4133.84615385 , 4141.02564103 , 2043.0 , 2032.0 , 171.887 , 0.0 , 0.0 , 0.0 , 0.0 , 

45.0 , 4136.92307692 , 4129.23076923 , 4135.38461538 , 4137.94871795 , 4130.25641026 , 4130.76923077 , 4128.20512821 , 4137.43589744 , 4134.87179487 , 4138.46153846 , 4191.28205128 , 4912.82051282 , 4132.30769231 , 4138.97435897 , 2043.0 , 2032.0 , 171.89 , 0.0 , 0.0 , 0.0 , 0.0 , 

46.0 , 4136.92307692 , 4131.28205128 , 4135.38461538 , 4136.41025641 , 4131.28205128 , 4128.20512821 , 4126.15384615 , 4135.8974359 , 4136.92307692 , 4136.41025641 , 4193.33333333 , 4912.82051282 , 4132.30769231 , 4141.02564103 , 2043.0 , 2031.0 , 171.9 , 0.0 , 0.0 , 0.0 , 0.0 , 

47.0 , 4132.82051282 , 4133.33333333 , 4137.43589744 , 4136.41025641 , 4132.30769231 , 4129.23076923 , 4125.12820513 , 4135.8974359 , 4138.97435897 , 4137.43589744 , 4191.79487179 , 4913.33333333 , 4133.33333333 , 4141.53846154 , 2043.0 , 2032.0 , 171.908 , 0.0 , 0.0 , 0.0 , 0.0 , 

48.0 , 4135.38461538 , 4132.30769231 , 4138.46153846 , 4136.41025641 , 4132.30769231 , 4130.25641026 , 4126.66666667 , 4134.87179487 , 4134.87179487 , 4138.97435897 , 4190.76923077 , 4914.35897436 , 4133.33333333 , 4142.05128205 , 2043.0 , 2031.0 , 171.918 , 0.0 , 0.0 , 0.0 , 0.0 , 

49.0 , 4137.43589744 , 4132.82051282 , 4136.92307692 , 4135.8974359 , 4131.28205128 , 4132.30769231 , 4128.71794872 , 4134.35897436 , 4133.84615385 , 4138.97435897 , 4192.30769231 , 4912.30769231 , 4132.82051282 , 4142.56410256 , 2042.0 , 2032.0 , 171.924 , 0.0 , 0.0 , 0.0 , 0.0 , 

50.0 , 4135.38461538 , 4134.35897436 , 4135.38461538 , 4135.8974359 , 4129.23076923 , 4131.79487179 , 4125.64102564 , 4134.87179487 , 4136.92307692 , 4138.46153846 , 4193.84615385 , 4913.33333333 , 4133.84615385 , 4146.66666667 , 2042.0 , 2033.0 , 171.931 , 0.0 , 0.0 , 0.0 , 0.0 , 

51.0 , 4131.79487179 , 4134.35897436 , 4133.84615385 , 4138.46153846 , 4130.76923077 , 4131.79487179 , 4127.17948718 , 4133.84615385 , 4135.8974359 , 4138.46153846 , 4192.82051282 , 4914.87179487 , 4135.38461538 , 4144.61538462 , 2041.0 , 2031.0 , 171.938 , 0.0 , 0.0 , 0.0 , 0.0 , 

52.0 , 4130.76923077 , 4134.87179487 , 4134.87179487 , 4140.0 , 4131.28205128 , 4130.76923077 , 4129.74358974 , 4133.33333333 , 4133.84615385 , 4137.94871795 , 4192.82051282 , 4913.33333333 , 4134.87179487 , 4141.53846154 , 2041.0 , 2032.0 , 171.951 , 0.0 , 0.0 , 0.0 , 0.0 , 

53.0 , 4130.25641026 , 4135.8974359 , 4136.92307692 , 4137.43589744 , 4129.74358974 , 4129.74358974 , 4128.71794872 , 4134.87179487 , 4137.43589744 , 4137.43589744 , 4194.35897436 , 4909.74358974 , 4132.82051282 , 4141.53846154 , 2042.0 , 2033.0 , 171.953 , 0.0 , 0.0 , 0.0 , 0.0 , 

54.0 , 4132.30769231 , 4134.35897436 , 4136.41025641 , 4135.8974359 , 4129.74358974 , 4128.71794872 , 4127.69230769 , 4134.35897436 , 4136.41025641 , 4137.94871795 , 4194.87179487 , 4907.69230769 , 4133.84615385 , 4143.07692308 , 2042.0 , 2033.0 , 171.963 , 0.0 , 0.0 , 0.0 , 0.0 , 

55.0 , 4135.38461538 , 4133.33333333 , 4138.46153846 , 4139.48717949 , 4131.79487179 , 4128.20512821 , 4127.69230769 , 4131.79487179 , 4131.28205128 , 4139.48717949 , 4193.84615385 , 4911.79487179 , 4136.92307692 , 4145.12820513 , 2041.0 , 2034.0 , 171.97 , 0.0 , 0.0 , 0.0 , 0.0 , 

56.0 , 4133.33333333 , 4133.33333333 , 4136.92307692 , 4140.51282051 , 4131.79487179 , 4128.71794872 , 4126.66666667 , 4132.30769231 , 4133.33333333 , 4140.51282051 , 4192.30769231 , 4912.30769231 , 4134.35897436 , 4142.56410256 , 2042.0 , 2036.0 , 171.982 , 0.0 , 0.0 , 0.0 , 0.0 , 

57.0 , 4136.41025641 , 4132.30769231 , 4134.87179487 , 4134.87179487 , 4129.74358974 , 4128.71794872 , 4127.69230769 , 4135.8974359 , 4137.43589744 , 4139.48717949 , 4193.33333333 , 4911.79487179 , 4131.28205128 , 4141.02564103 , 2043.0 , 2037.0 , 171.986 , 0.0 , 0.0 , 0.0 , 0.0 , 

58.0 , 4145.64102564 , 4140.0 , 4142.56410256 , 4143.07692308 , 4133.33333333 , 4133.33333333 , 4132.82051282 , 4138.97435897 , 4141.53846154 , 4137.94871795 , 4194.87179487 , 4919.48717949 , 4140.0 , 4143.07692308 , 2043.0 , 2036.0 , 171.994 , 0.0 , 0.0 , 0.0 , 0.0 , 

59.0 , 4148.20512821 , 4144.1025641 , 4147.17948718 , 4150.25641026 , 4134.87179487 , 4134.87179487 , 4133.33333333 , 4139.48717949 , 4141.02564103 , 4137.94871795 , 4196.92307692 , 4924.61538462 , 4144.61538462 , 4149.74358974 , 2041.0 , 2037.0 , 172.003 , 0.0 , 0.0 , 0.0 , 0.0 , 

60.0 , 4136.41025641 , 4136.41025641 , 4136.41025641 , 4142.56410256 , 4132.82051282 , 4131.28205128 , 4129.74358974 , 4139.48717949 , 4137.43589744 , 4138.97435897 , 4195.38461538 , 4914.87179487 , 4138.97435897 , 4143.58974359 , 2042.0 , 2037.0 , 172.012 , 0.0 , 0.0 , 0.0 , 0.0 , 

61.0 , 4131.28205128 , 4131.28205128 , 4132.30769231 , 4134.87179487 , 4129.74358974 , 4126.66666667 , 4127.17948718 , 4137.94871795 , 4133.84615385 , 4140.51282051 , 4193.84615385 , 4912.30769231 , 4134.87179487 , 4141.02564103 , 2042.0 , 2036.0 , 172.017 , 0.0 , 0.0 , 0.0 , 0.0 , 

62.0 , 4132.30769231 , 4133.33333333 , 4136.92307692 , 4137.94871795 , 4129.74358974 , 4130.25641026 , 4128.20512821 , 4136.41025641 , 4136.41025641 , 4138.97435897 , 4194.35897436 , 4914.35897436 , 4134.87179487 , 4141.53846154 , 2043.0 , 2036.0 , 172.025 , 0.0 , 0.0 , 0.0 , 0.0 , 

63.0 , 4132.30769231 , 4132.82051282 , 4137.43589744 , 4135.8974359 , 4129.74358974 , 4130.76923077 , 4126.66666667 , 4136.41025641 , 4138.46153846 , 4136.92307692 , 4194.87179487 , 4911.28205128 , 4134.87179487 , 4145.12820513 , 2042.0 , 2036.0 , 172.033 , 0.0 , 0.0 , 0.0 , 0.0 , 

64.0 , 4131.79487179 , 4130.76923077 , 4134.87179487 , 4133.84615385 , 4131.28205128 , 4128.71794872 , 4127.69230769 , 4137.94871795 , 4135.8974359 , 4137.94871795 , 4192.82051282 , 4910.25641026 , 4136.41025641 , 4140.0 , 2043.0 , 2035.0 , 172.044 , 0.0 , 0.0 , 0.0 , 0.0 , 

65.0 , 4135.8974359 , 4132.30769231 , 4136.41025641 , 4136.41025641 , 4132.30769231 , 4129.23076923 , 4128.20512821 , 4135.8974359 , 4133.84615385 , 4137.43589744 , 4193.33333333 , 4915.8974359 , 4135.38461538 , 4141.53846154 , 2042.0 , 2036.0 , 172.049 , 0.0 , 0.0 , 0.0 , 0.0 , 

66.0 , 4135.38461538 , 4132.82051282 , 4134.87179487 , 4137.43589744 , 4132.82051282 , 4131.79487179 , 4126.66666667 , 4137.94871795 , 4136.92307692 , 4136.41025641 , 4194.87179487 , 4912.82051282 , 4133.84615385 , 4141.53846154 , 2042.0 , 2035.0 , 172.058 , 0.0 , 0.0 , 0.0 , 0.0 , 

67.0 , 4136.41025641 , 4132.30769231 , 4134.87179487 , 4135.38461538 , 4132.30769231 , 4129.74358974 , 4126.15384615 , 4137.94871795 , 4136.41025641 , 4138.97435897 , 4195.38461538 , 4909.74358974 , 4135.8974359 , 4143.07692308 , 2042.0 , 2035.0 , 172.065 , 0.0 , 0.0 , 0.0 , 0.0 , 

68.0 , 4134.35897436 , 4131.79487179 , 4137.43589744 , 4135.38461538 , 4131.79487179 , 4129.74358974 , 4127.69230769 , 4133.33333333 , 4132.30769231 , 4139.48717949 , 4192.82051282 , 4911.28205128 , 4135.8974359 , 4140.51282051 , 2042.0 , 2033.0 , 172.077 , 0.0 , 0.0 , 0.0 , 0.0 , 

69.0 , 4130.76923077 , 4131.28205128 , 4140.0 , 4135.38461538 , 4131.28205128 , 4129.74358974 , 4126.15384615 , 4132.30769231 , 4135.8974359 , 4136.41025641 , 4191.79487179 , 4911.79487179 , 4135.8974359 , 4142.56410256 , 2042.0 , 2035.0 , 172.08 , 0.0 , 0.0 , 0.0 , 0.0 , 

70.0 , 4129.23076923 , 4133.33333333 , 4136.92307692 , 4135.8974359 , 4130.25641026 , 4129.74358974 , 4127.17948718 , 4137.43589744 , 4140.51282051 , 4136.92307692 , 4194.35897436 , 4909.74358974 , 4136.92307692 , 4141.53846154 , 2043.0 , 2034.0 , 172.089 , 0.0 , 0.0 , 0.0 , 0.0 , 

71.0 , 4131.79487179 , 4134.87179487 , 4132.82051282 , 4134.87179487 , 4129.23076923 , 4132.30769231 , 4129.74358974 , 4137.94871795 , 4137.43589744 , 4138.97435897 , 4194.35897436 , 4911.79487179 , 4135.8974359 , 4140.51282051 , 2043.0 , 2035.0 , 172.096 , 0.0 , 0.0 , 0.0 , 0.0 , 

72.0 , 4134.35897436 , 4133.33333333 , 4133.33333333 , 4135.38461538 , 4130.25641026 , 4131.28205128 , 4128.20512821 , 4132.82051282 , 4134.35897436 , 4137.94871795 , 4192.82051282 , 4913.84615385 , 4133.84615385 , 4143.07692308 , 2041.0 , 2035.0 , 172.108 , 0.0 , 0.0 , 0.0 , 0.0 , 

73.0 , 4136.92307692 , 4132.82051282 , 4133.84615385 , 4138.46153846 , 4132.30769231 , 4127.69230769 , 4126.66666667 , 4132.82051282 , 4136.41025641 , 4137.43589744 , 4193.33333333 , 4910.76923077 , 4134.35897436 , 4142.56410256 , 2042.0 , 2035.0 , 172.112 , 0.0 , 0.0 , 0.0 , 0.0 , 

74.0 , 4137.94871795 , 4133.33333333 , 4133.84615385 , 4135.8974359 , 4130.76923077 , 4128.20512821 , 4129.74358974 , 4134.87179487 , 4136.92307692 , 4138.97435897 , 4193.84615385 , 4911.79487179 , 4133.84615385 , 4142.05128205 , 2044.0 , 2038.0 , 172.121 , 0.0 , 0.0 , 0.0 , 0.0 , 

75.0 , 4134.87179487 , 4134.35897436 , 4134.87179487 , 4133.33333333 , 4129.74358974 , 4130.76923077 , 4132.82051282 , 4137.43589744 , 4138.46153846 , 4138.97435897 , 4192.30769231 , 4913.84615385 , 4134.87179487 , 4142.05128205 , 2043.0 , 2038.0 , 172.128 , 0.0 , 0.0 , 0.0 , 0.0 , 

76.0 , 4133.84615385 , 4133.84615385 , 4136.41025641 , 4135.38461538 , 4130.76923077 , 4129.23076923 , 4131.79487179 , 4135.8974359 , 4138.46153846 , 4137.94871795 , 4191.79487179 , 4913.84615385 , 4137.43589744 , 4143.07692308 , 2043.0 , 2036.0 , 172.14 , 0.0 , 0.0 , 0.0 , 0.0 , 

77.0 , 4134.35897436 , 4133.84615385 , 4134.87179487 , 4137.94871795 , 4131.28205128 , 4128.20512821 , 4131.28205128 , 4134.87179487 , 4136.41025641 , 4139.48717949 , 4192.30769231 , 4911.79487179 , 4137.43589744 , 4138.97435897 , 2043.0 , 2035.0 , 172.143 , 0.0 , 0.0 , 0.0 , 0.0 , 

78.0 , 4136.92307692 , 4130.76923077 , 4133.84615385 , 4135.8974359 , 4130.25641026 , 4126.15384615 , 4129.23076923 , 4134.35897436 , 4133.84615385 , 4139.48717949 , 4193.33333333 , 4914.87179487 , 4132.82051282 , 4139.48717949 , 2043.0 , 2035.0 , 172.152 , 0.0 , 0.0 , 0.0 , 0.0 , 

79.0 , 4134.35897436 , 4130.76923077 , 4133.84615385 , 4136.92307692 , 4130.76923077 , 4128.20512821 , 4128.20512821 , 4134.35897436 , 4135.38461538 , 4137.94871795 , 4192.30769231 , 4911.28205128 , 4131.28205128 , 4137.43589744 , 2042.0 , 2033.0 , 172.16 , 0.0 , 0.0 , 0.0 , 0.0 , 

80.0 , 4134.35897436 , 4131.28205128 , 4135.8974359 , 4135.8974359 , 4128.71794872 , 4129.74358974 , 4128.20512821 , 4134.87179487 , 4136.41025641 , 4138.97435897 , 4190.76923077 , 4910.25641026 , 4133.33333333 , 4141.53846154 , 2043.0 , 2033.0 , 172.171 , 0.0 , 0.0 , 0.0 , 0.0 , 

81.0 , 4134.87179487 , 4127.69230769 , 4135.8974359 , 4136.41025641 , 4130.25641026 , 4128.20512821 , 4130.25641026 , 4136.92307692 , 4136.92307692 , 4139.48717949 , 4191.28205128 , 4911.79487179 , 4135.8974359 , 4141.02564103 , 2042.0 , 2033.0 , 172.175 , 0.0 , 0.0 , 0.0 , 0.0 , 

82.0 , 4136.41025641 , 4126.66666667 , 4136.92307692 , 4136.92307692 , 4132.30769231 , 4127.69230769 , 4130.25641026 , 4135.38461538 , 4136.41025641 , 4137.43589744 , 4194.87179487 , 4915.38461538 , 4135.38461538 , 4141.53846154 , 2042.0 , 2033.0 , 172.183 , 0.0 , 0.0 , 0.0 , 0.0 , 

83.0 , 4132.30769231 , 4131.79487179 , 4137.94871795 , 4135.8974359 , 4131.28205128 , 4131.79487179 , 4130.25641026 , 4135.8974359 , 4137.94871795 , 4137.94871795 , 4193.33333333 , 4913.33333333 , 4133.33333333 , 4138.97435897 , 2041.0 , 2032.0 , 172.192 , 0.0 , 0.0 , 0.0 , 0.0 , 

84.0 , 4133.84615385 , 4131.79487179 , 4137.94871795 , 4133.84615385 , 4127.69230769 , 4129.23076923 , 4128.20512821 , 4135.38461538 , 4138.97435897 , 4140.0 , 4192.30769231 , 4911.79487179 , 4134.87179487 , 4142.05128205 , 2041.0 , 2032.0 , 172.204 , 0.0 , 0.0 , 0.0 , 0.0 , 

85.0 , 4136.41025641 , 4130.76923077 , 4136.92307692 , 4134.35897436 , 4130.25641026 , 4128.20512821 , 4129.23076923 , 4133.84615385 , 4138.97435897 , 4138.97435897 , 4193.33333333 , 4911.28205128 , 4136.41025641 , 4140.0 , 2041.0 , 2033.0 , 172.207 , 0.0 , 0.0 , 0.0 , 0.0 , 

86.0 , 4133.84615385 , 4132.30769231 , 4137.94871795 , 4132.82051282 , 4132.30769231 , 4129.23076923 , 4130.25641026 , 4132.30769231 , 4138.97435897 , 4140.0 , 4193.33333333 , 4913.84615385 , 4136.41025641 , 4143.07692308 , 2042.0 , 2033.0 , 172.215 , 0.0 , 0.0 , 0.0 , 0.0 , 

87.0 , 4129.74358974 , 4133.33333333 , 4136.92307692 , 4135.38461538 , 4130.76923077 , 4128.20512821 , 4129.23076923 , 4134.35897436 , 4138.46153846 , 4141.53846154 , 4191.79487179 , 4913.84615385 , 4136.92307692 , 4144.61538462 , 2041.0 , 2032.0 , 172.223 , 0.0 , 0.0 , 0.0 , 0.0 , 

88.0 , 4131.79487179 , 4132.30769231 , 4135.38461538 , 4137.94871795 , 4131.28205128 , 4125.12820513 , 4128.20512821 , 4135.38461538 , 4135.8974359 , 4139.48717949 , 4192.82051282 , 4912.82051282 , 4137.94871795 , 4143.58974359 , 2042.0 , 2034.0 , 172.235 , 0.0 , 0.0 , 0.0 , 0.0 , 

89.0 , 4133.33333333 , 4131.28205128 , 4135.8974359 , 4136.41025641 , 4132.30769231 , 4127.69230769 , 4129.74358974 , 4134.35897436 , 4135.38461538 , 4138.97435897 , 4192.30769231 , 4912.30769231 , 4136.41025641 , 4142.05128205 , 2043.0 , 2033.0 , 172.238 , 0.0 , 0.0 , 0.0 , 0.0 , 

90.0 , 4132.30769231 , 4132.30769231 , 4133.84615385 , 4135.38461538 , 4131.79487179 , 4130.25641026 , 4130.25641026 , 4133.33333333 , 4136.92307692 , 4141.02564103 , 4190.76923077 , 4912.30769231 , 4135.38461538 , 4141.53846154 , 2043.0 , 2035.0 , 172.247 , 0.0 , 0.0 , 0.0 , 0.0 , 

91.0 , 4132.82051282 , 4133.33333333 , 4135.38461538 , 4135.38461538 , 4130.76923077 , 4129.74358974 , 4128.20512821 , 4131.28205128 , 4136.41025641 , 4140.0 , 4193.33333333 , 4915.38461538 , 4133.84615385 , 4141.02564103 , 2043.0 , 2034.0 , 172.254 , 0.0 , 0.0 , 0.0 , 0.0 , 

92.0 , 4131.28205128 , 4132.82051282 , 4141.02564103 , 4133.84615385 , 4131.28205128 , 4128.71794872 , 4126.66666667 , 4130.76923077 , 4135.8974359 , 4140.0 , 4194.35897436 , 4915.38461538 , 4134.35897436 , 4139.48717949 , 2043.0 , 2033.0 , 172.266 , 0.0 , 0.0 , 0.0 , 0.0 , 

93.0 , 4132.30769231 , 4131.28205128 , 4139.48717949 , 4134.35897436 , 4131.28205128 , 4128.71794872 , 4126.66666667 , 4133.84615385 , 4135.38461538 , 4140.51282051 , 4191.28205128 , 4913.84615385 , 4135.38461538 , 4139.48717949 , 2041.0 , 2036.0 , 172.269 , 0.0 , 0.0 , 0.0 , 0.0 , 

94.0 , 4133.84615385 , 4131.79487179 , 4132.82051282 , 4136.92307692 , 4131.28205128 , 4130.76923077 , 4127.17948718 , 4137.43589744 , 4133.84615385 , 4137.94871795 , 4191.79487179 , 4911.79487179 , 4136.41025641 , 4138.46153846 , 2041.0 , 2037.0 , 172.277 , 0.0 , 0.0 , 0.0 , 0.0 , 

95.0 , 4133.84615385 , 4130.25641026 , 4132.30769231 , 4135.38461538 , 4129.74358974 , 4129.23076923 , 4126.15384615 , 4135.8974359 , 4132.82051282 , 4136.92307692 , 4195.38461538 , 4913.33333333 , 4135.8974359 , 4142.05128205 , 2041.0 , 2037.0 , 172.285 , 0.0 , 0.0 , 0.0 , 0.0 , 

96.0 , 4131.28205128 , 4129.74358974 , 4133.33333333 , 4136.92307692 , 4129.74358974 , 4130.25641026 , 4126.66666667 , 4134.35897436 , 4133.84615385 , 4138.97435897 , 4193.84615385 , 4911.79487179 , 4137.43589744 , 4139.48717949 , 2041.0 , 2035.0 , 172.297 , 0.0 , 0.0 , 0.0 , 0.0 , 

97.0 , 4132.82051282 , 4130.25641026 , 4135.8974359 , 4136.92307692 , 4130.25641026 , 4131.79487179 , 4127.17948718 , 4133.84615385 , 4132.82051282 , 4138.97435897 , 4192.82051282 , 4913.33333333 , 4137.43589744 , 4140.0 , 2042.0 , 2038.0 , 172.301 , 0.0 , 0.0 , 0.0 , 0.0 , 

98.0 , 4131.28205128 , 4131.28205128 , 4135.38461538 , 4135.38461538 , 4130.25641026 , 4131.79487179 , 4129.74358974 , 4134.87179487 , 4132.82051282 , 4138.46153846 , 4194.35897436 , 4912.82051282 , 4137.43589744 , 4139.48717949 , 2042.0 , 2037.0 , 172.309 , 0.0 , 0.0 , 0.0 , 0.0 , 

99.0 , 4131.79487179 , 4128.71794872 , 4134.35897436 , 4134.87179487 , 4129.74358974 , 4127.69230769 , 4127.69230769 , 4133.33333333 , 4133.84615385 , 4140.0 , 4194.35897436 , 4913.33333333 , 4137.43589744 , 4142.05128205 , 2042.0 , 2036.0 , 172.318 , 0.0 , 0.0 , 0.0 , 0.0 , 

100.0 , 4133.84615385 , 4129.23076923 , 4134.87179487 , 4136.41025641 , 4131.79487179 , 4128.71794872 , 4127.17948718 , 4132.30769231 , 4137.43589744 , 4139.48717949 , 4191.79487179 , 4912.30769231 , 4135.8974359 , 4138.97435897 , 2043.0 , 2036.0 , 172.329 , 0.0 , 0.0 , 0.0 , 0.0 , 

101.0 , 4134.35897436 , 4130.25641026 , 4137.43589744 , 4136.41025641 , 4133.84615385 , 4129.74358974 , 4126.15384615 , 4133.84615385 , 4138.46153846 , 4136.92307692 , 4192.30769231 , 4915.8974359 , 4134.87179487 , 4143.58974359 , 2042.0 , 2036.0 , 172.332 , 0.0 , 0.0 , 0.0 , 0.0 , 

102.0 , 4130.25641026 , 4131.28205128 , 4136.41025641 , 4135.8974359 , 4132.82051282 , 4128.20512821 , 4128.20512821 , 4137.94871795 , 4137.43589744 , 4136.41025641 , 4193.84615385 , 4916.92307692 , 4134.87179487 , 4143.07692308 , 2042.0 , 2036.0 , 172.34 , 0.0 , 0.0 , 0.0 , 0.0 , 

103.0 , 4133.33333333 , 4129.23076923 , 4136.41025641 , 4133.84615385 , 4128.71794872 , 4126.66666667 , 4129.23076923 , 4135.8974359 , 4136.41025641 , 4136.92307692 , 4193.33333333 , 4916.92307692 , 4135.38461538 , 4140.51282051 , 2043.0 , 2036.0 , 172.348 , 0.0 , 0.0 , 0.0 , 0.0 , 

104.0 , 4135.8974359 , 4128.20512821 , 4135.8974359 , 4137.43589744 , 4129.74358974 , 4128.71794872 , 4130.25641026 , 4134.35897436 , 4135.38461538 , 4137.94871795 , 4191.28205128 , 4911.28205128 , 4136.41025641 , 4137.43589744 , 2043.0 , 2036.0 , 172.36 , 0.0 , 0.0 , 0.0 , 0.0 , 

105.0 , 4133.84615385 , 4128.20512821 , 4135.8974359 , 4140.51282051 , 4131.28205128 , 4128.20512821 , 4127.69230769 , 4135.38461538 , 4134.87179487 , 4138.46153846 , 4192.30769231 , 4908.20512821 , 4135.8974359 , 4141.02564103 , 2043.0 , 2035.0 , 172.363 , 0.0 , 0.0 , 0.0 , 0.0 , 

106.0 , 4129.74358974 , 4129.74358974 , 4138.46153846 , 4138.46153846 , 4131.79487179 , 4127.69230769 , 4127.69230769 , 4132.82051282 , 4135.38461538 , 4137.94871795 , 4192.82051282 , 4911.28205128 , 4134.35897436 , 4138.46153846 , 2043.0 , 2036.0 , 172.374 , 0.0 , 0.0 , 0.0 , 0.0 , 

107.0 , 4133.84615385 , 4129.74358974 , 4138.46153846 , 4135.8974359 , 4132.30769231 , 4127.17948718 , 4129.23076923 , 4128.20512821 , 4133.84615385 , 4139.48717949 , 4191.28205128 , 4913.84615385 , 4134.35897436 , 4137.94871795 , 2044.0 , 2036.0 , 172.38 , 0.0 , 0.0 , 0.0 , 0.0 , 

108.0 , 4136.41025641 , 4129.74358974 , 4135.38461538 , 4134.87179487 , 4132.82051282 , 4128.71794872 , 4127.17948718 , 4130.76923077 , 4132.82051282 , 4141.02564103 , 4190.76923077 , 4910.25641026 , 4134.87179487 , 4142.56410256 , 2044.0 , 2037.0 , 172.392 , 0.0 , 0.0 , 0.0 , 0.0 , 

109.0 , 4133.33333333 , 4133.84615385 , 4134.35897436 , 4132.30769231 , 4130.76923077 , 4130.76923077 , 4123.58974359 , 4135.8974359 , 4134.35897436 , 4142.05128205 , 4192.82051282 , 4911.28205128 , 4137.43589744 , 4143.58974359 , 2043.0 , 2034.0 , 172.395 , 0.0 , 0.0 , 0.0 , 0.0 , 

110.0 , 4133.33333333 , 4136.41025641 , 4135.8974359 , 4133.84615385 , 4129.23076923 , 4130.76923077 , 4125.64102564 , 4136.92307692 , 4135.8974359 , 4141.02564103 , 4192.30769231 , 4917.94871795 , 4138.97435897 , 4140.0 , 2043.0 , 2034.0 , 172.403 , 0.0 , 0.0 , 0.0 , 0.0 , 

111.0 , 4134.35897436 , 4134.35897436 , 4135.38461538 , 4137.43589744 , 4130.76923077 , 4131.28205128 , 4129.74358974 , 4135.38461538 , 4136.41025641 , 4138.97435897 , 4190.76923077 , 4917.43589744 , 4139.48717949 , 4139.48717949 , 2043.0 , 2035.0 , 172.412 , 0.0 , 0.0 , 0.0 , 0.0 , 

112.0 , 4133.84615385 , 4131.79487179 , 4136.41025641 , 4133.33333333 , 4131.28205128 , 4132.82051282 , 4128.71794872 , 4134.87179487 , 4137.43589744 , 4137.94871795 , 4192.30769231 , 4913.84615385 , 4136.41025641 , 4145.12820513 , 2042.0 , 2034.0 , 172.423 , 0.0 , 0.0 , 0.0 , 0.0 , 

113.0 , 4131.28205128 , 4133.33333333 , 4136.41025641 , 4131.79487179 , 4132.82051282 , 4132.82051282 , 4129.23076923 , 4137.43589744 , 4137.94871795 , 4138.46153846 , 4191.79487179 , 4911.79487179 , 4135.38461538 , 4143.07692308 , 2043.0 , 2035.0 , 172.427 , 0.0 , 0.0 , 0.0 , 0.0 , 

114.0 , 4131.28205128 , 4134.35897436 , 4136.41025641 , 4134.35897436 , 4134.35897436 , 4128.71794872 , 4128.71794872 , 4135.8974359 , 4135.38461538 , 4137.43589744 , 4191.28205128 , 4915.38461538 , 4133.33333333 , 4142.56410256 , 2044.0 , 2035.0 , 172.436 , 0.0 , 0.0 , 0.0 , 0.0 , 

115.0 , 4131.28205128 , 4133.84615385 , 4138.46153846 , 4137.43589744 , 4133.84615385 , 4129.74358974 , 4127.17948718 , 4134.35897436 , 4134.35897436 , 4137.94871795 , 4192.82051282 , 4916.41025641 , 4133.84615385 , 4140.0 , 2044.0 , 2036.0 , 172.443 , 0.0 , 0.0 , 0.0 , 0.0 , 

116.0 , 4134.35897436 , 4131.28205128 , 4141.02564103 , 4139.48717949 , 4133.33333333 , 4130.76923077 , 4127.17948718 , 4134.35897436 , 4134.87179487 , 4139.48717949 , 4192.82051282 , 4915.38461538 , 4135.8974359 , 4141.02564103 , 2044.0 , 2035.0 , 172.455 , 0.0 , 0.0 , 0.0 , 0.0 , 

117.0 , 4132.82051282 , 4129.74358974 , 4134.87179487 , 4138.46153846 , 4133.33333333 , 4129.23076923 , 4130.25641026 , 4133.84615385 , 4134.87179487 , 4138.46153846 , 4189.74358974 , 4911.79487179 , 4134.87179487 , 4137.43589744 , 2042.0 , 2036.0 , 172.459 , 0.0 , 0.0 , 0.0 , 0.0 , 

118.0 , 4132.30769231 , 4130.25641026 , 4133.84615385 , 4134.35897436 , 4130.76923077 , 4127.17948718 , 4129.74358974 , 4130.25641026 , 4134.35897436 , 4137.43589744 , 4190.76923077 , 4914.35897436 , 4133.84615385 , 4140.0 , 2043.0 , 2037.0 , 172.466 , 0.0 , 0.0 , 0.0 , 0.0 , 

119.0 , 4133.84615385 , 4131.28205128 , 4135.38461538 , 4137.94871795 , 4131.79487179 , 4128.71794872 , 4128.71794872 , 4132.82051282 , 4135.38461538 , 4138.97435897 , 4191.79487179 , 4913.33333333 , 4135.8974359 , 4140.0 , 2044.0 , 2037.0 , 172.475 , 0.0 , 0.0 , 0.0 , 0.0 , 

120.0 , 4136.41025641 , 4130.25641026 , 4135.8974359 , 4140.0 , 4134.35897436 , 4129.23076923 , 4128.71794872 , 4136.41025641 , 4134.87179487 , 4138.46153846 , 4190.25641026 , 4911.79487179 , 4136.92307692 , 4141.53846154 , 2042.0 , 2038.0 , 172.485 , 0.0 , 0.0 , 0.0 , 0.0 , 

121.0 , 4132.82051282 , 4130.25641026 , 4136.92307692 , 4136.92307692 , 4132.30769231 , 4129.74358974 , 4129.74358974 , 4135.38461538 , 4134.35897436 , 4137.94871795 , 4189.74358974 , 4912.30769231 , 4136.41025641 , 4140.51282051 , 2043.0 , 2038.0 , 172.49 , 0.0 , 0.0 , 0.0 , 0.0 , 

122.0 , 4136.41025641 , 4131.79487179 , 4138.46153846 , 4134.87179487 , 4128.20512821 , 4128.71794872 , 4127.69230769 , 4132.30769231 , 4135.38461538 , 4136.41025641 , 4190.25641026 , 4913.84615385 , 4135.8974359 , 4142.56410256 , 2044.0 , 2036.0 , 172.498 , 0.0 , 0.0 , 0.0 , 0.0 , 

123.0 , 4138.46153846 , 4134.35897436 , 4135.38461538 , 4135.38461538 , 4129.23076923 , 4128.71794872 , 4126.66666667 , 4133.33333333 , 4136.92307692 , 4136.41025641 , 4190.76923077 , 4912.30769231 , 4135.8974359 , 4141.02564103 , 2044.0 , 2036.0 , 172.506 , 0.0 , 0.0 , 0.0 , 0.0 , 

124.0 , 4136.41025641 , 4133.33333333 , 4135.38461538 , 4133.84615385 , 4130.76923077 , 4130.25641026 , 4128.20512821 , 4135.8974359 , 4134.87179487 , 4138.46153846 , 4193.84615385 , 4912.82051282 , 4135.38461538 , 4143.07692308 , 2045.0 , 2035.0 , 172.518 , 0.0 , 0.0 , 0.0 , 0.0 , 

125.0 , 4133.33333333 , 4131.79487179 , 4141.02564103 , 4132.82051282 , 4131.28205128 , 4134.87179487 , 4130.76923077 , 4134.35897436 , 4133.84615385 , 4138.97435897 , 4193.84615385 , 4912.82051282 , 4134.35897436 , 4145.12820513 , 2043.0 , 2035.0 , 172.521 , 0.0 , 0.0 , 0.0 , 0.0 , 

126.0 , 4135.8974359 , 4134.35897436 , 4140.0 , 4132.30769231 , 4130.25641026 , 4132.82051282 , 4129.74358974 , 4133.33333333 , 4133.84615385 , 4137.94871795 , 4193.33333333 , 4914.35897436 , 4134.87179487 , 4145.12820513 , 2042.0 , 2035.0 , 172.529 , 0.0 , 0.0 , 0.0 , 0.0 , 

127.0 , 4137.43589744 , 4135.8974359 , 4136.41025641 , 4133.84615385 , 4131.79487179 , 4129.23076923 , 4128.71794872 , 4135.38461538 , 4132.82051282 , 4138.46153846 , 4192.82051282 , 4912.82051282 , 4136.41025641 , 4144.1025641 , 2043.0 , 2034.0 , 172.536 , 0.0 , 0.0 , 0.0 , 0.0 , 

128.0 , 4136.92307692 , 4134.35897436 , 4136.92307692 , 4134.35897436 , 4133.33333333 , 4131.28205128 , 4130.76923077 , 4135.38461538 , 4134.87179487 , 4140.0 , 4192.30769231 , 4908.71794872 , 4137.43589744 , 4142.05128205 , 2043.0 , 2033.0 , 172.55 , 0.0 , 0.0 , 0.0 , 0.0 , 

0.0 , 4136.92307692 , 4132.82051282 , 4139.48717949 , 4135.8974359 , 4132.30769231 , 4131.79487179 , 4128.20512821 , 4131.79487179 , 4137.43589744 , 4140.0 , 4193.84615385 , 4912.30769231 , 4135.38461538 , 4140.0 , 2043.0 , 2035.0 , 172.552 , 0.0 , 0.0 , 0.0 , 0.0 , 

1.0 , 4133.84615385 , 4134.35897436 , 4139.48717949 , 4137.43589744 , 4132.30769231 , 4129.74358974 , 4124.61538462 , 4129.74358974 , 4136.92307692 , 4138.97435897 , 4194.35897436 , 4915.8974359 , 4135.8974359 , 4138.97435897 , 2043.0 , 2034.0 , 172.562 , 0.0 , 0.0 , 0.0 , 0.0 , 

2.0 , 4133.84615385 , 4134.35897436 , 4136.41025641 , 4134.87179487 , 4133.84615385 , 4128.71794872 , 4125.64102564 , 4130.25641026 , 4134.35897436 , 4136.92307692 , 4191.28205128 , 4913.84615385 , 4135.8974359 , 4141.53846154 , 2043.0 , 2033.0 , 172.57 , 0.0 , 0.0 , 0.0 , 0.0 , 

3.0 , 4133.84615385 , 4132.30769231 , 4134.87179487 , 4134.35897436 , 4133.33333333 , 4129.74358974 , 4128.71794872 , 4133.33333333 , 4135.38461538 , 4137.43589744 , 4190.76923077 , 4909.74358974 , 4134.35897436 , 4138.97435897 , 2043.0 , 2036.0 , 172.582 , 0.0 , 0.0 , 0.0 , 0.0 , 

4.0 , 4134.35897436 , 4131.28205128 , 4135.8974359 , 4136.92307692 , 4131.28205128 , 4129.23076923 , 4126.66666667 , 4134.87179487 , 4136.92307692 , 4138.97435897 , 4195.38461538 , 4911.79487179 , 4131.28205128 , 4140.0 , 2043.0 , 2035.0 , 172.585 , 0.0 , 0.0 , 0.0 , 0.0 , 

5.0 , 4131.28205128 , 4132.82051282 , 4136.41025641 , 4138.97435897 , 4130.76923077 , 4130.76923077 , 4128.20512821 , 4136.92307692 , 4136.41025641 , 4138.46153846 , 4195.38461538 , 4911.79487179 , 4132.82051282 , 4139.48717949 , 2044.0 , 2035.0 , 172.594 , 0.0 , 0.0 , 0.0 , 0.0 , 

6.0 , 4131.79487179 , 4132.82051282 , 4135.8974359 , 4134.87179487 , 4130.25641026 , 4131.28205128 , 4132.30769231 , 4136.92307692 , 4134.35897436 , 4136.41025641 , 4193.84615385 , 4913.33333333 , 4134.87179487 , 4143.58974359 , 2044.0 , 2036.0 , 172.6 , 0.0 , 0.0 , 0.0 , 0.0 , 

7.0 , 4132.82051282 , 4131.28205128 , 4133.84615385 , 4134.87179487 , 4131.79487179 , 4130.76923077 , 4131.79487179 , 4134.87179487 , 4135.38461538 , 4136.92307692 , 4193.33333333 , 4911.28205128 , 4134.35897436 , 4143.07692308 , 2043.0 , 2036.0 , 172.612 , 0.0 , 0.0 , 0.0 , 0.0 , 

8.0 , 4133.84615385 , 4132.82051282 , 4134.87179487 , 4135.38461538 , 4132.82051282 , 4129.23076923 , 4129.23076923 , 4133.84615385 , 4135.38461538 , 4138.46153846 , 4193.84615385 , 4913.33333333 , 4134.35897436 , 4145.12820513 , 2041.0 , 2037.0 , 172.616 , 0.0 , 0.0 , 0.0 , 0.0 , 

9.0 , 4131.28205128 , 4134.35897436 , 4136.41025641 , 4135.8974359 , 4132.30769231 , 4130.76923077 , 4131.28205128 , 4136.92307692 , 4135.38461538 , 4137.94871795 , 4192.82051282 , 4914.87179487 , 4135.38461538 , 4142.05128205 , 2042.0 , 2035.0 , 172.625 , 0.0 , 0.0 , 0.0 , 0.0 , 

10.0 , 4133.84615385 , 4131.28205128 , 4136.92307692 , 4134.35897436 , 4131.28205128 , 4129.74358974 , 4129.23076923 , 4135.8974359 , 4136.92307692 , 4136.41025641 , 4192.30769231 , 4916.41025641 , 4133.84615385 , 4142.56410256 , 2041.0 , 2034.0 , 172.632 , 0.0 , 0.0 , 0.0 , 0.0 , 

11.0 , 4133.84615385 , 4130.76923077 , 4135.38461538 , 4135.38461538 , 4131.79487179 , 4129.23076923 , 4126.15384615 , 4132.30769231 , 4138.46153846 , 4136.41025641 , 4192.82051282 , 4914.35897436 , 4133.84615385 , 4141.53846154 , 2040.0 , 2033.0 , 172.644 , 0.0 , 0.0 , 0.0 , 0.0 , 

12.0 , 4130.25641026 , 4132.82051282 , 4135.38461538 , 4136.92307692 , 4130.76923077 , 4129.23076923 , 4125.64102564 , 4131.79487179 , 4137.43589744 , 4138.97435897 , 4194.35897436 , 4914.35897436 , 4134.35897436 , 4142.05128205 , 2041.0 , 2036.0 , 172.647 , 0.0 , 0.0 , 0.0 , 0.0 , 

13.0 , 4128.20512821 , 4133.33333333 , 4133.84615385 , 4136.41025641 , 4131.28205128 , 4131.28205128 , 4129.23076923 , 4136.41025641 , 4136.41025641 , 4140.51282051 , 4193.33333333 , 4913.33333333 , 4130.76923077 , 4136.41025641 , 2041.0 , 2035.0 , 172.657 , 0.0 , 0.0 , 0.0 , 0.0 , 

14.0 , 4130.76923077 , 4133.33333333 , 4133.33333333 , 4134.87179487 , 4131.28205128 , 4132.30769231 , 4129.74358974 , 4138.46153846 , 4137.94871795 , 4137.94871795 , 4192.30769231 , 4912.30769231 , 4131.79487179 , 4136.92307692 , 2041.0 , 2035.0 , 172.663 , 0.0 , 0.0 , 0.0 , 0.0 , 

15.0 , 4131.28205128 , 4135.38461538 , 4136.41025641 , 4134.35897436 , 4131.79487179 , 4132.30769231 , 4129.74358974 , 4135.8974359 , 4137.94871795 , 4135.8974359 , 4192.82051282 , 4908.71794872 , 4136.41025641 , 4136.41025641 , 2042.0 , 2035.0 , 172.676 , 0.0 , 0.0 , 0.0 , 0.0 , 

16.0 , 4130.25641026 , 4135.8974359 , 4135.8974359 , 4134.35897436 , 4131.79487179 , 4129.23076923 , 4130.76923077 , 4134.87179487 , 4137.94871795 , 4137.43589744 , 4193.84615385 , 4909.23076923 , 4136.41025641 , 4135.8974359 , 2043.0 , 2035.0 , 172.679 , 0.0 , 0.0 , 0.0 , 0.0 , 

17.0 , 4131.28205128 , 4130.76923077 , 4133.33333333 , 4134.87179487 , 4131.28205128 , 4128.20512821 , 4130.76923077 , 4137.43589744 , 4136.92307692 , 4140.0 , 4193.84615385 , 4913.84615385 , 4132.82051282 , 4138.97435897 , 2043.0 , 2034.0 , 172.688 , 0.0 , 0.0 , 0.0 , 0.0 , 

18.0 , 4132.82051282 , 4128.71794872 , 4134.35897436 , 4136.41025641 , 4132.82051282 , 4130.76923077 , 4127.69230769 , 4137.43589744 , 4135.38461538 , 4140.0 , 4192.82051282 , 4913.33333333 , 4132.82051282 , 4140.51282051 , 2043.0 , 2034.0 , 172.696 , 0.0 , 0.0 , 0.0 , 0.0 , 

19.0 , 4134.35897436 , 4130.76923077 , 4136.41025641 , 4137.43589744 , 4134.35897436 , 4128.71794872 , 4126.15384615 , 4132.82051282 , 4133.84615385 , 4138.97435897 , 4192.82051282 , 4911.28205128 , 4133.33333333 , 4142.05128205 , 2043.0 , 2035.0 , 172.709 , 0.0 , 0.0 , 0.0 , 0.0 , 

20.0 , 4134.35897436 , 4131.79487179 , 4133.84615385 , 4137.43589744 , 4132.82051282 , 4127.69230769 , 4127.17948718 , 4131.79487179 , 4136.92307692 , 4138.46153846 , 4196.41025641 , 4911.28205128 , 4134.35897436 , 4141.02564103 , 2042.0 , 2033.0 , 172.711 , 0.0 , 0.0 , 0.0 , 0.0 , 

21.0 , 4134.87179487 , 4130.76923077 , 4134.35897436 , 4135.38461538 , 4129.74358974 , 4128.20512821 , 4125.12820513 , 4136.92307692 , 4137.94871795 , 4140.0 , 4194.87179487 , 4913.33333333 , 4134.87179487 , 4140.0 , 2045.0 , 2035.0 , 172.72 , 0.0 , 0.0 , 0.0 , 0.0 , 

22.0 , 4131.28205128 , 4132.82051282 , 4136.92307692 , 4134.35897436 , 4132.30769231 , 4129.74358974 , 4126.66666667 , 4140.0 , 4135.38461538 , 4138.97435897 , 4191.79487179 , 4912.30769231 , 4133.84615385 , 4135.8974359 , 2044.0 , 2033.0 , 172.73 , 0.0 , 0.0 , 0.0 , 0.0 , 

23.0 , 4130.25641026 , 4131.28205128 , 4135.8974359 , 4133.33333333 , 4134.87179487 , 4130.25641026 , 4127.17948718 , 4135.8974359 , 4135.38461538 , 4136.41025641 , 4194.35897436 , 4913.33333333 , 4131.28205128 , 4141.02564103 , 2043.0 , 2034.0 , 172.74 , 0.0 , 0.0 , 0.0 , 0.0 , 

24.0 , 4130.76923077 , 4129.23076923 , 4132.30769231 , 4136.41025641 , 4132.82051282 , 4131.28205128 , 4126.66666667 , 4134.87179487 , 4139.48717949 , 4137.94871795 , 4195.8974359 , 4914.35897436 , 4133.84615385 , 4139.48717949 , 2043.0 , 2035.0 , 172.745 , 0.0 , 0.0 , 0.0 , 0.0 , 

25.0 , 4132.30769231 , 4130.25641026 , 4132.30769231 , 4135.8974359 , 4130.25641026 , 4128.71794872 , 4126.66666667 , 4135.8974359 , 4137.94871795 , 4140.0 , 4192.30769231 , 4915.8974359 , 4136.41025641 , 4138.46153846 , 2043.0 , 2036.0 , 172.75 , 0.0 , 0.0 , 0.0 , 0.0 , 

26.0 , 4131.28205128 , 4131.28205128 , 4132.82051282 , 4134.35897436 , 4130.76923077 , 4129.23076923 , 4127.69230769 , 4137.43589744 , 4136.92307692 , 4138.97435897 , 4190.76923077 , 4911.79487179 , 4133.33333333 , 4138.46153846 , 2043.0 , 2036.0 , 172.758 , 0.0 , 0.0 , 0.0 , 0.0 , 

27.0 , 4134.35897436 , 4128.20512821 , 4133.33333333 , 4135.38461538 , 4130.76923077 , 4129.74358974 , 4125.64102564 , 4135.8974359 , 4137.43589744 , 4136.41025641 , 4193.33333333 , 4912.30769231 , 4133.33333333 , 4142.56410256 , 2043.0 , 2036.0 , 172.769 , 0.0 , 0.0 , 0.0 , 0.0 , 

28.0 , 4133.84615385 , 4129.23076923 , 4134.87179487 , 4134.87179487 , 4130.76923077 , 4129.23076923 , 4126.66666667 , 4133.33333333 , 4137.43589744 , 4136.92307692 , 4193.33333333 , 4913.84615385 , 4136.92307692 , 4139.48717949 , 2043.0 , 2038.0 , 172.774 , 0.0 , 0.0 , 0.0 , 0.0 , 

29.0 , 4133.33333333 , 4130.25641026 , 4137.94871795 , 4130.25641026 , 4130.76923077 , 4128.20512821 , 4126.15384615 , 4133.33333333 , 4135.38461538 , 4141.02564103 , 4191.28205128 , 4913.84615385 , 4137.43589744 , 4139.48717949 , 2044.0 , 2038.0 , 172.782 , 0.0 , 0.0 , 0.0 , 0.0 , 

30.0 , 4134.87179487 , 4129.23076923 , 4136.41025641 , 4132.30769231 , 4132.30769231 , 4129.74358974 , 4126.15384615 , 4135.8974359 , 4136.41025641 , 4141.02564103 , 4190.76923077 , 4911.28205128 , 4133.33333333 , 4138.97435897 , 2044.0 , 2038.0 , 172.791 , 0.0 , 0.0 , 0.0 , 0.0 , 

31.0 , 4136.41025641 , 4129.74358974 , 4133.84615385 , 4136.41025641 , 4130.76923077 , 4128.71794872 , 4126.66666667 , 4136.92307692 , 4137.43589744 , 4136.41025641 , 4193.33333333 , 4914.35897436 , 4132.82051282 , 4141.53846154 , 2044.0 , 2037.0 , 172.802 , 0.0 , 0.0 , 0.0 , 0.0 , 

32.0 , 4132.30769231 , 4131.79487179 , 4136.41025641 , 4136.92307692 , 4130.25641026 , 4128.20512821 , 4127.17948718 , 4136.92307692 , 4136.92307692 , 4136.41025641 , 4194.35897436 , 4914.35897436 , 4134.87179487 , 4142.56410256 , 2044.0 , 2039.0 , 172.805 , 0.0 , 0.0 , 0.0 , 0.0 , 

33.0 , 4133.33333333 , 4132.30769231 , 4138.97435897 , 4136.41025641 , 4131.79487179 , 4129.74358974 , 4125.64102564 , 4136.41025641 , 4136.92307692 , 4140.51282051 , 4192.82051282 , 4913.33333333 , 4136.41025641 , 4144.61538462 , 2044.0 , 2038.0 , 172.814 , 0.0 , 0.0 , 0.0 , 0.0 , 

34.0 , 4137.94871795 , 4133.84615385 , 4136.92307692 , 4133.84615385 , 4132.82051282 , 4129.74358974 , 4125.64102564 , 4133.33333333 , 4137.94871795 , 4140.0 , 4191.79487179 , 4915.38461538 , 4134.35897436 , 4142.56410256 , 2044.0 , 2038.0 , 172.822 , 0.0 , 0.0 , 0.0 , 0.0 , 

35.0 , 4135.8974359 , 4134.35897436 , 4134.87179487 , 4131.79487179 , 4130.25641026 , 4129.74358974 , 4125.64102564 , 4134.35897436 , 4137.94871795 , 4137.94871795 , 4192.82051282 , 4916.41025641 , 4132.82051282 , 4141.53846154 , 2043.0 , 2038.0 , 172.832 , 0.0 , 0.0 , 0.0 , 0.0 , 

36.0 , 4132.30769231 , 4132.82051282 , 4135.38461538 , 4133.84615385 , 4129.23076923 , 4131.79487179 , 4125.64102564 , 4135.38461538 , 4136.92307692 , 4138.46153846 , 4193.84615385 , 4915.38461538 , 4133.84615385 , 4143.58974359 , 2043.0 , 2036.0 , 172.837 , 0.0 , 0.0 , 0.0 , 0.0 , 

37.0 , 4134.87179487 , 4131.28205128 , 4135.8974359 , 4136.92307692 , 4131.79487179 , 4130.76923077 , 4124.61538462 , 4135.38461538 , 4137.94871795 , 4140.51282051 , 4193.84615385 , 4915.38461538 , 4135.8974359 , 4142.56410256 , 2043.0 , 2037.0 , 172.846 , 0.0 , 0.0 , 0.0 , 0.0 , 

38.0 , 4137.43589744 , 4132.82051282 , 4137.94871795 , 4133.33333333 , 4132.82051282 , 4127.17948718 , 4123.07692308 , 4134.87179487 , 4138.97435897 , 4141.02564103 , 4193.84615385 , 4915.38461538 , 4133.33333333 , 4140.51282051 , 2043.0 , 2036.0 , 172.853 , 0.0 , 0.0 , 0.0 , 0.0 , 

39.0 , 4133.33333333 , 4132.82051282 , 4137.43589744 , 4131.28205128 , 4132.30769231 , 4130.25641026 , 4125.12820513 , 4135.38461538 , 4137.43589744 , 4137.94871795 , 4193.84615385 , 4912.30769231 , 4132.82051282 , 4139.48717949 , 2043.0 , 2035.0 , 172.865 , 0.0 , 0.0 , 0.0 , 0.0 , 

40.0 , 4132.82051282 , 4130.76923077 , 4135.8974359 , 4133.84615385 , 4132.30769231 , 4131.28205128 , 4126.15384615 , 4135.38461538 , 4134.87179487 , 4136.92307692 , 4193.84615385 , 4913.84615385 , 4135.38461538 , 4142.56410256 , 2044.0 , 2035.0 , 172.868 , 0.0 , 0.0 , 0.0 , 0.0 , 

41.0 , 4131.79487179 , 4128.71794872 , 4134.87179487 , 4136.41025641 , 4132.82051282 , 4128.71794872 , 4124.1025641 , 4138.97435897 , 4137.94871795 , 4140.0 , 4191.28205128 , 4913.84615385 , 4136.41025641 , 4138.46153846 , 2045.0 , 2034.0 , 172.877 , 0.0 , 0.0 , 0.0 , 0.0 , 

42.0 , 4132.30769231 , 4128.71794872 , 4135.8974359 , 4134.35897436 , 4132.30769231 , 4126.66666667 , 4120.51282051 , 4138.46153846 , 4139.48717949 , 4139.48717949 , 4190.25641026 , 4911.28205128 , 4133.33333333 , 4140.0 , 2043.0 , 2034.0 , 172.885 , 0.0 , 0.0 , 0.0 , 0.0 , 

43.0 , 4133.33333333 , 4130.25641026 , 4135.8974359 , 4135.38461538 , 4131.79487179 , 4129.23076923 , 4123.58974359 , 4136.92307692 , 4137.43589744 , 4136.92307692 , 4191.79487179 , 4910.25641026 , 4133.33333333 , 4140.0 , 2043.0 , 2035.0 , 172.896 , 0.0 , 0.0 , 0.0 , 0.0 , 

44.0 , 4135.38461538 , 4129.74358974 , 4135.38461538 , 4134.87179487 , 4131.28205128 , 4128.71794872 , 4127.69230769 , 4136.41025641 , 4135.8974359 , 4137.43589744 , 4193.84615385 , 4915.38461538 , 4133.84615385 , 4141.53846154 , 2044.0 , 2034.0 , 172.9 , 0.0 , 0.0 , 0.0 , 0.0 , 

45.0 , 4133.33333333 , 4130.25641026 , 4132.82051282 , 4133.84615385 , 4131.79487179 , 4128.71794872 , 4128.71794872 , 4134.35897436 , 4136.41025641 , 4138.97435897 , 4192.82051282 , 4912.82051282 , 4131.28205128 , 4140.0 , 2044.0 , 2033.0 , 172.908 , 0.0 , 0.0 , 0.0 , 0.0 , 

46.0 , 4134.87179487 , 4132.82051282 , 4135.38461538 , 4131.28205128 , 4130.76923077 , 4128.71794872 , 4125.12820513 , 4132.82051282 , 4134.35897436 , 4136.92307692 , 4193.84615385 , 4912.30769231 , 4131.79487179 , 4144.61538462 , 2044.0 , 2035.0 , 172.916 , 0.0 , 0.0 , 0.0 , 0.0 , 

47.0 , 4134.87179487 , 4134.35897436 , 4138.97435897 , 4130.76923077 , 4131.28205128 , 4130.25641026 , 4123.07692308 , 4134.87179487 , 4133.84615385 , 4136.92307692 , 4195.38461538 , 4915.8974359 , 4134.87179487 , 4142.05128205 , 2044.0 , 2033.0 , 172.928 , 0.0 , 0.0 , 0.0 , 0.0 , 

48.0 , 4133.84615385 , 4132.30769231 , 4137.43589744 , 4131.28205128 , 4130.25641026 , 4129.23076923 , 4123.07692308 , 4134.87179487 , 4135.38461538 , 4138.46153846 , 4192.82051282 , 4915.8974359 , 4133.84615385 , 4142.56410256 , 2045.0 , 2034.0 , 172.931 , 0.0 , 0.0 , 0.0 , 0.0 , 

49.0 , 4132.82051282 , 4133.33333333 , 4133.84615385 , 4133.33333333 , 4130.76923077 , 4128.20512821 , 4126.15384615 , 4134.87179487 , 4136.41025641 , 4137.94871795 , 4190.76923077 , 4911.28205128 , 4132.30769231 , 4143.58974359 , 2044.0 , 2035.0 , 172.94 , 0.0 , 0.0 , 0.0 , 0.0 , 

50.0 , 4134.35897436 , 4133.33333333 , 4136.92307692 , 4133.33333333 , 4131.28205128 , 4129.23076923 , 4126.66666667 , 4133.84615385 , 4133.33333333 , 4137.43589744 , 4191.79487179 , 4912.82051282 , 4135.8974359 , 4143.58974359 , 2045.0 , 2034.0 , 172.948 , 0.0 , 0.0 , 0.0 , 0.0 , 

51.0 , 4132.30769231 , 4129.23076923 , 4137.43589744 , 4133.84615385 , 4131.79487179 , 4131.28205128 , 4126.15384615 , 4132.82051282 , 4133.33333333 , 4138.97435897 , 4192.30769231 , 4913.84615385 , 4137.94871795 , 4141.53846154 , 2045.0 , 2034.0 , 172.959 , 0.0 , 0.0 , 0.0 , 0.0 , 

52.0 , 4132.30769231 , 4131.79487179 , 4133.84615385 , 4135.38461538 , 4130.76923077 , 4130.25641026 , 4126.66666667 , 4134.87179487 , 4135.8974359 , 4138.97435897 , 4191.79487179 , 4911.79487179 , 4136.41025641 , 4143.58974359 , 2045.0 , 2033.0 , 172.963 , 0.0 , 0.0 , 0.0 , 0.0 , 

53.0 , 4137.43589744 , 4136.92307692 , 4134.35897436 , 4134.87179487 , 4130.76923077 , 4130.25641026 , 4127.17948718 , 4134.87179487 , 4136.92307692 , 4138.46153846 , 4192.30769231 , 4911.79487179 , 4134.35897436 , 4144.1025641 , 2044.0 , 2034.0 , 172.972 , 0.0 , 0.0 , 0.0 , 0.0 , 

54.0 , 4137.43589744 , 4133.84615385 , 4137.43589744 , 4134.35897436 , 4131.79487179 , 4129.23076923 , 4123.07692308 , 4133.33333333 , 4138.46153846 , 4138.97435897 , 4193.33333333 , 4912.30769231 , 4133.33333333 , 4140.0 , 2045.0 , 2035.0 , 172.978 , 0.0 , 0.0 , 0.0 , 0.0 , 

55.0 , 4131.79487179 , 4129.74358974 , 4135.38461538 , 4135.8974359 , 4132.30769231 , 4128.71794872 , 4122.56410256 , 4133.84615385 , 4137.94871795 , 4137.94871795 , 4193.84615385 , 4912.30769231 , 4131.28205128 , 4139.48717949 , 2045.0 , 2035.0 , 172.992 , 0.0 , 0.0 , 0.0 , 0.0 , 

56.0 , 4134.35897436 , 4131.79487179 , 4133.33333333 , 4135.8974359 , 4131.28205128 , 4129.74358974 , 4126.15384615 , 4134.87179487 , 4135.38461538 , 4137.94871795 , 4192.82051282 , 4913.33333333 , 4131.79487179 , 4141.53846154 , 2045.0 , 2036.0 , 172.995 , 0.0 , 0.0 , 0.0 , 0.0 , 

57.0 , 4140.51282051 , 4132.30769231 , 4136.41025641 , 4135.38461538 , 4129.74358974 , 4128.20512821 , 4126.66666667 , 4131.79487179 , 4134.87179487 , 4138.97435897 , 4193.33333333 , 4913.33333333 , 4131.28205128 , 4144.1025641 , 2043.0 , 2036.0 , 173.002 , 0.0 , 0.0 , 0.0 , 0.0 , 

58.0 , 4134.87179487 , 4132.82051282 , 4136.92307692 , 4136.92307692 , 4130.76923077 , 4127.69230769 , 4127.17948718 , 4132.30769231 , 4136.92307692 , 4138.97435897 , 4193.33333333 , 4910.25641026 , 4132.30769231 , 4140.51282051 , 2044.0 , 2036.0 , 173.01 , 0.0 , 0.0 , 0.0 , 0.0 , 

59.0 , 4132.30769231 , 4134.87179487 , 4135.8974359 , 4135.8974359 , 4132.30769231 , 4127.69230769 , 4126.66666667 , 4134.35897436 , 4133.84615385 , 4138.46153846 , 4192.30769231 , 4911.28205128 , 4132.82051282 , 4141.53846154 , 2042.0 , 2037.0 , 173.022 , 0.0 , 0.0 , 0.0 , 0.0 , 

60.0 , 4135.38461538 , 4133.84615385 , 4135.8974359 , 4136.41025641 , 4132.82051282 , 4130.25641026 , 4126.15384615 , 4135.38461538 , 4132.82051282 , 4139.48717949 , 4191.79487179 , 4912.82051282 , 4132.82051282 , 4142.56410256 , 2043.0 , 2035.0 , 173.027 , 0.0 , 0.0 , 0.0 , 0.0 , 

61.0 , 4134.87179487 , 4130.25641026 , 4134.87179487 , 4134.87179487 , 4130.76923077 , 4131.28205128 , 4126.66666667 , 4134.87179487 , 4136.92307692 , 4140.0 , 4192.82051282 , 4911.79487179 , 4133.33333333 , 4146.15384615 , 2042.0 , 2037.0 , 173.034 , 0.0 , 0.0 , 0.0 , 0.0 , 

62.0 , 4128.20512821 , 4131.28205128 , 4132.82051282 , 4137.94871795 , 4130.76923077 , 4132.82051282 , 4130.25641026 , 4134.35897436 , 4138.46153846 , 4140.0 , 4192.30769231 , 4909.74358974 , 4134.87179487 , 4144.61538462 , 2041.0 , 2038.0 , 173.042 , 0.0 , 0.0 , 0.0 , 0.0 , 

63.0 , 4130.25641026 , 4128.20512821 , 4134.35897436 , 4140.51282051 , 4132.30769231 , 4130.76923077 , 4126.66666667 , 4136.92307692 , 4135.8974359 , 4138.97435897 , 4191.79487179 , 4913.84615385 , 4131.79487179 , 4151.28205128 , 2042.0 , 2038.0 , 173.054 , 0.0 , 0.0 , 0.0 , 0.0 , 

64.0 , 4131.28205128 , 4122.05128205 , 4134.35897436 , 4138.97435897 , 4132.82051282 , 4129.23076923 , 4125.64102564 , 4142.05128205 , 4137.43589744 , 4136.92307692 , 4192.82051282 , 4913.84615385 , 4129.74358974 , 4151.28205128 , 2043.0 , 2037.0 , 173.057 , 0.0 , 0.0 , 0.0 , 0.0 , 

