['COUNTER', 'AF3', 'F7', 'F3', 'FC5', 'T7', 'P7', 'O1', 'O2', 'P8', 'T8', 'FC6', 'F4', 'F8', 'AF4', 'GYROX', 'GYROY', 'TIMESTAMP', 'FUNC_ID', 'FUNC_VALUE', 'MARKER', 'SYNC_SIGNAL']
73.0 , 4138.46153846 , 4131.79487179 , 4137.94871795 , 4136.41025641 , 4132.82051282 , 4130.76923077 , 4131.28205128 , 4133.33333333 , 4135.8974359 , 4137.94871795 , 4191.79487179 , 4912.30769231 , 4134.35897436 , 4140.0 , 2042.0 , 2038.0 , 279.867 , 0.0 , 0.0 , 0.0 , 0.0 , 

74.0 , 4138.97435897 , 4131.79487179 , 4135.38461538 , 4136.41025641 , 4130.25641026 , 4128.20512821 , 4128.71794872 , 4133.84615385 , 4135.38461538 , 4138.97435897 , 4192.82051282 , 4912.82051282 , 4134.35897436 , 4140.51282051 , 2042.0 , 2038.0 , 279.875 , 0.0 , 0.0 , 0.0 , 0.0 , 

75.0 , 4134.35897436 , 4132.30769231 , 4135.8974359 , 4135.8974359 , 4131.79487179 , 4129.74358974 , 4128.20512821 , 4139.48717949 , 4136.41025641 , 4138.46153846 , 4192.30769231 , 4912.30769231 , 4134.87179487 , 4140.0 , 2043.0 , 2038.0 , 279.887 , 0.0 , 0.0 , 0.0 , 0.0 , 

76.0 , 4133.84615385 , 4130.76923077 , 4140.0 , 4133.84615385 , 4133.84615385 , 4132.30769231 , 4129.23076923 , 4139.48717949 , 4135.38461538 , 4139.48717949 , 4191.79487179 , 4914.87179487 , 4137.43589744 , 4141.02564103 , 2044.0 , 2037.0 , 279.893 , 0.0 , 0.0 , 0.0 , 0.0 , 

77.0 , 4132.82051282 , 4130.76923077 , 4138.97435897 , 4135.38461538 , 4132.30769231 , 4132.30769231 , 4131.79487179 , 4135.38461538 , 4134.87179487 , 4140.0 , 4193.33333333 , 4914.35897436 , 4138.46153846 , 4137.43589744 , 2044.0 , 2036.0 , 279.897 , 0.0 , 0.0 , 0.0 , 0.0 , 

78.0 , 4135.38461538 , 4133.84615385 , 4137.43589744 , 4137.94871795 , 4132.82051282 , 4129.74358974 , 4130.25641026 , 4134.87179487 , 4135.8974359 , 4138.97435897 , 4196.41025641 , 4914.87179487 , 4136.92307692 , 4143.07692308 , 2044.0 , 2036.0 , 279.906 , 0.0 , 0.0 , 0.0 , 0.0 , 

79.0 , 4134.87179487 , 4134.87179487 , 4136.41025641 , 4138.46153846 , 4134.87179487 , 4132.30769231 , 4128.20512821 , 4139.48717949 , 4137.94871795 , 4137.94871795 , 4194.87179487 , 4914.35897436 , 4136.92307692 , 4143.58974359 , 2043.0 , 2038.0 , 279.919 , 0.0 , 0.0 , 0.0 , 0.0 , 

80.0 , 4134.87179487 , 4130.25641026 , 4135.38461538 , 4135.38461538 , 4130.25641026 , 4130.76923077 , 4126.15384615 , 4136.41025641 , 4136.92307692 , 4138.46153846 , 4192.30769231 , 4915.8974359 , 4136.41025641 , 4144.1025641 , 2044.0 , 2037.0 , 279.923 , 0.0 , 0.0 , 0.0 , 0.0 , 

81.0 , 4135.8974359 , 4131.79487179 , 4133.33333333 , 4135.8974359 , 4128.20512821 , 4128.71794872 , 4129.74358974 , 4134.35897436 , 4136.41025641 , 4138.46153846 , 4193.33333333 , 4913.84615385 , 4134.87179487 , 4141.02564103 , 2044.0 , 2036.0 , 279.93 , 0.0 , 0.0 , 0.0 , 0.0 , 

82.0 , 4137.43589744 , 4134.87179487 , 4135.38461538 , 4136.92307692 , 4132.82051282 , 4130.25641026 , 4131.28205128 , 4135.8974359 , 4137.94871795 , 4138.46153846 , 4194.87179487 , 4914.87179487 , 4134.87179487 , 4140.0 , 2044.0 , 2037.0 , 279.938 , 0.0 , 0.0 , 0.0 , 0.0 , 

83.0 , 4133.33333333 , 4132.30769231 , 4138.46153846 , 4134.87179487 , 4134.35897436 , 4133.84615385 , 4128.71794872 , 4134.87179487 , 4136.92307692 , 4137.43589744 , 4192.82051282 , 4912.30769231 , 4135.38461538 , 4136.92307692 , 2043.0 , 2037.0 , 279.95 , 0.0 , 0.0 , 0.0 , 0.0 , 

84.0 , 4133.33333333 , 4129.74358974 , 4137.43589744 , 4134.35897436 , 4129.23076923 , 4132.30769231 , 4128.20512821 , 4132.82051282 , 4132.82051282 , 4137.43589744 , 4191.28205128 , 4910.25641026 , 4134.35897436 , 4139.48717949 , 2044.0 , 2037.0 , 279.956 , 0.0 , 0.0 , 0.0 , 0.0 , 

85.0 , 4135.38461538 , 4130.76923077 , 4135.38461538 , 4135.8974359 , 4128.71794872 , 4131.28205128 , 4132.30769231 , 4134.35897436 , 4133.84615385 , 4138.46153846 , 4193.84615385 , 4913.33333333 , 4134.35897436 , 4140.51282051 , 2043.0 , 2036.0 , 279.961 , 0.0 , 0.0 , 0.0 , 0.0 , 

86.0 , 4135.8974359 , 4133.33333333 , 4136.92307692 , 4134.87179487 , 4132.30769231 , 4132.82051282 , 4131.79487179 , 4135.38461538 , 4136.92307692 , 4137.94871795 , 4193.33333333 , 4914.87179487 , 4135.38461538 , 4141.53846154 , 2043.0 , 2036.0 , 279.969 , 0.0 , 0.0 , 0.0 , 0.0 , 

87.0 , 4137.43589744 , 4133.84615385 , 4140.0 , 4133.84615385 , 4132.82051282 , 4133.84615385 , 4130.25641026 , 4133.33333333 , 4134.35897436 , 4138.46153846 , 4190.25641026 , 4911.79487179 , 4134.87179487 , 4144.1025641 , 2043.0 , 2036.0 , 279.981 , 0.0 , 0.0 , 0.0 , 0.0 , 

88.0 , 4138.46153846 , 4128.71794872 , 4137.94871795 , 4136.92307692 , 4130.76923077 , 4130.76923077 , 4131.28205128 , 4133.33333333 , 4134.35897436 , 4140.51282051 , 4193.84615385 , 4911.79487179 , 4134.87179487 , 4145.12820513 , 2043.0 , 2034.0 , 279.987 , 0.0 , 0.0 , 0.0 , 0.0 , 

89.0 , 4136.92307692 , 4126.15384615 , 4135.8974359 , 4136.92307692 , 4131.79487179 , 4128.71794872 , 4130.76923077 , 4135.38461538 , 4137.94871795 , 4140.0 , 4196.92307692 , 4916.41025641 , 4135.38461538 , 4143.58974359 , 2043.0 , 2035.0 , 279.992 , 0.0 , 0.0 , 0.0 , 0.0 , 

90.0 , 4134.35897436 , 4132.30769231 , 4136.92307692 , 4136.92307692 , 4132.82051282 , 4131.79487179 , 4130.25641026 , 4136.41025641 , 4138.46153846 , 4138.97435897 , 4193.33333333 , 4914.87179487 , 4136.92307692 , 4141.02564103 , 2043.0 , 2036.0 , 280.0 , 0.0 , 0.0 , 0.0 , 0.0 , 

91.0 , 4135.38461538 , 4135.38461538 , 4138.46153846 , 4134.87179487 , 4131.28205128 , 4132.82051282 , 4130.76923077 , 4135.8974359 , 4138.46153846 , 4136.92307692 , 4193.33333333 , 4914.87179487 , 4135.38461538 , 4143.58974359 , 2043.0 , 2035.0 , 280.012 , 0.0 , 0.0 , 0.0 , 0.0 , 

92.0 , 4132.82051282 , 4132.82051282 , 4136.92307692 , 4134.87179487 , 4131.28205128 , 4131.79487179 , 4132.30769231 , 4136.41025641 , 4139.48717949 , 4137.94871795 , 4196.41025641 , 4915.38461538 , 4134.87179487 , 4141.02564103 , 2043.0 , 2035.0 , 280.018 , 0.0 , 0.0 , 0.0 , 0.0 , 

93.0 , 4133.84615385 , 4132.82051282 , 4136.92307692 , 4137.43589744 , 4131.28205128 , 4131.79487179 , 4131.79487179 , 4135.38461538 , 4136.92307692 , 4140.0 , 4194.87179487 , 4917.94871795 , 4134.35897436 , 4143.58974359 , 2043.0 , 2036.0 , 280.024 , 0.0 , 0.0 , 0.0 , 0.0 , 

94.0 , 4133.33333333 , 4134.35897436 , 4136.41025641 , 4140.0 , 4131.28205128 , 4133.33333333 , 4133.84615385 , 4137.43589744 , 4137.43589744 , 4140.51282051 , 4194.87179487 , 4914.87179487 , 4134.87179487 , 4141.02564103 , 2043.0 , 2036.0 , 280.031 , 0.0 , 0.0 , 0.0 , 0.0 , 

95.0 , 4134.35897436 , 4131.79487179 , 4135.8974359 , 4135.38461538 , 4133.33333333 , 4131.79487179 , 4132.82051282 , 4136.41025641 , 4138.46153846 , 4138.97435897 , 4195.38461538 , 4913.33333333 , 4134.35897436 , 4140.0 , 2043.0 , 2036.0 , 280.044 , 0.0 , 0.0 , 0.0 , 0.0 , 

96.0 , 4133.33333333 , 4130.76923077 , 4135.38461538 , 4133.33333333 , 4134.87179487 , 4131.79487179 , 4131.28205128 , 4131.79487179 , 4136.41025641 , 4138.46153846 , 4193.33333333 , 4912.30769231 , 4133.84615385 , 4137.43589744 , 2042.0 , 2036.0 , 280.049 , 0.0 , 0.0 , 0.0 , 0.0 , 

97.0 , 4133.84615385 , 4130.76923077 , 4137.94871795 , 4134.87179487 , 4130.25641026 , 4130.76923077 , 4127.69230769 , 4129.74358974 , 4134.35897436 , 4137.94871795 , 4193.33333333 , 4913.84615385 , 4134.35897436 , 4141.53846154 , 2042.0 , 2036.0 , 280.055 , 0.0 , 0.0 , 0.0 , 0.0 , 

98.0 , 4132.82051282 , 4131.79487179 , 4137.43589744 , 4135.8974359 , 4130.25641026 , 4131.79487179 , 4127.17948718 , 4134.35897436 , 4137.43589744 , 4138.46153846 , 4194.35897436 , 4913.84615385 , 4135.8974359 , 4140.0 , 2043.0 , 2035.0 , 280.063 , 0.0 , 0.0 , 0.0 , 0.0 , 

99.0 , 4132.82051282 , 4132.82051282 , 4137.43589744 , 4134.87179487 , 4134.87179487 , 4132.30769231 , 4126.15384615 , 4135.8974359 , 4137.43589744 , 4137.94871795 , 4193.84615385 , 4915.38461538 , 4136.41025641 , 4143.07692308 , 2043.0 , 2034.0 , 280.075 , 0.0 , 0.0 , 0.0 , 0.0 , 

100.0 , 4132.30769231 , 4132.82051282 , 4136.41025641 , 4135.38461538 , 4133.84615385 , 4130.76923077 , 4125.12820513 , 4134.35897436 , 4136.92307692 , 4136.92307692 , 4192.30769231 , 4912.82051282 , 4136.41025641 , 4142.05128205 , 2042.0 , 2035.0 , 280.082 , 0.0 , 0.0 , 0.0 , 0.0 , 

101.0 , 4135.8974359 , 4130.76923077 , 4136.41025641 , 4133.33333333 , 4129.23076923 , 4130.25641026 , 4126.15384615 , 4133.84615385 , 4136.41025641 , 4137.94871795 , 4192.30769231 , 4912.30769231 , 4133.33333333 , 4142.56410256 , 2041.0 , 2035.0 , 280.087 , 0.0 , 0.0 , 0.0 , 0.0 , 

102.0 , 4136.41025641 , 4131.28205128 , 4136.92307692 , 4135.8974359 , 4131.28205128 , 4130.76923077 , 4129.23076923 , 4135.8974359 , 4135.8974359 , 4139.48717949 , 4192.30769231 , 4913.84615385 , 4130.25641026 , 4141.02564103 , 2042.0 , 2036.0 , 280.095 , 0.0 , 0.0 , 0.0 , 0.0 , 

103.0 , 4133.33333333 , 4132.82051282 , 4138.46153846 , 4141.53846154 , 4132.30769231 , 4129.23076923 , 4128.71794872 , 4136.92307692 , 4135.38461538 , 4138.97435897 , 4192.30769231 , 4914.87179487 , 4134.87179487 , 4141.02564103 , 2043.0 , 2034.0 , 280.109 , 0.0 , 0.0 , 0.0 , 0.0 , 

104.0 , 4131.28205128 , 4133.84615385 , 4136.41025641 , 4142.05128205 , 4132.30769231 , 4129.74358974 , 4129.74358974 , 4135.38461538 , 4137.43589744 , 4138.46153846 , 4193.84615385 , 4913.33333333 , 4137.43589744 , 4140.51282051 , 2042.0 , 2033.0 , 280.113 , 0.0 , 0.0 , 0.0 , 0.0 , 

105.0 , 4132.82051282 , 4132.82051282 , 4134.35897436 , 4136.92307692 , 4134.35897436 , 4128.71794872 , 4129.74358974 , 4135.8974359 , 4137.94871795 , 4139.48717949 , 4195.38461538 , 4913.33333333 , 4134.87179487 , 4142.05128205 , 2042.0 , 2035.0 , 280.118 , 0.0 , 0.0 , 0.0 , 0.0 , 

106.0 , 4132.30769231 , 4130.76923077 , 4136.92307692 , 4134.35897436 , 4134.87179487 , 4126.66666667 , 4127.17948718 , 4135.8974359 , 4135.8974359 , 4139.48717949 , 4194.35897436 , 4916.92307692 , 4135.38461538 , 4143.07692308 , 2042.0 , 2034.0 , 280.127 , 0.0 , 0.0 , 0.0 , 0.0 , 

107.0 , 4132.30769231 , 4132.30769231 , 4138.97435897 , 4135.8974359 , 4130.25641026 , 4130.25641026 , 4128.20512821 , 4133.84615385 , 4136.41025641 , 4140.0 , 4192.30769231 , 4917.43589744 , 4137.43589744 , 4142.05128205 , 2043.0 , 2035.0 , 280.136 , 0.0 , 0.0 , 0.0 , 0.0 , 

108.0 , 4137.94871795 , 4134.35897436 , 4137.94871795 , 4134.35897436 , 4129.23076923 , 4130.76923077 , 4129.74358974 , 4133.33333333 , 4135.38461538 , 4141.53846154 , 4193.33333333 , 4913.84615385 , 4135.8974359 , 4143.07692308 , 2043.0 , 2036.0 , 280.144 , 0.0 , 0.0 , 0.0 , 0.0 , 

109.0 , 4138.97435897 , 4133.84615385 , 4137.43589744 , 4134.87179487 , 4132.30769231 , 4128.71794872 , 4126.15384615 , 4134.35897436 , 4135.38461538 , 4140.0 , 4192.82051282 , 4911.79487179 , 4135.38461538 , 4142.05128205 , 2043.0 , 2036.0 , 280.149 , 0.0 , 0.0 , 0.0 , 0.0 , 

110.0 , 4136.92307692 , 4132.82051282 , 4138.46153846 , 4134.35897436 , 4134.87179487 , 4130.25641026 , 4125.12820513 , 4133.33333333 , 4135.8974359 , 4137.43589744 , 4193.33333333 , 4916.41025641 , 4131.79487179 , 4142.05128205 , 2042.0 , 2037.0 , 280.157 , 0.0 , 0.0 , 0.0 , 0.0 , 

111.0 , 4133.84615385 , 4135.38461538 , 4136.41025641 , 4133.84615385 , 4133.33333333 , 4132.30769231 , 4129.74358974 , 4135.38461538 , 4136.92307692 , 4138.46153846 , 4193.84615385 , 4914.87179487 , 4132.30769231 , 4138.46153846 , 2041.0 , 2035.0 , 280.17 , 0.0 , 0.0 , 0.0 , 0.0 , 

112.0 , 4134.87179487 , 4133.33333333 , 4136.92307692 , 4135.38461538 , 4129.74358974 , 4129.23076923 , 4128.20512821 , 4134.87179487 , 4136.92307692 , 4139.48717949 , 4193.33333333 , 4913.33333333 , 4135.38461538 , 4142.56410256 , 2041.0 , 2036.0 , 280.176 , 0.0 , 0.0 , 0.0 , 0.0 , 

113.0 , 4133.33333333 , 4129.74358974 , 4138.97435897 , 4137.94871795 , 4131.28205128 , 4130.76923077 , 4128.20512821 , 4133.33333333 , 4140.0 , 4138.46153846 , 4191.79487179 , 4913.84615385 , 4135.8974359 , 4142.56410256 , 2042.0 , 2037.0 , 280.181 , 0.0 , 0.0 , 0.0 , 0.0 , 

114.0 , 4135.8974359 , 4130.25641026 , 4138.46153846 , 4135.38461538 , 4133.33333333 , 4132.82051282 , 4128.20512821 , 4133.84615385 , 4141.02564103 , 4138.97435897 , 4192.82051282 , 4914.87179487 , 4135.38461538 , 4143.07692308 , 2044.0 , 2038.0 , 280.19 , 0.0 , 0.0 , 0.0 , 0.0 , 

115.0 , 4135.38461538 , 4132.82051282 , 4137.43589744 , 4135.8974359 , 4132.30769231 , 4130.76923077 , 4127.17948718 , 4135.38461538 , 4137.43589744 , 4139.48717949 , 4193.84615385 , 4910.25641026 , 4137.94871795 , 4140.51282051 , 2044.0 , 2037.0 , 280.202 , 0.0 , 0.0 , 0.0 , 0.0 , 

116.0 , 4136.41025641 , 4132.82051282 , 4138.46153846 , 4137.43589744 , 4129.23076923 , 4127.69230769 , 4125.12820513 , 4134.87179487 , 4135.38461538 , 4137.94871795 , 4195.38461538 , 4912.30769231 , 4137.43589744 , 4144.1025641 , 2045.0 , 2035.0 , 280.207 , 0.0 , 0.0 , 0.0 , 0.0 , 

117.0 , 4134.35897436 , 4133.33333333 , 4136.92307692 , 4135.8974359 , 4130.25641026 , 4131.28205128 , 4125.64102564 , 4135.8974359 , 4136.41025641 , 4137.43589744 , 4195.38461538 , 4914.87179487 , 4134.87179487 , 4142.05128205 , 2046.0 , 2036.0 , 280.213 , 0.0 , 0.0 , 0.0 , 0.0 , 

118.0 , 4134.35897436 , 4131.28205128 , 4136.92307692 , 4132.82051282 , 4132.82051282 , 4132.82051282 , 4126.66666667 , 4134.35897436 , 4135.38461538 , 4138.46153846 , 4194.87179487 , 4914.87179487 , 4133.84615385 , 4142.05128205 , 2043.0 , 2037.0 , 280.221 , 0.0 , 0.0 , 0.0 , 0.0 , 

119.0 , 4132.82051282 , 4130.25641026 , 4137.43589744 , 4135.8974359 , 4133.84615385 , 4132.82051282 , 4129.74358974 , 4133.33333333 , 4134.87179487 , 4139.48717949 , 4194.35897436 , 4911.79487179 , 4134.87179487 , 4141.02564103 , 2043.0 , 2037.0 , 280.233 , 0.0 , 0.0 , 0.0 , 0.0 , 

120.0 , 4134.87179487 , 4134.35897436 , 4137.43589744 , 4138.46153846 , 4130.76923077 , 4130.76923077 , 4127.69230769 , 4133.33333333 , 4135.8974359 , 4138.97435897 , 4193.84615385 , 4914.35897436 , 4138.46153846 , 4141.53846154 , 2043.0 , 2038.0 , 280.239 , 0.0 , 0.0 , 0.0 , 0.0 , 

121.0 , 4133.33333333 , 4136.92307692 , 4139.48717949 , 4138.46153846 , 4129.23076923 , 4130.25641026 , 4125.12820513 , 4133.84615385 , 4135.38461538 , 4138.46153846 , 4193.84615385 , 4914.87179487 , 4137.43589744 , 4138.46153846 , 2043.0 , 2037.0 , 280.244 , 0.0 , 0.0 , 0.0 , 0.0 , 

122.0 , 4130.76923077 , 4133.33333333 , 4139.48717949 , 4135.8974359 , 4131.28205128 , 4131.79487179 , 4127.17948718 , 4135.38461538 , 4135.8974359 , 4138.46153846 , 4193.33333333 , 4913.33333333 , 4135.38461538 , 4141.02564103 , 2043.0 , 2037.0 , 280.254 , 0.0 , 0.0 , 0.0 , 0.0 , 

123.0 , 4132.82051282 , 4131.79487179 , 4135.8974359 , 4134.35897436 , 4133.33333333 , 4131.28205128 , 4129.23076923 , 4135.38461538 , 4137.94871795 , 4138.97435897 , 4191.79487179 , 4912.82051282 , 4134.87179487 , 4144.61538462 , 2043.0 , 2037.0 , 280.262 , 0.0 , 0.0 , 0.0 , 0.0 , 

124.0 , 4134.87179487 , 4131.28205128 , 4135.8974359 , 4137.43589744 , 4134.35897436 , 4129.74358974 , 4127.69230769 , 4134.87179487 , 4137.94871795 , 4139.48717949 , 4191.79487179 , 4913.33333333 , 4134.87179487 , 4142.56410256 , 2043.0 , 2036.0 , 280.272 , 0.0 , 0.0 , 0.0 , 0.0 , 

125.0 , 4133.84615385 , 4130.25641026 , 4138.97435897 , 4138.46153846 , 4135.38461538 , 4131.28205128 , 4128.20512821 , 4135.38461538 , 4137.94871795 , 4138.97435897 , 4194.35897436 , 4912.82051282 , 4135.38461538 , 4142.56410256 , 2042.0 , 2037.0 , 280.276 , 0.0 , 0.0 , 0.0 , 0.0 , 

126.0 , 4132.82051282 , 4132.82051282 , 4138.46153846 , 4135.38461538 , 4134.35897436 , 4133.33333333 , 4130.25641026 , 4136.92307692 , 4138.46153846 , 4139.48717949 , 4196.41025641 , 4912.82051282 , 4137.43589744 , 4145.12820513 , 2042.0 , 2037.0 , 280.284 , 0.0 , 0.0 , 0.0 , 0.0 , 

127.0 , 4134.87179487 , 4134.35897436 , 4138.46153846 , 4133.84615385 , 4132.30769231 , 4131.28205128 , 4129.23076923 , 4134.35897436 , 4134.35897436 , 4140.0 , 4194.35897436 , 4915.8974359 , 4136.41025641 , 4148.20512821 , 2044.0 , 2038.0 , 280.296 , 0.0 , 0.0 , 0.0 , 0.0 , 

128.0 , 4134.35897436 , 4131.79487179 , 4138.46153846 , 4136.41025641 , 4132.30769231 , 4130.25641026 , 4128.71794872 , 4134.35897436 , 4134.35897436 , 4137.94871795 , 4192.82051282 , 4915.38461538 , 4134.87179487 , 4142.05128205 , 2041.0 , 2037.0 , 280.302 , 0.0 , 0.0 , 0.0 , 0.0 , 

0.0 , 4133.84615385 , 4131.28205128 , 4138.46153846 , 4136.92307692 , 4132.30769231 , 4130.76923077 , 4128.20512821 , 4137.43589744 , 4137.43589744 , 4138.46153846 , 4194.35897436 , 4916.41025641 , 4135.8974359 , 4141.53846154 , 2041.0 , 2037.0 , 280.308 , 0.0 , 0.0 , 0.0 , 0.0 , 

1.0 , 4130.25641026 , 4134.35897436 , 4136.92307692 , 4137.94871795 , 4131.79487179 , 4132.82051282 , 4129.74358974 , 4134.87179487 , 4136.92307692 , 4140.0 , 4194.87179487 , 4912.82051282 , 4138.46153846 , 4141.02564103 , 2040.0 , 2035.0 , 280.316 , 0.0 , 0.0 , 0.0 , 0.0 , 

2.0 , 4129.74358974 , 4131.79487179 , 4136.92307692 , 4135.8974359 , 4129.74358974 , 4131.79487179 , 4130.25641026 , 4130.76923077 , 4135.8974359 , 4137.94871795 , 4193.33333333 , 4914.87179487 , 4137.43589744 , 4144.1025641 , 2040.0 , 2035.0 , 280.327 , 0.0 , 0.0 , 0.0 , 0.0 , 

3.0 , 4131.28205128 , 4131.79487179 , 4135.8974359 , 4136.41025641 , 4130.25641026 , 4131.28205128 , 4128.20512821 , 4133.84615385 , 4138.46153846 , 4136.41025641 , 4192.82051282 , 4918.97435897 , 4136.41025641 , 4139.48717949 , 2041.0 , 2036.0 , 280.334 , 0.0 , 0.0 , 0.0 , 0.0 , 

4.0 , 4135.8974359 , 4135.8974359 , 4136.41025641 , 4136.41025641 , 4133.84615385 , 4130.76923077 , 4125.12820513 , 4136.41025641 , 4138.46153846 , 4139.48717949 , 4194.87179487 , 4921.02564103 , 4137.94871795 , 4141.53846154 , 2041.0 , 2036.0 , 280.34 , 0.0 , 0.0 , 0.0 , 0.0 , 

5.0 , 4134.87179487 , 4133.84615385 , 4136.41025641 , 4135.38461538 , 4133.33333333 , 4131.79487179 , 4128.71794872 , 4136.92307692 , 4137.94871795 , 4140.51282051 , 4194.35897436 , 4914.87179487 , 4139.48717949 , 4141.53846154 , 2041.0 , 2036.0 , 280.347 , 0.0 , 0.0 , 0.0 , 0.0 , 

6.0 , 4134.87179487 , 4128.20512821 , 4138.97435897 , 4133.33333333 , 4129.23076923 , 4130.76923077 , 4130.25641026 , 4137.43589744 , 4137.94871795 , 4136.92307692 , 4193.33333333 , 4911.79487179 , 4136.41025641 , 4143.07692308 , 2042.0 , 2035.0 , 280.358 , 0.0 , 0.0 , 0.0 , 0.0 , 

7.0 , 4133.84615385 , 4131.79487179 , 4140.0 , 4134.35897436 , 4129.74358974 , 4133.33333333 , 4129.23076923 , 4137.43589744 , 4138.46153846 , 4137.94871795 , 4191.79487179 , 4912.30769231 , 4134.87179487 , 4142.56410256 , 2042.0 , 2034.0 , 280.366 , 0.0 , 0.0 , 0.0 , 0.0 , 

8.0 , 4135.8974359 , 4134.87179487 , 4137.94871795 , 4134.35897436 , 4131.28205128 , 4133.33333333 , 4130.25641026 , 4135.8974359 , 4137.94871795 , 4141.02564103 , 4193.33333333 , 4915.38461538 , 4137.43589744 , 4145.12820513 , 2043.0 , 2034.0 , 280.371 , 0.0 , 0.0 , 0.0 , 0.0 , 

9.0 , 4136.41025641 , 4131.79487179 , 4136.92307692 , 4133.84615385 , 4132.82051282 , 4129.74358974 , 4131.79487179 , 4137.94871795 , 4137.94871795 , 4140.51282051 , 4194.87179487 , 4914.35897436 , 4136.92307692 , 4143.58974359 , 2043.0 , 2034.0 , 280.378 , 0.0 , 0.0 , 0.0 , 0.0 , 

10.0 , 4134.87179487 , 4130.76923077 , 4138.97435897 , 4134.87179487 , 4131.28205128 , 4126.15384615 , 4130.76923077 , 4137.43589744 , 4136.92307692 , 4137.94871795 , 4193.33333333 , 4912.82051282 , 4136.92307692 , 4143.07692308 , 2044.0 , 2035.0 , 280.389 , 0.0 , 0.0 , 0.0 , 0.0 , 

11.0 , 4132.30769231 , 4134.35897436 , 4139.48717949 , 4136.92307692 , 4130.25641026 , 4128.71794872 , 4129.23076923 , 4135.38461538 , 4136.41025641 , 4138.46153846 , 4193.84615385 , 4913.33333333 , 4137.94871795 , 4140.51282051 , 2043.0 , 2035.0 , 280.397 , 0.0 , 0.0 , 0.0 , 0.0 , 

12.0 , 4134.35897436 , 4134.87179487 , 4138.97435897 , 4135.38461538 , 4131.79487179 , 4131.28205128 , 4129.23076923 , 4135.38461538 , 4135.8974359 , 4140.0 , 4195.38461538 , 4915.38461538 , 4137.94871795 , 4140.51282051 , 2043.0 , 2036.0 , 280.403 , 0.0 , 0.0 , 0.0 , 0.0 , 

13.0 , 4134.87179487 , 4133.33333333 , 4138.46153846 , 4135.8974359 , 4132.30769231 , 4132.30769231 , 4129.74358974 , 4134.35897436 , 4135.38461538 , 4137.43589744 , 4194.87179487 , 4914.35897436 , 4135.8974359 , 4143.07692308 , 2042.0 , 2037.0 , 280.411 , 0.0 , 0.0 , 0.0 , 0.0 , 

14.0 , 4130.25641026 , 4133.33333333 , 4135.8974359 , 4139.48717949 , 4130.25641026 , 4133.33333333 , 4129.74358974 , 4133.84615385 , 4137.94871795 , 4140.51282051 , 4193.84615385 , 4914.87179487 , 4136.92307692 , 4145.12820513 , 2042.0 , 2036.0 , 280.42 , 0.0 , 0.0 , 0.0 , 0.0 , 

15.0 , 4131.28205128 , 4135.8974359 , 4132.30769231 , 4137.94871795 , 4129.74358974 , 4133.84615385 , 4127.69230769 , 4132.30769231 , 4139.48717949 , 4145.12820513 , 4194.35897436 , 4915.38461538 , 4138.97435897 , 4144.1025641 , 2043.0 , 2039.0 , 280.428 , 0.0 , 0.0 , 0.0 , 0.0 , 

16.0 , 4132.82051282 , 4136.41025641 , 4134.35897436 , 4135.8974359 , 4132.30769231 , 4132.30769231 , 4125.64102564 , 4134.35897436 , 4138.97435897 , 4140.0 , 4192.82051282 , 4913.84615385 , 4136.92307692 , 4140.51282051 , 2044.0 , 2038.0 , 280.433 , 0.0 , 0.0 , 0.0 , 0.0 , 

17.0 , 4133.84615385 , 4133.84615385 , 4138.46153846 , 4138.46153846 , 4133.84615385 , 4129.23076923 , 4126.66666667 , 4135.8974359 , 4136.41025641 , 4136.92307692 , 4191.28205128 , 4915.38461538 , 4132.82051282 , 4143.07692308 , 2043.0 , 2037.0 , 280.441 , 0.0 , 0.0 , 0.0 , 0.0 , 

18.0 , 4133.33333333 , 4132.82051282 , 4136.92307692 , 4141.02564103 , 4133.84615385 , 4130.25641026 , 4128.71794872 , 4136.41025641 , 4135.8974359 , 4139.48717949 , 4192.30769231 , 4914.35897436 , 4136.41025641 , 4142.56410256 , 2043.0 , 2036.0 , 280.454 , 0.0 , 0.0 , 0.0 , 0.0 , 

19.0 , 4132.30769231 , 4131.79487179 , 4137.94871795 , 4137.43589744 , 4130.76923077 , 4130.25641026 , 4127.69230769 , 4134.35897436 , 4135.8974359 , 4137.43589744 , 4194.35897436 , 4912.82051282 , 4139.48717949 , 4141.53846154 , 2045.0 , 2037.0 , 280.46 , 0.0 , 0.0 , 0.0 , 0.0 , 

20.0 , 4132.82051282 , 4130.25641026 , 4138.46153846 , 4134.87179487 , 4131.28205128 , 4131.28205128 , 4126.15384615 , 4134.87179487 , 4136.92307692 , 4136.41025641 , 4193.33333333 , 4910.25641026 , 4136.92307692 , 4135.38461538 , 2044.0 , 2037.0 , 280.466 , 0.0 , 0.0 , 0.0 , 0.0 , 

21.0 , 4138.46153846 , 4128.20512821 , 4136.41025641 , 4133.84615385 , 4132.30769231 , 4131.79487179 , 4125.12820513 , 4134.87179487 , 4137.43589744 , 4141.53846154 , 4193.33333333 , 4913.33333333 , 4135.38461538 , 4138.97435897 , 2044.0 , 2037.0 , 280.473 , 0.0 , 0.0 , 0.0 , 0.0 , 

22.0 , 4136.41025641 , 4132.82051282 , 4134.87179487 , 4135.8974359 , 4129.74358974 , 4131.79487179 , 4128.71794872 , 4136.92307692 , 4139.48717949 , 4142.05128205 , 4194.35897436 , 4913.33333333 , 4138.46153846 , 4142.05128205 , 2043.0 , 2036.0 , 280.484 , 0.0 , 0.0 , 0.0 , 0.0 , 

23.0 , 4134.35897436 , 4135.38461538 , 4135.38461538 , 4136.92307692 , 4129.74358974 , 4130.25641026 , 4129.23076923 , 4135.8974359 , 4137.94871795 , 4137.94871795 , 4194.87179487 , 4914.35897436 , 4136.92307692 , 4144.1025641 , 2042.0 , 2036.0 , 280.492 , 0.0 , 0.0 , 0.0 , 0.0 , 

24.0 , 4134.87179487 , 4134.35897436 , 4135.8974359 , 4137.43589744 , 4132.30769231 , 4132.30769231 , 4127.69230769 , 4134.87179487 , 4137.43589744 , 4138.46153846 , 4193.84615385 , 4912.82051282 , 4134.87179487 , 4139.48717949 , 2041.0 , 2036.0 , 280.496 , 0.0 , 0.0 , 0.0 , 0.0 , 

25.0 , 4136.41025641 , 4135.8974359 , 4138.97435897 , 4138.97435897 , 4130.76923077 , 4132.30769231 , 4126.66666667 , 4136.41025641 , 4137.43589744 , 4140.0 , 4194.87179487 , 4914.35897436 , 4135.38461538 , 4142.05128205 , 2042.0 , 2037.0 , 280.505 , 0.0 , 0.0 , 0.0 , 0.0 , 

26.0 , 4132.82051282 , 4136.92307692 , 4138.97435897 , 4138.46153846 , 4131.28205128 , 4131.79487179 , 4128.20512821 , 4137.43589744 , 4137.43589744 , 4138.46153846 , 4192.82051282 , 4915.38461538 , 4136.92307692 , 4143.58974359 , 2042.0 , 2038.0 , 280.516 , 0.0 , 0.0 , 0.0 , 0.0 , 

27.0 , 4132.82051282 , 4133.33333333 , 4136.41025641 , 4135.38461538 , 4132.82051282 , 4132.30769231 , 4127.69230769 , 4133.84615385 , 4135.8974359 , 4136.92307692 , 4192.30769231 , 4916.92307692 , 4136.92307692 , 4146.66666667 , 2042.0 , 2038.0 , 280.523 , 0.0 , 0.0 , 0.0 , 0.0 , 

28.0 , 4132.30769231 , 4132.82051282 , 4135.8974359 , 4137.43589744 , 4132.30769231 , 4131.79487179 , 4128.71794872 , 4134.87179487 , 4136.92307692 , 4138.46153846 , 4193.84615385 , 4916.92307692 , 4134.87179487 , 4143.07692308 , 2044.0 , 2037.0 , 280.528 , 0.0 , 0.0 , 0.0 , 0.0 , 

29.0 , 4133.33333333 , 4132.82051282 , 4137.94871795 , 4137.94871795 , 4130.25641026 , 4129.23076923 , 4129.23076923 , 4137.43589744 , 4138.46153846 , 4138.97435897 , 4193.84615385 , 4916.92307692 , 4136.41025641 , 4140.0 , 2043.0 , 2036.0 , 280.537 , 0.0 , 0.0 , 0.0 , 0.0 , 

30.0 , 4133.33333333 , 4131.28205128 , 4139.48717949 , 4135.38461538 , 4130.76923077 , 4129.23076923 , 4128.71794872 , 4137.43589744 , 4136.41025641 , 4137.94871795 , 4192.82051282 , 4915.8974359 , 4137.94871795 , 4140.0 , 2042.0 , 2036.0 , 280.55 , 0.0 , 0.0 , 0.0 , 0.0 , 

31.0 , 4132.82051282 , 4132.30769231 , 4135.38461538 , 4134.35897436 , 4131.28205128 , 4129.23076923 , 4128.71794872 , 4136.41025641 , 4134.87179487 , 4136.92307692 , 4193.84615385 , 4912.82051282 , 4136.41025641 , 4143.07692308 , 2043.0 , 2037.0 , 280.555 , 0.0 , 0.0 , 0.0 , 0.0 , 

32.0 , 4133.84615385 , 4133.84615385 , 4132.30769231 , 4134.87179487 , 4130.76923077 , 4131.28205128 , 4131.79487179 , 4134.35897436 , 4136.92307692 , 4136.92307692 , 4194.87179487 , 4912.30769231 , 4134.87179487 , 4142.05128205 , 2042.0 , 2037.0 , 280.56 , 0.0 , 0.0 , 0.0 , 0.0 , 

33.0 , 4133.84615385 , 4133.84615385 , 4136.92307692 , 4134.35897436 , 4130.25641026 , 4133.84615385 , 4131.28205128 , 4134.87179487 , 4138.46153846 , 4137.94871795 , 4194.35897436 , 4912.82051282 , 4137.94871795 , 4137.43589744 , 2042.0 , 2037.0 , 280.568 , 0.0 , 0.0 , 0.0 , 0.0 , 

34.0 , 4133.84615385 , 4134.87179487 , 4142.05128205 , 4135.8974359 , 4130.76923077 , 4132.82051282 , 4125.64102564 , 4135.8974359 , 4136.41025641 , 4137.43589744 , 4193.33333333 , 4914.35897436 , 4137.43589744 , 4138.97435897 , 2041.0 , 2037.0 , 280.579 , 0.0 , 0.0 , 0.0 , 0.0 , 

35.0 , 4133.33333333 , 4134.35897436 , 4139.48717949 , 4136.92307692 , 4130.76923077 , 4131.79487179 , 4125.64102564 , 4135.38461538 , 4135.38461538 , 4138.46153846 , 4193.33333333 , 4914.35897436 , 4135.8974359 , 4143.07692308 , 2043.0 , 2037.0 , 280.587 , 0.0 , 0.0 , 0.0 , 0.0 , 

36.0 , 4133.84615385 , 4131.28205128 , 4138.46153846 , 4133.84615385 , 4129.74358974 , 4131.79487179 , 4128.71794872 , 4134.35897436 , 4136.41025641 , 4141.02564103 , 4193.84615385 , 4914.35897436 , 4137.43589744 , 4145.64102564 , 2043.0 , 2036.0 , 280.592 , 0.0 , 0.0 , 0.0 , 0.0 , 

37.0 , 4133.84615385 , 4132.30769231 , 4139.48717949 , 4136.92307692 , 4130.76923077 , 4131.28205128 , 4129.74358974 , 4137.94871795 , 4140.0 , 4140.51282051 , 4193.33333333 , 4911.79487179 , 4137.43589744 , 4138.46153846 , 2043.0 , 2035.0 , 280.599 , 0.0 , 0.0 , 0.0 , 0.0 , 

38.0 , 4135.8974359 , 4132.82051282 , 4140.51282051 , 4140.51282051 , 4132.82051282 , 4129.74358974 , 4129.23076923 , 4137.43589744 , 4138.46153846 , 4136.92307692 , 4193.84615385 , 4915.38461538 , 4135.8974359 , 4140.51282051 , 2044.0 , 2034.0 , 280.61 , 0.0 , 0.0 , 0.0 , 0.0 , 

39.0 , 4132.82051282 , 4132.82051282 , 4138.97435897 , 4137.43589744 , 4133.84615385 , 4130.76923077 , 4129.74358974 , 4135.8974359 , 4135.38461538 , 4136.41025641 , 4194.87179487 , 4917.43589744 , 4136.41025641 , 4142.05128205 , 2045.0 , 2035.0 , 280.618 , 0.0 , 0.0 , 0.0 , 0.0 , 

40.0 , 4130.76923077 , 4133.33333333 , 4137.43589744 , 4133.33333333 , 4131.79487179 , 4131.79487179 , 4126.66666667 , 4134.87179487 , 4137.43589744 , 4138.97435897 , 4194.87179487 , 4915.8974359 , 4135.8974359 , 4143.58974359 , 2044.0 , 2035.0 , 280.623 , 0.0 , 0.0 , 0.0 , 0.0 , 

41.0 , 4132.30769231 , 4134.87179487 , 4136.41025641 , 4137.94871795 , 4132.82051282 , 4132.82051282 , 4129.74358974 , 4136.41025641 , 4140.0 , 4139.48717949 , 4193.33333333 , 4913.33333333 , 4136.92307692 , 4140.51282051 , 2044.0 , 2035.0 , 280.63 , 0.0 , 0.0 , 0.0 , 0.0 , 

42.0 , 4138.46153846 , 4133.33333333 , 4137.94871795 , 4137.43589744 , 4133.33333333 , 4129.74358974 , 4131.28205128 , 4134.87179487 , 4135.8974359 , 4138.46153846 , 4193.33333333 , 4917.43589744 , 4135.38461538 , 4144.61538462 , 2044.0 , 2034.0 , 280.644 , 0.0 , 0.0 , 0.0 , 0.0 , 

43.0 , 4134.87179487 , 4129.74358974 , 4138.46153846 , 4134.35897436 , 4130.76923077 , 4128.71794872 , 4128.20512821 , 4135.38461538 , 4135.38461538 , 4137.94871795 , 4193.33333333 , 4915.38461538 , 4133.33333333 , 4143.07692308 , 2045.0 , 2035.0 , 280.648 , 0.0 , 0.0 , 0.0 , 0.0 , 

44.0 , 4133.84615385 , 4131.28205128 , 4138.46153846 , 4134.35897436 , 4129.23076923 , 4130.76923077 , 4125.64102564 , 4138.97435897 , 4137.43589744 , 4137.94871795 , 4193.33333333 , 4912.30769231 , 4135.38461538 , 4142.05128205 , 2044.0 , 2034.0 , 280.655 , 0.0 , 0.0 , 0.0 , 0.0 , 

45.0 , 4134.35897436 , 4135.38461538 , 4138.46153846 , 4136.92307692 , 4131.79487179 , 4130.76923077 , 4129.74358974 , 4141.02564103 , 4137.43589744 , 4138.46153846 , 4191.79487179 , 4912.30769231 , 4136.92307692 , 4141.02564103 , 2043.0 , 2035.0 , 280.663 , 0.0 , 0.0 , 0.0 , 0.0 , 

46.0 , 4134.35897436 , 4132.30769231 , 4137.94871795 , 4137.43589744 , 4130.76923077 , 4129.74358974 , 4130.25641026 , 4136.41025641 , 4138.46153846 , 4136.41025641 , 4193.33333333 , 4914.87179487 , 4135.8974359 , 4145.64102564 , 2045.0 , 2037.0 , 280.674 , 0.0 , 0.0 , 0.0 , 0.0 , 

47.0 , 4133.84615385 , 4130.25641026 , 4136.92307692 , 4137.94871795 , 4129.74358974 , 4132.30769231 , 4129.23076923 , 4134.87179487 , 4140.0 , 4135.38461538 , 4194.87179487 , 4912.30769231 , 4136.92307692 , 4143.58974359 , 2043.0 , 2036.0 , 280.681 , 0.0 , 0.0 , 0.0 , 0.0 , 

48.0 , 4135.8974359 , 4133.84615385 , 4136.41025641 , 4135.8974359 , 4131.79487179 , 4131.28205128 , 4130.25641026 , 4138.97435897 , 4136.41025641 , 4141.53846154 , 4194.87179487 , 4910.25641026 , 4135.8974359 , 4136.41025641 , 2042.0 , 2035.0 , 280.686 , 0.0 , 0.0 , 0.0 , 0.0 , 

49.0 , 4135.8974359 , 4135.8974359 , 4136.41025641 , 4134.87179487 , 4132.30769231 , 4130.76923077 , 4130.76923077 , 4137.43589744 , 4134.35897436 , 4145.12820513 , 4194.87179487 , 4914.35897436 , 4133.33333333 , 4137.43589744 , 2042.0 , 2037.0 , 280.694 , 0.0 , 0.0 , 0.0 , 0.0 , 

50.0 , 4134.35897436 , 4132.82051282 , 4136.41025641 , 4136.92307692 , 4131.79487179 , 4132.82051282 , 4129.74358974 , 4132.30769231 , 4136.92307692 , 4138.97435897 , 4194.87179487 , 4915.38461538 , 4135.38461538 , 4145.64102564 , 2043.0 , 2036.0 , 280.705 , 0.0 , 0.0 , 0.0 , 0.0 , 

51.0 , 4136.41025641 , 4129.74358974 , 4138.97435897 , 4138.46153846 , 4132.30769231 , 4132.30769231 , 4130.25641026 , 4134.87179487 , 4136.41025641 , 4135.8974359 , 4194.87179487 , 4912.82051282 , 4136.41025641 , 4145.64102564 , 2042.0 , 2035.0 , 280.711 , 0.0 , 0.0 , 0.0 , 0.0 , 

52.0 , 4136.92307692 , 4132.82051282 , 4139.48717949 , 4137.43589744 , 4130.76923077 , 4130.25641026 , 4130.25641026 , 4139.48717949 , 4135.38461538 , 4140.51282051 , 4193.33333333 , 4912.82051282 , 4136.92307692 , 4138.97435897 , 2041.0 , 2036.0 , 280.717 , 0.0 , 0.0 , 0.0 , 0.0 , 

53.0 , 4135.38461538 , 4135.38461538 , 4137.43589744 , 4135.8974359 , 4130.76923077 , 4132.30769231 , 4126.66666667 , 4136.92307692 , 4135.38461538 , 4141.53846154 , 4193.33333333 , 4915.38461538 , 4136.92307692 , 4141.53846154 , 2042.0 , 2036.0 , 280.726 , 0.0 , 0.0 , 0.0 , 0.0 , 

54.0 , 4132.30769231 , 4133.33333333 , 4135.38461538 , 4136.41025641 , 4134.35897436 , 4133.84615385 , 4126.66666667 , 4134.87179487 , 4136.41025641 , 4138.46153846 , 4194.87179487 , 4914.35897436 , 4135.8974359 , 4143.07692308 , 2041.0 , 2036.0 , 280.739 , 0.0 , 0.0 , 0.0 , 0.0 , 

55.0 , 4133.33333333 , 4130.76923077 , 4136.92307692 , 4135.38461538 , 4134.35897436 , 4131.79487179 , 4128.20512821 , 4133.84615385 , 4136.92307692 , 4138.46153846 , 4195.8974359 , 4914.35897436 , 4133.33333333 , 4144.61538462 , 2043.0 , 2036.0 , 280.743 , 0.0 , 0.0 , 0.0 , 0.0 , 

56.0 , 4132.30769231 , 4133.33333333 , 4136.92307692 , 4135.8974359 , 4132.30769231 , 4131.28205128 , 4128.20512821 , 4134.87179487 , 4137.94871795 , 4139.48717949 , 4193.84615385 , 4912.82051282 , 4135.38461538 , 4141.02564103 , 2043.0 , 2036.0 , 280.748 , 0.0 , 0.0 , 0.0 , 0.0 , 

57.0 , 4131.28205128 , 4134.87179487 , 4136.92307692 , 4134.87179487 , 4131.28205128 , 4129.74358974 , 4128.71794872 , 4134.87179487 , 4136.92307692 , 4139.48717949 , 4192.82051282 , 4915.38461538 , 4136.41025641 , 4141.02564103 , 2043.0 , 2037.0 , 280.757 , 0.0 , 0.0 , 0.0 , 0.0 , 

58.0 , 4131.79487179 , 4134.87179487 , 4137.94871795 , 4136.41025641 , 4130.25641026 , 4131.28205128 , 4131.79487179 , 4135.8974359 , 4138.46153846 , 4139.48717949 , 4193.84615385 , 4914.87179487 , 4134.87179487 , 4137.94871795 , 2043.0 , 2037.0 , 280.77 , 0.0 , 0.0 , 0.0 , 0.0 , 

59.0 , 4134.87179487 , 4134.35897436 , 4139.48717949 , 4136.92307692 , 4129.74358974 , 4130.76923077 , 4129.74358974 , 4134.87179487 , 4136.92307692 , 4140.0 , 4194.87179487 , 4914.35897436 , 4134.35897436 , 4144.1025641 , 2044.0 , 2038.0 , 280.775 , 0.0 , 0.0 , 0.0 , 0.0 , 

60.0 , 4132.30769231 , 4133.84615385 , 4136.92307692 , 4137.43589744 , 4130.76923077 , 4130.76923077 , 4128.20512821 , 4135.8974359 , 4135.38461538 , 4140.0 , 4194.35897436 , 4912.82051282 , 4136.41025641 , 4142.56410256 , 2044.0 , 2038.0 , 280.78 , 0.0 , 0.0 , 0.0 , 0.0 , 

61.0 , 4133.33333333 , 4132.30769231 , 4137.43589744 , 4135.38461538 , 4130.76923077 , 4130.76923077 , 4128.20512821 , 4137.43589744 , 4136.92307692 , 4139.48717949 , 4195.38461538 , 4916.41025641 , 4136.92307692 , 4142.05128205 , 2044.0 , 2039.0 , 280.789 , 0.0 , 0.0 , 0.0 , 0.0 , 

62.0 , 4135.38461538 , 4133.33333333 , 4137.43589744 , 4136.41025641 , 4131.28205128 , 4129.74358974 , 4130.76923077 , 4136.92307692 , 4138.46153846 , 4138.97435897 , 4195.8974359 , 4918.46153846 , 4135.8974359 , 4142.05128205 , 2042.0 , 2038.0 , 280.801 , 0.0 , 0.0 , 0.0 , 0.0 , 

63.0 , 4135.8974359 , 4133.33333333 , 4136.92307692 , 4137.43589744 , 4131.28205128 , 4127.69230769 , 4130.25641026 , 4133.84615385 , 4136.92307692 , 4138.97435897 , 4195.8974359 , 4920.0 , 4137.43589744 , 4144.61538462 , 2043.0 , 2037.0 , 280.808 , 0.0 , 0.0 , 0.0 , 0.0 , 

64.0 , 4132.30769231 , 4132.82051282 , 4136.92307692 , 4137.43589744 , 4131.79487179 , 4130.25641026 , 4129.74358974 , 4134.35897436 , 4137.43589744 , 4138.97435897 , 4194.35897436 , 4915.38461538 , 4136.92307692 , 4141.02564103 , 2043.0 , 2038.0 , 280.812 , 0.0 , 0.0 , 0.0 , 0.0 , 

65.0 , 4132.30769231 , 4133.84615385 , 4136.41025641 , 4134.87179487 , 4132.30769231 , 4131.28205128 , 4128.71794872 , 4135.8974359 , 4138.97435897 , 4139.48717949 , 4193.33333333 , 4914.35897436 , 4136.41025641 , 4142.05128205 , 2044.0 , 2036.0 , 280.82 , 0.0 , 0.0 , 0.0 , 0.0 , 

66.0 , 4131.79487179 , 4134.87179487 , 4134.87179487 , 4134.87179487 , 4133.33333333 , 4131.28205128 , 4130.76923077 , 4136.41025641 , 4136.92307692 , 4140.0 , 4193.84615385 , 4915.38461538 , 4136.92307692 , 4142.05128205 , 2043.0 , 2037.0 , 280.831 , 0.0 , 0.0 , 0.0 , 0.0 , 

67.0 , 4130.76923077 , 4133.84615385 , 4135.8974359 , 4138.46153846 , 4132.82051282 , 4130.25641026 , 4129.74358974 , 4137.43589744 , 4135.8974359 , 4137.94871795 , 4194.87179487 , 4914.87179487 , 4135.8974359 , 4139.48717949 , 2045.0 , 2037.0 , 280.839 , 0.0 , 0.0 , 0.0 , 0.0 , 

68.0 , 4131.28205128 , 4133.84615385 , 4138.46153846 , 4141.53846154 , 4131.28205128 , 4128.71794872 , 4126.15384615 , 4136.92307692 , 4137.94871795 , 4135.8974359 , 4193.84615385 , 4915.38461538 , 4134.87179487 , 4140.0 , 2044.0 , 2037.0 , 280.844 , 0.0 , 0.0 , 0.0 , 0.0 , 

69.0 , 4132.30769231 , 4133.33333333 , 4137.43589744 , 4140.0 , 4131.28205128 , 4128.71794872 , 4126.66666667 , 4134.87179487 , 4136.92307692 , 4136.41025641 , 4192.30769231 , 4916.41025641 , 4138.97435897 , 4142.05128205 , 2043.0 , 2038.0 , 280.852 , 0.0 , 0.0 , 0.0 , 0.0 , 

70.0 , 4133.33333333 , 4131.28205128 , 4136.41025641 , 4135.38461538 , 4132.30769231 , 4130.25641026 , 4128.71794872 , 4134.35897436 , 4133.33333333 , 4138.97435897 , 4193.84615385 , 4915.8974359 , 4136.92307692 , 4142.56410256 , 2044.0 , 2037.0 , 280.861 , 0.0 , 0.0 , 0.0 , 0.0 , 

71.0 , 4133.84615385 , 4132.82051282 , 4136.41025641 , 4135.38461538 , 4131.79487179 , 4130.25641026 , 4126.15384615 , 4135.8974359 , 4135.8974359 , 4138.97435897 , 4195.8974359 , 4915.8974359 , 4133.33333333 , 4140.51282051 , 2044.0 , 2037.0 , 280.871 , 0.0 , 0.0 , 0.0 , 0.0 , 

72.0 , 4133.84615385 , 4133.84615385 , 4138.46153846 , 4137.43589744 , 4129.23076923 , 4130.76923077 , 4124.1025641 , 4134.35897436 , 4137.94871795 , 4137.94871795 , 4194.87179487 , 4918.46153846 , 4134.35897436 , 4141.53846154 , 2044.0 , 2037.0 , 280.876 , 0.0 , 0.0 , 0.0 , 0.0 , 

73.0 , 4131.79487179 , 4131.28205128 , 4138.97435897 , 4136.92307692 , 4130.25641026 , 4131.28205128 , 4129.23076923 , 4133.33333333 , 4136.92307692 , 4139.48717949 , 4193.33333333 , 4915.38461538 , 4135.8974359 , 4140.0 , 2042.0 , 2037.0 , 280.882 , 0.0 , 0.0 , 0.0 , 0.0 , 

74.0 , 4133.84615385 , 4128.71794872 , 4138.97435897 , 4136.41025641 , 4132.82051282 , 4129.23076923 , 4129.74358974 , 4135.38461538 , 4135.8974359 , 4138.97435897 , 4193.84615385 , 4911.79487179 , 4135.8974359 , 4142.05128205 , 2043.0 , 2036.0 , 280.896 , 0.0 , 0.0 , 0.0 , 0.0 , 

75.0 , 4134.35897436 , 4129.74358974 , 4137.94871795 , 4138.46153846 , 4132.30769231 , 4131.79487179 , 4126.15384615 , 4138.97435897 , 4139.48717949 , 4137.94871795 , 4194.35897436 , 4912.30769231 , 4137.94871795 , 4140.51282051 , 2043.0 , 2036.0 , 280.899 , 0.0 , 0.0 , 0.0 , 0.0 , 

76.0 , 4135.8974359 , 4131.28205128 , 4137.43589744 , 4135.8974359 , 4128.71794872 , 4133.33333333 , 4127.17948718 , 4136.41025641 , 4137.43589744 , 4139.48717949 , 4194.35897436 , 4917.43589744 , 4135.8974359 , 4144.1025641 , 2043.0 , 2036.0 , 280.907 , 0.0 , 0.0 , 0.0 , 0.0 , 

77.0 , 4133.84615385 , 4133.33333333 , 4134.87179487 , 4137.43589744 , 4130.25641026 , 4133.84615385 , 4133.33333333 , 4135.38461538 , 4133.84615385 , 4140.51282051 , 4193.84615385 , 4914.87179487 , 4134.35897436 , 4142.05128205 , 2044.0 , 2035.0 , 280.914 , 0.0 , 0.0 , 0.0 , 0.0 , 

78.0 , 4132.82051282 , 4133.84615385 , 4137.94871795 , 4139.48717949 , 4132.30769231 , 4131.28205128 , 4129.74358974 , 4136.41025641 , 4135.38461538 , 4137.94871795 , 4192.30769231 , 4915.38461538 , 4135.8974359 , 4142.05128205 , 2042.0 , 2036.0 , 280.928 , 0.0 , 0.0 , 0.0 , 0.0 , 

79.0 , 4131.79487179 , 4133.84615385 , 4140.0 , 4138.97435897 , 4130.76923077 , 4130.25641026 , 4126.66666667 , 4135.38461538 , 4137.94871795 , 4136.92307692 , 4192.30769231 , 4915.8974359 , 4136.92307692 , 4141.02564103 , 2042.0 , 2035.0 , 280.932 , 0.0 , 0.0 , 0.0 , 0.0 , 

80.0 , 4134.87179487 , 4132.30769231 , 4137.43589744 , 4138.46153846 , 4128.20512821 , 4128.20512821 , 4129.74358974 , 4132.30769231 , 4135.8974359 , 4137.43589744 , 4194.87179487 , 4913.84615385 , 4135.38461538 , 4144.61538462 , 2043.0 , 2033.0 , 280.939 , 0.0 , 0.0 , 0.0 , 0.0 , 

81.0 , 4133.33333333 , 4131.79487179 , 4135.8974359 , 4138.46153846 , 4132.82051282 , 4131.28205128 , 4131.28205128 , 4133.84615385 , 4134.87179487 , 4137.94871795 , 4193.84615385 , 4911.79487179 , 4135.8974359 , 4140.51282051 , 2043.0 , 2032.0 , 280.945 , 0.0 , 0.0 , 0.0 , 0.0 , 

82.0 , 4132.30769231 , 4131.28205128 , 4134.87179487 , 4134.87179487 , 4133.84615385 , 4131.79487179 , 4128.71794872 , 4135.38461538 , 4137.94871795 , 4136.92307692 , 4191.79487179 , 4916.41025641 , 4137.43589744 , 4141.53846154 , 2043.0 , 2033.0 , 280.958 , 0.0 , 0.0 , 0.0 , 0.0 , 

83.0 , 4132.30769231 , 4131.28205128 , 4134.35897436 , 4134.87179487 , 4128.71794872 , 4127.69230769 , 4128.71794872 , 4136.92307692 , 4140.0 , 4137.43589744 , 4194.35897436 , 4915.38461538 , 4135.8974359 , 4139.48717949 , 2043.0 , 2034.0 , 280.963 , 0.0 , 0.0 , 0.0 , 0.0 , 

84.0 , 4134.87179487 , 4132.82051282 , 4137.43589744 , 4137.94871795 , 4128.20512821 , 4127.69230769 , 4128.20512821 , 4137.94871795 , 4136.41025641 , 4141.02564103 , 4195.8974359 , 4911.28205128 , 4137.94871795 , 4137.94871795 , 2043.0 , 2035.0 , 280.97 , 0.0 , 0.0 , 0.0 , 0.0 , 

85.0 , 4132.82051282 , 4133.84615385 , 4136.92307692 , 4135.38461538 , 4132.30769231 , 4132.30769231 , 4127.17948718 , 4137.43589744 , 4136.41025641 , 4140.0 , 4193.33333333 , 4912.30769231 , 4141.02564103 , 4138.46153846 , 2042.0 , 2035.0 , 280.978 , 0.0 , 0.0 , 0.0 , 0.0 , 

86.0 , 4130.25641026 , 4131.79487179 , 4132.82051282 , 4134.35897436 , 4131.28205128 , 4131.28205128 , 4129.23076923 , 4137.43589744 , 4139.48717949 , 4139.48717949 , 4193.33333333 , 4917.43589744 , 4138.97435897 , 4138.46153846 , 2043.0 , 2035.0 , 280.988 , 0.0 , 0.0 , 0.0 , 0.0 , 

87.0 , 4133.33333333 , 4132.30769231 , 4136.41025641 , 4136.92307692 , 4128.20512821 , 4128.71794872 , 4132.82051282 , 4135.8974359 , 4138.97435897 , 4141.53846154 , 4195.38461538 , 4918.97435897 , 4135.8974359 , 4138.97435897 , 2043.0 , 2037.0 , 280.996 , 0.0 , 0.0 , 0.0 , 0.0 , 

88.0 , 4135.8974359 , 4132.82051282 , 4141.53846154 , 4134.87179487 , 4130.25641026 , 4130.76923077 , 4132.30769231 , 4133.84615385 , 4136.92307692 , 4141.53846154 , 4193.84615385 , 4915.38461538 , 4136.92307692 , 4141.53846154 , 2044.0 , 2037.0 , 281.001 , 0.0 , 0.0 , 0.0 , 0.0 , 

89.0 , 4135.38461538 , 4131.28205128 , 4139.48717949 , 4133.84615385 , 4132.82051282 , 4131.28205128 , 4127.69230769 , 4133.84615385 , 4137.43589744 , 4138.46153846 , 4191.79487179 , 4913.84615385 , 4136.41025641 , 4144.1025641 , 2045.0 , 2035.0 , 281.008 , 0.0 , 0.0 , 0.0 , 0.0 , 

90.0 , 4133.33333333 , 4133.33333333 , 4137.43589744 , 4135.38461538 , 4131.28205128 , 4129.74358974 , 4127.69230769 , 4134.35897436 , 4138.97435897 , 4137.94871795 , 4192.82051282 , 4914.35897436 , 4134.87179487 , 4140.0 , 2043.0 , 2036.0 , 281.023 , 0.0 , 0.0 , 0.0 , 0.0 , 

91.0 , 4132.82051282 , 4135.38461538 , 4137.94871795 , 4133.84615385 , 4129.23076923 , 4129.74358974 , 4129.23076923 , 4133.33333333 , 4136.92307692 , 4137.43589744 , 4195.8974359 , 4915.38461538 , 4135.38461538 , 4140.0 , 2044.0 , 2037.0 , 281.027 , 0.0 , 0.0 , 0.0 , 0.0 , 

92.0 , 4132.82051282 , 4133.84615385 , 4136.41025641 , 4135.38461538 , 4131.28205128 , 4131.28205128 , 4128.20512821 , 4136.92307692 , 4137.43589744 , 4136.92307692 , 4194.87179487 , 4913.84615385 , 4136.41025641 , 4140.0 , 2044.0 , 2038.0 , 281.032 , 0.0 , 0.0 , 0.0 , 0.0 , 

93.0 , 4134.87179487 , 4132.30769231 , 4137.94871795 , 4137.94871795 , 4134.35897436 , 4130.76923077 , 4126.66666667 , 4136.92307692 , 4137.94871795 , 4138.97435897 , 4191.79487179 , 4915.8974359 , 4134.87179487 , 4143.58974359 , 2042.0 , 2038.0 , 281.041 , 0.0 , 0.0 , 0.0 , 0.0 , 

94.0 , 4132.82051282 , 4133.33333333 , 4138.46153846 , 4137.43589744 , 4132.82051282 , 4132.30769231 , 4128.71794872 , 4134.87179487 , 4137.43589744 , 4139.48717949 , 4193.33333333 , 4915.8974359 , 4135.38461538 , 4141.53846154 , 2043.0 , 2037.0 , 281.054 , 0.0 , 0.0 , 0.0 , 0.0 , 

95.0 , 4133.84615385 , 4130.76923077 , 4136.92307692 , 4132.82051282 , 4129.23076923 , 4130.25641026 , 4126.66666667 , 4134.87179487 , 4136.41025641 , 4138.97435897 , 4194.87179487 , 4916.41025641 , 4134.87179487 , 4140.51282051 , 2044.0 , 2037.0 , 281.059 , 0.0 , 0.0 , 0.0 , 0.0 , 

96.0 , 4135.8974359 , 4130.76923077 , 4136.92307692 , 4133.84615385 , 4129.74358974 , 4130.25641026 , 4127.17948718 , 4135.8974359 , 4138.46153846 , 4138.97435897 , 4192.30769231 , 4914.87179487 , 4133.84615385 , 4139.48717949 , 2042.0 , 2037.0 , 281.064 , 0.0 , 0.0 , 0.0 , 0.0 , 

97.0 , 4136.41025641 , 4133.33333333 , 4138.46153846 , 4133.84615385 , 4131.28205128 , 4129.74358974 , 4127.69230769 , 4133.33333333 , 4136.92307692 , 4138.46153846 , 4191.79487179 , 4914.35897436 , 4135.38461538 , 4145.12820513 , 2041.0 , 2039.0 , 281.071 , 0.0 , 0.0 , 0.0 , 0.0 , 

98.0 , 4131.79487179 , 4133.33333333 , 4138.97435897 , 4134.35897436 , 4132.30769231 , 4130.25641026 , 4128.20512821 , 4133.84615385 , 4134.87179487 , 4138.97435897 , 4194.35897436 , 4912.82051282 , 4137.94871795 , 4142.56410256 , 2042.0 , 2039.0 , 281.083 , 0.0 , 0.0 , 0.0 , 0.0 , 

99.0 , 4132.30769231 , 4132.30769231 , 4136.92307692 , 4134.35897436 , 4129.74358974 , 4129.23076923 , 4128.20512821 , 4135.8974359 , 4135.8974359 , 4138.97435897 , 4194.87179487 , 4915.38461538 , 4134.87179487 , 4142.05128205 , 2043.0 , 2039.0 , 281.089 , 0.0 , 0.0 , 0.0 , 0.0 , 

100.0 , 4134.35897436 , 4132.82051282 , 4135.8974359 , 4135.8974359 , 4129.74358974 , 4130.25641026 , 4130.76923077 , 4135.8974359 , 4137.43589744 , 4138.97435897 , 4192.82051282 , 4915.8974359 , 4133.33333333 , 4138.46153846 , 2044.0 , 2040.0 , 281.095 , 0.0 , 0.0 , 0.0 , 0.0 , 

101.0 , 4137.43589744 , 4133.33333333 , 4139.48717949 , 4137.94871795 , 4132.82051282 , 4130.25641026 , 4129.74358974 , 4134.35897436 , 4137.94871795 , 4139.48717949 , 4192.30769231 , 4914.35897436 , 4136.41025641 , 4140.51282051 , 2045.0 , 2038.0 , 281.104 , 0.0 , 0.0 , 0.0 , 0.0 , 

102.0 , 4137.94871795 , 4134.35897436 , 4139.48717949 , 4137.43589744 , 4133.84615385 , 4130.25641026 , 4127.17948718 , 4136.92307692 , 4138.46153846 , 4139.48717949 , 4194.35897436 , 4912.30769231 , 4135.8974359 , 4141.02564103 , 2044.0 , 2039.0 , 281.115 , 0.0 , 0.0 , 0.0 , 0.0 , 

103.0 , 4135.8974359 , 4132.82051282 , 4136.92307692 , 4135.38461538 , 4130.76923077 , 4128.71794872 , 4125.64102564 , 4138.46153846 , 4138.97435897 , 4141.53846154 , 4195.38461538 , 4914.35897436 , 4133.84615385 , 4142.05128205 , 2043.0 , 2038.0 , 281.122 , 0.0 , 0.0 , 0.0 , 0.0 , 

104.0 , 4135.38461538 , 4131.79487179 , 4137.94871795 , 4134.35897436 , 4130.76923077 , 4129.23076923 , 4129.74358974 , 4136.92307692 , 4138.97435897 , 4142.05128205 , 4194.35897436 , 4914.87179487 , 4134.87179487 , 4140.51282051 , 2044.0 , 2038.0 , 281.128 , 0.0 , 0.0 , 0.0 , 0.0 , 

105.0 , 4135.8974359 , 4132.82051282 , 4138.97435897 , 4134.35897436 , 4132.30769231 , 4130.25641026 , 4132.30769231 , 4137.43589744 , 4138.46153846 , 4140.51282051 , 4193.84615385 , 4914.87179487 , 4136.92307692 , 4141.02564103 , 2045.0 , 2036.0 , 281.135 , 0.0 , 0.0 , 0.0 , 0.0 , 

106.0 , 4135.38461538 , 4133.84615385 , 4138.46153846 , 4133.33333333 , 4130.25641026 , 4129.23076923 , 4129.74358974 , 4137.94871795 , 4136.92307692 , 4139.48717949 , 4193.84615385 , 4915.38461538 , 4135.38461538 , 4143.07692308 , 2046.0 , 2036.0 , 281.145 , 0.0 , 0.0 , 0.0 , 0.0 , 

107.0 , 4134.35897436 , 4133.84615385 , 4138.46153846 , 4135.38461538 , 4131.28205128 , 4128.71794872 , 4128.20512821 , 4135.38461538 , 4135.8974359 , 4138.46153846 , 4193.33333333 , 4913.84615385 , 4136.41025641 , 4141.02564103 , 2044.0 , 2036.0 , 281.154 , 0.0 , 0.0 , 0.0 , 0.0 , 

108.0 , 4134.87179487 , 4130.76923077 , 4137.43589744 , 4135.8974359 , 4133.84615385 , 4129.23076923 , 4128.71794872 , 4135.8974359 , 4136.41025641 , 4138.46153846 , 4193.84615385 , 4912.30769231 , 4135.8974359 , 4141.53846154 , 2042.0 , 2037.0 , 281.158 , 0.0 , 0.0 , 0.0 , 0.0 , 

109.0 , 4132.30769231 , 4129.23076923 , 4136.41025641 , 4135.8974359 , 4131.79487179 , 4130.76923077 , 4127.69230769 , 4138.97435897 , 4139.48717949 , 4139.48717949 , 4194.35897436 , 4911.28205128 , 4135.38461538 , 4141.02564103 , 2043.0 , 2036.0 , 281.167 , 0.0 , 0.0 , 0.0 , 0.0 , 

110.0 , 4133.33333333 , 4130.76923077 , 4138.97435897 , 4135.38461538 , 4129.74358974 , 4130.76923077 , 4125.64102564 , 4137.43589744 , 4140.0 , 4141.02564103 , 4193.84615385 , 4914.87179487 , 4135.8974359 , 4142.05128205 , 2043.0 , 2036.0 , 281.178 , 0.0 , 0.0 , 0.0 , 0.0 , 

111.0 , 4135.8974359 , 4133.84615385 , 4138.46153846 , 4133.84615385 , 4130.25641026 , 4131.28205128 , 4129.23076923 , 4138.46153846 , 4138.97435897 , 4140.0 , 4192.82051282 , 4914.35897436 , 4136.41025641 , 4136.41025641 , 2042.0 , 2037.0 , 281.184 , 0.0 , 0.0 , 0.0 , 0.0 , 

112.0 , 4136.92307692 , 4131.28205128 , 4135.38461538 , 4132.82051282 , 4131.28205128 , 4130.25641026 , 4129.74358974 , 4136.92307692 , 4138.46153846 , 4137.94871795 , 4192.82051282 , 4913.84615385 , 4135.8974359 , 4137.94871795 , 2042.0 , 2035.0 , 281.19 , 0.0 , 0.0 , 0.0 , 0.0 , 

113.0 , 4132.82051282 , 4132.30769231 , 4135.38461538 , 4136.92307692 , 4133.33333333 , 4130.76923077 , 4127.69230769 , 4136.41025641 , 4139.48717949 , 4137.94871795 , 4191.79487179 , 4912.30769231 , 4135.8974359 , 4140.0 , 2043.0 , 2035.0 , 281.198 , 0.0 , 0.0 , 0.0 , 0.0 , 

114.0 , 4133.33333333 , 4135.38461538 , 4138.97435897 , 4137.43589744 , 4131.79487179 , 4129.74358974 , 4127.17948718 , 4135.8974359 , 4137.43589744 , 4138.46153846 , 4192.82051282 , 4917.94871795 , 4135.38461538 , 4143.07692308 , 2041.0 , 2033.0 , 281.211 , 0.0 , 0.0 , 0.0 , 0.0 , 

115.0 , 4132.82051282 , 4133.84615385 , 4137.43589744 , 4134.35897436 , 4131.28205128 , 4129.74358974 , 4129.23076923 , 4134.35897436 , 4137.43589744 , 4137.94871795 , 4194.87179487 , 4917.94871795 , 4133.33333333 , 4140.51282051 , 2041.0 , 2034.0 , 281.215 , 0.0 , 0.0 , 0.0 , 0.0 , 

116.0 , 4133.33333333 , 4130.76923077 , 4135.8974359 , 4132.82051282 , 4133.33333333 , 4128.71794872 , 4129.23076923 , 4131.28205128 , 4136.92307692 , 4138.97435897 , 4192.82051282 , 4914.35897436 , 4134.87179487 , 4145.12820513 , 2042.0 , 2034.0 , 281.222 , 0.0 , 0.0 , 0.0 , 0.0 , 

117.0 , 4132.82051282 , 4134.35897436 , 4136.41025641 , 4134.35897436 , 4132.82051282 , 4129.23076923 , 4130.25641026 , 4134.35897436 , 4135.38461538 , 4140.0 , 4190.76923077 , 4913.33333333 , 4138.46153846 , 4143.07692308 , 2042.0 , 2036.0 , 281.23 , 0.0 , 0.0 , 0.0 , 0.0 , 

118.0 , 4134.35897436 , 4135.38461538 , 4137.94871795 , 4134.87179487 , 4129.23076923 , 4130.76923077 , 4127.69230769 , 4134.35897436 , 4135.38461538 , 4137.43589744 , 4192.30769231 , 4917.94871795 , 4135.8974359 , 4142.56410256 , 2041.0 , 2037.0 , 281.242 , 0.0 , 0.0 , 0.0 , 0.0 , 

119.0 , 4133.84615385 , 4131.28205128 , 4137.43589744 , 4137.43589744 , 4130.25641026 , 4134.35897436 , 4126.66666667 , 4132.82051282 , 4137.43589744 , 4136.92307692 , 4193.84615385 , 4915.38461538 , 4132.82051282 , 4142.05128205 , 2043.0 , 2038.0 , 281.247 , 0.0 , 0.0 , 0.0 , 0.0 , 

120.0 , 4134.87179487 , 4130.25641026 , 4137.43589744 , 4136.92307692 , 4131.79487179 , 4132.30769231 , 4125.64102564 , 4135.8974359 , 4136.92307692 , 4139.48717949 , 4193.33333333 , 4912.82051282 , 4137.43589744 , 4142.56410256 , 2041.0 , 2037.0 , 281.253 , 0.0 , 0.0 , 0.0 , 0.0 , 

121.0 , 4135.38461538 , 4133.84615385 , 4136.92307692 , 4135.8974359 , 4132.82051282 , 4130.25641026 , 4125.12820513 , 4137.43589744 , 4135.38461538 , 4140.0 , 4193.33333333 , 4914.35897436 , 4140.51282051 , 4139.48717949 , 2042.0 , 2037.0 , 281.262 , 0.0 , 0.0 , 0.0 , 0.0 , 

122.0 , 4135.38461538 , 4134.35897436 , 4135.38461538 , 4135.38461538 , 4132.82051282 , 4131.79487179 , 4127.69230769 , 4133.84615385 , 4137.43589744 , 4140.0 , 4193.84615385 , 4914.35897436 , 4136.41025641 , 4140.51282051 , 2044.0 , 2037.0 , 281.274 , 0.0 , 0.0 , 0.0 , 0.0 , 

123.0 , 4134.87179487 , 4132.30769231 , 4136.41025641 , 4133.33333333 , 4130.76923077 , 4132.30769231 , 4129.74358974 , 4134.35897436 , 4141.02564103 , 4138.97435897 , 4193.33333333 , 4913.84615385 , 4133.33333333 , 4141.53846154 , 2045.0 , 2038.0 , 281.279 , 0.0 , 0.0 , 0.0 , 0.0 , 

124.0 , 4134.35897436 , 4131.79487179 , 4138.46153846 , 4133.84615385 , 4131.28205128 , 4129.23076923 , 4127.17948718 , 4137.94871795 , 4138.97435897 , 4136.92307692 , 4193.33333333 , 4913.84615385 , 4136.92307692 , 4142.05128205 , 2045.0 , 2036.0 , 281.284 , 0.0 , 0.0 , 0.0 , 0.0 , 

125.0 , 4133.84615385 , 4132.30769231 , 4138.97435897 , 4133.33333333 , 4132.30769231 , 4130.25641026 , 4125.64102564 , 4136.41025641 , 4134.35897436 , 4137.43589744 , 4193.84615385 , 4914.35897436 , 4136.92307692 , 4142.05128205 , 2044.0 , 2036.0 , 281.293 , 0.0 , 0.0 , 0.0 , 0.0 , 

126.0 , 4134.35897436 , 4133.33333333 , 4137.43589744 , 4131.28205128 , 4129.23076923 , 4131.79487179 , 4129.23076923 , 4135.38461538 , 4136.41025641 , 4140.51282051 , 4193.33333333 , 4913.84615385 , 4135.8974359 , 4140.0 , 2044.0 , 2037.0 , 281.305 , 0.0 , 0.0 , 0.0 , 0.0 , 

127.0 , 4136.41025641 , 4135.38461538 , 4137.43589744 , 4129.74358974 , 4128.71794872 , 4130.25641026 , 4130.25641026 , 4137.43589744 , 4139.48717949 , 4139.48717949 , 4192.82051282 , 4914.35897436 , 4134.87179487 , 4142.56410256 , 2043.0 , 2037.0 , 281.311 , 0.0 , 0.0 , 0.0 , 0.0 , 

128.0 , 4134.35897436 , 4134.87179487 , 4140.0 , 4132.30769231 , 4131.79487179 , 4131.79487179 , 4129.23076923 , 4136.92307692 , 4137.43589744 , 4138.97435897 , 4193.84615385 , 4913.33333333 , 4136.41025641 , 4140.0 , 2043.0 , 2036.0 , 281.316 , 0.0 , 0.0 , 0.0 , 0.0 , 

0.0 , 4134.87179487 , 4129.74358974 , 4139.48717949 , 4131.28205128 , 4131.28205128 , 4132.82051282 , 4129.23076923 , 4134.35897436 , 4133.84615385 , 4141.53846154 , 4195.38461538 , 4914.87179487 , 4137.43589744 , 4138.97435897 , 2044.0 , 2035.0 , 281.325 , 0.0 , 0.0 , 0.0 , 0.0 , 

1.0 , 4134.35897436 , 4131.28205128 , 4134.35897436 , 4132.30769231 , 4131.28205128 , 4132.30769231 , 4132.82051282 , 4135.8974359 , 4137.43589744 , 4140.51282051 , 4194.87179487 , 4914.87179487 , 4136.92307692 , 4138.46153846 , 2042.0 , 2035.0 , 281.334 , 0.0 , 0.0 , 0.0 , 0.0 , 

2.0 , 4133.33333333 , 4132.30769231 , 4135.8974359 , 4134.87179487 , 4131.28205128 , 4131.79487179 , 4129.23076923 , 4135.8974359 , 4136.92307692 , 4136.41025641 , 4194.87179487 , 4916.41025641 , 4134.87179487 , 4145.12820513 , 2041.0 , 2036.0 , 281.343 , 0.0 , 0.0 , 0.0 , 0.0 , 

3.0 , 4130.76923077 , 4131.79487179 , 4140.0 , 4137.94871795 , 4130.25641026 , 4133.33333333 , 4123.58974359 , 4136.41025641 , 4134.87179487 , 4137.43589744 , 4192.82051282 , 4914.87179487 , 4136.41025641 , 4141.53846154 , 2041.0 , 2034.0 , 281.347 , 0.0 , 0.0 , 0.0 , 0.0 , 

4.0 , 4133.33333333 , 4133.84615385 , 4137.94871795 , 4137.43589744 , 4131.79487179 , 4132.30769231 , 4125.64102564 , 4137.94871795 , 4135.8974359 , 4138.97435897 , 4191.79487179 , 4914.35897436 , 4137.43589744 , 4142.05128205 , 2043.0 , 2035.0 , 281.356 , 0.0 , 0.0 , 0.0 , 0.0 , 

5.0 , 4134.35897436 , 4135.8974359 , 4134.87179487 , 4134.87179487 , 4134.35897436 , 4130.76923077 , 4130.76923077 , 4138.46153846 , 4137.94871795 , 4138.46153846 , 4192.82051282 , 4912.82051282 , 4134.87179487 , 4141.02564103 , 2041.0 , 2036.0 , 281.367 , 0.0 , 0.0 , 0.0 , 0.0 , 

6.0 , 4136.41025641 , 4134.87179487 , 4138.46153846 , 4132.30769231 , 4131.79487179 , 4129.23076923 , 4129.23076923 , 4135.38461538 , 4136.41025641 , 4138.97435897 , 4192.30769231 , 4914.87179487 , 4134.35897436 , 4143.07692308 , 2042.0 , 2035.0 , 281.374 , 0.0 , 0.0 , 0.0 , 0.0 , 

7.0 , 4134.87179487 , 4134.87179487 , 4138.97435897 , 4135.38461538 , 4130.25641026 , 4132.82051282 , 4129.74358974 , 4134.87179487 , 4136.41025641 , 4138.97435897 , 4189.74358974 , 4913.84615385 , 4137.94871795 , 4140.51282051 , 2044.0 , 2034.0 , 281.38 , 0.0 , 0.0 , 0.0 , 0.0 , 

8.0 , 4135.38461538 , 4132.30769231 , 4137.43589744 , 4136.92307692 , 4131.28205128 , 4132.82051282 , 4130.25641026 , 4137.43589744 , 4138.46153846 , 4137.43589744 , 4191.28205128 , 4913.33333333 , 4137.43589744 , 4142.56410256 , 2043.0 , 2033.0 , 281.388 , 0.0 , 0.0 , 0.0 , 0.0 , 

9.0 , 4135.8974359 , 4131.28205128 , 4137.94871795 , 4136.41025641 , 4131.28205128 , 4128.71794872 , 4131.28205128 , 4135.8974359 , 4138.97435897 , 4139.48717949 , 4193.84615385 , 4912.82051282 , 4133.84615385 , 4143.58974359 , 2043.0 , 2035.0 , 281.397 , 0.0 , 0.0 , 0.0 , 0.0 , 

10.0 , 4135.38461538 , 4135.38461538 , 4138.46153846 , 4135.8974359 , 4129.23076923 , 4127.69230769 , 4130.25641026 , 4130.76923077 , 4137.43589744 , 4142.56410256 , 4193.84615385 , 4913.84615385 , 4135.8974359 , 4144.1025641 , 2043.0 , 2035.0 , 281.406 , 0.0 , 0.0 , 0.0 , 0.0 , 

11.0 , 4133.84615385 , 4134.87179487 , 4136.41025641 , 4135.8974359 , 4129.74358974 , 4131.79487179 , 4130.25641026 , 4134.35897436 , 4137.94871795 , 4141.53846154 , 4193.33333333 , 4915.38461538 , 4138.97435897 , 4142.05128205 , 2045.0 , 2034.0 , 281.411 , 0.0 , 0.0 , 0.0 , 0.0 , 

12.0 , 4135.8974359 , 4131.28205128 , 4137.43589744 , 4135.8974359 , 4133.84615385 , 4131.79487179 , 4129.23076923 , 4137.94871795 , 4137.43589744 , 4139.48717949 , 4193.84615385 , 4915.8974359 , 4135.38461538 , 4143.07692308 , 2043.0 , 2033.0 , 281.419 , 0.0 , 0.0 , 0.0 , 0.0 , 

13.0 , 4135.8974359 , 4132.30769231 , 4137.43589744 , 4135.8974359 , 4134.87179487 , 4130.76923077 , 4128.20512821 , 4135.38461538 , 4134.87179487 , 4140.51282051 , 4193.84615385 , 4915.38461538 , 4130.76923077 , 4143.07692308 , 2045.0 , 2035.0 , 281.433 , 0.0 , 0.0 , 0.0 , 0.0 , 

14.0 , 4132.30769231 , 4132.82051282 , 4135.38461538 , 4135.38461538 , 4132.82051282 , 4130.25641026 , 4129.23076923 , 4135.38461538 , 4135.8974359 , 4140.51282051 , 4194.87179487 , 4913.84615385 , 4136.92307692 , 4142.05128205 , 2045.0 , 2036.0 , 281.437 , 0.0 , 0.0 , 0.0 , 0.0 , 

15.0 , 4133.33333333 , 4132.30769231 , 4136.92307692 , 4133.84615385 , 4132.30769231 , 4129.74358974 , 4131.28205128 , 4137.94871795 , 4138.46153846 , 4140.0 , 4194.35897436 , 4913.33333333 , 4140.51282051 , 4143.07692308 , 2046.0 , 2035.0 , 281.442 , 0.0 , 0.0 , 0.0 , 0.0 , 

16.0 , 4134.87179487 , 4133.33333333 , 4134.87179487 , 4134.87179487 , 4132.30769231 , 4129.74358974 , 4130.25641026 , 4136.92307692 , 4138.46153846 , 4140.0 , 4193.33333333 , 4914.87179487 , 4135.8974359 , 4142.05128205 , 2045.0 , 2035.0 , 281.45 , 0.0 , 0.0 , 0.0 , 0.0 , 

17.0 , 4135.38461538 , 4131.79487179 , 4131.79487179 , 4135.8974359 , 4130.76923077 , 4128.71794872 , 4126.66666667 , 4134.35897436 , 4137.43589744 , 4138.97435897 , 4194.87179487 , 4916.92307692 , 4133.33333333 , 4143.58974359 , 2046.0 , 2035.0 , 281.464 , 0.0 , 0.0 , 0.0 , 0.0 , 

18.0 , 4134.87179487 , 4132.30769231 , 4135.38461538 , 4136.92307692 , 4131.28205128 , 4129.23076923 , 4129.23076923 , 4134.35897436 , 4137.43589744 , 4137.43589744 , 4195.38461538 , 4912.82051282 , 4137.94871795 , 4140.51282051 , 2046.0 , 2035.0 , 281.468 , 0.0 , 0.0 , 0.0 , 0.0 , 

19.0 , 4136.41025641 , 4133.33333333 , 4141.02564103 , 4135.8974359 , 4130.25641026 , 4130.76923077 , 4129.23076923 , 4134.87179487 , 4134.35897436 , 4138.97435897 , 4194.35897436 , 4912.82051282 , 4135.8974359 , 4141.53846154 , 2045.0 , 2035.0 , 281.474 , 0.0 , 0.0 , 0.0 , 0.0 , 

20.0 , 4134.87179487 , 4133.33333333 , 4137.43589744 , 4135.38461538 , 4130.25641026 , 4131.79487179 , 4127.17948718 , 4137.94871795 , 4136.41025641 , 4139.48717949 , 4192.82051282 , 4913.84615385 , 4133.84615385 , 4138.46153846 , 2045.0 , 2035.0 , 281.482 , 0.0 , 0.0 , 0.0 , 0.0 , 

21.0 , 4135.8974359 , 4132.82051282 , 4135.38461538 , 4133.84615385 , 4131.79487179 , 4131.79487179 , 4128.20512821 , 4136.92307692 , 4139.48717949 , 4138.46153846 , 4193.33333333 , 4915.38461538 , 4137.94871795 , 4141.02564103 , 2044.0 , 2035.0 , 281.494 , 0.0 , 0.0 , 0.0 , 0.0 , 

22.0 , 4135.38461538 , 4133.84615385 , 4137.43589744 , 4134.87179487 , 4132.82051282 , 4130.76923077 , 4131.79487179 , 4136.92307692 , 4138.46153846 , 4142.05128205 , 4193.33333333 , 4911.79487179 , 4138.97435897 , 4142.56410256 , 2043.0 , 2036.0 , 281.498 , 0.0 , 0.0 , 0.0 , 0.0 , 

23.0 , 4135.8974359 , 4130.76923077 , 4137.43589744 , 4135.38461538 , 4130.25641026 , 4129.74358974 , 4130.25641026 , 4136.92307692 , 4136.92307692 , 4143.07692308 , 4193.84615385 , 4911.79487179 , 4134.87179487 , 4147.69230769 , 2044.0 , 2035.0 , 281.506 , 0.0 , 0.0 , 0.0 , 0.0 , 

24.0 , 4136.41025641 , 4131.28205128 , 4135.8974359 , 4137.43589744 , 4130.76923077 , 4133.84615385 , 4128.71794872 , 4135.8974359 , 4137.94871795 , 4140.51282051 , 4193.84615385 , 4912.30769231 , 4135.8974359 , 4143.58974359 , 2044.0 , 2036.0 , 281.514 , 0.0 , 0.0 , 0.0 , 0.0 , 

25.0 , 4135.8974359 , 4134.87179487 , 4137.94871795 , 4135.8974359 , 4131.79487179 , 4132.82051282 , 4129.23076923 , 4134.87179487 , 4136.41025641 , 4140.0 , 4194.35897436 , 4915.8974359 , 4137.43589744 , 4143.07692308 , 2043.0 , 2037.0 , 281.526 , 0.0 , 0.0 , 0.0 , 0.0 , 

26.0 , 4132.30769231 , 4135.38461538 , 4137.43589744 , 4131.79487179 , 4129.74358974 , 4129.23076923 , 4128.71794872 , 4134.87179487 , 4135.38461538 , 4141.02564103 , 4194.87179487 , 4914.87179487 , 4135.8974359 , 4142.56410256 , 2041.0 , 2036.0 , 281.531 , 0.0 , 0.0 , 0.0 , 0.0 , 

27.0 , 4133.33333333 , 4133.33333333 , 4136.41025641 , 4129.74358974 , 4128.20512821 , 4130.76923077 , 4126.66666667 , 4133.84615385 , 4136.92307692 , 4140.0 , 4195.38461538 , 4913.84615385 , 4136.41025641 , 4144.1025641 , 2042.0 , 2037.0 , 281.536 , 0.0 , 0.0 , 0.0 , 0.0 , 

28.0 , 4133.84615385 , 4132.30769231 , 4136.41025641 , 4133.84615385 , 4131.28205128 , 4134.35897436 , 4127.69230769 , 4134.87179487 , 4136.92307692 , 4140.51282051 , 4194.35897436 , 4913.84615385 , 4137.94871795 , 4140.51282051 , 2042.0 , 2037.0 , 281.544 , 0.0 , 0.0 , 0.0 , 0.0 , 

29.0 , 4133.33333333 , 4132.82051282 , 4137.94871795 , 4135.8974359 , 4132.30769231 , 4129.23076923 , 4128.71794872 , 4135.38461538 , 4135.8974359 , 4142.56410256 , 4194.35897436 , 4915.38461538 , 4135.8974359 , 4139.48717949 , 2042.0 , 2036.0 , 281.557 , 0.0 , 0.0 , 0.0 , 0.0 , 

30.0 , 4133.33333333 , 4134.87179487 , 4138.46153846 , 4134.87179487 , 4130.25641026 , 4129.23076923 , 4128.71794872 , 4133.84615385 , 4135.38461538 , 4141.02564103 , 4193.33333333 , 4914.35897436 , 4133.84615385 , 4139.48717949 , 2043.0 , 2037.0 , 281.562 , 0.0 , 0.0 , 0.0 , 0.0 , 

31.0 , 4134.35897436 , 4133.33333333 , 4137.94871795 , 4134.87179487 , 4131.28205128 , 4133.33333333 , 4129.23076923 , 4134.87179487 , 4136.41025641 , 4138.46153846 , 4192.82051282 , 4913.33333333 , 4136.92307692 , 4140.0 , 2042.0 , 2038.0 , 281.569 , 0.0 , 0.0 , 0.0 , 0.0 , 

32.0 , 4134.35897436 , 4130.25641026 , 4136.41025641 , 4135.8974359 , 4134.35897436 , 4131.79487179 , 4131.79487179 , 4138.46153846 , 4137.94871795 , 4138.97435897 , 4194.35897436 , 4914.35897436 , 4136.41025641 , 4140.51282051 , 2042.0 , 2038.0 , 281.577 , 0.0 , 0.0 , 0.0 , 0.0 , 

33.0 , 4133.33333333 , 4132.82051282 , 4136.92307692 , 4135.8974359 , 4133.33333333 , 4129.23076923 , 4131.79487179 , 4136.92307692 , 4138.46153846 , 4140.0 , 4194.87179487 , 4913.84615385 , 4134.87179487 , 4142.05128205 , 2041.0 , 2038.0 , 281.589 , 0.0 , 0.0 , 0.0 , 0.0 , 

34.0 , 4132.30769231 , 4135.38461538 , 4138.97435897 , 4135.8974359 , 4131.28205128 , 4128.20512821 , 4129.74358974 , 4133.33333333 , 4136.92307692 , 4139.48717949 , 4194.35897436 , 4913.84615385 , 4135.38461538 , 4145.12820513 , 2040.0 , 2038.0 , 281.594 , 0.0 , 0.0 , 0.0 , 0.0 , 

35.0 , 4132.30769231 , 4133.33333333 , 4137.94871795 , 4137.94871795 , 4131.79487179 , 4130.25641026 , 4130.25641026 , 4135.38461538 , 4136.92307692 , 4138.97435897 , 4193.84615385 , 4912.82051282 , 4136.92307692 , 4143.07692308 , 2041.0 , 2039.0 , 281.6 , 0.0 , 0.0 , 0.0 , 0.0 , 

36.0 , 4135.8974359 , 4131.79487179 , 4137.43589744 , 4135.38461538 , 4132.30769231 , 4130.25641026 , 4129.23076923 , 4137.94871795 , 4137.43589744 , 4140.0 , 4193.33333333 , 4914.35897436 , 4135.38461538 , 4144.1025641 , 2042.0 , 2041.0 , 281.607 , 0.0 , 0.0 , 0.0 , 0.0 , 

37.0 , 4133.33333333 , 4133.33333333 , 4137.94871795 , 4135.38461538 , 4132.82051282 , 4130.25641026 , 4129.74358974 , 4137.43589744 , 4138.46153846 , 4139.48717949 , 4192.30769231 , 4914.87179487 , 4136.92307692 , 4142.56410256 , 2041.0 , 2040.0 , 281.621 , 0.0 , 0.0 , 0.0 , 0.0 , 

38.0 , 4133.84615385 , 4131.79487179 , 4138.97435897 , 4137.94871795 , 4132.82051282 , 4129.74358974 , 4129.23076923 , 4137.43589744 , 4136.41025641 , 4137.94871795 , 4193.33333333 , 4915.8974359 , 4136.92307692 , 4143.07692308 , 2043.0 , 2040.0 , 281.625 , 0.0 , 0.0 , 0.0 , 0.0 , 

39.0 , 4135.8974359 , 4132.30769231 , 4138.46153846 , 4136.92307692 , 4133.33333333 , 4132.30769231 , 4129.74358974 , 4137.94871795 , 4136.41025641 , 4139.48717949 , 4194.35897436 , 4913.84615385 , 4134.87179487 , 4139.48717949 , 2042.0 , 2040.0 , 281.631 , 0.0 , 0.0 , 0.0 , 0.0 , 

40.0 , 4136.92307692 , 4133.33333333 , 4137.43589744 , 4133.33333333 , 4133.33333333 , 4132.82051282 , 4128.71794872 , 4135.38461538 , 4137.43589744 , 4140.51282051 , 4194.35897436 , 4915.8974359 , 4137.94871795 , 4144.61538462 , 2042.0 , 2040.0 , 281.639 , 0.0 , 0.0 , 0.0 , 0.0 , 

41.0 , 4134.35897436 , 4134.87179487 , 4133.84615385 , 4137.43589744 , 4132.82051282 , 4132.30769231 , 4130.25641026 , 4135.8974359 , 4138.46153846 , 4138.97435897 , 4193.33333333 , 4915.38461538 , 4140.0 , 4144.1025641 , 2042.0 , 2039.0 , 281.653 , 0.0 , 0.0 , 0.0 , 0.0 , 

42.0 , 4137.43589744 , 4133.33333333 , 4134.35897436 , 4138.46153846 , 4131.28205128 , 4130.25641026 , 4127.69230769 , 4136.41025641 , 4136.41025641 , 4138.97435897 , 4191.79487179 , 4915.38461538 , 4137.43589744 , 4144.61538462 , 2043.0 , 2039.0 , 281.767 , 0.0 , 0.0 , 0.0 , 0.0 , 

43.0 , 4138.46153846 , 4131.28205128 , 4135.8974359 , 4135.38461538 , 4131.79487179 , 4130.25641026 , 4127.17948718 , 4135.8974359 , 4136.92307692 , 4140.51282051 , 4192.30769231 , 4914.87179487 , 4135.8974359 , 4141.53846154 , 2043.0 , 2038.0 , 281.771 , 0.0 , 0.0 , 0.0 , 0.0 , 

44.0 , 4138.97435897 , 4131.28205128 , 4136.92307692 , 4134.87179487 , 4131.79487179 , 4130.76923077 , 4129.74358974 , 4135.38461538 , 4136.92307692 , 4139.48717949 , 4193.84615385 , 4915.8974359 , 4136.92307692 , 4144.61538462 , 2042.0 , 2036.0 , 281.771 , 0.0 , 0.0 , 0.0 , 0.0 , 

45.0 , 4140.0 , 4134.35897436 , 4135.8974359 , 4135.38461538 , 4131.28205128 , 4132.30769231 , 4130.76923077 , 4135.38461538 , 4135.8974359 , 4140.0 , 4193.33333333 , 4914.87179487 , 4136.92307692 , 4141.53846154 , 2043.0 , 2037.0 , 281.771 , 0.0 , 0.0 , 0.0 , 0.0 , 

46.0 , 4141.02564103 , 4135.38461538 , 4136.92307692 , 4134.35897436 , 4130.76923077 , 4131.79487179 , 4127.17948718 , 4135.38461538 , 4136.92307692 , 4140.51282051 , 4193.84615385 , 4915.8974359 , 4136.92307692 , 4139.48717949 , 2042.0 , 2036.0 , 281.771 , 0.0 , 0.0 , 0.0 , 0.0 , 

47.0 , 4137.43589744 , 4132.82051282 , 4137.94871795 , 4135.38461538 , 4131.28205128 , 4131.79487179 , 4128.20512821 , 4136.92307692 , 4136.92307692 , 4137.94871795 , 4193.33333333 , 4913.84615385 , 4134.87179487 , 4140.0 , 2044.0 , 2036.0 , 281.771 , 0.0 , 0.0 , 0.0 , 0.0 , 

48.0 , 4134.87179487 , 4129.74358974 , 4137.94871795 , 4133.84615385 , 4129.74358974 , 4131.28205128 , 4131.79487179 , 4136.41025641 , 4135.8974359 , 4138.46153846 , 4192.30769231 , 4912.82051282 , 4134.35897436 , 4145.64102564 , 2043.0 , 2036.0 , 281.771 , 0.0 , 0.0 , 0.0 , 0.0 , 

49.0 , 4135.38461538 , 4129.23076923 , 4138.46153846 , 4132.82051282 , 4130.76923077 , 4131.79487179 , 4130.25641026 , 4135.8974359 , 4135.8974359 , 4141.53846154 , 4193.33333333 , 4912.82051282 , 4136.41025641 , 4146.66666667 , 2044.0 , 2035.0 , 281.771 , 0.0 , 0.0 , 0.0 , 0.0 , 

50.0 , 4135.38461538 , 4133.33333333 , 4138.46153846 , 4134.35897436 , 4133.33333333 , 4131.79487179 , 4127.69230769 , 4138.97435897 , 4136.41025641 , 4140.0 , 4193.33333333 , 4911.79487179 , 4137.43589744 , 4145.12820513 , 2044.0 , 2035.0 , 281.771 , 0.0 , 0.0 , 0.0 , 0.0 , 

51.0 , 4133.84615385 , 4136.41025641 , 4137.43589744 , 4134.35897436 , 4132.82051282 , 4129.74358974 , 4131.28205128 , 4137.94871795 , 4136.92307692 , 4137.43589744 , 4191.79487179 , 4912.82051282 , 4136.92307692 , 4145.64102564 , 2043.0 , 2035.0 , 281.771 , 0.0 , 0.0 , 0.0 , 0.0 , 

52.0 , 4132.30769231 , 4132.30769231 , 4135.8974359 , 4134.35897436 , 4131.79487179 , 4129.23076923 , 4133.33333333 , 4133.84615385 , 4136.92307692 , 4139.48717949 , 4194.35897436 , 4913.33333333 , 4138.97435897 , 4144.1025641 , 2043.0 , 2036.0 , 281.771 , 0.0 , 0.0 , 0.0 , 0.0 , 

53.0 , 4133.33333333 , 4130.76923077 , 4137.94871795 , 4135.38461538 , 4133.33333333 , 4130.76923077 , 4126.15384615 , 4132.82051282 , 4134.87179487 , 4141.02564103 , 4196.41025641 , 4914.87179487 , 4136.41025641 , 4143.07692308 , 2044.0 , 2034.0 , 281.771 , 0.0 , 0.0 , 0.0 , 0.0 , 

54.0 , 4134.35897436 , 4132.30769231 , 4138.46153846 , 4134.35897436 , 4134.35897436 , 4131.79487179 , 4124.1025641 , 4135.38461538 , 4135.8974359 , 4138.46153846 , 4194.35897436 , 4916.92307692 , 4134.87179487 , 4140.0 , 2044.0 , 2033.0 , 281.771 , 0.0 , 0.0 , 0.0 , 0.0 , 

55.0 , 4136.92307692 , 4130.76923077 , 4135.38461538 , 4131.28205128 , 4130.76923077 , 4129.74358974 , 4127.17948718 , 4136.41025641 , 4136.41025641 , 4136.92307692 , 4194.87179487 , 4918.46153846 , 4135.8974359 , 4144.1025641 , 2043.0 , 2034.0 , 281.771 , 0.0 , 0.0 , 0.0 , 0.0 , 

56.0 , 4134.35897436 , 4130.25641026 , 4135.38461538 , 4134.87179487 , 4129.23076923 , 4130.25641026 , 4129.74358974 , 4138.46153846 , 4136.41025641 , 4138.97435897 , 4195.38461538 , 4913.33333333 , 4136.41025641 , 4144.1025641 , 2044.0 , 2036.0 , 281.771 , 0.0 , 0.0 , 0.0 , 0.0 , 

57.0 , 4134.87179487 , 4130.25641026 , 4139.48717949 , 4136.92307692 , 4130.25641026 , 4130.76923077 , 4128.71794872 , 4136.41025641 , 4135.8974359 , 4140.0 , 4193.33333333 , 4914.35897436 , 4133.84615385 , 4142.56410256 , 2042.0 , 2036.0 , 281.786 , 0.0 , 0.0 , 0.0 , 0.0 , 

58.0 , 4135.8974359 , 4130.76923077 , 4138.97435897 , 4135.8974359 , 4132.30769231 , 4131.28205128 , 4127.69230769 , 4132.30769231 , 4137.43589744 , 4139.48717949 , 4192.82051282 , 4915.38461538 , 4134.87179487 , 4136.41025641 , 2043.0 , 2035.0 , 281.786 , 0.0 , 0.0 , 0.0 , 0.0 , 

59.0 , 4135.38461538 , 4131.28205128 , 4138.97435897 , 4132.82051282 , 4131.28205128 , 4131.28205128 , 4126.66666667 , 4131.79487179 , 4137.94871795 , 4137.94871795 , 4193.84615385 , 4913.84615385 , 4137.94871795 , 4139.48717949 , 2044.0 , 2037.0 , 281.791 , 0.0 , 0.0 , 0.0 , 0.0 , 

60.0 , 4131.28205128 , 4132.30769231 , 4138.97435897 , 4134.35897436 , 4130.25641026 , 4133.33333333 , 4128.71794872 , 4137.43589744 , 4138.46153846 , 4138.46153846 , 4192.82051282 , 4910.76923077 , 4137.43589744 , 4141.02564103 , 2042.0 , 2036.0 , 281.799 , 0.0 , 0.0 , 0.0 , 0.0 , 

61.0 , 4134.35897436 , 4133.84615385 , 4139.48717949 , 4135.8974359 , 4132.30769231 , 4131.79487179 , 4128.20512821 , 4136.92307692 , 4137.94871795 , 4140.51282051 , 4193.33333333 , 4913.84615385 , 4137.43589744 , 4144.1025641 , 2042.0 , 2035.0 , 281.811 , 0.0 , 0.0 , 0.0 , 0.0 , 

62.0 , 4135.38461538 , 4136.41025641 , 4138.46153846 , 4135.8974359 , 4133.84615385 , 4131.79487179 , 4127.17948718 , 4133.84615385 , 4137.94871795 , 4141.02564103 , 4193.84615385 , 4914.87179487 , 4140.0 , 4142.05128205 , 2041.0 , 2035.0 , 281.817 , 0.0 , 0.0 , 0.0 , 0.0 , 

63.0 , 4136.41025641 , 4133.33333333 , 4137.94871795 , 4134.87179487 , 4129.74358974 , 4130.76923077 , 4127.17948718 , 4134.87179487 , 4138.97435897 , 4138.46153846 , 4192.30769231 , 4913.84615385 , 4138.46153846 , 4144.1025641 , 2041.0 , 2036.0 , 281.821 , 0.0 , 0.0 , 0.0 , 0.0 , 

64.0 , 4134.87179487 , 4128.71794872 , 4138.97435897 , 4136.92307692 , 4128.71794872 , 4129.74358974 , 4128.71794872 , 4136.92307692 , 4138.97435897 , 4137.43589744 , 4192.82051282 , 4912.30769231 , 4134.87179487 , 4143.07692308 , 2041.0 , 2037.0 , 281.829 , 0.0 , 0.0 , 0.0 , 0.0 , 

65.0 , 4132.82051282 , 4129.74358974 , 4139.48717949 , 4136.41025641 , 4131.28205128 , 4130.25641026 , 4127.69230769 , 4133.84615385 , 4137.43589744 , 4137.94871795 , 4195.8974359 , 4914.35897436 , 4134.87179487 , 4142.56410256 , 2043.0 , 2037.0 , 281.842 , 0.0 , 0.0 , 0.0 , 0.0 , 

66.0 , 4131.79487179 , 4131.79487179 , 4136.92307692 , 4133.84615385 , 4130.76923077 , 4134.35897436 , 4128.20512821 , 4134.87179487 , 4136.92307692 , 4137.43589744 , 4194.87179487 , 4915.8974359 , 4134.87179487 , 4141.53846154 , 2041.0 , 2037.0 , 281.847 , 0.0 , 0.0 , 0.0 , 0.0 , 

67.0 , 4132.30769231 , 4132.82051282 , 4136.92307692 , 4133.33333333 , 4128.71794872 , 4133.33333333 , 4128.20512821 , 4139.48717949 , 4136.41025641 , 4136.41025641 , 4193.84615385 , 4915.8974359 , 4135.38461538 , 4144.1025641 , 2043.0 , 2039.0 , 281.853 , 0.0 , 0.0 , 0.0 , 0.0 , 

68.0 , 4133.84615385 , 4132.82051282 , 4138.46153846 , 4134.35897436 , 4129.74358974 , 4128.71794872 , 4126.66666667 , 4135.8974359 , 4136.41025641 , 4135.8974359 , 4194.87179487 , 4914.35897436 , 4136.41025641 , 4143.58974359 , 2041.0 , 2038.0 , 281.86 , 0.0 , 0.0 , 0.0 , 0.0 , 

69.0 , 4137.43589744 , 4132.82051282 , 4136.41025641 , 4135.38461538 , 4131.28205128 , 4128.20512821 , 4126.66666667 , 4131.28205128 , 4136.41025641 , 4139.48717949 , 4194.87179487 , 4914.35897436 , 4137.94871795 , 4141.53846154 , 2043.0 , 2037.0 , 281.873 , 0.0 , 0.0 , 0.0 , 0.0 , 

70.0 , 4139.48717949 , 4131.79487179 , 4138.46153846 , 4135.8974359 , 4131.79487179 , 4129.23076923 , 4130.25641026 , 4135.8974359 , 4137.43589744 , 4143.07692308 , 4192.82051282 , 4914.35897436 , 4137.43589744 , 4141.02564103 , 2044.0 , 2037.0 , 281.879 , 0.0 , 0.0 , 0.0 , 0.0 , 

71.0 , 4138.46153846 , 4131.28205128 , 4141.02564103 , 4135.8974359 , 4132.30769231 , 4128.20512821 , 4131.79487179 , 4141.02564103 , 4135.8974359 , 4141.02564103 , 4193.84615385 , 4912.82051282 , 4137.43589744 , 4140.0 , 2045.0 , 2037.0 , 281.883 , 0.0 , 0.0 , 0.0 , 0.0 , 

72.0 , 4137.94871795 , 4132.30769231 , 4138.97435897 , 4135.38461538 , 4131.28205128 , 4127.69230769 , 4128.71794872 , 4136.92307692 , 4132.82051282 , 4138.46153846 , 4193.84615385 , 4914.35897436 , 4136.41025641 , 4144.61538462 , 2045.0 , 2037.0 , 281.892 , 0.0 , 0.0 , 0.0 , 0.0 , 

73.0 , 4135.8974359 , 4131.28205128 , 4137.43589744 , 4135.8974359 , 4132.30769231 , 4130.76923077 , 4129.23076923 , 4134.35897436 , 4136.92307692 , 4140.51282051 , 4192.30769231 , 4912.82051282 , 4136.41025641 , 4143.07692308 , 2046.0 , 2036.0 , 281.905 , 0.0 , 0.0 , 0.0 , 0.0 , 

74.0 , 4136.41025641 , 4127.69230769 , 4138.97435897 , 4135.38461538 , 4133.33333333 , 4131.28205128 , 4128.71794872 , 4138.46153846 , 4140.0 , 4140.51282051 , 4193.33333333 , 4914.35897436 , 4136.92307692 , 4140.0 , 2046.0 , 2036.0 , 281.911 , 0.0 , 0.0 , 0.0 , 0.0 , 

75.0 , 4135.38461538 , 4131.28205128 , 4137.43589744 , 4136.41025641 , 4133.84615385 , 4131.79487179 , 4128.20512821 , 4140.51282051 , 4138.46153846 , 4138.97435897 , 4193.33333333 , 4913.84615385 , 4137.94871795 , 4138.46153846 , 2045.0 , 2036.0 , 281.916 , 0.0 , 0.0 , 0.0 , 0.0 , 

76.0 , 4134.87179487 , 4136.41025641 , 4139.48717949 , 4136.92307692 , 4131.28205128 , 4132.30769231 , 4127.17948718 , 4135.38461538 , 4136.41025641 , 4139.48717949 , 4192.30769231 , 4914.35897436 , 4134.35897436 , 4144.61538462 , 2045.0 , 2036.0 , 281.923 , 0.0 , 0.0 , 0.0 , 0.0 , 

77.0 , 4132.82051282 , 4135.8974359 , 4140.51282051 , 4137.43589744 , 4129.74358974 , 4132.82051282 , 4128.20512821 , 4136.41025641 , 4138.97435897 , 4141.02564103 , 4191.79487179 , 4913.84615385 , 4134.35897436 , 4142.56410256 , 2045.0 , 2035.0 , 281.937 , 0.0 , 0.0 , 0.0 , 0.0 , 

78.0 , 4132.82051282 , 4131.79487179 , 4137.94871795 , 4136.92307692 , 4131.28205128 , 4131.28205128 , 4128.71794872 , 4137.94871795 , 4139.48717949 , 4142.05128205 , 4193.33333333 , 4916.41025641 , 4138.46153846 , 4144.1025641 , 2043.0 , 2035.0 , 281.941 , 0.0 , 0.0 , 0.0 , 0.0 , 

79.0 , 4130.76923077 , 4133.33333333 , 4136.92307692 , 4136.92307692 , 4133.84615385 , 4131.79487179 , 4131.79487179 , 4134.87179487 , 4137.94871795 , 4140.51282051 , 4193.33333333 , 4916.41025641 , 4138.97435897 , 4143.58974359 , 2042.0 , 2036.0 , 281.947 , 0.0 , 0.0 , 0.0 , 0.0 , 

80.0 , 4134.87179487 , 4133.84615385 , 4138.97435897 , 4136.92307692 , 4131.79487179 , 4130.76923077 , 4128.71794872 , 4132.82051282 , 4136.41025641 , 4138.46153846 , 4193.33333333 , 4916.92307692 , 4137.94871795 , 4144.1025641 , 2043.0 , 2034.0 , 281.955 , 0.0 , 0.0 , 0.0 , 0.0 , 

81.0 , 4136.92307692 , 4133.33333333 , 4137.94871795 , 4140.51282051 , 4130.25641026 , 4131.28205128 , 4127.69230769 , 4135.38461538 , 4134.35897436 , 4139.48717949 , 4194.35897436 , 4914.35897436 , 4139.48717949 , 4142.56410256 , 2043.0 , 2036.0 , 281.97 , 0.0 , 0.0 , 0.0 , 0.0 , 

82.0 , 4134.87179487 , 4133.84615385 , 4137.43589744 , 4136.92307692 , 4131.28205128 , 4129.74358974 , 4130.25641026 , 4135.38461538 , 4135.8974359 , 4138.97435897 , 4194.87179487 , 4913.84615385 , 4138.46153846 , 4142.56410256 , 2042.0 , 2034.0 , 281.975 , 0.0 , 0.0 , 0.0 , 0.0 , 

83.0 , 4132.82051282 , 4134.35897436 , 4136.41025641 , 4133.84615385 , 4131.79487179 , 4130.76923077 , 4131.28205128 , 4135.38461538 , 4139.48717949 , 4137.43589744 , 4193.33333333 , 4913.84615385 , 4136.41025641 , 4138.46153846 , 2043.0 , 2036.0 , 281.979 , 0.0 , 0.0 , 0.0 , 0.0 , 

84.0 , 4136.92307692 , 4133.33333333 , 4134.87179487 , 4135.8974359 , 4131.28205128 , 4131.28205128 , 4126.66666667 , 4136.41025641 , 4136.92307692 , 4139.48717949 , 4191.79487179 , 4912.82051282 , 4137.94871795 , 4141.02564103 , 2042.0 , 2036.0 , 281.987 , 0.0 , 0.0 , 0.0 , 0.0 , 

85.0 , 4137.43589744 , 4133.33333333 , 4135.8974359 , 4137.43589744 , 4131.28205128 , 4129.23076923 , 4126.66666667 , 4135.38461538 , 4133.33333333 , 4140.51282051 , 4191.79487179 , 4912.82051282 , 4138.97435897 , 4144.1025641 , 2042.0 , 2036.0 , 281.997 , 0.0 , 0.0 , 0.0 , 0.0 , 

86.0 , 4134.87179487 , 4132.82051282 , 4138.46153846 , 4135.8974359 , 4130.25641026 , 4128.71794872 , 4128.20512821 , 4134.35897436 , 4136.41025641 , 4138.46153846 , 4192.82051282 , 4915.38461538 , 4137.94871795 , 4141.53846154 , 2042.0 , 2037.0 , 282.005 , 0.0 , 0.0 , 0.0 , 0.0 , 

87.0 , 4135.38461538 , 4130.76923077 , 4140.0 , 4135.38461538 , 4131.28205128 , 4132.82051282 , 4125.64102564 , 4135.38461538 , 4139.48717949 , 4140.0 , 4193.33333333 , 4913.33333333 , 4135.8974359 , 4137.94871795 , 2041.0 , 2036.0 , 282.009 , 0.0 , 0.0 , 0.0 , 0.0 , 

88.0 , 4135.8974359 , 4131.28205128 , 4138.97435897 , 4136.41025641 , 4131.28205128 , 4131.79487179 , 4126.15384615 , 4134.87179487 , 4137.43589744 , 4141.53846154 , 4193.33333333 , 4910.25641026 , 4136.41025641 , 4141.53846154 , 2041.0 , 2036.0 , 282.019 , 0.0 , 0.0 , 0.0 , 0.0 , 

89.0 , 4136.41025641 , 4133.84615385 , 4138.46153846 , 4134.35897436 , 4130.76923077 , 4127.69230769 , 4129.23076923 , 4133.84615385 , 4134.87179487 , 4138.46153846 , 4192.30769231 , 4914.35897436 , 4136.41025641 , 4145.64102564 , 2043.0 , 2038.0 , 282.033 , 0.0 , 0.0 , 0.0 , 0.0 , 

90.0 , 4135.8974359 , 4133.84615385 , 4138.97435897 , 4138.46153846 , 4133.33333333 , 4129.23076923 , 4128.71794872 , 4135.8974359 , 4137.43589744 , 4137.94871795 , 4192.82051282 , 4916.41025641 , 4136.92307692 , 4143.07692308 , 2044.0 , 2038.0 , 282.037 , 0.0 , 0.0 , 0.0 , 0.0 , 

91.0 , 4135.8974359 , 4130.76923077 , 4138.46153846 , 4141.53846154 , 4134.35897436 , 4130.76923077 , 4125.64102564 , 4135.38461538 , 4137.94871795 , 4140.0 , 4194.87179487 , 4913.84615385 , 4136.92307692 , 4146.15384615 , 2044.0 , 2035.0 , 282.041 , 0.0 , 0.0 , 0.0 , 0.0 , 

92.0 , 4131.79487179 , 4132.30769231 , 4135.8974359 , 4138.97435897 , 4130.76923077 , 4131.79487179 , 4127.17948718 , 4135.38461538 , 4138.97435897 , 4139.48717949 , 4193.84615385 , 4912.30769231 , 4136.41025641 , 4145.12820513 , 2045.0 , 2035.0 , 282.05 , 0.0 , 0.0 , 0.0 , 0.0 , 

93.0 , 4133.33333333 , 4135.8974359 , 4136.92307692 , 4136.92307692 , 4129.74358974 , 4131.28205128 , 4127.69230769 , 4135.8974359 , 4138.97435897 , 4138.46153846 , 4192.30769231 , 4916.41025641 , 4135.38461538 , 4141.53846154 , 2045.0 , 2036.0 , 282.063 , 0.0 , 0.0 , 0.0 , 0.0 , 

94.0 , 4134.87179487 , 4136.92307692 , 4138.46153846 , 4137.94871795 , 4132.82051282 , 4128.71794872 , 4126.66666667 , 4136.41025641 , 4139.48717949 , 4140.0 , 4192.82051282 , 4913.84615385 , 4137.43589744 , 4136.92307692 , 2043.0 , 2037.0 , 282.068 , 0.0 , 0.0 , 0.0 , 0.0 , 

95.0 , 4136.41025641 , 4132.82051282 , 4140.0 , 4134.87179487 , 4132.82051282 , 4128.20512821 , 4126.15384615 , 4134.87179487 , 4138.97435897 , 4142.05128205 , 4192.82051282 , 4912.82051282 , 4137.94871795 , 4144.61538462 , 2043.0 , 2038.0 , 282.073 , 0.0 , 0.0 , 0.0 , 0.0 , 

96.0 , 4134.35897436 , 4130.76923077 , 4137.43589744 , 4135.38461538 , 4133.33333333 , 4133.84615385 , 4128.20512821 , 4134.87179487 , 4138.97435897 , 4141.02564103 , 4192.82051282 , 4912.30769231 , 4136.92307692 , 4144.1025641 , 2042.0 , 2034.0 , 282.081 , 0.0 , 0.0 , 0.0 , 0.0 , 

97.0 , 4136.41025641 , 4132.82051282 , 4135.8974359 , 4137.43589744 , 4132.30769231 , 4132.82051282 , 4125.64102564 , 4134.35897436 , 4137.43589744 , 4137.94871795 , 4194.87179487 , 4912.30769231 , 4134.87179487 , 4140.51282051 , 2041.0 , 2034.0 , 282.092 , 0.0 , 0.0 , 0.0 , 0.0 , 

98.0 , 4136.41025641 , 4135.38461538 , 4135.8974359 , 4137.43589744 , 4130.25641026 , 4130.76923077 , 4124.61538462 , 4134.35897436 , 4135.8974359 , 4138.97435897 , 4195.38461538 , 4909.74358974 , 4134.87179487 , 4138.46153846 , 2042.0 , 2035.0 , 282.099 , 0.0 , 0.0 , 0.0 , 0.0 , 

99.0 , 4135.38461538 , 4133.33333333 , 4138.46153846 , 4134.35897436 , 4128.71794872 , 4130.76923077 , 4125.64102564 , 4133.84615385 , 4135.38461538 , 4139.48717949 , 4193.33333333 , 4912.30769231 , 4137.94871795 , 4146.15384615 , 2041.0 , 2036.0 , 282.105 , 0.0 , 0.0 , 0.0 , 0.0 , 

100.0 , 4131.79487179 , 4130.76923077 , 4138.97435897 , 4133.84615385 , 4128.71794872 , 4131.28205128 , 4128.71794872 , 4135.38461538 , 4136.92307692 , 4138.97435897 , 4192.30769231 , 4912.30769231 , 4138.97435897 , 4143.58974359 , 2042.0 , 2036.0 , 282.111 , 0.0 , 0.0 , 0.0 , 0.0 , 

101.0 , 4133.33333333 , 4131.79487179 , 4138.46153846 , 4135.8974359 , 4132.30769231 , 4131.28205128 , 4128.20512821 , 4135.8974359 , 4135.8974359 , 4140.51282051 , 4193.84615385 , 4913.33333333 , 4136.92307692 , 4140.0 , 2041.0 , 2036.0 , 282.123 , 0.0 , 0.0 , 0.0 , 0.0 , 

102.0 , 4133.84615385 , 4134.35897436 , 4136.41025641 , 4135.8974359 , 4134.87179487 , 4132.82051282 , 4126.15384615 , 4134.87179487 , 4134.87179487 , 4139.48717949 , 4193.33333333 , 4915.38461538 , 4135.38461538 , 4142.56410256 , 2041.0 , 2036.0 , 282.131 , 0.0 , 0.0 , 0.0 , 0.0 , 

103.0 , 4134.35897436 , 4132.82051282 , 4135.38461538 , 4134.35897436 , 4132.30769231 , 4130.76923077 , 4125.12820513 , 4134.87179487 , 4135.38461538 , 4136.92307692 , 4192.82051282 , 4915.8974359 , 4137.43589744 , 4144.61538462 , 2041.0 , 2036.0 , 282.136 , 0.0 , 0.0 , 0.0 , 0.0 , 

104.0 , 4137.43589744 , 4131.28205128 , 4135.38461538 , 4136.41025641 , 4129.74358974 , 4130.25641026 , 4128.20512821 , 4136.41025641 , 4136.41025641 , 4138.97435897 , 4193.33333333 , 4914.87179487 , 4137.43589744 , 4142.05128205 , 2041.0 , 2035.0 , 282.144 , 0.0 , 0.0 , 0.0 , 0.0 , 

105.0 , 4137.43589744 , 4131.28205128 , 4136.41025641 , 4137.43589744 , 4132.82051282 , 4131.79487179 , 4130.25641026 , 4134.35897436 , 4138.46153846 , 4140.0 , 4194.35897436 , 4914.87179487 , 4136.41025641 , 4142.56410256 , 2041.0 , 2036.0 , 282.159 , 0.0 , 0.0 , 0.0 , 0.0 , 

106.0 , 4133.84615385 , 4131.28205128 , 4136.41025641 , 4135.38461538 , 4134.35897436 , 4130.76923077 , 4126.66666667 , 4132.82051282 , 4138.97435897 , 4138.46153846 , 4193.33333333 , 4914.87179487 , 4136.92307692 , 4144.1025641 , 2042.0 , 2036.0 , 282.162 , 0.0 , 0.0 , 0.0 , 0.0 , 

107.0 , 4132.30769231 , 4133.33333333 , 4134.35897436 , 4137.94871795 , 4131.79487179 , 4131.79487179 , 4124.61538462 , 4136.41025641 , 4137.43589744 , 4137.94871795 , 4192.82051282 , 4913.84615385 , 4138.46153846 , 4142.56410256 , 2042.0 , 2035.0 , 282.167 , 0.0 , 0.0 , 0.0 , 0.0 , 

108.0 , 4134.87179487 , 4135.8974359 , 4134.35897436 , 4138.97435897 , 4131.28205128 , 4133.33333333 , 4125.12820513 , 4137.94871795 , 4134.87179487 , 4138.97435897 , 4192.30769231 , 4913.33333333 , 4136.41025641 , 4143.58974359 , 2043.0 , 2037.0 , 282.176 , 0.0 , 0.0 , 0.0 , 0.0 , 

109.0 , 4136.41025641 , 4134.35897436 , 4137.94871795 , 4137.43589744 , 4132.30769231 , 4131.79487179 , 4125.64102564 , 4135.38461538 , 4135.8974359 , 4139.48717949 , 4192.30769231 , 4912.30769231 , 4134.35897436 , 4142.05128205 , 2044.0 , 2036.0 , 282.189 , 0.0 , 0.0 , 0.0 , 0.0 , 

110.0 , 4136.92307692 , 4130.76923077 , 4138.97435897 , 4136.92307692 , 4131.79487179 , 4130.25641026 , 4125.64102564 , 4133.33333333 , 4137.43589744 , 4140.0 , 4193.84615385 , 4914.87179487 , 4132.82051282 , 4142.56410256 , 2045.0 , 2037.0 , 282.194 , 0.0 , 0.0 , 0.0 , 0.0 , 

111.0 , 4133.33333333 , 4132.30769231 , 4135.8974359 , 4137.43589744 , 4130.76923077 , 4131.79487179 , 4128.71794872 , 4137.43589744 , 4137.43589744 , 4138.46153846 , 4192.82051282 , 4912.82051282 , 4134.87179487 , 4138.97435897 , 2045.0 , 2037.0 , 282.198 , 0.0 , 0.0 , 0.0 , 0.0 , 

112.0 , 4132.82051282 , 4133.33333333 , 4136.92307692 , 4134.87179487 , 4130.25641026 , 4129.74358974 , 4129.23076923 , 4137.43589744 , 4135.8974359 , 4137.43589744 , 4192.82051282 , 4913.33333333 , 4134.87179487 , 4140.51282051 , 2046.0 , 2037.0 , 282.206 , 0.0 , 0.0 , 0.0 , 0.0 , 

113.0 , 4134.35897436 , 4132.30769231 , 4139.48717949 , 4137.43589744 , 4131.79487179 , 4131.28205128 , 4129.23076923 , 4134.35897436 , 4137.43589744 , 4140.0 , 4193.33333333 , 4912.82051282 , 4135.38461538 , 4141.02564103 , 2045.0 , 2036.0 , 282.22 , 0.0 , 0.0 , 0.0 , 0.0 , 

114.0 , 4136.41025641 , 4132.30769231 , 4138.97435897 , 4138.46153846 , 4131.28205128 , 4132.30769231 , 4129.74358974 , 4132.82051282 , 4138.46153846 , 4140.51282051 , 4194.35897436 , 4915.38461538 , 4135.8974359 , 4144.61538462 , 2046.0 , 2036.0 , 282.225 , 0.0 , 0.0 , 0.0 , 0.0 , 

115.0 , 4133.33333333 , 4134.35897436 , 4135.8974359 , 4136.92307692 , 4131.79487179 , 4133.84615385 , 4129.74358974 , 4135.8974359 , 4138.46153846 , 4138.97435897 , 4192.82051282 , 4915.8974359 , 4137.43589744 , 4140.0 , 2045.0 , 2033.0 , 282.23 , 0.0 , 0.0 , 0.0 , 0.0 , 

116.0 , 4134.87179487 , 4134.87179487 , 4137.94871795 , 4134.87179487 , 4133.33333333 , 4131.79487179 , 4125.12820513 , 4135.38461538 , 4137.43589744 , 4137.94871795 , 4192.30769231 , 4916.41025641 , 4136.41025641 , 4143.07692308 , 2046.0 , 2035.0 , 282.239 , 0.0 , 0.0 , 0.0 , 0.0 , 

117.0 , 4135.8974359 , 4133.84615385 , 4140.0 , 4135.8974359 , 4133.84615385 , 4130.76923077 , 4125.12820513 , 4135.8974359 , 4136.41025641 , 4140.0 , 4193.33333333 , 4913.33333333 , 4136.41025641 , 4144.61538462 , 2044.0 , 2034.0 , 282.251 , 0.0 , 0.0 , 0.0 , 0.0 , 

118.0 , 4135.38461538 , 4131.79487179 , 4139.48717949 , 4136.41025641 , 4130.25641026 , 4129.23076923 , 4127.17948718 , 4136.92307692 , 4136.92307692 , 4140.51282051 , 4193.33333333 , 4915.38461538 , 4138.97435897 , 4144.1025641 , 2044.0 , 2033.0 , 282.257 , 0.0 , 0.0 , 0.0 , 0.0 , 

119.0 , 4132.82051282 , 4132.30769231 , 4137.43589744 , 4135.38461538 , 4130.25641026 , 4129.23076923 , 4125.64102564 , 4133.84615385 , 4138.97435897 , 4138.97435897 , 4193.33333333 , 4915.8974359 , 4137.43589744 , 4140.51282051 , 2042.0 , 2035.0 , 282.262 , 0.0 , 0.0 , 0.0 , 0.0 , 

120.0 , 4134.87179487 , 4133.84615385 , 4137.43589744 , 4135.38461538 , 4131.79487179 , 4127.69230769 , 4123.58974359 , 4130.76923077 , 4137.43589744 , 4140.0 , 4194.87179487 , 4913.33333333 , 4135.8974359 , 4142.56410256 , 2042.0 , 2035.0 , 282.27 , 0.0 , 0.0 , 0.0 , 0.0 , 

121.0 , 4137.43589744 , 4133.33333333 , 4136.41025641 , 4137.94871795 , 4131.28205128 , 4129.23076923 , 4127.69230769 , 4134.87179487 , 4137.43589744 , 4142.05128205 , 4194.87179487 , 4910.76923077 , 4137.43589744 , 4140.0 , 2043.0 , 2036.0 , 282.281 , 0.0 , 0.0 , 0.0 , 0.0 , 

122.0 , 4134.35897436 , 4133.33333333 , 4136.41025641 , 4137.94871795 , 4131.28205128 , 4131.79487179 , 4128.20512821 , 4137.43589744 , 4138.46153846 , 4139.48717949 , 4192.82051282 , 4913.33333333 , 4137.43589744 , 4138.97435897 , 2042.0 , 2036.0 , 282.288 , 0.0 , 0.0 , 0.0 , 0.0 , 

123.0 , 4131.28205128 , 4133.33333333 , 4137.43589744 , 4134.87179487 , 4134.35897436 , 4130.25641026 , 4126.66666667 , 4134.35897436 , 4136.41025641 , 4136.92307692 , 4191.79487179 , 4914.87179487 , 4134.35897436 , 4141.02564103 , 2043.0 , 2037.0 , 282.293 , 0.0 , 0.0 , 0.0 , 0.0 , 

124.0 , 4136.41025641 , 4133.84615385 , 4136.41025641 , 4133.84615385 , 4135.38461538 , 4128.20512821 , 4127.69230769 , 4133.33333333 , 4134.87179487 , 4140.51282051 , 4193.84615385 , 4913.33333333 , 4136.92307692 , 4138.97435897 , 2043.0 , 2038.0 , 282.302 , 0.0 , 0.0 , 0.0 , 0.0 , 

125.0 , 4140.51282051 , 4134.35897436 , 4137.43589744 , 4134.87179487 , 4132.82051282 , 4128.20512821 , 4125.64102564 , 4135.38461538 , 4135.8974359 , 4142.05128205 , 4193.84615385 , 4913.33333333 , 4140.51282051 , 4138.97435897 , 2043.0 , 2038.0 , 282.314 , 0.0 , 0.0 , 0.0 , 0.0 , 

126.0 , 4135.8974359 , 4130.76923077 , 4139.48717949 , 4138.46153846 , 4131.79487179 , 4128.20512821 , 4125.12820513 , 4136.41025641 , 4138.46153846 , 4138.97435897 , 4192.82051282 , 4914.87179487 , 4136.92307692 , 4142.05128205 , 2042.0 , 2038.0 , 282.32 , 0.0 , 0.0 , 0.0 , 0.0 , 

127.0 , 4133.33333333 , 4129.23076923 , 4138.46153846 , 4141.02564103 , 4131.28205128 , 4128.71794872 , 4128.71794872 , 4132.82051282 , 4138.46153846 , 4139.48717949 , 4194.35897436 , 4915.38461538 , 4134.35897436 , 4143.58974359 , 2042.0 , 2038.0 , 282.325 , 0.0 , 0.0 , 0.0 , 0.0 , 

128.0 , 4133.84615385 , 4133.84615385 , 4135.38461538 , 4138.97435897 , 4130.25641026 , 4131.79487179 , 4130.25641026 , 4132.82051282 , 4137.94871795 , 4140.51282051 , 4195.38461538 , 4912.82051282 , 4138.46153846 , 4140.51282051 , 2042.0 , 2037.0 , 282.332 , 0.0 , 0.0 , 0.0 , 0.0 , 

0.0 , 4134.87179487 , 4131.79487179 , 4137.43589744 , 4133.84615385 , 4131.28205128 , 4129.74358974 , 4123.07692308 , 4134.87179487 , 4136.41025641 , 4137.94871795 , 4194.87179487 , 4913.33333333 , 4137.94871795 , 4145.12820513 , 2042.0 , 2037.0 , 282.346 , 0.0 , 0.0 , 0.0 , 0.0 , 

1.0 , 4132.30769231 , 4129.74358974 , 4138.97435897 , 4135.8974359 , 4134.35897436 , 4127.17948718 , 4123.58974359 , 4134.35897436 , 4137.94871795 , 4136.92307692 , 4193.84615385 , 4912.82051282 , 4135.38461538 , 4144.1025641 , 2041.0 , 2037.0 , 282.351 , 0.0 , 0.0 , 0.0 , 0.0 , 

2.0 , 4133.33333333 , 4136.92307692 , 4139.48717949 , 4135.38461538 , 4131.79487179 , 4128.20512821 , 4129.23076923 , 4132.30769231 , 4138.97435897 , 4138.46153846 , 4194.35897436 , 4912.82051282 , 4138.46153846 , 4143.58974359 , 2043.0 , 2038.0 , 282.357 , 0.0 , 0.0 , 0.0 , 0.0 , 

3.0 , 4131.79487179 , 4138.46153846 , 4136.41025641 , 4135.8974359 , 4130.76923077 , 4131.28205128 , 4129.74358974 , 4136.92307692 , 4137.94871795 , 4139.48717949 , 4195.38461538 , 4912.82051282 , 4140.0 , 4140.51282051 , 2043.0 , 2038.0 , 282.365 , 0.0 , 0.0 , 0.0 , 0.0 , 

4.0 , 4133.84615385 , 4133.33333333 , 4135.8974359 , 4137.94871795 , 4135.38461538 , 4130.25641026 , 4126.15384615 , 4136.92307692 , 4134.87179487 , 4139.48717949 , 4195.8974359 , 4916.41025641 , 4136.41025641 , 4144.1025641 , 2045.0 , 2037.0 , 282.377 , 0.0 , 0.0 , 0.0 , 0.0 , 

5.0 , 4131.79487179 , 4132.82051282 , 4137.94871795 , 4140.0 , 4135.38461538 , 4130.76923077 , 4128.20512821 , 4133.33333333 , 4134.87179487 , 4138.46153846 , 4192.30769231 , 4912.30769231 , 4136.92307692 , 4143.07692308 , 2044.0 , 2037.0 , 282.383 , 0.0 , 0.0 , 0.0 , 0.0 , 

6.0 , 4133.33333333 , 4133.84615385 , 4137.43589744 , 4135.8974359 , 4129.23076923 , 4130.25641026 , 4128.20512821 , 4133.84615385 , 4136.41025641 , 4136.41025641 , 4192.30769231 , 4912.30769231 , 4137.94871795 , 4145.12820513 , 2044.0 , 2037.0 , 282.388 , 0.0 , 0.0 , 0.0 , 0.0 , 

7.0 , 4133.33333333 , 4133.84615385 , 4135.8974359 , 4133.84615385 , 4129.74358974 , 4130.25641026 , 4128.20512821 , 4136.41025641 , 4137.43589744 , 4138.46153846 , 4194.35897436 , 4912.82051282 , 4137.43589744 , 4143.07692308 , 2043.0 , 2037.0 , 282.395 , 0.0 , 0.0 , 0.0 , 0.0 , 

8.0 , 4133.33333333 , 4132.30769231 , 4140.0 , 4135.38461538 , 4131.79487179 , 4129.23076923 , 4127.17948718 , 4134.35897436 , 4137.94871795 , 4140.51282051 , 4193.84615385 , 4914.35897436 , 4137.43589744 , 4145.12820513 , 2045.0 , 2036.0 , 282.406 , 0.0 , 0.0 , 0.0 , 0.0 , 

9.0 , 4134.87179487 , 4132.30769231 , 4137.94871795 , 4136.41025641 , 4131.79487179 , 4131.28205128 , 4127.17948718 , 4135.8974359 , 4137.43589744 , 4140.51282051 , 4191.79487179 , 4912.82051282 , 4137.94871795 , 4144.61538462 , 2043.0 , 2037.0 , 282.413 , 0.0 , 0.0 , 0.0 , 0.0 , 

10.0 , 4137.94871795 , 4132.30769231 , 4134.35897436 , 4135.38461538 , 4131.79487179 , 4132.30769231 , 4128.20512821 , 4136.41025641 , 4137.43589744 , 4138.97435897 , 4192.82051282 , 4912.82051282 , 4139.48717949 , 4144.61538462 , 2044.0 , 2036.0 , 282.42 , 0.0 , 0.0 , 0.0 , 0.0 , 

11.0 , 4136.41025641 , 4132.82051282 , 4136.92307692 , 4138.97435897 , 4132.82051282 , 4132.30769231 , 4129.74358974 , 4132.82051282 , 4136.92307692 , 4139.48717949 , 4192.30769231 , 4912.30769231 , 4138.46153846 , 4140.51282051 , 2044.0 , 2037.0 , 282.428 , 0.0 , 0.0 , 0.0 , 0.0 , 

12.0 , 4134.87179487 , 4135.38461538 , 4139.48717949 , 4142.56410256 , 4132.30769231 , 4131.79487179 , 4128.20512821 , 4132.82051282 , 4137.43589744 , 4138.97435897 , 4191.79487179 , 4913.33333333 , 4136.41025641 , 4140.51282051 , 2045.0 , 2036.0 , 282.439 , 0.0 , 0.0 , 0.0 , 0.0 , 

13.0 , 4135.8974359 , 4136.92307692 , 4137.43589744 , 4138.97435897 , 4132.30769231 , 4131.79487179 , 4127.17948718 , 4136.92307692 , 4138.46153846 , 4136.92307692 , 4192.82051282 , 4915.8974359 , 4135.38461538 , 4144.61538462 , 2044.0 , 2034.0 , 282.446 , 0.0 , 0.0 , 0.0 , 0.0 , 

14.0 , 4133.84615385 , 4133.33333333 , 4136.41025641 , 4132.82051282 , 4133.33333333 , 4132.82051282 , 4125.64102564 , 4135.8974359 , 4139.48717949 , 4138.97435897 , 4193.33333333 , 4915.8974359 , 4138.46153846 , 4144.61538462 , 2043.0 , 2035.0 , 282.451 , 0.0 , 0.0 , 0.0 , 0.0 , 

15.0 , 4135.38461538 , 4133.33333333 , 4138.46153846 , 4133.33333333 , 4134.35897436 , 4134.87179487 , 4124.1025641 , 4134.35897436 , 4136.92307692 , 4141.53846154 , 4192.30769231 , 4914.87179487 , 4138.46153846 , 4143.07692308 , 2044.0 , 2034.0 , 282.459 , 0.0 , 0.0 , 0.0 , 0.0 , 

16.0 , 4138.46153846 , 4136.41025641 , 4138.97435897 , 4137.94871795 , 4132.82051282 , 4133.84615385 , 4127.69230769 , 4137.94871795 , 4138.46153846 , 4140.0 , 4193.33333333 , 4914.35897436 , 4137.43589744 , 4141.02564103 , 2042.0 , 2034.0 , 282.473 , 0.0 , 0.0 , 0.0 , 0.0 , 

17.0 , 4136.41025641 , 4132.30769231 , 4139.48717949 , 4137.43589744 , 4130.25641026 , 4130.76923077 , 4128.71794872 , 4137.43589744 , 4139.48717949 , 4137.94871795 , 4194.87179487 , 4914.35897436 , 4136.92307692 , 4143.07692308 , 2042.0 , 2035.0 , 282.478 , 0.0 , 0.0 , 0.0 , 0.0 , 

18.0 , 4132.30769231 , 4132.30769231 , 4137.43589744 , 4135.8974359 , 4130.25641026 , 4131.28205128 , 4126.66666667 , 4134.87179487 , 4137.94871795 , 4138.97435897 , 4194.35897436 , 4910.76923077 , 4137.94871795 , 4140.51282051 , 2043.0 , 2035.0 , 282.482 , 0.0 , 0.0 , 0.0 , 0.0 , 

19.0 , 4134.35897436 , 4134.87179487 , 4138.97435897 , 4136.41025641 , 4131.28205128 , 4131.28205128 , 4125.64102564 , 4134.35897436 , 4137.94871795 , 4138.97435897 , 4192.82051282 , 4911.28205128 , 4137.43589744 , 4143.07692308 , 2042.0 , 2035.0 , 282.491 , 0.0 , 0.0 , 0.0 , 0.0 , 

20.0 , 4132.82051282 , 4134.87179487 , 4137.94871795 , 4138.46153846 , 4131.28205128 , 4131.28205128 , 4129.74358974 , 4136.92307692 , 4140.0 , 4138.46153846 , 4192.82051282 , 4911.28205128 , 4137.43589744 , 4141.53846154 , 2044.0 , 2037.0 , 282.504 , 0.0 , 0.0 , 0.0 , 0.0 , 

21.0 , 4132.82051282 , 4133.84615385 , 4136.92307692 , 4135.38461538 , 4130.76923077 , 4130.25641026 , 4129.23076923 , 4136.41025641 , 4137.43589744 , 4138.97435897 , 4194.35897436 , 4912.30769231 , 4136.92307692 , 4140.51282051 , 2044.0 , 2038.0 , 282.51 , 0.0 , 0.0 , 0.0 , 0.0 , 

22.0 , 4134.35897436 , 4134.87179487 , 4136.92307692 , 4136.41025641 , 4132.30769231 , 4130.76923077 , 4127.69230769 , 4134.87179487 , 4137.94871795 , 4139.48717949 , 4193.33333333 , 4911.28205128 , 4134.87179487 , 4138.97435897 , 2044.0 , 2037.0 , 282.514 , 0.0 , 0.0 , 0.0 , 0.0 , 

23.0 , 4133.84615385 , 4134.87179487 , 4138.97435897 , 4135.38461538 , 4133.33333333 , 4129.23076923 , 4127.69230769 , 4133.33333333 , 4139.48717949 , 4139.48717949 , 4191.79487179 , 4913.33333333 , 4133.84615385 , 4144.61538462 , 2044.0 , 2037.0 , 282.522 , 0.0 , 0.0 , 0.0 , 0.0 , 

24.0 , 4129.74358974 , 4135.38461538 , 4138.46153846 , 4134.35897436 , 4133.33333333 , 4132.82051282 , 4130.25641026 , 4135.38461538 , 4138.46153846 , 4138.46153846 , 4191.79487179 , 4913.84615385 , 4135.8974359 , 4144.61538462 , 2044.0 , 2036.0 , 282.535 , 0.0 , 0.0 , 0.0 , 0.0 , 

25.0 , 4133.84615385 , 4132.82051282 , 4138.46153846 , 4138.97435897 , 4131.28205128 , 4133.33333333 , 4127.17948718 , 4134.87179487 , 4135.38461538 , 4136.92307692 , 4193.33333333 , 4916.41025641 , 4135.8974359 , 4147.17948718 , 2044.0 , 2036.0 , 282.539 , 0.0 , 0.0 , 0.0 , 0.0 , 

26.0 , 4134.35897436 , 4132.82051282 , 4136.41025641 , 4143.58974359 , 4131.28205128 , 4130.76923077 , 4125.64102564 , 4133.33333333 , 4135.38461538 , 4138.46153846 , 4194.35897436 , 4912.82051282 , 4134.87179487 , 4145.64102564 , 2044.0 , 2035.0 , 282.547 , 0.0 , 0.0 , 0.0 , 0.0 , 

27.0 , 4132.30769231 , 4133.84615385 , 4134.35897436 , 4136.41025641 , 4132.30769231 , 4129.23076923 , 4127.17948718 , 4132.82051282 , 4136.92307692 , 4138.97435897 , 4193.33333333 , 4912.30769231 , 4134.87179487 , 4143.58974359 , 2043.0 , 2036.0 , 282.553 , 0.0 , 0.0 , 0.0 , 0.0 , 

28.0 , 4131.79487179 , 4131.79487179 , 4134.35897436 , 4133.33333333 , 4133.84615385 , 4130.25641026 , 4128.20512821 , 4132.82051282 , 4137.43589744 , 4137.94871795 , 4192.30769231 , 4916.41025641 , 4134.87179487 , 4141.02564103 , 2043.0 , 2036.0 , 282.565 , 0.0 , 0.0 , 0.0 , 0.0 , 

29.0 , 4133.84615385 , 4131.79487179 , 4136.92307692 , 4137.43589744 , 4133.33333333 , 4129.23076923 , 4126.15384615 , 4133.33333333 , 4135.8974359 , 4137.43589744 , 4194.35897436 , 4917.94871795 , 4135.38461538 , 4144.61538462 , 2043.0 , 2036.0 , 282.572 , 0.0 , 0.0 , 0.0 , 0.0 , 

30.0 , 4131.79487179 , 4134.87179487 , 4136.41025641 , 4135.38461538 , 4131.79487179 , 4130.25641026 , 4128.20512821 , 4134.35897436 , 4137.43589744 , 4138.97435897 , 4194.35897436 , 4912.30769231 , 4137.43589744 , 4142.56410256 , 2043.0 , 2037.0 , 282.577 , 0.0 , 0.0 , 0.0 , 0.0 , 

31.0 , 4132.30769231 , 4135.38461538 , 4133.84615385 , 4132.82051282 , 4131.28205128 , 4131.79487179 , 4129.74358974 , 4134.87179487 , 4140.0 , 4138.46153846 , 4192.82051282 , 4910.76923077 , 4138.97435897 , 4139.48717949 , 2043.0 , 2037.0 , 282.585 , 0.0 , 0.0 , 0.0 , 0.0 , 

32.0 , 4135.38461538 , 4134.35897436 , 4134.35897436 , 4136.92307692 , 4130.76923077 , 4131.28205128 , 4128.71794872 , 4134.87179487 , 4138.46153846 , 4137.94871795 , 4192.82051282 , 4913.84615385 , 4137.43589744 , 4141.53846154 , 2044.0 , 2037.0 , 282.598 , 0.0 , 0.0 , 0.0 , 0.0 , 

33.0 , 4136.41025641 , 4132.30769231 , 4134.87179487 , 4137.43589744 , 4131.28205128 , 4130.25641026 , 4129.23076923 , 4135.8974359 , 4136.92307692 , 4137.94871795 , 4192.82051282 , 4913.33333333 , 4137.43589744 , 4142.56410256 , 2044.0 , 2038.0 , 282.604 , 0.0 , 0.0 , 0.0 , 0.0 , 

34.0 , 4137.43589744 , 4130.76923077 , 4136.41025641 , 4133.84615385 , 4132.82051282 , 4131.79487179 , 4126.15384615 , 4134.35897436 , 4135.38461538 , 4136.92307692 , 4192.30769231 , 4913.33333333 , 4138.46153846 , 4144.1025641 , 2044.0 , 2035.0 , 282.609 , 0.0 , 0.0 , 0.0 , 0.0 , 

35.0 , 4135.8974359 , 4134.35897436 , 4137.43589744 , 4135.8974359 , 4132.30769231 , 4133.33333333 , 4125.64102564 , 4133.33333333 , 4135.38461538 , 4136.92307692 , 4193.33333333 , 4912.30769231 , 4138.46153846 , 4143.58974359 , 2044.0 , 2037.0 , 282.617 , 0.0 , 0.0 , 0.0 , 0.0 , 

36.0 , 4135.8974359 , 4135.8974359 , 4136.92307692 , 4136.41025641 , 4130.76923077 , 4130.76923077 , 4128.71794872 , 4135.38461538 , 4135.8974359 , 4137.43589744 , 4193.84615385 , 4912.82051282 , 4135.38461538 , 4145.12820513 , 2044.0 , 2036.0 , 282.631 , 0.0 , 0.0 , 0.0 , 0.0 , 

37.0 , 4135.38461538 , 4134.35897436 , 4135.38461538 , 4135.8974359 , 4132.30769231 , 4129.74358974 , 4130.25641026 , 4136.92307692 , 4136.92307692 , 4138.46153846 , 4192.82051282 , 4912.30769231 , 4133.84615385 , 4142.05128205 , 2044.0 , 2035.0 , 282.634 , 0.0 , 0.0 , 0.0 , 0.0 , 

38.0 , 4135.8974359 , 4134.35897436 , 4136.41025641 , 4135.8974359 , 4131.79487179 , 4130.25641026 , 4129.74358974 , 4133.33333333 , 4136.41025641 , 4139.48717949 , 4193.33333333 , 4913.33333333 , 4134.35897436 , 4145.12820513 , 2043.0 , 2036.0 , 282.641 , 0.0 , 0.0 , 0.0 , 0.0 , 

39.0 , 4132.82051282 , 4135.8974359 , 4137.43589744 , 4136.41025641 , 4132.30769231 , 4131.28205128 , 4129.74358974 , 4133.84615385 , 4137.94871795 , 4139.48717949 , 4191.79487179 , 4910.76923077 , 4137.43589744 , 4143.07692308 , 2044.0 , 2036.0 , 282.649 , 0.0 , 0.0 , 0.0 , 0.0 , 

40.0 , 4133.84615385 , 4133.84615385 , 4136.92307692 , 4135.8974359 , 4134.35897436 , 4130.25641026 , 4128.20512821 , 4135.38461538 , 4137.43589744 , 4140.0 , 4192.30769231 , 4913.33333333 , 4136.92307692 , 4143.58974359 , 2043.0 , 2035.0 , 282.661 , 0.0 , 0.0 , 0.0 , 0.0 , 

41.0 , 4133.33333333 , 4134.87179487 , 4135.38461538 , 4138.46153846 , 4133.33333333 , 4131.79487179 , 4129.23076923 , 4135.38461538 , 4137.43589744 , 4140.0 , 4194.35897436 , 4914.87179487 , 4135.38461538 , 4139.48717949 , 2042.0 , 2034.0 , 282.667 , 0.0 , 0.0 , 0.0 , 0.0 , 

42.0 , 4135.38461538 , 4134.35897436 , 4136.41025641 , 4135.38461538 , 4130.25641026 , 4132.30769231 , 4129.23076923 , 4134.35897436 , 4138.46153846 , 4139.48717949 , 4193.84615385 , 4916.92307692 , 4135.38461538 , 4141.02564103 , 2043.0 , 2034.0 , 282.672 , 0.0 , 0.0 , 0.0 , 0.0 , 

43.0 , 4133.84615385 , 4132.30769231 , 4137.43589744 , 4135.38461538 , 4132.30769231 , 4131.79487179 , 4127.17948718 , 4135.38461538 , 4138.97435897 , 4138.97435897 , 4192.30769231 , 4915.38461538 , 4136.92307692 , 4140.51282051 , 2043.0 , 2034.0 , 282.679 , 0.0 , 0.0 , 0.0 , 0.0 , 

44.0 , 4134.87179487 , 4132.82051282 , 4137.43589744 , 4137.94871795 , 4131.28205128 , 4130.76923077 , 4124.61538462 , 4134.87179487 , 4137.43589744 , 4137.43589744 , 4193.84615385 , 4913.84615385 , 4136.92307692 , 4141.53846154 , 2043.0 , 2034.0 , 282.69 , 0.0 , 0.0 , 0.0 , 0.0 , 

45.0 , 4136.92307692 , 4133.33333333 , 4136.41025641 , 4136.41025641 , 4129.23076923 , 4131.79487179 , 4126.66666667 , 4136.41025641 , 4138.97435897 , 4137.94871795 , 4194.87179487 , 4913.33333333 , 4137.43589744 , 4138.46153846 , 2042.0 , 2034.0 , 282.698 , 0.0 , 0.0 , 0.0 , 0.0 , 

46.0 , 4136.92307692 , 4129.74358974 , 4136.41025641 , 4134.35897436 , 4130.25641026 , 4131.28205128 , 4126.66666667 , 4136.92307692 , 4140.0 , 4140.0 , 4193.84615385 , 4914.87179487 , 4136.92307692 , 4142.05128205 , 2043.0 , 2035.0 , 282.704 , 0.0 , 0.0 , 0.0 , 0.0 , 

47.0 , 4134.87179487 , 4129.74358974 , 4135.8974359 , 4134.87179487 , 4132.30769231 , 4130.76923077 , 4127.69230769 , 4135.38461538 , 4138.97435897 , 4140.51282051 , 4192.30769231 , 4909.74358974 , 4133.84615385 , 4144.1025641 , 2043.0 , 2035.0 , 282.711 , 0.0 , 0.0 , 0.0 , 0.0 , 

48.0 , 4138.97435897 , 4132.82051282 , 4137.43589744 , 4133.33333333 , 4130.76923077 , 4131.28205128 , 4127.69230769 , 4133.84615385 , 4138.46153846 , 4140.0 , 4192.30769231 , 4910.25641026 , 4135.8974359 , 4143.07692308 , 2044.0 , 2037.0 , 282.723 , 0.0 , 0.0 , 0.0 , 0.0 , 

49.0 , 4139.48717949 , 4133.84615385 , 4138.97435897 , 4134.87179487 , 4130.25641026 , 4132.30769231 , 4127.17948718 , 4134.35897436 , 4138.46153846 , 4139.48717949 , 4192.82051282 , 4914.87179487 , 4136.92307692 , 4141.53846154 , 2041.0 , 2036.0 , 282.731 , 0.0 , 0.0 , 0.0 , 0.0 , 

50.0 , 4134.87179487 , 4135.38461538 , 4136.41025641 , 4137.43589744 , 4133.84615385 , 4133.84615385 , 4128.71794872 , 4135.8974359 , 4137.94871795 , 4137.94871795 , 4193.84615385 , 4913.33333333 , 4136.92307692 , 4142.56410256 , 2042.0 , 2037.0 , 282.735 , 0.0 , 0.0 , 0.0 , 0.0 , 

51.0 , 4133.33333333 , 4135.38461538 , 4136.92307692 , 4135.8974359 , 4134.87179487 , 4133.33333333 , 4128.71794872 , 4135.38461538 , 4135.8974359 , 4137.94871795 , 4193.33333333 , 4912.30769231 , 4136.41025641 , 4143.07692308 , 2042.0 , 2038.0 , 282.743 , 0.0 , 0.0 , 0.0 , 0.0 , 

52.0 , 4134.87179487 , 4134.87179487 , 4138.46153846 , 4136.41025641 , 4132.30769231 , 4130.76923077 , 4126.66666667 , 4134.87179487 , 4136.41025641 , 4139.48717949 , 4192.30769231 , 4914.87179487 , 4136.92307692 , 4143.07692308 , 2043.0 , 2038.0 , 282.756 , 0.0 , 0.0 , 0.0 , 0.0 , 

53.0 , 4135.8974359 , 4133.84615385 , 4137.94871795 , 4136.92307692 , 4131.28205128 , 4129.23076923 , 4125.12820513 , 4132.82051282 , 4137.43589744 , 4137.94871795 , 4192.30769231 , 4915.38461538 , 4136.92307692 , 4146.66666667 , 2043.0 , 2039.0 , 282.76 , 0.0 , 0.0 , 0.0 , 0.0 , 

54.0 , 4134.35897436 , 4133.84615385 , 4137.94871795 , 4134.87179487 , 4132.82051282 , 4131.79487179 , 4125.64102564 , 4131.79487179 , 4136.92307692 , 4136.92307692 , 4193.33333333 , 4913.84615385 , 4137.43589744 , 4143.07692308 , 2043.0 , 2038.0 , 282.766 , 0.0 , 0.0 , 0.0 , 0.0 , 

55.0 , 4133.33333333 , 4133.33333333 , 4139.48717949 , 4135.38461538 , 4132.30769231 , 4130.25641026 , 4126.15384615 , 4133.33333333 , 4134.35897436 , 4139.48717949 , 4192.82051282 , 4917.43589744 , 4133.84615385 , 4139.48717949 , 2044.0 , 2037.0 , 282.775 , 0.0 , 0.0 , 0.0 , 0.0 , 

56.0 , 4132.30769231 , 4133.84615385 , 4137.43589744 , 4137.94871795 , 4133.33333333 , 4129.23076923 , 4127.69230769 , 4138.46153846 , 4134.35897436 , 4139.48717949 , 4191.79487179 , 4916.92307692 , 4132.82051282 , 4136.92307692 , 2044.0 , 2036.0 , 282.786 , 0.0 , 0.0 , 0.0 , 0.0 , 

57.0 , 4134.35897436 , 4132.30769231 , 4137.94871795 , 4135.38461538 , 4132.30769231 , 4128.20512821 , 4124.61538462 , 4138.46153846 , 4135.38461538 , 4137.43589744 , 4193.33333333 , 4914.87179487 , 4134.87179487 , 4145.12820513 , 2043.0 , 2035.0 , 282.793 , 0.0 , 0.0 , 0.0 , 0.0 , 

58.0 , 4133.84615385 , 4130.76923077 , 4139.48717949 , 4136.41025641 , 4130.25641026 , 4128.20512821 , 4125.12820513 , 4136.41025641 , 4137.94871795 , 4137.94871795 , 4193.84615385 , 4911.28205128 , 4135.38461538 , 4142.56410256 , 2044.0 , 2036.0 , 282.797 , 0.0 , 0.0 , 0.0 , 0.0 , 

59.0 , 4136.41025641 , 4129.74358974 , 4138.46153846 , 4136.92307692 , 4130.25641026 , 4128.71794872 , 4125.12820513 , 4134.87179487 , 4137.94871795 , 4138.97435897 , 4194.35897436 , 4913.84615385 , 4134.87179487 , 4138.97435897 , 2043.0 , 2037.0 , 282.805 , 0.0 , 0.0 , 0.0 , 0.0 , 

60.0 , 4132.82051282 , 4132.30769231 , 4137.43589744 , 4136.41025641 , 4132.30769231 , 4130.25641026 , 4125.12820513 , 4136.41025641 , 4136.41025641 , 4138.46153846 , 4193.33333333 , 4915.8974359 , 4135.8974359 , 4140.0 , 2043.0 , 2037.0 , 282.818 , 0.0 , 0.0 , 0.0 , 0.0 , 

61.0 , 4132.30769231 , 4134.87179487 , 4140.0 , 4135.8974359 , 4132.30769231 , 4128.20512821 , 4126.15384615 , 4135.8974359 , 4135.38461538 , 4139.48717949 , 4192.82051282 , 4914.87179487 , 4137.43589744 , 4146.66666667 , 2044.0 , 2036.0 , 282.824 , 0.0 , 0.0 , 0.0 , 0.0 , 

62.0 , 4134.87179487 , 4135.38461538 , 4136.92307692 , 4136.41025641 , 4133.33333333 , 4129.74358974 , 4130.25641026 , 4135.38461538 , 4138.46153846 , 4139.48717949 , 4193.33333333 , 4911.28205128 , 4139.48717949 , 4142.05128205 , 2043.0 , 2036.0 , 282.829 , 0.0 , 0.0 , 0.0 , 0.0 , 

63.0 , 4137.94871795 , 4133.33333333 , 4133.33333333 , 4136.41025641 , 4132.82051282 , 4130.25641026 , 4130.25641026 , 4134.35897436 , 4137.43589744 , 4137.94871795 , 4195.38461538 , 4913.84615385 , 4136.92307692 , 4144.61538462 , 2043.0 , 2037.0 , 282.838 , 0.0 , 0.0 , 0.0 , 0.0 , 

64.0 , 4133.84615385 , 4133.33333333 , 4135.8974359 , 4137.43589744 , 4132.30769231 , 4129.23076923 , 4127.69230769 , 4132.82051282 , 4135.38461538 , 4138.46153846 , 4194.87179487 , 4916.41025641 , 4132.30769231 , 4147.69230769 , 2042.0 , 2036.0 , 282.849 , 0.0 , 0.0 , 0.0 , 0.0 , 

65.0 , 4133.33333333 , 4134.35897436 , 4137.94871795 , 4138.46153846 , 4132.30769231 , 4129.23076923 , 4125.64102564 , 4131.28205128 , 4136.41025641 , 4140.0 , 4192.82051282 , 4915.8974359 , 4134.87179487 , 4146.15384615 , 2044.0 , 2036.0 , 282.857 , 0.0 , 0.0 , 0.0 , 0.0 , 

66.0 , 4133.33333333 , 4134.35897436 , 4137.43589744 , 4139.48717949 , 4133.84615385 , 4130.76923077 , 4125.64102564 , 4132.30769231 , 4136.41025641 , 4138.97435897 , 4193.33333333 , 4913.33333333 , 4137.43589744 , 4140.0 , 2045.0 , 2036.0 , 282.861 , 0.0 , 0.0 , 0.0 , 0.0 , 

67.0 , 4131.28205128 , 4132.30769231 , 4140.0 , 4138.46153846 , 4132.30769231 , 4129.74358974 , 4126.66666667 , 4135.8974359 , 4137.43589744 , 4138.97435897 , 4193.84615385 , 4913.33333333 , 4135.8974359 , 4142.56410256 , 2044.0 , 2034.0 , 282.868 , 0.0 , 0.0 , 0.0 , 0.0 , 

68.0 , 4131.79487179 , 4131.28205128 , 4138.97435897 , 4136.41025641 , 4128.71794872 , 4130.25641026 , 4127.17948718 , 4135.8974359 , 4138.46153846 , 4139.48717949 , 4193.33333333 , 4914.87179487 , 4134.35897436 , 4145.12820513 , 2043.0 , 2035.0 , 282.881 , 0.0 , 0.0 , 0.0 , 0.0 , 

69.0 , 4134.87179487 , 4132.30769231 , 4131.79487179 , 4137.43589744 , 4129.23076923 , 4132.82051282 , 4125.64102564 , 4134.35897436 , 4136.92307692 , 4138.46153846 , 4194.35897436 , 4913.84615385 , 4135.8974359 , 4141.53846154 , 2041.0 , 2034.0 , 282.887 , 0.0 , 0.0 , 0.0 , 0.0 , 

70.0 , 4136.41025641 , 4133.33333333 , 4131.79487179 , 4138.46153846 , 4131.79487179 , 4131.28205128 , 4125.12820513 , 4134.35897436 , 4134.87179487 , 4138.46153846 , 4194.35897436 , 4912.30769231 , 4135.38461538 , 4140.51282051 , 2042.0 , 2036.0 , 282.892 , 0.0 , 0.0 , 0.0 , 0.0 , 

71.0 , 4134.87179487 , 4132.30769231 , 4137.43589744 , 4137.43589744 , 4131.28205128 , 4127.69230769 , 4128.20512821 , 4135.38461538 , 4136.41025641 , 4140.0 , 4193.33333333 , 4913.84615385 , 4135.38461538 , 4142.56410256 , 2042.0 , 2034.0 , 282.9 , 0.0 , 0.0 , 0.0 , 0.0 , 

72.0 , 4137.43589744 , 4130.76923077 , 4138.97435897 , 4135.8974359 , 4129.74358974 , 4127.17948718 , 4128.20512821 , 4134.35897436 , 4136.41025641 , 4139.48717949 , 4194.35897436 , 4914.87179487 , 4133.33333333 , 4146.15384615 , 2042.0 , 2035.0 , 282.912 , 0.0 , 0.0 , 0.0 , 0.0 , 

73.0 , 4136.41025641 , 4129.74358974 , 4136.41025641 , 4136.41025641 , 4131.28205128 , 4130.25641026 , 4127.17948718 , 4134.87179487 , 4137.94871795 , 4139.48717949 , 4194.87179487 , 4912.30769231 , 4133.84615385 , 4143.07692308 , 2043.0 , 2035.0 , 282.918 , 0.0 , 0.0 , 0.0 , 0.0 , 

74.0 , 4133.33333333 , 4128.71794872 , 4135.8974359 , 4135.8974359 , 4131.28205128 , 4130.25641026 , 4128.71794872 , 4134.35897436 , 4137.94871795 , 4140.51282051 , 4192.30769231 , 4913.84615385 , 4135.8974359 , 4144.1025641 , 2042.0 , 2037.0 , 282.923 , 0.0 , 0.0 , 0.0 , 0.0 , 

75.0 , 4132.82051282 , 4132.30769231 , 4135.38461538 , 4137.94871795 , 4131.79487179 , 4130.25641026 , 4129.23076923 , 4134.87179487 , 4136.41025641 , 4140.0 , 4193.84615385 , 4914.35897436 , 4136.92307692 , 4141.02564103 , 2044.0 , 2036.0 , 282.932 , 0.0 , 0.0 , 0.0 , 0.0 , 

76.0 , 4137.94871795 , 4133.33333333 , 4136.92307692 , 4136.92307692 , 4132.30769231 , 4129.74358974 , 4125.64102564 , 4134.35897436 , 4136.41025641 , 4139.48717949 , 4195.8974359 , 4914.35897436 , 4135.8974359 , 4143.58974359 , 2043.0 , 2033.0 , 282.943 , 0.0 , 0.0 , 0.0 , 0.0 , 

77.0 , 4135.8974359 , 4133.33333333 , 4135.8974359 , 4134.87179487 , 4132.82051282 , 4131.28205128 , 4126.15384615 , 4134.35897436 , 4139.48717949 , 4141.02564103 , 4192.82051282 , 4913.84615385 , 4136.41025641 , 4143.07692308 , 2044.0 , 2036.0 , 282.95 , 0.0 , 0.0 , 0.0 , 0.0 , 

78.0 , 4134.35897436 , 4133.84615385 , 4135.8974359 , 4132.82051282 , 4131.28205128 , 4131.79487179 , 4127.17948718 , 4133.84615385 , 4138.97435897 , 4140.51282051 , 4192.82051282 , 4916.41025641 , 4135.8974359 , 4143.07692308 , 2044.0 , 2034.0 , 282.956 , 0.0 , 0.0 , 0.0 , 0.0 , 

79.0 , 4134.35897436 , 4134.87179487 , 4136.41025641 , 4135.8974359 , 4132.30769231 , 4131.79487179 , 4127.17948718 , 4134.87179487 , 4137.43589744 , 4138.97435897 , 4194.87179487 , 4915.38461538 , 4133.33333333 , 4141.02564103 , 2045.0 , 2035.0 , 282.964 , 0.0 , 0.0 , 0.0 , 0.0 , 

80.0 , 4133.84615385 , 4133.33333333 , 4138.46153846 , 4138.46153846 , 4133.33333333 , 4130.25641026 , 4125.64102564 , 4135.38461538 , 4135.38461538 , 4137.94871795 , 4192.30769231 , 4916.92307692 , 4135.38461538 , 4143.58974359 , 2046.0 , 2036.0 , 282.977 , 0.0 , 0.0 , 0.0 , 0.0 , 

81.0 , 4130.25641026 , 4132.82051282 , 4136.92307692 , 4137.43589744 , 4133.33333333 , 4131.28205128 , 4124.61538462 , 4134.35897436 , 4135.8974359 , 4137.94871795 , 4191.28205128 , 4915.38461538 , 4139.48717949 , 4141.53846154 , 2045.0 , 2035.0 , 282.982 , 0.0 , 0.0 , 0.0 , 0.0 , 

82.0 , 4133.33333333 , 4130.25641026 , 4135.8974359 , 4133.33333333 , 4130.76923077 , 4128.71794872 , 4125.12820513 , 4132.30769231 , 4136.92307692 , 4141.02564103 , 4193.84615385 , 4912.82051282 , 4137.94871795 , 4143.58974359 , 2044.0 , 2036.0 , 282.987 , 0.0 , 0.0 , 0.0 , 0.0 , 

83.0 , 4136.92307692 , 4128.71794872 , 4136.41025641 , 4133.84615385 , 4131.79487179 , 4128.71794872 , 4127.69230769 , 4134.35897436 , 4136.41025641 , 4142.56410256 , 4192.82051282 , 4911.79487179 , 4134.35897436 , 4142.56410256 , 2043.0 , 2036.0 , 282.995 , 0.0 , 0.0 , 0.0 , 0.0 , 

84.0 , 4135.38461538 , 4132.82051282 , 4136.92307692 , 4136.92307692 , 4133.33333333 , 4130.76923077 , 4127.69230769 , 4135.8974359 , 4136.41025641 , 4140.0 , 4191.79487179 , 4913.84615385 , 4134.35897436 , 4143.07692308 , 2042.0 , 2035.0 , 283.007 , 0.0 , 0.0 , 0.0 , 0.0 , 

85.0 , 4132.82051282 , 4135.38461538 , 4135.38461538 , 4135.8974359 , 4132.82051282 , 4129.74358974 , 4126.66666667 , 4134.87179487 , 4137.94871795 , 4138.97435897 , 4193.84615385 , 4911.79487179 , 4135.38461538 , 4142.56410256 , 2042.0 , 2036.0 , 283.012 , 0.0 , 0.0 , 0.0 , 0.0 , 

86.0 , 4135.8974359 , 4132.30769231 , 4134.87179487 , 4134.87179487 , 4133.33333333 , 4128.71794872 , 4125.12820513 , 4134.35897436 , 4134.87179487 , 4139.48717949 , 4194.87179487 , 4910.25641026 , 4136.92307692 , 4141.53846154 , 2042.0 , 2037.0 , 283.019 , 0.0 , 0.0 , 0.0 , 0.0 , 

87.0 , 4137.94871795 , 4130.76923077 , 4136.41025641 , 4133.33333333 , 4133.84615385 , 4131.79487179 , 4124.61538462 , 4133.84615385 , 4133.33333333 , 4139.48717949 , 4192.82051282 , 4912.82051282 , 4137.94871795 , 4142.05128205 , 2042.0 , 2037.0 , 283.027 , 0.0 , 0.0 , 0.0 , 0.0 , 

88.0 , 4135.38461538 , 4132.82051282 , 4136.41025641 , 4131.79487179 , 4130.76923077 , 4131.79487179 , 4127.17948718 , 4133.33333333 , 4137.94871795 , 4138.46153846 , 4192.30769231 , 4913.84615385 , 4137.94871795 , 4145.12820513 , 2042.0 , 2037.0 , 283.039 , 0.0 , 0.0 , 0.0 , 0.0 , 

89.0 , 4135.38461538 , 4134.35897436 , 4137.43589744 , 4131.79487179 , 4131.28205128 , 4129.23076923 , 4127.69230769 , 4134.87179487 , 4137.94871795 , 4138.46153846 , 4193.84615385 , 4915.38461538 , 4135.8974359 , 4147.17948718 , 2042.0 , 2036.0 , 283.045 , 0.0 , 0.0 , 0.0 , 0.0 , 

90.0 , 4132.82051282 , 4134.87179487 , 4137.43589744 , 4134.87179487 , 4133.84615385 , 4129.74358974 , 4126.66666667 , 4134.35897436 , 4136.41025641 , 4140.51282051 , 4193.33333333 , 4915.8974359 , 4135.8974359 , 4144.1025641 , 2043.0 , 2036.0 , 283.05 , 0.0 , 0.0 , 0.0 , 0.0 , 

91.0 , 4131.28205128 , 4134.87179487 , 4135.8974359 , 4136.41025641 , 4132.30769231 , 4130.76923077 , 4125.64102564 , 4132.30769231 , 4137.94871795 , 4141.53846154 , 4192.30769231 , 4914.87179487 , 4136.41025641 , 4144.1025641 , 2044.0 , 2037.0 , 283.057 , 0.0 , 0.0 , 0.0 , 0.0 , 

92.0 , 4133.84615385 , 4134.35897436 , 4135.8974359 , 4136.41025641 , 4130.76923077 , 4131.28205128 , 4127.69230769 , 4134.35897436 , 4138.46153846 , 4141.02564103 , 4194.35897436 , 4914.87179487 , 4136.41025641 , 4142.05128205 , 2045.0 , 2037.0 , 283.071 , 0.0 , 0.0 , 0.0 , 0.0 , 

93.0 , 4137.43589744 , 4133.33333333 , 4137.43589744 , 4134.35897436 , 4131.28205128 , 4128.20512821 , 4128.71794872 , 4133.84615385 , 4134.87179487 , 4140.51282051 , 4196.92307692 , 4917.43589744 , 4134.35897436 , 4145.12820513 , 2044.0 , 2038.0 , 283.076 , 0.0 , 0.0 , 0.0 , 0.0 , 

94.0 , 4134.35897436 , 4133.84615385 , 4136.41025641 , 4135.38461538 , 4130.76923077 , 4128.20512821 , 4127.69230769 , 4133.33333333 , 4134.87179487 , 4140.0 , 4193.84615385 , 4914.35897436 , 4134.87179487 , 4141.53846154 , 2043.0 , 2038.0 , 283.081 , 0.0 , 0.0 , 0.0 , 0.0 , 

95.0 , 4135.8974359 , 4135.38461538 , 4135.38461538 , 4136.41025641 , 4130.25641026 , 4129.23076923 , 4124.61538462 , 4135.8974359 , 4134.87179487 , 4141.53846154 , 4191.28205128 , 4915.38461538 , 4136.41025641 , 4140.51282051 , 2043.0 , 2038.0 , 283.09 , 0.0 , 0.0 , 0.0 , 0.0 , 

96.0 , 4135.8974359 , 4134.35897436 , 4136.41025641 , 4135.8974359 , 4130.76923077 , 4130.25641026 , 4125.12820513 , 4137.94871795 , 4135.38461538 , 4140.51282051 , 4192.30769231 , 4914.35897436 , 4136.41025641 , 4141.53846154 , 2043.0 , 2038.0 , 283.102 , 0.0 , 0.0 , 0.0 , 0.0 , 

97.0 , 4135.38461538 , 4130.76923077 , 4138.97435897 , 4133.33333333 , 4130.25641026 , 4127.17948718 , 4124.1025641 , 4134.35897436 , 4136.92307692 , 4137.43589744 , 4192.82051282 , 4912.82051282 , 4135.8974359 , 4145.12820513 , 2042.0 , 2038.0 , 283.11 , 0.0 , 0.0 , 0.0 , 0.0 , 

98.0 , 4135.38461538 , 4130.76923077 , 4138.97435897 , 4135.8974359 , 4132.30769231 , 4129.23076923 , 4126.15384615 , 4135.38461538 , 4138.46153846 , 4138.46153846 , 4192.30769231 , 4912.30769231 , 4137.94871795 , 4140.0 , 2042.0 , 2038.0 , 283.113 , 0.0 , 0.0 , 0.0 , 0.0 , 

99.0 , 4137.43589744 , 4131.28205128 , 4137.43589744 , 4136.41025641 , 4131.28205128 , 4130.76923077 , 4128.71794872 , 4136.41025641 , 4136.92307692 , 4141.02564103 , 4194.87179487 , 4915.38461538 , 4137.94871795 , 4142.05128205 , 2043.0 , 2039.0 , 283.12 , 0.0 , 0.0 , 0.0 , 0.0 , 

100.0 , 4134.87179487 , 4132.30769231 , 4134.87179487 , 4134.87179487 , 4130.76923077 , 4130.76923077 , 4129.23076923 , 4135.38461538 , 4137.43589744 , 4138.97435897 , 4194.35897436 , 4913.33333333 , 4135.8974359 , 4143.07692308 , 2042.0 , 2039.0 , 283.133 , 0.0 , 0.0 , 0.0 , 0.0 , 

101.0 , 4133.84615385 , 4131.79487179 , 4135.38461538 , 4136.41025641 , 4132.30769231 , 4129.74358974 , 4128.71794872 , 4135.8974359 , 4138.46153846 , 4136.92307692 , 4192.82051282 , 4913.84615385 , 4135.8974359 , 4143.07692308 , 2043.0 , 2038.0 , 283.139 , 0.0 , 0.0 , 0.0 , 0.0 , 

102.0 , 4133.84615385 , 4131.79487179 , 4137.43589744 , 4139.48717949 , 4131.79487179 , 4129.23076923 , 4129.74358974 , 4134.87179487 , 4138.46153846 , 4138.46153846 , 4193.84615385 , 4914.87179487 , 4135.38461538 , 4142.05128205 , 2042.0 , 2037.0 , 283.144 , 0.0 , 0.0 , 0.0 , 0.0 , 

103.0 , 4135.38461538 , 4132.30769231 , 4136.92307692 , 4136.92307692 , 4129.74358974 , 4127.17948718 , 4128.71794872 , 4132.82051282 , 4136.41025641 , 4138.97435897 , 4195.38461538 , 4914.35897436 , 4136.41025641 , 4144.61538462 , 2042.0 , 2038.0 , 283.152 , 0.0 , 0.0 , 0.0 , 0.0 , 

104.0 , 4134.35897436 , 4133.33333333 , 4134.87179487 , 4133.84615385 , 4131.28205128 , 4127.69230769 , 4128.71794872 , 4135.38461538 , 4135.8974359 , 4136.92307692 , 4192.82051282 , 4913.84615385 , 4137.94871795 , 4144.1025641 , 2043.0 , 2037.0 , 283.164 , 0.0 , 0.0 , 0.0 , 0.0 , 

105.0 , 4132.30769231 , 4135.38461538 , 4134.87179487 , 4135.38461538 , 4133.84615385 , 4130.25641026 , 4130.25641026 , 4137.43589744 , 4139.48717949 , 4137.94871795 , 4191.28205128 , 4914.35897436 , 4137.94871795 , 4142.56410256 , 2043.0 , 2037.0 , 283.172 , 0.0 , 0.0 , 0.0 , 0.0 , 

106.0 , 4133.84615385 , 4134.87179487 , 4136.41025641 , 4135.8974359 , 4131.79487179 , 4130.25641026 , 4127.69230769 , 4135.8974359 , 4140.51282051 , 4141.02564103 , 4192.82051282 , 4916.41025641 , 4133.33333333 , 4143.58974359 , 2044.0 , 2036.0 , 283.177 , 0.0 , 0.0 , 0.0 , 0.0 , 

107.0 , 4134.87179487 , 4132.30769231 , 4137.43589744 , 4136.41025641 , 4130.76923077 , 4128.71794872 , 4126.15384615 , 4136.41025641 , 4139.48717949 , 4140.51282051 , 4192.82051282 , 4916.92307692 , 4131.79487179 , 4142.56410256 , 2043.0 , 2035.0 , 283.183 , 0.0 , 0.0 , 0.0 , 0.0 , 

108.0 , 4135.8974359 , 4130.76923077 , 4136.41025641 , 4136.41025641 , 4133.33333333 , 4129.74358974 , 4130.25641026 , 4138.46153846 , 4137.94871795 , 4137.94871795 , 4191.79487179 , 4915.8974359 , 4134.35897436 , 4142.05128205 , 2043.0 , 2035.0 , 283.196 , 0.0 , 0.0 , 0.0 , 0.0 , 

109.0 , 4136.92307692 , 4132.30769231 , 4134.87179487 , 4136.41025641 , 4132.30769231 , 4131.79487179 , 4133.33333333 , 4136.41025641 , 4137.94871795 , 4138.46153846 , 4192.30769231 , 4913.33333333 , 4137.43589744 , 4141.53846154 , 2043.0 , 2034.0 , 283.202 , 0.0 , 0.0 , 0.0 , 0.0 , 

