['COUNTER', 'AF3', 'F7', 'F3', 'FC5', 'T7', 'P7', 'O1', 'O2', 'P8', 'T8', 'FC6', 'F4', 'F8', 'AF4', 'GYROX', 'GYROY', 'TIMESTAMP', 'FUNC_ID', 'FUNC_VALUE', 'MARKER', 'SYNC_SIGNAL']
13.0 , 4134.35897436 , 4129.74358974 , 4136.41025641 , 4138.97435897 , 4131.79487179 , 4133.84615385 , 4129.23076923 , 4136.41025641 , 4135.38461538 , 4138.97435897 , 4193.84615385 , 4917.43589744 , 4135.38461538 , 4142.56410256 , 2043.0 , 2036.0 , 226.534 , 0.0 , 0.0 , 0.0 , 0.0 , 

14.0 , 4134.87179487 , 4132.82051282 , 4133.84615385 , 4137.43589744 , 4130.76923077 , 4131.79487179 , 4127.69230769 , 4135.8974359 , 4135.8974359 , 4137.43589744 , 4195.8974359 , 4913.84615385 , 4136.92307692 , 4145.12820513 , 2043.0 , 2035.0 , 226.541 , 0.0 , 0.0 , 0.0 , 0.0 , 

15.0 , 4134.87179487 , 4132.82051282 , 4134.87179487 , 4135.8974359 , 4131.79487179 , 4128.71794872 , 4128.71794872 , 4137.43589744 , 4137.43589744 , 4137.94871795 , 4194.87179487 , 4916.41025641 , 4136.41025641 , 4144.61538462 , 2044.0 , 2035.0 , 226.548 , 0.0 , 0.0 , 0.0 , 0.0 , 

16.0 , 4134.87179487 , 4131.79487179 , 4134.87179487 , 4135.8974359 , 4132.82051282 , 4129.23076923 , 4129.23076923 , 4136.41025641 , 4137.43589744 , 4138.97435897 , 4193.84615385 , 4916.41025641 , 4137.43589744 , 4141.53846154 , 2041.0 , 2037.0 , 226.559 , 0.0 , 0.0 , 0.0 , 0.0 , 

17.0 , 4134.87179487 , 4129.74358974 , 4134.35897436 , 4136.41025641 , 4131.28205128 , 4130.76923077 , 4127.17948718 , 4135.38461538 , 4137.43589744 , 4138.46153846 , 4194.87179487 , 4914.87179487 , 4136.92307692 , 4144.1025641 , 2042.0 , 2036.0 , 226.566 , 0.0 , 0.0 , 0.0 , 0.0 , 

18.0 , 4133.84615385 , 4132.30769231 , 4135.38461538 , 4136.41025641 , 4132.30769231 , 4132.30769231 , 4128.20512821 , 4135.38461538 , 4140.51282051 , 4139.48717949 , 4193.84615385 , 4916.41025641 , 4136.41025641 , 4145.64102564 , 2042.0 , 2035.0 , 226.573 , 0.0 , 0.0 , 0.0 , 0.0 , 

19.0 , 4134.35897436 , 4134.35897436 , 4136.92307692 , 4134.87179487 , 4134.35897436 , 4131.28205128 , 4127.17948718 , 4133.84615385 , 4139.48717949 , 4139.48717949 , 4192.82051282 , 4916.92307692 , 4135.38461538 , 4141.53846154 , 2043.0 , 2038.0 , 226.58 , 0.0 , 0.0 , 0.0 , 0.0 , 

20.0 , 4132.82051282 , 4133.84615385 , 4136.41025641 , 4135.8974359 , 4133.33333333 , 4132.30769231 , 4123.58974359 , 4134.87179487 , 4135.38461538 , 4137.43589744 , 4192.82051282 , 4911.79487179 , 4135.38461538 , 4133.33333333 , 2042.0 , 2037.0 , 226.593 , 0.0 , 0.0 , 0.0 , 0.0 , 

21.0 , 4134.35897436 , 4133.84615385 , 4136.92307692 , 4137.43589744 , 4129.74358974 , 4131.28205128 , 4124.61538462 , 4134.87179487 , 4133.84615385 , 4136.41025641 , 4194.35897436 , 4915.8974359 , 4136.41025641 , 4138.97435897 , 2043.0 , 2038.0 , 226.597 , 0.0 , 0.0 , 0.0 , 0.0 , 

22.0 , 4133.84615385 , 4134.35897436 , 4136.92307692 , 4137.94871795 , 4129.74358974 , 4131.79487179 , 4126.66666667 , 4133.84615385 , 4136.92307692 , 4137.43589744 , 4193.33333333 , 4917.94871795 , 4138.46153846 , 4143.07692308 , 2043.0 , 2037.0 , 226.605 , 0.0 , 0.0 , 0.0 , 0.0 , 

23.0 , 4134.35897436 , 4129.74358974 , 4137.43589744 , 4134.87179487 , 4130.25641026 , 4130.25641026 , 4122.56410256 , 4133.33333333 , 4135.8974359 , 4137.94871795 , 4192.30769231 , 4913.84615385 , 4137.43589744 , 4145.64102564 , 2043.0 , 2037.0 , 226.612 , 0.0 , 0.0 , 0.0 , 0.0 , 

24.0 , 4134.87179487 , 4129.74358974 , 4136.41025641 , 4134.35897436 , 4130.25641026 , 4131.28205128 , 4124.61538462 , 4136.41025641 , 4135.8974359 , 4137.43589744 , 4193.33333333 , 4911.79487179 , 4134.35897436 , 4142.05128205 , 2044.0 , 2037.0 , 226.624 , 0.0 , 0.0 , 0.0 , 0.0 , 

25.0 , 4136.92307692 , 4131.28205128 , 4135.8974359 , 4134.87179487 , 4132.30769231 , 4130.76923077 , 4126.15384615 , 4137.43589744 , 4138.97435897 , 4136.92307692 , 4193.84615385 , 4916.41025641 , 4134.87179487 , 4143.58974359 , 2043.0 , 2036.0 , 226.628 , 0.0 , 0.0 , 0.0 , 0.0 , 

26.0 , 4134.87179487 , 4131.79487179 , 4136.92307692 , 4135.8974359 , 4136.41025641 , 4131.28205128 , 4124.1025641 , 4136.92307692 , 4138.46153846 , 4138.97435897 , 4192.82051282 , 4913.33333333 , 4136.41025641 , 4143.58974359 , 2044.0 , 2036.0 , 226.638 , 0.0 , 0.0 , 0.0 , 0.0 , 

27.0 , 4134.87179487 , 4133.84615385 , 4138.97435897 , 4134.87179487 , 4134.87179487 , 4130.25641026 , 4125.64102564 , 4135.8974359 , 4135.38461538 , 4141.02564103 , 4193.33333333 , 4911.79487179 , 4135.38461538 , 4147.69230769 , 2042.0 , 2036.0 , 226.642 , 0.0 , 0.0 , 0.0 , 0.0 , 

28.0 , 4134.87179487 , 4135.8974359 , 4138.46153846 , 4134.87179487 , 4131.28205128 , 4130.25641026 , 4130.76923077 , 4135.38461538 , 4136.41025641 , 4139.48717949 , 4193.84615385 , 4915.8974359 , 4133.84615385 , 4144.61538462 , 2043.0 , 2036.0 , 226.655 , 0.0 , 0.0 , 0.0 , 0.0 , 

29.0 , 4135.38461538 , 4132.30769231 , 4136.92307692 , 4136.92307692 , 4133.33333333 , 4131.28205128 , 4128.20512821 , 4136.92307692 , 4137.94871795 , 4136.41025641 , 4193.84615385 , 4917.94871795 , 4134.35897436 , 4142.56410256 , 2043.0 , 2036.0 , 226.659 , 0.0 , 0.0 , 0.0 , 0.0 , 

30.0 , 4131.79487179 , 4130.76923077 , 4134.87179487 , 4140.0 , 4134.35897436 , 4133.84615385 , 4127.69230769 , 4137.43589744 , 4139.48717949 , 4137.94871795 , 4193.33333333 , 4914.35897436 , 4135.38461538 , 4144.1025641 , 2043.0 , 2035.0 , 226.667 , 0.0 , 0.0 , 0.0 , 0.0 , 

31.0 , 4129.23076923 , 4132.30769231 , 4135.8974359 , 4137.94871795 , 4129.74358974 , 4132.82051282 , 4128.71794872 , 4136.41025641 , 4137.94871795 , 4138.97435897 , 4192.82051282 , 4913.84615385 , 4135.38461538 , 4145.12820513 , 2042.0 , 2036.0 , 226.675 , 0.0 , 0.0 , 0.0 , 0.0 , 

32.0 , 4133.33333333 , 4132.30769231 , 4135.38461538 , 4136.41025641 , 4129.74358974 , 4129.23076923 , 4128.20512821 , 4138.46153846 , 4134.87179487 , 4137.94871795 , 4193.84615385 , 4912.30769231 , 4134.35897436 , 4143.07692308 , 2042.0 , 2036.0 , 226.687 , 0.0 , 0.0 , 0.0 , 0.0 , 

33.0 , 4136.41025641 , 4131.28205128 , 4131.28205128 , 4137.94871795 , 4131.28205128 , 4130.76923077 , 4126.66666667 , 4137.43589744 , 4133.84615385 , 4140.51282051 , 4195.38461538 , 4909.23076923 , 4135.38461538 , 4141.02564103 , 2043.0 , 2036.0 , 226.691 , 0.0 , 0.0 , 0.0 , 0.0 , 

34.0 , 4134.87179487 , 4130.76923077 , 4131.79487179 , 4133.84615385 , 4129.74358974 , 4133.33333333 , 4123.58974359 , 4131.79487179 , 4135.38461538 , 4142.56410256 , 4193.84615385 , 4912.30769231 , 4135.38461538 , 4138.97435897 , 2043.0 , 2036.0 , 226.698 , 0.0 , 0.0 , 0.0 , 0.0 , 

35.0 , 4134.35897436 , 4131.28205128 , 4136.41025641 , 4131.28205128 , 4131.28205128 , 4130.25641026 , 4124.1025641 , 4133.84615385 , 4136.92307692 , 4139.48717949 , 4190.25641026 , 4915.8974359 , 4136.41025641 , 4137.43589744 , 2043.0 , 2036.0 , 226.706 , 0.0 , 0.0 , 0.0 , 0.0 , 

36.0 , 4136.92307692 , 4132.30769231 , 4138.46153846 , 4134.87179487 , 4133.33333333 , 4128.20512821 , 4127.69230769 , 4137.94871795 , 4135.38461538 , 4137.94871795 , 4192.30769231 , 4914.35897436 , 4136.41025641 , 4143.07692308 , 2044.0 , 2036.0 , 226.718 , 0.0 , 0.0 , 0.0 , 0.0 , 

37.0 , 4134.87179487 , 4132.30769231 , 4135.38461538 , 4136.92307692 , 4132.82051282 , 4131.28205128 , 4129.74358974 , 4135.38461538 , 4136.92307692 , 4139.48717949 , 4194.35897436 , 4911.28205128 , 4136.41025641 , 4144.1025641 , 2041.0 , 2036.0 , 226.724 , 0.0 , 0.0 , 0.0 , 0.0 , 

38.0 , 4134.35897436 , 4131.28205128 , 4133.84615385 , 4133.33333333 , 4135.38461538 , 4131.79487179 , 4130.76923077 , 4133.33333333 , 4137.94871795 , 4138.46153846 , 4193.33333333 , 4915.38461538 , 4134.87179487 , 4144.1025641 , 2042.0 , 2036.0 , 226.729 , 0.0 , 0.0 , 0.0 , 0.0 , 

39.0 , 4134.35897436 , 4131.28205128 , 4134.35897436 , 4133.33333333 , 4137.43589744 , 4130.76923077 , 4132.82051282 , 4137.94871795 , 4137.94871795 , 4138.97435897 , 4192.82051282 , 4916.92307692 , 4135.8974359 , 4143.07692308 , 2042.0 , 2036.0 , 226.739 , 0.0 , 0.0 , 0.0 , 0.0 , 

40.0 , 4133.84615385 , 4130.76923077 , 4136.92307692 , 4134.35897436 , 4131.79487179 , 4130.76923077 , 4130.25641026 , 4136.41025641 , 4136.92307692 , 4140.51282051 , 4193.84615385 , 4916.92307692 , 4136.92307692 , 4144.61538462 , 2041.0 , 2036.0 , 226.749 , 0.0 , 0.0 , 0.0 , 0.0 , 

41.0 , 4132.30769231 , 4132.30769231 , 4137.43589744 , 4134.35897436 , 4130.76923077 , 4133.33333333 , 4129.23076923 , 4132.30769231 , 4137.43589744 , 4138.46153846 , 4194.35897436 , 4913.84615385 , 4137.43589744 , 4140.0 , 2041.0 , 2037.0 , 226.757 , 0.0 , 0.0 , 0.0 , 0.0 , 

42.0 , 4134.87179487 , 4133.33333333 , 4138.46153846 , 4134.87179487 , 4132.82051282 , 4130.76923077 , 4128.20512821 , 4132.82051282 , 4135.38461538 , 4137.43589744 , 4195.38461538 , 4914.35897436 , 4137.43589744 , 4141.53846154 , 2043.0 , 2037.0 , 226.762 , 0.0 , 0.0 , 0.0 , 0.0 , 

43.0 , 4133.33333333 , 4132.82051282 , 4138.46153846 , 4136.41025641 , 4131.79487179 , 4129.74358974 , 4127.69230769 , 4137.43589744 , 4136.41025641 , 4138.97435897 , 4196.41025641 , 4914.35897436 , 4138.46153846 , 4142.56410256 , 2044.0 , 2036.0 , 226.769 , 0.0 , 0.0 , 0.0 , 0.0 , 

44.0 , 4133.84615385 , 4133.33333333 , 4136.92307692 , 4134.35897436 , 4131.28205128 , 4130.76923077 , 4127.17948718 , 4136.92307692 , 4137.94871795 , 4138.46153846 , 4195.8974359 , 4915.38461538 , 4136.92307692 , 4142.56410256 , 2043.0 , 2036.0 , 226.782 , 0.0 , 0.0 , 0.0 , 0.0 , 

45.0 , 4135.8974359 , 4134.35897436 , 4135.38461538 , 4132.82051282 , 4133.33333333 , 4130.25641026 , 4127.69230769 , 4135.8974359 , 4135.8974359 , 4137.43589744 , 4192.30769231 , 4914.35897436 , 4133.84615385 , 4137.94871795 , 2043.0 , 2035.0 , 226.785 , 0.0 , 0.0 , 0.0 , 0.0 , 

46.0 , 4136.41025641 , 4129.74358974 , 4135.8974359 , 4134.35897436 , 4132.82051282 , 4128.20512821 , 4126.15384615 , 4136.41025641 , 4135.8974359 , 4137.94871795 , 4192.30769231 , 4913.33333333 , 4134.35897436 , 4141.02564103 , 2044.0 , 2034.0 , 226.793 , 0.0 , 0.0 , 0.0 , 0.0 , 

47.0 , 4134.35897436 , 4128.71794872 , 4135.38461538 , 4136.41025641 , 4131.28205128 , 4130.25641026 , 4127.17948718 , 4137.94871795 , 4138.46153846 , 4137.94871795 , 4192.30769231 , 4911.79487179 , 4138.97435897 , 4143.58974359 , 2044.0 , 2035.0 , 226.802 , 0.0 , 0.0 , 0.0 , 0.0 , 

48.0 , 4135.8974359 , 4132.82051282 , 4136.92307692 , 4135.38461538 , 4130.25641026 , 4130.76923077 , 4125.64102564 , 4136.92307692 , 4137.94871795 , 4137.94871795 , 4192.30769231 , 4913.33333333 , 4137.43589744 , 4142.56410256 , 2044.0 , 2035.0 , 226.814 , 0.0 , 0.0 , 0.0 , 0.0 , 

49.0 , 4136.92307692 , 4132.82051282 , 4137.94871795 , 4136.41025641 , 4129.23076923 , 4130.25641026 , 4125.12820513 , 4136.41025641 , 4135.8974359 , 4138.97435897 , 4194.35897436 , 4912.82051282 , 4130.25641026 , 4141.02564103 , 2044.0 , 2035.0 , 226.818 , 0.0 , 0.0 , 0.0 , 0.0 , 

50.0 , 4136.92307692 , 4131.28205128 , 4136.41025641 , 4137.43589744 , 4130.25641026 , 4130.76923077 , 4128.20512821 , 4136.92307692 , 4136.41025641 , 4138.97435897 , 4194.87179487 , 4911.28205128 , 4131.28205128 , 4143.58974359 , 2044.0 , 2035.0 , 226.825 , 0.0 , 0.0 , 0.0 , 0.0 , 

51.0 , 4136.92307692 , 4132.82051282 , 4135.8974359 , 4135.38461538 , 4131.28205128 , 4130.76923077 , 4129.74358974 , 4136.41025641 , 4135.38461538 , 4136.92307692 , 4192.82051282 , 4911.79487179 , 4135.38461538 , 4144.1025641 , 2044.0 , 2035.0 , 226.832 , 0.0 , 0.0 , 0.0 , 0.0 , 

52.0 , 4136.92307692 , 4133.84615385 , 4137.94871795 , 4133.33333333 , 4130.76923077 , 4130.25641026 , 4127.69230769 , 4137.94871795 , 4134.35897436 , 4136.92307692 , 4194.35897436 , 4913.84615385 , 4136.41025641 , 4141.02564103 , 2042.0 , 2036.0 , 226.845 , 0.0 , 0.0 , 0.0 , 0.0 , 

53.0 , 4134.35897436 , 4132.30769231 , 4137.43589744 , 4132.82051282 , 4131.79487179 , 4130.25641026 , 4125.64102564 , 4136.41025641 , 4135.38461538 , 4137.43589744 , 4196.92307692 , 4913.84615385 , 4135.8974359 , 4145.64102564 , 2042.0 , 2036.0 , 226.848 , 0.0 , 0.0 , 0.0 , 0.0 , 

54.0 , 4131.79487179 , 4131.79487179 , 4135.8974359 , 4132.82051282 , 4132.30769231 , 4132.30769231 , 4126.66666667 , 4133.84615385 , 4135.38461538 , 4137.43589744 , 4193.33333333 , 4913.33333333 , 4137.94871795 , 4146.66666667 , 2042.0 , 2036.0 , 226.856 , 0.0 , 0.0 , 0.0 , 0.0 , 

55.0 , 4133.33333333 , 4131.79487179 , 4136.41025641 , 4134.35897436 , 4131.28205128 , 4132.30769231 , 4126.15384615 , 4134.35897436 , 4134.35897436 , 4137.94871795 , 4191.79487179 , 4912.82051282 , 4136.41025641 , 4144.1025641 , 2043.0 , 2037.0 , 226.865 , 0.0 , 0.0 , 0.0 , 0.0 , 

56.0 , 4133.33333333 , 4132.82051282 , 4135.38461538 , 4135.8974359 , 4131.28205128 , 4130.25641026 , 4126.66666667 , 4137.43589744 , 4137.94871795 , 4139.48717949 , 4193.84615385 , 4910.76923077 , 4135.38461538 , 4141.02564103 , 2043.0 , 2036.0 , 226.874 , 0.0 , 0.0 , 0.0 , 0.0 , 

57.0 , 4133.33333333 , 4132.30769231 , 4134.35897436 , 4134.35897436 , 4131.28205128 , 4128.71794872 , 4127.17948718 , 4137.43589744 , 4138.46153846 , 4137.43589744 , 4193.84615385 , 4913.33333333 , 4135.8974359 , 4141.53846154 , 2042.0 , 2036.0 , 226.883 , 0.0 , 0.0 , 0.0 , 0.0 , 

58.0 , 4131.28205128 , 4131.79487179 , 4135.38461538 , 4135.38461538 , 4132.30769231 , 4131.79487179 , 4128.20512821 , 4137.94871795 , 4135.38461538 , 4136.41025641 , 4193.33333333 , 4911.79487179 , 4135.8974359 , 4137.43589744 , 2041.0 , 2036.0 , 226.888 , 0.0 , 0.0 , 0.0 , 0.0 , 

59.0 , 4133.84615385 , 4131.28205128 , 4136.92307692 , 4135.38461538 , 4131.79487179 , 4130.76923077 , 4126.66666667 , 4135.8974359 , 4135.8974359 , 4138.97435897 , 4193.84615385 , 4911.79487179 , 4133.84615385 , 4141.02564103 , 2041.0 , 2036.0 , 226.896 , 0.0 , 0.0 , 0.0 , 0.0 , 

60.0 , 4134.35897436 , 4130.76923077 , 4133.84615385 , 4134.87179487 , 4131.28205128 , 4128.20512821 , 4127.17948718 , 4135.8974359 , 4140.51282051 , 4141.02564103 , 4190.25641026 , 4910.76923077 , 4135.38461538 , 4140.51282051 , 2042.0 , 2036.0 , 226.907 , 0.0 , 0.0 , 0.0 , 0.0 , 

61.0 , 4136.92307692 , 4131.28205128 , 4134.35897436 , 4133.84615385 , 4132.30769231 , 4128.20512821 , 4126.15384615 , 4135.8974359 , 4137.94871795 , 4138.46153846 , 4190.25641026 , 4914.87179487 , 4136.92307692 , 4141.02564103 , 2043.0 , 2038.0 , 226.914 , 0.0 , 0.0 , 0.0 , 0.0 , 

62.0 , 4135.38461538 , 4132.82051282 , 4137.94871795 , 4136.92307692 , 4133.84615385 , 4131.28205128 , 4128.20512821 , 4136.41025641 , 4135.8974359 , 4137.43589744 , 4193.33333333 , 4914.87179487 , 4136.41025641 , 4141.02564103 , 2043.0 , 2037.0 , 226.918 , 0.0 , 0.0 , 0.0 , 0.0 , 

63.0 , 4135.38461538 , 4130.76923077 , 4137.43589744 , 4136.92307692 , 4131.79487179 , 4129.74358974 , 4130.76923077 , 4137.43589744 , 4138.97435897 , 4138.97435897 , 4194.35897436 , 4914.87179487 , 4137.43589744 , 4146.66666667 , 2043.0 , 2037.0 , 226.928 , 0.0 , 0.0 , 0.0 , 0.0 , 

64.0 , 4134.87179487 , 4131.28205128 , 4134.87179487 , 4134.87179487 , 4132.30769231 , 4129.74358974 , 4130.25641026 , 4137.43589744 , 4138.46153846 , 4138.97435897 , 4192.30769231 , 4913.84615385 , 4137.94871795 , 4145.64102564 , 2044.0 , 2038.0 , 226.935 , 0.0 , 0.0 , 0.0 , 0.0 , 

65.0 , 4135.38461538 , 4133.84615385 , 4137.43589744 , 4134.35897436 , 4133.84615385 , 4130.76923077 , 4127.17948718 , 4133.84615385 , 4135.8974359 , 4138.97435897 , 4192.82051282 , 4913.84615385 , 4135.38461538 , 4145.12820513 , 2043.0 , 2038.0 , 226.946 , 0.0 , 0.0 , 0.0 , 0.0 , 

66.0 , 4133.84615385 , 4132.30769231 , 4138.46153846 , 4137.94871795 , 4132.30769231 , 4131.28205128 , 4129.23076923 , 4134.87179487 , 4137.94871795 , 4140.51282051 , 4193.33333333 , 4912.82051282 , 4135.38461538 , 4142.05128205 , 2043.0 , 2038.0 , 226.95 , 0.0 , 0.0 , 0.0 , 0.0 , 

67.0 , 4135.38461538 , 4131.28205128 , 4135.38461538 , 4137.94871795 , 4131.79487179 , 4129.74358974 , 4128.20512821 , 4137.94871795 , 4137.94871795 , 4140.51282051 , 4192.30769231 , 4914.35897436 , 4137.94871795 , 4142.05128205 , 2044.0 , 2037.0 , 226.959 , 0.0 , 0.0 , 0.0 , 0.0 , 

68.0 , 4137.43589744 , 4132.82051282 , 4133.33333333 , 4134.35897436 , 4132.30769231 , 4129.74358974 , 4125.12820513 , 4136.41025641 , 4136.41025641 , 4139.48717949 , 4191.79487179 , 4915.8974359 , 4136.92307692 , 4140.51282051 , 2045.0 , 2036.0 , 226.969 , 0.0 , 0.0 , 0.0 , 0.0 , 

69.0 , 4136.41025641 , 4132.30769231 , 4134.35897436 , 4134.35897436 , 4132.30769231 , 4130.25641026 , 4127.17948718 , 4134.35897436 , 4136.92307692 , 4138.46153846 , 4192.30769231 , 4912.30769231 , 4136.41025641 , 4139.48717949 , 2044.0 , 2037.0 , 226.978 , 0.0 , 0.0 , 0.0 , 0.0 , 

70.0 , 4135.38461538 , 4130.25641026 , 4136.92307692 , 4135.8974359 , 4133.84615385 , 4129.23076923 , 4128.71794872 , 4134.87179487 , 4135.38461538 , 4136.92307692 , 4192.82051282 , 4911.79487179 , 4136.41025641 , 4143.07692308 , 2042.0 , 2036.0 , 226.982 , 0.0 , 0.0 , 0.0 , 0.0 , 

71.0 , 4136.92307692 , 4132.82051282 , 4136.92307692 , 4135.8974359 , 4134.35897436 , 4128.20512821 , 4127.69230769 , 4136.41025641 , 4134.35897436 , 4137.94871795 , 4192.82051282 , 4915.8974359 , 4134.87179487 , 4142.05128205 , 2044.0 , 2037.0 , 226.99 , 0.0 , 0.0 , 0.0 , 0.0 , 

72.0 , 4135.8974359 , 4134.35897436 , 4136.41025641 , 4136.41025641 , 4132.30769231 , 4129.74358974 , 4127.69230769 , 4136.41025641 , 4136.92307692 , 4139.48717949 , 4193.84615385 , 4915.8974359 , 4134.35897436 , 4139.48717949 , 2044.0 , 2036.0 , 227.0 , 0.0 , 0.0 , 0.0 , 0.0 , 

73.0 , 4134.87179487 , 4133.84615385 , 4135.8974359 , 4136.92307692 , 4129.74358974 , 4133.33333333 , 4127.69230769 , 4136.92307692 , 4137.94871795 , 4138.97435897 , 4194.35897436 , 4911.79487179 , 4136.41025641 , 4140.51282051 , 2044.0 , 2036.0 , 227.009 , 0.0 , 0.0 , 0.0 , 0.0 , 

74.0 , 4137.43589744 , 4133.84615385 , 4137.94871795 , 4134.35897436 , 4131.28205128 , 4131.28205128 , 4126.66666667 , 4135.8974359 , 4135.8974359 , 4141.02564103 , 4194.35897436 , 4912.82051282 , 4136.41025641 , 4145.64102564 , 2043.0 , 2037.0 , 227.063 , 0.0 , 0.0 , 0.0 , 0.0 , 

75.0 , 4135.8974359 , 4134.35897436 , 4137.43589744 , 4134.35897436 , 4134.35897436 , 4128.71794872 , 4129.74358974 , 4136.41025641 , 4137.43589744 , 4141.02564103 , 4194.35897436 , 4913.84615385 , 4134.87179487 , 4142.05128205 , 2042.0 , 2036.0 , 227.066 , 0.0 , 0.0 , 0.0 , 0.0 , 

76.0 , 4135.38461538 , 4130.76923077 , 4135.8974359 , 4135.8974359 , 4132.82051282 , 4128.71794872 , 4130.76923077 , 4137.94871795 , 4138.46153846 , 4136.92307692 , 4194.35897436 , 4914.87179487 , 4135.8974359 , 4144.1025641 , 2042.0 , 2036.0 , 227.066 , 0.0 , 0.0 , 0.0 , 0.0 , 

77.0 , 4135.38461538 , 4130.76923077 , 4135.38461538 , 4134.87179487 , 4130.25641026 , 4131.79487179 , 4128.71794872 , 4135.8974359 , 4139.48717949 , 4137.43589744 , 4193.84615385 , 4913.33333333 , 4139.48717949 , 4144.61538462 , 2043.0 , 2034.0 , 227.066 , 0.0 , 0.0 , 0.0 , 0.0 , 

78.0 , 4136.92307692 , 4132.82051282 , 4136.92307692 , 4132.30769231 , 4130.76923077 , 4131.79487179 , 4126.15384615 , 4133.33333333 , 4140.0 , 4140.51282051 , 4194.87179487 , 4914.87179487 , 4136.92307692 , 4145.12820513 , 2043.0 , 2034.0 , 227.066 , 0.0 , 0.0 , 0.0 , 0.0 , 

79.0 , 4134.35897436 , 4133.84615385 , 4134.87179487 , 4135.8974359 , 4132.30769231 , 4130.76923077 , 4126.66666667 , 4136.41025641 , 4137.43589744 , 4139.48717949 , 4193.84615385 , 4913.84615385 , 4131.28205128 , 4140.51282051 , 2044.0 , 2035.0 , 227.066 , 0.0 , 0.0 , 0.0 , 0.0 , 

80.0 , 4135.8974359 , 4133.33333333 , 4134.35897436 , 4137.43589744 , 4130.76923077 , 4130.25641026 , 4125.64102564 , 4137.94871795 , 4134.87179487 , 4137.94871795 , 4192.82051282 , 4915.38461538 , 4133.84615385 , 4143.58974359 , 2043.0 , 2033.0 , 227.066 , 0.0 , 0.0 , 0.0 , 0.0 , 

81.0 , 4136.41025641 , 4134.35897436 , 4137.94871795 , 4135.38461538 , 4131.79487179 , 4132.30769231 , 4125.64102564 , 4136.92307692 , 4138.46153846 , 4138.97435897 , 4193.84615385 , 4913.84615385 , 4140.0 , 4142.05128205 , 2043.0 , 2034.0 , 227.081 , 0.0 , 0.0 , 0.0 , 0.0 , 

82.0 , 4135.38461538 , 4132.30769231 , 4137.43589744 , 4132.30769231 , 4132.30769231 , 4131.28205128 , 4124.61538462 , 4135.8974359 , 4136.92307692 , 4138.97435897 , 4195.38461538 , 4911.79487179 , 4138.97435897 , 4142.05128205 , 2043.0 , 2033.0 , 227.081 , 0.0 , 0.0 , 0.0 , 0.0 , 

83.0 , 4134.87179487 , 4131.79487179 , 4134.87179487 , 4134.35897436 , 4131.28205128 , 4130.25641026 , 4124.61538462 , 4135.8974359 , 4133.33333333 , 4138.97435897 , 4193.84615385 , 4910.76923077 , 4135.38461538 , 4140.51282051 , 2044.0 , 2033.0 , 227.085 , 0.0 , 0.0 , 0.0 , 0.0 , 

84.0 , 4136.92307692 , 4132.82051282 , 4136.41025641 , 4135.38461538 , 4130.25641026 , 4129.23076923 , 4125.12820513 , 4135.38461538 , 4133.84615385 , 4141.02564103 , 4193.33333333 , 4912.30769231 , 4137.43589744 , 4141.02564103 , 2043.0 , 2035.0 , 227.093 , 0.0 , 0.0 , 0.0 , 0.0 , 

85.0 , 4138.46153846 , 4131.28205128 , 4137.94871795 , 4132.30769231 , 4130.25641026 , 4129.23076923 , 4127.17948718 , 4135.38461538 , 4135.8974359 , 4142.05128205 , 4193.84615385 , 4911.28205128 , 4137.94871795 , 4140.51282051 , 2043.0 , 2034.0 , 227.105 , 0.0 , 0.0 , 0.0 , 0.0 , 

86.0 , 4138.46153846 , 4131.79487179 , 4134.87179487 , 4131.28205128 , 4130.76923077 , 4128.71794872 , 4128.20512821 , 4134.35897436 , 4136.41025641 , 4140.0 , 4193.84615385 , 4910.76923077 , 4136.41025641 , 4143.07692308 , 2044.0 , 2035.0 , 227.111 , 0.0 , 0.0 , 0.0 , 0.0 , 

87.0 , 4136.41025641 , 4134.35897436 , 4134.87179487 , 4134.35897436 , 4129.74358974 , 4129.74358974 , 4127.69230769 , 4134.35897436 , 4135.8974359 , 4137.94871795 , 4192.30769231 , 4913.33333333 , 4135.38461538 , 4144.61538462 , 2043.0 , 2035.0 , 227.115 , 0.0 , 0.0 , 0.0 , 0.0 , 

88.0 , 4134.87179487 , 4133.33333333 , 4136.92307692 , 4135.38461538 , 4130.76923077 , 4128.71794872 , 4126.66666667 , 4134.87179487 , 4136.92307692 , 4140.0 , 4190.76923077 , 4914.35897436 , 4136.41025641 , 4144.1025641 , 2043.0 , 2035.0 , 227.125 , 0.0 , 0.0 , 0.0 , 0.0 , 

89.0 , 4133.84615385 , 4130.76923077 , 4135.8974359 , 4135.8974359 , 4133.84615385 , 4128.20512821 , 4126.66666667 , 4133.84615385 , 4136.92307692 , 4141.02564103 , 4191.28205128 , 4914.87179487 , 4134.87179487 , 4145.12820513 , 2042.0 , 2034.0 , 227.135 , 0.0 , 0.0 , 0.0 , 0.0 , 

90.0 , 4134.35897436 , 4132.30769231 , 4134.87179487 , 4139.48717949 , 4133.84615385 , 4132.82051282 , 4128.71794872 , 4135.8974359 , 4137.43589744 , 4140.0 , 4192.82051282 , 4914.35897436 , 4134.35897436 , 4145.12820513 , 2042.0 , 2034.0 , 227.143 , 0.0 , 0.0 , 0.0 , 0.0 , 

91.0 , 4136.41025641 , 4133.33333333 , 4136.41025641 , 4135.8974359 , 4132.30769231 , 4132.82051282 , 4129.74358974 , 4135.8974359 , 4137.43589744 , 4140.0 , 4193.84615385 , 4913.33333333 , 4134.35897436 , 4143.58974359 , 2042.0 , 2035.0 , 227.148 , 0.0 , 0.0 , 0.0 , 0.0 , 

92.0 , 4136.41025641 , 4132.82051282 , 4136.92307692 , 4131.79487179 , 4132.30769231 , 4130.76923077 , 4129.23076923 , 4133.33333333 , 4137.43589744 , 4138.97435897 , 4193.33333333 , 4913.33333333 , 4136.41025641 , 4139.48717949 , 2041.0 , 2036.0 , 227.157 , 0.0 , 0.0 , 0.0 , 0.0 , 

93.0 , 4136.92307692 , 4133.84615385 , 4135.8974359 , 4133.84615385 , 4131.79487179 , 4131.28205128 , 4126.15384615 , 4134.35897436 , 4135.8974359 , 4136.92307692 , 4192.82051282 , 4916.41025641 , 4136.92307692 , 4143.58974359 , 2042.0 , 2036.0 , 227.169 , 0.0 , 0.0 , 0.0 , 0.0 , 

94.0 , 4133.33333333 , 4133.33333333 , 4134.87179487 , 4137.43589744 , 4130.76923077 , 4132.82051282 , 4125.12820513 , 4137.94871795 , 4136.41025641 , 4137.43589744 , 4191.79487179 , 4913.84615385 , 4136.92307692 , 4144.1025641 , 2042.0 , 2035.0 , 227.174 , 0.0 , 0.0 , 0.0 , 0.0 , 

95.0 , 4134.87179487 , 4130.25641026 , 4134.87179487 , 4134.87179487 , 4129.74358974 , 4129.23076923 , 4124.61538462 , 4136.92307692 , 4136.41025641 , 4139.48717949 , 4193.33333333 , 4912.82051282 , 4135.38461538 , 4141.53846154 , 2042.0 , 2037.0 , 227.178 , 0.0 , 0.0 , 0.0 , 0.0 , 

96.0 , 4135.8974359 , 4130.76923077 , 4133.33333333 , 4135.8974359 , 4131.79487179 , 4130.25641026 , 4127.17948718 , 4136.41025641 , 4136.41025641 , 4139.48717949 , 4193.33333333 , 4911.79487179 , 4135.38461538 , 4138.97435897 , 2042.0 , 2037.0 , 227.188 , 0.0 , 0.0 , 0.0 , 0.0 , 

97.0 , 4135.8974359 , 4133.84615385 , 4132.82051282 , 4138.97435897 , 4131.28205128 , 4131.79487179 , 4127.69230769 , 4138.46153846 , 4135.8974359 , 4138.97435897 , 4193.84615385 , 4913.33333333 , 4137.43589744 , 4145.64102564 , 2042.0 , 2036.0 , 227.2 , 0.0 , 0.0 , 0.0 , 0.0 , 

98.0 , 4132.82051282 , 4133.84615385 , 4135.38461538 , 4138.46153846 , 4129.74358974 , 4130.76923077 , 4126.15384615 , 4138.97435897 , 4136.92307692 , 4138.97435897 , 4192.82051282 , 4910.25641026 , 4137.94871795 , 4142.56410256 , 2043.0 , 2037.0 , 227.206 , 0.0 , 0.0 , 0.0 , 0.0 , 

99.0 , 4136.92307692 , 4130.25641026 , 4140.0 , 4133.33333333 , 4129.74358974 , 4128.20512821 , 4124.61538462 , 4135.8974359 , 4137.94871795 , 4138.97435897 , 4192.30769231 , 4911.28205128 , 4136.92307692 , 4141.53846154 , 2043.0 , 2035.0 , 227.21 , 0.0 , 0.0 , 0.0 , 0.0 , 

100.0 , 4137.43589744 , 4131.28205128 , 4137.94871795 , 4134.35897436 , 4130.25641026 , 4130.76923077 , 4127.69230769 , 4136.92307692 , 4140.51282051 , 4139.48717949 , 4192.30769231 , 4912.30769231 , 4136.41025641 , 4141.53846154 , 2042.0 , 2036.0 , 227.223 , 0.0 , 0.0 , 0.0 , 0.0 , 

101.0 , 4133.84615385 , 4132.82051282 , 4135.38461538 , 4135.8974359 , 4130.25641026 , 4134.87179487 , 4126.66666667 , 4137.43589744 , 4141.02564103 , 4137.94871795 , 4192.82051282 , 4913.84615385 , 4136.92307692 , 4143.07692308 , 2042.0 , 2035.0 , 227.232 , 0.0 , 0.0 , 0.0 , 0.0 , 

102.0 , 4132.82051282 , 4130.76923077 , 4135.8974359 , 4134.35897436 , 4131.28205128 , 4133.33333333 , 4125.64102564 , 4134.35897436 , 4137.94871795 , 4137.94871795 , 4193.33333333 , 4913.84615385 , 4135.8974359 , 4142.05128205 , 2043.0 , 2036.0 , 227.239 , 0.0 , 0.0 , 0.0 , 0.0 , 

103.0 , 4135.38461538 , 4129.23076923 , 4136.41025641 , 4132.82051282 , 4132.82051282 , 4127.69230769 , 4127.17948718 , 4131.79487179 , 4136.41025641 , 4137.94871795 , 4194.35897436 , 4915.38461538 , 4135.38461538 , 4143.58974359 , 2041.0 , 2035.0 , 227.243 , 0.0 , 0.0 , 0.0 , 0.0 , 

104.0 , 4135.38461538 , 4131.28205128 , 4136.41025641 , 4135.38461538 , 4131.28205128 , 4129.74358974 , 4129.23076923 , 4136.92307692 , 4139.48717949 , 4137.43589744 , 4194.35897436 , 4915.38461538 , 4134.87179487 , 4141.02564103 , 2042.0 , 2035.0 , 227.25 , 0.0 , 0.0 , 0.0 , 0.0 , 

105.0 , 4133.84615385 , 4133.84615385 , 4135.8974359 , 4135.8974359 , 4130.76923077 , 4133.33333333 , 4127.69230769 , 4139.48717949 , 4138.97435897 , 4139.48717949 , 4192.30769231 , 4914.35897436 , 4136.41025641 , 4141.02564103 , 2043.0 , 2036.0 , 227.261 , 0.0 , 0.0 , 0.0 , 0.0 , 

106.0 , 4133.33333333 , 4134.87179487 , 4135.38461538 , 4134.35897436 , 4131.28205128 , 4131.28205128 , 4127.17948718 , 4135.38461538 , 4133.84615385 , 4140.51282051 , 4190.76923077 , 4914.87179487 , 4140.0 , 4142.05128205 , 2042.0 , 2036.0 , 227.267 , 0.0 , 0.0 , 0.0 , 0.0 , 

107.0 , 4135.8974359 , 4132.82051282 , 4135.8974359 , 4135.8974359 , 4130.76923077 , 4128.71794872 , 4127.69230769 , 4133.84615385 , 4134.87179487 , 4138.46153846 , 4192.30769231 , 4916.41025641 , 4139.48717949 , 4142.05128205 , 2043.0 , 2036.0 , 227.274 , 0.0 , 0.0 , 0.0 , 0.0 , 

108.0 , 4137.43589744 , 4130.25641026 , 4136.41025641 , 4134.87179487 , 4130.76923077 , 4131.28205128 , 4128.20512821 , 4136.92307692 , 4140.0 , 4137.94871795 , 4192.82051282 , 4914.87179487 , 4134.35897436 , 4145.12820513 , 2041.0 , 2035.0 , 227.283 , 0.0 , 0.0 , 0.0 , 0.0 , 

109.0 , 4132.30769231 , 4133.84615385 , 4134.87179487 , 4133.84615385 , 4131.79487179 , 4133.33333333 , 4129.74358974 , 4136.41025641 , 4138.97435897 , 4138.46153846 , 4191.79487179 , 4911.28205128 , 4134.35897436 , 4142.05128205 , 2041.0 , 2036.0 , 227.298 , 0.0 , 0.0 , 0.0 , 0.0 , 

110.0 , 4134.35897436 , 4136.41025641 , 4135.38461538 , 4135.8974359 , 4131.79487179 , 4131.28205128 , 4129.23076923 , 4131.79487179 , 4133.84615385 , 4138.97435897 , 4192.30769231 , 4912.82051282 , 4136.92307692 , 4141.53846154 , 2042.0 , 2037.0 , 227.301 , 0.0 , 0.0 , 0.0 , 0.0 , 

111.0 , 4137.94871795 , 4134.35897436 , 4134.35897436 , 4137.43589744 , 4131.28205128 , 4131.79487179 , 4127.69230769 , 4134.35897436 , 4136.92307692 , 4138.97435897 , 4193.84615385 , 4914.87179487 , 4137.94871795 , 4144.1025641 , 2042.0 , 2037.0 , 227.305 , 0.0 , 0.0 , 0.0 , 0.0 , 

112.0 , 4137.94871795 , 4131.79487179 , 4134.87179487 , 4134.35897436 , 4130.25641026 , 4133.33333333 , 4126.15384615 , 4137.94871795 , 4140.51282051 , 4136.92307692 , 4193.84615385 , 4915.38461538 , 4137.94871795 , 4146.66666667 , 2042.0 , 2037.0 , 227.313 , 0.0 , 0.0 , 0.0 , 0.0 , 

113.0 , 4133.33333333 , 4132.30769231 , 4136.41025641 , 4133.84615385 , 4130.25641026 , 4134.35897436 , 4129.74358974 , 4136.41025641 , 4136.41025641 , 4136.92307692 , 4193.33333333 , 4914.35897436 , 4137.94871795 , 4142.05128205 , 2042.0 , 2039.0 , 227.325 , 0.0 , 0.0 , 0.0 , 0.0 , 

114.0 , 4134.87179487 , 4132.30769231 , 4137.43589744 , 4134.35897436 , 4130.25641026 , 4133.33333333 , 4129.74358974 , 4131.79487179 , 4134.35897436 , 4139.48717949 , 4192.82051282 , 4913.84615385 , 4135.38461538 , 4145.12820513 , 2042.0 , 2038.0 , 227.331 , 0.0 , 0.0 , 0.0 , 0.0 , 

115.0 , 4135.38461538 , 4132.30769231 , 4134.87179487 , 4136.41025641 , 4131.79487179 , 4134.35897436 , 4126.15384615 , 4134.87179487 , 4136.92307692 , 4140.0 , 4192.82051282 , 4911.28205128 , 4134.87179487 , 4145.12820513 , 2042.0 , 2039.0 , 227.336 , 0.0 , 0.0 , 0.0 , 0.0 , 

116.0 , 4136.41025641 , 4130.25641026 , 4136.41025641 , 4135.8974359 , 4131.28205128 , 4132.82051282 , 4126.66666667 , 4136.41025641 , 4135.38461538 , 4138.97435897 , 4194.35897436 , 4914.87179487 , 4135.38461538 , 4145.12820513 , 2043.0 , 2037.0 , 227.346 , 0.0 , 0.0 , 0.0 , 0.0 , 

117.0 , 4134.87179487 , 4131.79487179 , 4138.97435897 , 4136.41025641 , 4130.76923077 , 4132.30769231 , 4129.23076923 , 4136.41025641 , 4135.8974359 , 4138.97435897 , 4193.84615385 , 4915.38461538 , 4134.87179487 , 4142.05128205 , 2043.0 , 2038.0 , 227.36 , 0.0 , 0.0 , 0.0 , 0.0 , 

118.0 , 4132.82051282 , 4133.84615385 , 4137.94871795 , 4135.8974359 , 4130.25641026 , 4131.28205128 , 4126.15384615 , 4135.38461538 , 4137.94871795 , 4138.97435897 , 4193.33333333 , 4913.84615385 , 4137.43589744 , 4143.58974359 , 2044.0 , 2037.0 , 227.364 , 0.0 , 0.0 , 0.0 , 0.0 , 

119.0 , 4131.28205128 , 4133.33333333 , 4135.8974359 , 4134.35897436 , 4131.79487179 , 4131.28205128 , 4126.66666667 , 4135.8974359 , 4138.46153846 , 4139.48717949 , 4192.30769231 , 4911.79487179 , 4138.97435897 , 4142.05128205 , 2043.0 , 2036.0 , 227.368 , 0.0 , 0.0 , 0.0 , 0.0 , 

120.0 , 4135.38461538 , 4132.82051282 , 4136.92307692 , 4133.84615385 , 4130.76923077 , 4131.79487179 , 4127.69230769 , 4134.87179487 , 4135.38461538 , 4137.43589744 , 4192.30769231 , 4916.41025641 , 4135.8974359 , 4144.61538462 , 2042.0 , 2036.0 , 227.376 , 0.0 , 0.0 , 0.0 , 0.0 , 

121.0 , 4136.41025641 , 4134.35897436 , 4137.43589744 , 4136.92307692 , 4129.74358974 , 4131.79487179 , 4125.12820513 , 4135.8974359 , 4134.35897436 , 4136.41025641 , 4192.30769231 , 4916.92307692 , 4135.38461538 , 4143.07692308 , 2043.0 , 2035.0 , 227.388 , 0.0 , 0.0 , 0.0 , 0.0 , 

122.0 , 4135.38461538 , 4134.35897436 , 4138.46153846 , 4135.38461538 , 4131.28205128 , 4128.20512821 , 4125.64102564 , 4138.97435897 , 4136.92307692 , 4141.02564103 , 4193.33333333 , 4912.30769231 , 4138.97435897 , 4139.48717949 , 2043.0 , 2035.0 , 227.395 , 0.0 , 0.0 , 0.0 , 0.0 , 

123.0 , 4133.84615385 , 4133.84615385 , 4140.0 , 4133.33333333 , 4133.33333333 , 4128.71794872 , 4128.71794872 , 4135.8974359 , 4138.97435897 , 4142.05128205 , 4190.25641026 , 4909.23076923 , 4137.43589744 , 4140.0 , 2043.0 , 2036.0 , 227.4 , 0.0 , 0.0 , 0.0 , 0.0 , 

124.0 , 4135.8974359 , 4132.30769231 , 4140.0 , 4136.92307692 , 4132.82051282 , 4131.28205128 , 4128.20512821 , 4131.28205128 , 4136.41025641 , 4138.46153846 , 4188.71794872 , 4913.33333333 , 4135.8974359 , 4145.12820513 , 2042.0 , 2036.0 , 227.408 , 0.0 , 0.0 , 0.0 , 0.0 , 

125.0 , 4137.43589744 , 4132.30769231 , 4136.92307692 , 4137.94871795 , 4132.30769231 , 4129.74358974 , 4129.23076923 , 4133.84615385 , 4134.35897436 , 4137.43589744 , 4190.76923077 , 4916.92307692 , 4136.41025641 , 4145.12820513 , 2044.0 , 2036.0 , 227.422 , 0.0 , 0.0 , 0.0 , 0.0 , 

126.0 , 4136.92307692 , 4133.33333333 , 4136.41025641 , 4135.8974359 , 4130.25641026 , 4128.20512821 , 4130.76923077 , 4137.94871795 , 4134.87179487 , 4140.0 , 4192.30769231 , 4915.8974359 , 4137.43589744 , 4141.53846154 , 2042.0 , 2036.0 , 227.426 , 0.0 , 0.0 , 0.0 , 0.0 , 

127.0 , 4135.38461538 , 4131.28205128 , 4139.48717949 , 4136.92307692 , 4128.71794872 , 4128.71794872 , 4127.17948718 , 4136.41025641 , 4134.35897436 , 4140.51282051 , 4193.33333333 , 4915.8974359 , 4138.97435897 , 4143.58974359 , 2043.0 , 2035.0 , 227.43 , 0.0 , 0.0 , 0.0 , 0.0 , 

128.0 , 4133.33333333 , 4130.76923077 , 4137.94871795 , 4138.46153846 , 4132.30769231 , 4130.25641026 , 4127.17948718 , 4135.8974359 , 4135.8974359 , 4138.97435897 , 4192.82051282 , 4915.38461538 , 4140.0 , 4145.12820513 , 2041.0 , 2036.0 , 227.44 , 0.0 , 0.0 , 0.0 , 0.0 , 

0.0 , 4134.87179487 , 4132.30769231 , 4136.92307692 , 4134.87179487 , 4132.82051282 , 4130.76923077 , 4128.20512821 , 4133.84615385 , 4135.8974359 , 4136.92307692 , 4192.30769231 , 4915.38461538 , 4135.38461538 , 4146.15384615 , 2042.0 , 2036.0 , 227.452 , 0.0 , 0.0 , 0.0 , 0.0 , 

1.0 , 4133.84615385 , 4133.84615385 , 4141.02564103 , 4135.38461538 , 4130.76923077 , 4130.25641026 , 4128.20512821 , 4131.28205128 , 4134.35897436 , 4138.46153846 , 4193.33333333 , 4913.33333333 , 4135.38461538 , 4141.53846154 , 2041.0 , 2037.0 , 227.458 , 0.0 , 0.0 , 0.0 , 0.0 , 

2.0 , 4134.35897436 , 4134.35897436 , 4143.07692308 , 4136.92307692 , 4130.25641026 , 4129.74358974 , 4127.69230769 , 4133.84615385 , 4132.82051282 , 4141.02564103 , 4194.87179487 , 4914.35897436 , 4136.41025641 , 4141.02564103 , 2042.0 , 2037.0 , 227.462 , 0.0 , 0.0 , 0.0 , 0.0 , 

3.0 , 4135.8974359 , 4133.84615385 , 4136.92307692 , 4137.43589744 , 4131.79487179 , 4132.82051282 , 4129.23076923 , 4138.46153846 , 4133.33333333 , 4140.0 , 4191.28205128 , 4912.30769231 , 4136.41025641 , 4137.94871795 , 2042.0 , 2035.0 , 227.472 , 0.0 , 0.0 , 0.0 , 0.0 , 

4.0 , 4136.92307692 , 4129.74358974 , 4135.38461538 , 4136.41025641 , 4132.82051282 , 4133.33333333 , 4128.20512821 , 4134.35897436 , 4134.87179487 , 4138.46153846 , 4188.71794872 , 4914.35897436 , 4135.38461538 , 4138.97435897 , 2042.0 , 2037.0 , 227.484 , 0.0 , 0.0 , 0.0 , 0.0 , 

5.0 , 4133.84615385 , 4132.30769231 , 4135.8974359 , 4136.92307692 , 4131.28205128 , 4132.82051282 , 4126.15384615 , 4132.30769231 , 4136.92307692 , 4138.97435897 , 4190.25641026 , 4914.87179487 , 4135.38461538 , 4137.94871795 , 2041.0 , 2037.0 , 227.488 , 0.0 , 0.0 , 0.0 , 0.0 , 

6.0 , 4135.38461538 , 4135.8974359 , 4135.8974359 , 4134.87179487 , 4128.71794872 , 4130.25641026 , 4127.69230769 , 4134.87179487 , 4136.41025641 , 4140.0 , 4192.30769231 , 4913.84615385 , 4136.41025641 , 4143.58974359 , 2042.0 , 2038.0 , 227.495 , 0.0 , 0.0 , 0.0 , 0.0 , 

7.0 , 4134.87179487 , 4133.84615385 , 4136.92307692 , 4134.87179487 , 4130.76923077 , 4131.28205128 , 4130.25641026 , 4136.41025641 , 4135.8974359 , 4140.0 , 4193.84615385 , 4910.76923077 , 4137.94871795 , 4140.51282051 , 2042.0 , 2037.0 , 227.502 , 0.0 , 0.0 , 0.0 , 0.0 , 

8.0 , 4134.35897436 , 4132.82051282 , 4138.46153846 , 4135.38461538 , 4133.33333333 , 4131.28205128 , 4125.12820513 , 4134.87179487 , 4134.87179487 , 4137.94871795 , 4195.38461538 , 4914.35897436 , 4136.41025641 , 4140.51282051 , 2042.0 , 2037.0 , 227.515 , 0.0 , 0.0 , 0.0 , 0.0 , 

9.0 , 4133.33333333 , 4135.38461538 , 4136.92307692 , 4136.92307692 , 4132.82051282 , 4130.25641026 , 4121.02564103 , 4136.41025641 , 4133.84615385 , 4137.43589744 , 4190.76923077 , 4914.87179487 , 4134.35897436 , 4145.12820513 , 2042.0 , 2036.0 , 227.521 , 0.0 , 0.0 , 0.0 , 0.0 , 

10.0 , 4135.38461538 , 4131.28205128 , 4137.43589744 , 4135.8974359 , 4131.28205128 , 4130.25641026 , 4123.07692308 , 4138.46153846 , 4135.8974359 , 4138.97435897 , 4189.74358974 , 4913.33333333 , 4135.8974359 , 4147.69230769 , 2044.0 , 2037.0 , 227.526 , 0.0 , 0.0 , 0.0 , 0.0 , 

11.0 , 4133.33333333 , 4128.20512821 , 4138.97435897 , 4135.8974359 , 4131.79487179 , 4132.30769231 , 4126.66666667 , 4138.46153846 , 4138.46153846 , 4138.97435897 , 4192.82051282 , 4912.82051282 , 4137.43589744 , 4142.05128205 , 2044.0 , 2035.0 , 227.534 , 0.0 , 0.0 , 0.0 , 0.0 , 

12.0 , 4132.30769231 , 4132.30769231 , 4138.97435897 , 4137.43589744 , 4131.28205128 , 4132.82051282 , 4126.15384615 , 4135.8974359 , 4135.8974359 , 4137.43589744 , 4193.33333333 , 4913.84615385 , 4138.97435897 , 4143.07692308 , 2043.0 , 2036.0 , 227.544 , 0.0 , 0.0 , 0.0 , 0.0 , 

13.0 , 4133.84615385 , 4134.87179487 , 4138.97435897 , 4137.94871795 , 4131.79487179 , 4134.35897436 , 4128.20512821 , 4134.35897436 , 4133.33333333 , 4138.46153846 , 4190.76923077 , 4914.35897436 , 4138.97435897 , 4146.15384615 , 2043.0 , 2036.0 , 227.55 , 0.0 , 0.0 , 0.0 , 0.0 , 

14.0 , 4135.8974359 , 4131.79487179 , 4137.94871795 , 4134.87179487 , 4131.79487179 , 4134.35897436 , 4128.71794872 , 4134.87179487 , 4134.35897436 , 4138.46153846 , 4192.82051282 , 4915.8974359 , 4137.94871795 , 4144.1025641 , 2043.0 , 2036.0 , 227.557 , 0.0 , 0.0 , 0.0 , 0.0 , 

15.0 , 4134.35897436 , 4131.28205128 , 4134.87179487 , 4133.33333333 , 4131.28205128 , 4130.25641026 , 4125.64102564 , 4135.8974359 , 4135.8974359 , 4138.97435897 , 4193.84615385 , 4915.38461538 , 4137.43589744 , 4141.02564103 , 2043.0 , 2035.0 , 227.565 , 0.0 , 0.0 , 0.0 , 0.0 , 

16.0 , 4131.79487179 , 4131.79487179 , 4134.87179487 , 4135.38461538 , 4129.74358974 , 4128.71794872 , 4126.66666667 , 4134.35897436 , 4134.87179487 , 4140.51282051 , 4192.30769231 , 4912.30769231 , 4138.46153846 , 4140.51282051 , 2041.0 , 2035.0 , 227.577 , 0.0 , 0.0 , 0.0 , 0.0 , 

17.0 , 4133.84615385 , 4129.74358974 , 4137.94871795 , 4135.38461538 , 4130.25641026 , 4129.74358974 , 4128.20512821 , 4129.74358974 , 4134.35897436 , 4139.48717949 , 4192.30769231 , 4912.30769231 , 4136.92307692 , 4142.56410256 , 2043.0 , 2037.0 , 227.583 , 0.0 , 0.0 , 0.0 , 0.0 , 

18.0 , 4135.38461538 , 4132.30769231 , 4136.41025641 , 4136.41025641 , 4131.79487179 , 4132.30769231 , 4127.17948718 , 4130.25641026 , 4135.8974359 , 4140.51282051 , 4192.30769231 , 4912.82051282 , 4136.41025641 , 4141.02564103 , 2042.0 , 2037.0 , 227.589 , 0.0 , 0.0 , 0.0 , 0.0 , 

19.0 , 4133.84615385 , 4133.84615385 , 4134.87179487 , 4137.43589744 , 4131.28205128 , 4132.82051282 , 4127.69230769 , 4135.38461538 , 4134.87179487 , 4141.02564103 , 4193.33333333 , 4914.87179487 , 4137.94871795 , 4144.61538462 , 2041.0 , 2036.0 , 227.597 , 0.0 , 0.0 , 0.0 , 0.0 , 

20.0 , 4133.33333333 , 4132.82051282 , 4135.8974359 , 4137.43589744 , 4130.76923077 , 4131.79487179 , 4130.25641026 , 4137.94871795 , 4134.35897436 , 4138.97435897 , 4192.82051282 , 4912.82051282 , 4136.92307692 , 4145.12820513 , 2043.0 , 2036.0 , 227.608 , 0.0 , 0.0 , 0.0 , 0.0 , 

21.0 , 4137.43589744 , 4130.76923077 , 4136.92307692 , 4135.38461538 , 4130.76923077 , 4129.74358974 , 4128.20512821 , 4133.33333333 , 4135.8974359 , 4138.97435897 , 4193.84615385 , 4912.30769231 , 4133.33333333 , 4143.58974359 , 2042.0 , 2037.0 , 227.615 , 0.0 , 0.0 , 0.0 , 0.0 , 

22.0 , 4135.8974359 , 4132.82051282 , 4137.43589744 , 4136.41025641 , 4130.76923077 , 4131.79487179 , 4129.23076923 , 4134.87179487 , 4136.92307692 , 4141.53846154 , 4193.84615385 , 4913.84615385 , 4134.87179487 , 4141.02564103 , 2043.0 , 2039.0 , 227.62 , 0.0 , 0.0 , 0.0 , 0.0 , 

23.0 , 4133.84615385 , 4134.35897436 , 4138.97435897 , 4134.87179487 , 4131.28205128 , 4129.74358974 , 4127.69230769 , 4137.43589744 , 4135.38461538 , 4140.0 , 4192.30769231 , 4915.8974359 , 4137.94871795 , 4146.15384615 , 2042.0 , 2037.0 , 227.628 , 0.0 , 0.0 , 0.0 , 0.0 , 

24.0 , 4132.82051282 , 4133.84615385 , 4136.41025641 , 4134.87179487 , 4133.33333333 , 4129.23076923 , 4125.64102564 , 4132.82051282 , 4135.8974359 , 4137.43589744 , 4191.79487179 , 4911.28205128 , 4136.41025641 , 4141.02564103 , 2042.0 , 2039.0 , 227.639 , 0.0 , 0.0 , 0.0 , 0.0 , 

25.0 , 4134.87179487 , 4132.30769231 , 4134.87179487 , 4134.87179487 , 4131.79487179 , 4130.76923077 , 4125.64102564 , 4129.74358974 , 4135.8974359 , 4138.46153846 , 4192.82051282 , 4910.76923077 , 4134.35897436 , 4141.53846154 , 2041.0 , 2039.0 , 227.645 , 0.0 , 0.0 , 0.0 , 0.0 , 

26.0 , 4134.87179487 , 4132.30769231 , 4135.8974359 , 4134.87179487 , 4130.25641026 , 4131.28205128 , 4128.20512821 , 4133.33333333 , 4134.87179487 , 4140.0 , 4194.35897436 , 4913.33333333 , 4134.35897436 , 4145.64102564 , 2041.0 , 2039.0 , 227.651 , 0.0 , 0.0 , 0.0 , 0.0 , 

27.0 , 4135.8974359 , 4132.30769231 , 4136.41025641 , 4134.35897436 , 4129.74358974 , 4128.71794872 , 4127.69230769 , 4135.38461538 , 4134.87179487 , 4140.51282051 , 4193.33333333 , 4915.38461538 , 4134.35897436 , 4145.12820513 , 2043.0 , 2039.0 , 227.66 , 0.0 , 0.0 , 0.0 , 0.0 , 

28.0 , 4134.87179487 , 4132.82051282 , 4134.35897436 , 4135.8974359 , 4131.28205128 , 4130.25641026 , 4126.66666667 , 4137.43589744 , 4134.87179487 , 4139.48717949 , 4190.76923077 , 4912.82051282 , 4135.8974359 , 4137.94871795 , 2043.0 , 2038.0 , 227.673 , 0.0 , 0.0 , 0.0 , 0.0 , 

29.0 , 4135.8974359 , 4131.28205128 , 4136.92307692 , 4135.38461538 , 4131.28205128 , 4131.28205128 , 4123.58974359 , 4136.92307692 , 4133.84615385 , 4137.43589744 , 4193.33333333 , 4912.30769231 , 4136.92307692 , 4141.02564103 , 2041.0 , 2036.0 , 227.678 , 0.0 , 0.0 , 0.0 , 0.0 , 

30.0 , 4135.8974359 , 4130.76923077 , 4138.97435897 , 4134.87179487 , 4130.76923077 , 4129.74358974 , 4122.05128205 , 4135.8974359 , 4134.87179487 , 4138.46153846 , 4196.41025641 , 4912.30769231 , 4136.41025641 , 4143.07692308 , 2042.0 , 2038.0 , 227.683 , 0.0 , 0.0 , 0.0 , 0.0 , 

31.0 , 4134.35897436 , 4131.79487179 , 4135.8974359 , 4134.87179487 , 4130.76923077 , 4129.74358974 , 4123.07692308 , 4136.92307692 , 4136.41025641 , 4140.0 , 4194.35897436 , 4913.33333333 , 4134.35897436 , 4143.07692308 , 2043.0 , 2037.0 , 227.692 , 0.0 , 0.0 , 0.0 , 0.0 , 

32.0 , 4133.33333333 , 4130.76923077 , 4135.38461538 , 4134.87179487 , 4131.28205128 , 4132.30769231 , 4125.64102564 , 4134.87179487 , 4135.8974359 , 4138.46153846 , 4190.76923077 , 4912.30769231 , 4134.87179487 , 4145.12820513 , 2042.0 , 2037.0 , 227.705 , 0.0 , 0.0 , 0.0 , 0.0 , 

33.0 , 4134.35897436 , 4129.23076923 , 4138.46153846 , 4134.35897436 , 4131.79487179 , 4132.82051282 , 4126.15384615 , 4132.30769231 , 4135.8974359 , 4138.97435897 , 4191.28205128 , 4910.76923077 , 4138.46153846 , 4147.69230769 , 2042.0 , 2038.0 , 227.709 , 0.0 , 0.0 , 0.0 , 0.0 , 

34.0 , 4136.41025641 , 4128.71794872 , 4138.46153846 , 4134.35897436 , 4132.30769231 , 4131.28205128 , 4127.17948718 , 4134.35897436 , 4136.92307692 , 4141.02564103 , 4192.30769231 , 4911.79487179 , 4134.35897436 , 4148.71794872 , 2042.0 , 2037.0 , 227.714 , 0.0 , 0.0 , 0.0 , 0.0 , 

35.0 , 4134.87179487 , 4129.23076923 , 4133.84615385 , 4135.38461538 , 4131.28205128 , 4130.76923077 , 4128.71794872 , 4138.97435897 , 4137.94871795 , 4141.53846154 , 4192.30769231 , 4911.28205128 , 4130.25641026 , 4150.25641026 , 2042.0 , 2036.0 , 227.724 , 0.0 , 0.0 , 0.0 , 0.0 , 

36.0 , 4130.76923077 , 4129.23076923 , 4135.8974359 , 4135.38461538 , 4129.23076923 , 4129.74358974 , 4126.66666667 , 4140.51282051 , 4136.92307692 , 4141.02564103 , 4192.82051282 , 4913.33333333 , 4134.35897436 , 4154.87179487 , 2043.0 , 2038.0 , 227.735 , 0.0 , 0.0 , 0.0 , 0.0 , 

37.0 , 4129.23076923 , 4130.25641026 , 4140.0 , 4135.8974359 , 4131.79487179 , 4131.28205128 , 4126.66666667 , 4141.02564103 , 4136.41025641 , 4138.97435897 , 4192.82051282 , 4915.38461538 , 4137.43589744 , 4149.74358974 , 2044.0 , 2036.0 , 227.741 , 0.0 , 0.0 , 0.0 , 0.0 , 

38.0 , 4133.33333333 , 4128.71794872 , 4138.46153846 , 4135.38461538 , 4133.33333333 , 4130.76923077 , 4129.23076923 , 4136.92307692 , 4134.87179487 , 4136.92307692 , 4192.30769231 , 4916.41025641 , 4133.33333333 , 4142.56410256 , 2044.0 , 2036.0 , 227.747 , 0.0 , 0.0 , 0.0 , 0.0 , 

39.0 , 4133.84615385 , 4130.25641026 , 4133.33333333 , 4135.8974359 , 4131.79487179 , 4131.28205128 , 4130.76923077 , 4135.8974359 , 4137.43589744 , 4137.94871795 , 4192.82051282 , 4912.82051282 , 4133.84615385 , 4135.38461538 , 2044.0 , 2035.0 , 227.755 , 0.0 , 0.0 , 0.0 , 0.0 , 

40.0 , 4132.30769231 , 4133.33333333 , 4133.84615385 , 4135.38461538 , 4131.79487179 , 4131.28205128 , 4127.17948718 , 4136.41025641 , 4137.43589744 , 4137.94871795 , 4193.84615385 , 4914.87179487 , 4136.41025641 , 4136.92307692 , 2044.0 , 2035.0 , 227.766 , 0.0 , 0.0 , 0.0 , 0.0 , 

41.0 , 4131.28205128 , 4134.87179487 , 4135.8974359 , 4135.8974359 , 4133.33333333 , 4132.30769231 , 4127.17948718 , 4133.33333333 , 4134.87179487 , 4137.43589744 , 4193.84615385 , 4913.84615385 , 4136.41025641 , 4136.41025641 , 2043.0 , 2034.0 , 227.773 , 0.0 , 0.0 , 0.0 , 0.0 , 

42.0 , 4134.87179487 , 4133.84615385 , 4133.84615385 , 4136.41025641 , 4131.28205128 , 4131.28205128 , 4128.20512821 , 4130.25641026 , 4134.35897436 , 4139.48717949 , 4193.84615385 , 4913.84615385 , 4137.94871795 , 4138.46153846 , 2043.0 , 2034.0 , 227.778 , 0.0 , 0.0 , 0.0 , 0.0 , 

43.0 , 4134.35897436 , 4134.87179487 , 4134.35897436 , 4138.46153846 , 4132.30769231 , 4131.28205128 , 4129.23076923 , 4132.30769231 , 4135.8974359 , 4139.48717949 , 4192.82051282 , 4912.82051282 , 4140.51282051 , 4135.8974359 , 2043.0 , 2035.0 , 227.786 , 0.0 , 0.0 , 0.0 , 0.0 , 

44.0 , 4134.87179487 , 4134.35897436 , 4137.94871795 , 4137.43589744 , 4132.82051282 , 4128.71794872 , 4125.12820513 , 4133.33333333 , 4136.41025641 , 4138.46153846 , 4193.84615385 , 4911.79487179 , 4137.94871795 , 4140.0 , 2042.0 , 2034.0 , 227.8 , 0.0 , 0.0 , 0.0 , 0.0 , 

45.0 , 4135.8974359 , 4134.35897436 , 4136.41025641 , 4135.8974359 , 4130.25641026 , 4129.74358974 , 4121.02564103 , 4133.84615385 , 4136.41025641 , 4138.97435897 , 4193.84615385 , 4911.79487179 , 4134.35897436 , 4141.53846154 , 2043.0 , 2035.0 , 227.804 , 0.0 , 0.0 , 0.0 , 0.0 , 

46.0 , 4137.43589744 , 4132.30769231 , 4135.38461538 , 4136.41025641 , 4130.25641026 , 4131.28205128 , 4122.56410256 , 4133.84615385 , 4135.38461538 , 4137.94871795 , 4193.84615385 , 4914.35897436 , 4135.38461538 , 4143.07692308 , 2042.0 , 2035.0 , 227.81 , 0.0 , 0.0 , 0.0 , 0.0 , 

47.0 , 4134.35897436 , 4131.79487179 , 4137.43589744 , 4137.43589744 , 4131.79487179 , 4129.74358974 , 4128.20512821 , 4135.38461538 , 4134.87179487 , 4137.94871795 , 4193.84615385 , 4911.79487179 , 4137.43589744 , 4141.53846154 , 2042.0 , 2034.0 , 227.819 , 0.0 , 0.0 , 0.0 , 0.0 , 

48.0 , 4134.87179487 , 4134.87179487 , 4137.43589744 , 4134.87179487 , 4130.25641026 , 4127.69230769 , 4128.71794872 , 4137.94871795 , 4134.35897436 , 4140.0 , 4193.33333333 , 4911.79487179 , 4135.8974359 , 4144.61538462 , 2043.0 , 2034.0 , 227.834 , 0.0 , 0.0 , 0.0 , 0.0 , 

49.0 , 4135.38461538 , 4135.38461538 , 4135.38461538 , 4133.33333333 , 4130.76923077 , 4131.28205128 , 4128.20512821 , 4135.8974359 , 4134.87179487 , 4140.0 , 4192.30769231 , 4913.33333333 , 4134.87179487 , 4145.64102564 , 2044.0 , 2034.0 , 227.835 , 0.0 , 0.0 , 0.0 , 0.0 , 

50.0 , 4133.33333333 , 4133.84615385 , 4134.87179487 , 4136.41025641 , 4134.87179487 , 4131.28205128 , 4129.23076923 , 4129.74358974 , 4133.84615385 , 4138.46153846 , 4193.84615385 , 4911.79487179 , 4135.8974359 , 4144.61538462 , 2043.0 , 2034.0 , 227.841 , 0.0 , 0.0 , 0.0 , 0.0 , 

51.0 , 4132.82051282 , 4134.35897436 , 4136.92307692 , 4138.46153846 , 4135.38461538 , 4127.69230769 , 4125.64102564 , 4129.23076923 , 4131.79487179 , 4137.94871795 , 4195.8974359 , 4909.74358974 , 4134.35897436 , 4144.61538462 , 2042.0 , 2034.0 , 227.849 , 0.0 , 0.0 , 0.0 , 0.0 , 

52.0 , 4134.35897436 , 4135.8974359 , 4138.97435897 , 4137.43589744 , 4132.30769231 , 4128.71794872 , 4121.53846154 , 4133.84615385 , 4131.79487179 , 4138.46153846 , 4194.35897436 , 4911.28205128 , 4133.84615385 , 4143.07692308 , 2043.0 , 2034.0 , 227.862 , 0.0 , 0.0 , 0.0 , 0.0 , 

53.0 , 4135.38461538 , 4133.84615385 , 4137.43589744 , 4135.38461538 , 4130.76923077 , 4131.28205128 , 4124.1025641 , 4133.84615385 , 4134.87179487 , 4140.51282051 , 4192.30769231 , 4912.82051282 , 4135.38461538 , 4141.53846154 , 2044.0 , 2033.0 , 227.867 , 0.0 , 0.0 , 0.0 , 0.0 , 

54.0 , 4135.8974359 , 4132.82051282 , 4134.35897436 , 4134.87179487 , 4132.30769231 , 4129.23076923 , 4129.23076923 , 4131.28205128 , 4135.38461538 , 4140.51282051 , 4192.30769231 , 4914.35897436 , 4135.8974359 , 4139.48717949 , 2042.0 , 2034.0 , 227.873 , 0.0 , 0.0 , 0.0 , 0.0 , 

55.0 , 4137.43589744 , 4133.33333333 , 4135.38461538 , 4135.38461538 , 4131.79487179 , 4128.71794872 , 4127.69230769 , 4130.76923077 , 4131.28205128 , 4137.43589744 , 4193.33333333 , 4913.84615385 , 4134.35897436 , 4142.56410256 , 2043.0 , 2035.0 , 227.881 , 0.0 , 0.0 , 0.0 , 0.0 , 

56.0 , 4134.35897436 , 4132.82051282 , 4135.8974359 , 4136.92307692 , 4131.79487179 , 4131.28205128 , 4128.20512821 , 4133.33333333 , 4132.30769231 , 4138.46153846 , 4193.33333333 , 4910.25641026 , 4133.84615385 , 4138.97435897 , 2043.0 , 2036.0 , 227.895 , 0.0 , 0.0 , 0.0 , 0.0 , 

57.0 , 4133.33333333 , 4133.84615385 , 4136.41025641 , 4137.43589744 , 4131.79487179 , 4130.25641026 , 4128.71794872 , 4134.87179487 , 4135.8974359 , 4139.48717949 , 4193.33333333 , 4912.30769231 , 4135.38461538 , 4137.43589744 , 2042.0 , 2035.0 , 227.899 , 0.0 , 0.0 , 0.0 , 0.0 , 

58.0 , 4135.8974359 , 4133.84615385 , 4137.94871795 , 4137.43589744 , 4129.23076923 , 4129.74358974 , 4127.17948718 , 4137.43589744 , 4138.46153846 , 4138.97435897 , 4193.33333333 , 4911.28205128 , 4136.41025641 , 4137.43589744 , 2042.0 , 2036.0 , 227.903 , 0.0 , 0.0 , 0.0 , 0.0 , 

59.0 , 4138.97435897 , 4132.82051282 , 4139.48717949 , 4135.38461538 , 4128.71794872 , 4129.74358974 , 4125.64102564 , 4135.38461538 , 4136.41025641 , 4141.02564103 , 4194.87179487 , 4910.76923077 , 4134.35897436 , 4143.58974359 , 2042.0 , 2036.0 , 227.913 , 0.0 , 0.0 , 0.0 , 0.0 , 

60.0 , 4134.87179487 , 4132.82051282 , 4136.92307692 , 4134.87179487 , 4133.33333333 , 4130.76923077 , 4128.71794872 , 4133.33333333 , 4134.87179487 , 4141.02564103 , 4194.35897436 , 4911.79487179 , 4133.84615385 , 4142.56410256 , 2042.0 , 2037.0 , 227.923 , 0.0 , 0.0 , 0.0 , 0.0 , 

61.0 , 4135.38461538 , 4131.79487179 , 4135.8974359 , 4134.35897436 , 4132.82051282 , 4129.23076923 , 4129.74358974 , 4135.38461538 , 4133.84615385 , 4138.46153846 , 4192.30769231 , 4915.8974359 , 4135.8974359 , 4143.07692308 , 2043.0 , 2038.0 , 227.93 , 0.0 , 0.0 , 0.0 , 0.0 , 

62.0 , 4135.8974359 , 4131.28205128 , 4135.38461538 , 4134.87179487 , 4131.79487179 , 4130.25641026 , 4129.74358974 , 4137.94871795 , 4134.87179487 , 4137.94871795 , 4192.82051282 , 4914.35897436 , 4134.87179487 , 4142.56410256 , 2043.0 , 2038.0 , 227.935 , 0.0 , 0.0 , 0.0 , 0.0 , 

63.0 , 4136.41025641 , 4131.79487179 , 4136.41025641 , 4135.38461538 , 4133.33333333 , 4129.74358974 , 4129.74358974 , 4135.8974359 , 4137.94871795 , 4138.46153846 , 4196.41025641 , 4914.35897436 , 4134.35897436 , 4145.64102564 , 2043.0 , 2038.0 , 227.945 , 0.0 , 0.0 , 0.0 , 0.0 , 

64.0 , 4133.84615385 , 4132.82051282 , 4135.8974359 , 4137.43589744 , 4135.38461538 , 4131.28205128 , 4129.74358974 , 4136.41025641 , 4139.48717949 , 4138.46153846 , 4196.41025641 , 4914.87179487 , 4137.43589744 , 4141.53846154 , 2043.0 , 2037.0 , 227.959 , 0.0 , 0.0 , 0.0 , 0.0 , 

65.0 , 4133.84615385 , 4131.28205128 , 4135.8974359 , 4134.87179487 , 4131.79487179 , 4131.28205128 , 4126.15384615 , 4138.46153846 , 4137.43589744 , 4141.02564103 , 4194.35897436 , 4916.41025641 , 4140.0 , 4142.56410256 , 2042.0 , 2037.0 , 227.962 , 0.0 , 0.0 , 0.0 , 0.0 , 

66.0 , 4135.8974359 , 4132.82051282 , 4136.41025641 , 4134.87179487 , 4129.74358974 , 4130.76923077 , 4126.66666667 , 4137.94871795 , 4136.41025641 , 4140.0 , 4192.30769231 , 4912.82051282 , 4138.46153846 , 4142.05128205 , 2044.0 , 2037.0 , 227.967 , 0.0 , 0.0 , 0.0 , 0.0 , 

67.0 , 4135.8974359 , 4133.33333333 , 4137.43589744 , 4137.94871795 , 4132.30769231 , 4129.23076923 , 4129.23076923 , 4135.38461538 , 4135.8974359 , 4137.94871795 , 4191.79487179 , 4910.76923077 , 4136.41025641 , 4137.43589744 , 2044.0 , 2036.0 , 227.975 , 0.0 , 0.0 , 0.0 , 0.0 , 

68.0 , 4133.33333333 , 4131.79487179 , 4135.38461538 , 4136.92307692 , 4133.84615385 , 4130.25641026 , 4130.25641026 , 4136.92307692 , 4135.38461538 , 4142.56410256 , 4192.30769231 , 4912.82051282 , 4134.87179487 , 4134.87179487 , 2044.0 , 2036.0 , 227.987 , 0.0 , 0.0 , 0.0 , 0.0 , 

69.0 , 4135.8974359 , 4130.76923077 , 4133.84615385 , 4132.82051282 , 4131.28205128 , 4132.30769231 , 4129.23076923 , 4138.46153846 , 4136.41025641 , 4142.56410256 , 4192.82051282 , 4912.30769231 , 4135.38461538 , 4140.0 , 2044.0 , 2036.0 , 227.991 , 0.0 , 0.0 , 0.0 , 0.0 , 

70.0 , 4139.48717949 , 4131.79487179 , 4136.41025641 , 4132.82051282 , 4132.82051282 , 4132.82051282 , 4129.74358974 , 4136.92307692 , 4135.38461538 , 4138.46153846 , 4192.82051282 , 4909.74358974 , 4134.87179487 , 4143.07692308 , 2043.0 , 2037.0 , 227.999 , 0.0 , 0.0 , 0.0 , 0.0 , 

71.0 , 4135.38461538 , 4133.33333333 , 4136.92307692 , 4135.8974359 , 4134.87179487 , 4131.28205128 , 4130.25641026 , 4136.92307692 , 4134.35897436 , 4139.48717949 , 4193.84615385 , 4911.79487179 , 4134.87179487 , 4141.02564103 , 2044.0 , 2036.0 , 228.007 , 0.0 , 0.0 , 0.0 , 0.0 , 

72.0 , 4133.84615385 , 4131.79487179 , 4135.8974359 , 4135.8974359 , 4131.79487179 , 4130.25641026 , 4127.69230769 , 4137.94871795 , 4135.8974359 , 4141.53846154 , 4193.84615385 , 4915.8974359 , 4134.87179487 , 4143.07692308 , 2044.0 , 2034.0 , 228.019 , 0.0 , 0.0 , 0.0 , 0.0 , 

73.0 , 4135.8974359 , 4133.33333333 , 4135.8974359 , 4134.35897436 , 4130.25641026 , 4132.82051282 , 4127.69230769 , 4138.46153846 , 4137.43589744 , 4138.97435897 , 4193.33333333 , 4916.41025641 , 4135.8974359 , 4146.15384615 , 2043.0 , 2036.0 , 228.026 , 0.0 , 0.0 , 0.0 , 0.0 , 

74.0 , 4136.92307692 , 4134.35897436 , 4136.92307692 , 4134.35897436 , 4132.30769231 , 4132.82051282 , 4128.20512821 , 4135.8974359 , 4134.87179487 , 4137.94871795 , 4194.87179487 , 4916.92307692 , 4135.38461538 , 4146.66666667 , 2042.0 , 2034.0 , 228.029 , 0.0 , 0.0 , 0.0 , 0.0 , 

75.0 , 4135.38461538 , 4133.33333333 , 4136.92307692 , 4137.43589744 , 4131.79487179 , 4131.28205128 , 4128.20512821 , 4136.41025641 , 4137.43589744 , 4138.97435897 , 4194.87179487 , 4914.35897436 , 4136.41025641 , 4141.53846154 , 2043.0 , 2034.0 , 228.038 , 0.0 , 0.0 , 0.0 , 0.0 , 

76.0 , 4136.41025641 , 4132.82051282 , 4137.94871795 , 4136.92307692 , 4131.28205128 , 4131.79487179 , 4127.17948718 , 4135.8974359 , 4139.48717949 , 4138.46153846 , 4194.87179487 , 4915.8974359 , 4136.41025641 , 4143.58974359 , 2042.0 , 2033.0 , 228.051 , 0.0 , 0.0 , 0.0 , 0.0 , 

77.0 , 4136.41025641 , 4133.84615385 , 4134.87179487 , 4133.33333333 , 4134.87179487 , 4131.79487179 , 4127.69230769 , 4136.92307692 , 4136.92307692 , 4139.48717949 , 4194.35897436 , 4915.38461538 , 4135.8974359 , 4143.58974359 , 2044.0 , 2035.0 , 228.056 , 0.0 , 0.0 , 0.0 , 0.0 , 

78.0 , 4135.8974359 , 4131.28205128 , 4135.38461538 , 4132.30769231 , 4135.8974359 , 4129.23076923 , 4127.69230769 , 4138.46153846 , 4134.35897436 , 4141.02564103 , 4194.35897436 , 4914.35897436 , 4135.38461538 , 4142.05128205 , 2043.0 , 2034.0 , 228.061 , 0.0 , 0.0 , 0.0 , 0.0 , 

79.0 , 4133.84615385 , 4131.28205128 , 4135.8974359 , 4136.92307692 , 4133.33333333 , 4130.25641026 , 4127.17948718 , 4137.94871795 , 4135.8974359 , 4142.05128205 , 4194.35897436 , 4911.28205128 , 4134.35897436 , 4140.0 , 2043.0 , 2034.0 , 228.071 , 0.0 , 0.0 , 0.0 , 0.0 , 

80.0 , 4135.8974359 , 4132.82051282 , 4134.87179487 , 4136.41025641 , 4131.28205128 , 4128.71794872 , 4125.12820513 , 4135.38461538 , 4134.87179487 , 4138.46153846 , 4194.35897436 , 4912.82051282 , 4135.8974359 , 4143.58974359 , 2042.0 , 2034.0 , 228.083 , 0.0 , 0.0 , 0.0 , 0.0 , 

81.0 , 4135.8974359 , 4132.82051282 , 4135.8974359 , 4132.30769231 , 4131.28205128 , 4129.74358974 , 4124.61538462 , 4136.92307692 , 4133.84615385 , 4136.92307692 , 4192.82051282 , 4911.28205128 , 4138.46153846 , 4140.0 , 2042.0 , 2035.0 , 228.089 , 0.0 , 0.0 , 0.0 , 0.0 , 

82.0 , 4136.92307692 , 4131.28205128 , 4136.41025641 , 4132.30769231 , 4130.76923077 , 4131.28205128 , 4125.12820513 , 4138.46153846 , 4134.87179487 , 4140.0 , 4194.35897436 , 4912.30769231 , 4135.38461538 , 4143.07692308 , 2044.0 , 2036.0 , 228.093 , 0.0 , 0.0 , 0.0 , 0.0 , 

83.0 , 4134.87179487 , 4131.79487179 , 4133.33333333 , 4136.92307692 , 4131.28205128 , 4131.79487179 , 4126.66666667 , 4138.97435897 , 4136.92307692 , 4141.53846154 , 4194.87179487 , 4912.82051282 , 4131.79487179 , 4146.15384615 , 2043.0 , 2039.0 , 228.101 , 0.0 , 0.0 , 0.0 , 0.0 , 

84.0 , 4133.84615385 , 4128.71794872 , 4135.38461538 , 4136.92307692 , 4132.30769231 , 4130.76923077 , 4126.15384615 , 4136.92307692 , 4137.43589744 , 4140.0 , 4193.33333333 , 4913.33333333 , 4132.30769231 , 4147.69230769 , 2044.0 , 2039.0 , 228.117 , 0.0 , 0.0 , 0.0 , 0.0 , 

85.0 , 4133.33333333 , 4123.07692308 , 4136.41025641 , 4135.8974359 , 4131.28205128 , 4133.33333333 , 4127.17948718 , 4137.43589744 , 4138.46153846 , 4138.97435897 , 4192.30769231 , 4912.82051282 , 4133.33333333 , 4150.25641026 , 2044.0 , 2038.0 , 228.118 , 0.0 , 0.0 , 0.0 , 0.0 , 

86.0 , 4133.84615385 , 4122.56410256 , 4131.79487179 , 4136.92307692 , 4131.28205128 , 4133.33333333 , 4129.23076923 , 4140.51282051 , 4138.97435897 , 4138.46153846 , 4193.84615385 , 4912.82051282 , 4132.82051282 , 4153.33333333 , 2044.0 , 2038.0 , 228.125 , 0.0 , 0.0 , 0.0 , 0.0 , 

87.0 , 4132.82051282 , 4127.17948718 , 4131.79487179 , 4134.87179487 , 4132.82051282 , 4132.30769231 , 4130.25641026 , 4139.48717949 , 4137.94871795 , 4137.94871795 , 4192.30769231 , 4912.82051282 , 4132.30769231 , 4146.66666667 , 2045.0 , 2038.0 , 228.134 , 0.0 , 0.0 , 0.0 , 0.0 , 

88.0 , 4133.84615385 , 4127.69230769 , 4135.8974359 , 4133.84615385 , 4131.28205128 , 4132.82051282 , 4129.23076923 , 4135.38461538 , 4136.41025641 , 4137.94871795 , 4191.28205128 , 4913.33333333 , 4133.84615385 , 4139.48717949 , 2045.0 , 2038.0 , 228.146 , 0.0 , 0.0 , 0.0 , 0.0 , 

89.0 , 4136.41025641 , 4129.23076923 , 4136.92307692 , 4137.43589744 , 4132.82051282 , 4130.76923077 , 4128.20512821 , 4135.38461538 , 4135.8974359 , 4137.43589744 , 4192.30769231 , 4912.30769231 , 4134.87179487 , 4138.97435897 , 2044.0 , 2037.0 , 228.151 , 0.0 , 0.0 , 0.0 , 0.0 , 

90.0 , 4136.41025641 , 4134.35897436 , 4138.46153846 , 4138.46153846 , 4135.38461538 , 4129.74358974 , 4129.23076923 , 4137.94871795 , 4135.8974359 , 4137.94871795 , 4193.84615385 , 4914.87179487 , 4137.43589744 , 4135.8974359 , 2045.0 , 2038.0 , 228.156 , 0.0 , 0.0 , 0.0 , 0.0 , 

91.0 , 4136.92307692 , 4133.84615385 , 4138.97435897 , 4134.87179487 , 4132.30769231 , 4130.25641026 , 4128.71794872 , 4136.41025641 , 4137.43589744 , 4140.0 , 4193.84615385 , 4921.02564103 , 4138.46153846 , 4137.43589744 , 2042.0 , 2037.0 , 228.164 , 0.0 , 0.0 , 0.0 , 0.0 , 

92.0 , 4134.87179487 , 4134.35897436 , 4135.38461538 , 4136.92307692 , 4130.76923077 , 4131.79487179 , 4127.17948718 , 4133.33333333 , 4139.48717949 , 4138.97435897 , 4193.33333333 , 4918.46153846 , 4138.97435897 , 4140.51282051 , 2042.0 , 2037.0 , 228.175 , 0.0 , 0.0 , 0.0 , 0.0 , 

93.0 , 4133.84615385 , 4136.92307692 , 4135.38461538 , 4138.46153846 , 4133.33333333 , 4132.30769231 , 4126.15384615 , 4132.82051282 , 4137.94871795 , 4137.94871795 , 4194.87179487 , 4912.30769231 , 4135.8974359 , 4145.64102564 , 2042.0 , 2039.0 , 228.182 , 0.0 , 0.0 , 0.0 , 0.0 , 

94.0 , 4133.84615385 , 4134.87179487 , 4135.38461538 , 4135.38461538 , 4133.33333333 , 4132.30769231 , 4128.20512821 , 4135.38461538 , 4134.35897436 , 4138.97435897 , 4194.87179487 , 4909.23076923 , 4132.82051282 , 4140.0 , 2041.0 , 2038.0 , 228.188 , 0.0 , 0.0 , 0.0 , 0.0 , 

95.0 , 4137.94871795 , 4134.87179487 , 4134.87179487 , 4132.30769231 , 4130.76923077 , 4128.71794872 , 4128.20512821 , 4135.38461538 , 4132.82051282 , 4137.94871795 , 4193.33333333 , 4911.28205128 , 4134.87179487 , 4138.46153846 , 2043.0 , 2038.0 , 228.196 , 0.0 , 0.0 , 0.0 , 0.0 , 

96.0 , 4137.43589744 , 4136.92307692 , 4135.38461538 , 4134.87179487 , 4131.28205128 , 4129.23076923 , 4127.69230769 , 4136.41025641 , 4135.8974359 , 4136.92307692 , 4191.28205128 , 4910.76923077 , 4138.46153846 , 4141.02564103 , 2041.0 , 2039.0 , 228.208 , 0.0 , 0.0 , 0.0 , 0.0 , 

97.0 , 4137.43589744 , 4133.33333333 , 4139.48717949 , 4133.33333333 , 4130.76923077 , 4129.74358974 , 4126.15384615 , 4136.92307692 , 4134.87179487 , 4138.46153846 , 4192.30769231 , 4912.82051282 , 4135.8974359 , 4146.15384615 , 2042.0 , 2038.0 , 228.214 , 0.0 , 0.0 , 0.0 , 0.0 , 

98.0 , 4135.38461538 , 4130.76923077 , 4139.48717949 , 4133.84615385 , 4130.25641026 , 4129.23076923 , 4128.20512821 , 4136.41025641 , 4134.87179487 , 4139.48717949 , 4193.33333333 , 4913.33333333 , 4133.84615385 , 4139.48717949 , 2042.0 , 2038.0 , 228.219 , 0.0 , 0.0 , 0.0 , 0.0 , 

99.0 , 4135.8974359 , 4132.30769231 , 4135.8974359 , 4135.38461538 , 4131.79487179 , 4129.74358974 , 4129.74358974 , 4134.87179487 , 4137.94871795 , 4137.43589744 , 4192.82051282 , 4914.87179487 , 4135.38461538 , 4140.51282051 , 2041.0 , 2036.0 , 228.227 , 0.0 , 0.0 , 0.0 , 0.0 , 

100.0 , 4133.84615385 , 4132.82051282 , 4134.87179487 , 4133.84615385 , 4133.84615385 , 4133.33333333 , 4129.23076923 , 4134.87179487 , 4140.0 , 4137.43589744 , 4192.30769231 , 4914.35897436 , 4134.87179487 , 4146.15384615 , 2041.0 , 2037.0 , 228.239 , 0.0 , 0.0 , 0.0 , 0.0 , 

101.0 , 4135.38461538 , 4132.30769231 , 4136.41025641 , 4129.23076923 , 4133.33333333 , 4131.28205128 , 4127.17948718 , 4133.84615385 , 4137.43589744 , 4136.92307692 , 4192.82051282 , 4914.35897436 , 4135.38461538 , 4149.23076923 , 2041.0 , 2037.0 , 228.245 , 0.0 , 0.0 , 0.0 , 0.0 , 

102.0 , 4136.41025641 , 4132.30769231 , 4135.8974359 , 4132.30769231 , 4131.79487179 , 4129.74358974 , 4129.23076923 , 4136.92307692 , 4136.41025641 , 4136.92307692 , 4192.82051282 , 4914.35897436 , 4136.41025641 , 4142.56410256 , 2042.0 , 2037.0 , 228.251 , 0.0 , 0.0 , 0.0 , 0.0 , 

103.0 , 4136.41025641 , 4130.76923077 , 4135.8974359 , 4136.41025641 , 4130.25641026 , 4129.74358974 , 4129.74358974 , 4138.46153846 , 4137.43589744 , 4137.94871795 , 4193.33333333 , 4916.41025641 , 4134.35897436 , 4139.48717949 , 2041.0 , 2038.0 , 228.259 , 0.0 , 0.0 , 0.0 , 0.0 , 

104.0 , 4135.38461538 , 4131.79487179 , 4134.87179487 , 4134.87179487 , 4131.28205128 , 4128.71794872 , 4127.17948718 , 4135.8974359 , 4137.94871795 , 4137.94871795 , 4192.82051282 , 4913.33333333 , 4134.35897436 , 4136.92307692 , 2041.0 , 2038.0 , 228.27 , 0.0 , 0.0 , 0.0 , 0.0 , 

105.0 , 4136.41025641 , 4133.84615385 , 4134.35897436 , 4133.84615385 , 4131.28205128 , 4127.69230769 , 4125.12820513 , 4135.38461538 , 4137.94871795 , 4137.94871795 , 4193.84615385 , 4909.74358974 , 4136.41025641 , 4135.8974359 , 2042.0 , 2036.0 , 228.278 , 0.0 , 0.0 , 0.0 , 0.0 , 

106.0 , 4137.94871795 , 4132.30769231 , 4135.38461538 , 4135.38461538 , 4130.25641026 , 4130.76923077 , 4126.66666667 , 4137.43589744 , 4135.8974359 , 4137.94871795 , 4194.35897436 , 4911.79487179 , 4132.30769231 , 4137.43589744 , 2043.0 , 2036.0 , 228.282 , 0.0 , 0.0 , 0.0 , 0.0 , 

107.0 , 4137.94871795 , 4132.30769231 , 4134.87179487 , 4135.38461538 , 4131.28205128 , 4132.82051282 , 4128.71794872 , 4136.41025641 , 4134.87179487 , 4139.48717949 , 4193.84615385 , 4913.84615385 , 4132.30769231 , 4140.0 , 2043.0 , 2035.0 , 228.291 , 0.0 , 0.0 , 0.0 , 0.0 , 

108.0 , 4138.46153846 , 4134.35897436 , 4135.8974359 , 4134.87179487 , 4131.79487179 , 4128.71794872 , 4127.69230769 , 4135.8974359 , 4136.41025641 , 4141.02564103 , 4193.84615385 , 4912.82051282 , 4135.38461538 , 4139.48717949 , 2044.0 , 2036.0 , 228.303 , 0.0 , 0.0 , 0.0 , 0.0 , 

109.0 , 4137.94871795 , 4134.87179487 , 4137.94871795 , 4135.38461538 , 4131.79487179 , 4127.69230769 , 4127.17948718 , 4135.8974359 , 4137.43589744 , 4139.48717949 , 4194.87179487 , 4911.79487179 , 4135.8974359 , 4137.94871795 , 2044.0 , 2035.0 , 228.309 , 0.0 , 0.0 , 0.0 , 0.0 , 

110.0 , 4137.43589744 , 4131.79487179 , 4135.8974359 , 4134.87179487 , 4132.82051282 , 4130.76923077 , 4127.17948718 , 4132.82051282 , 4135.8974359 , 4135.8974359 , 4193.84615385 , 4913.33333333 , 4134.87179487 , 4141.53846154 , 2044.0 , 2037.0 , 228.313 , 0.0 , 0.0 , 0.0 , 0.0 , 

111.0 , 4135.8974359 , 4129.23076923 , 4134.35897436 , 4136.41025641 , 4133.33333333 , 4131.79487179 , 4129.23076923 , 4133.84615385 , 4137.94871795 , 4138.46153846 , 4192.30769231 , 4912.82051282 , 4136.92307692 , 4142.05128205 , 2044.0 , 2035.0 , 228.323 , 0.0 , 0.0 , 0.0 , 0.0 , 

112.0 , 4137.43589744 , 4129.23076923 , 4137.43589744 , 4135.8974359 , 4131.79487179 , 4130.25641026 , 4128.20512821 , 4136.41025641 , 4137.94871795 , 4141.02564103 , 4192.82051282 , 4914.87179487 , 4137.43589744 , 4142.56410256 , 2045.0 , 2036.0 , 228.334 , 0.0 , 0.0 , 0.0 , 0.0 , 

113.0 , 4135.38461538 , 4132.30769231 , 4136.41025641 , 4136.92307692 , 4131.79487179 , 4132.30769231 , 4128.20512821 , 4137.43589744 , 4137.43589744 , 4138.97435897 , 4191.79487179 , 4914.35897436 , 4137.94871795 , 4140.0 , 2044.0 , 2037.0 , 228.341 , 0.0 , 0.0 , 0.0 , 0.0 , 

114.0 , 4134.35897436 , 4132.82051282 , 4135.38461538 , 4134.87179487 , 4131.28205128 , 4132.82051282 , 4129.74358974 , 4135.38461538 , 4137.94871795 , 4137.94871795 , 4193.33333333 , 4915.8974359 , 4133.33333333 , 4143.58974359 , 2045.0 , 2036.0 , 228.345 , 0.0 , 0.0 , 0.0 , 0.0 , 

115.0 , 4133.33333333 , 4131.79487179 , 4135.8974359 , 4131.79487179 , 4131.28205128 , 4133.33333333 , 4130.76923077 , 4134.87179487 , 4136.92307692 , 4140.0 , 4194.35897436 , 4915.38461538 , 4130.76923077 , 4142.56410256 , 2045.0 , 2037.0 , 228.353 , 0.0 , 0.0 , 0.0 , 0.0 , 

116.0 , 4135.38461538 , 4134.87179487 , 4135.38461538 , 4131.28205128 , 4132.30769231 , 4131.79487179 , 4127.17948718 , 4135.8974359 , 4133.84615385 , 4140.51282051 , 4194.87179487 , 4915.8974359 , 4135.38461538 , 4142.56410256 , 2044.0 , 2038.0 , 228.365 , 0.0 , 0.0 , 0.0 , 0.0 , 

117.0 , 4136.41025641 , 4136.92307692 , 4134.87179487 , 4136.41025641 , 4135.8974359 , 4131.28205128 , 4125.64102564 , 4137.94871795 , 4135.8974359 , 4138.97435897 , 4193.84615385 , 4911.79487179 , 4137.43589744 , 4136.41025641 , 2042.0 , 2038.0 , 228.372 , 0.0 , 0.0 , 0.0 , 0.0 , 

118.0 , 4136.92307692 , 4130.25641026 , 4136.41025641 , 4135.38461538 , 4136.41025641 , 4129.23076923 , 4128.20512821 , 4134.87179487 , 4137.43589744 , 4138.46153846 , 4192.30769231 , 4909.74358974 , 4135.38461538 , 4136.92307692 , 2043.0 , 2038.0 , 228.376 , 0.0 , 0.0 , 0.0 , 0.0 , 

119.0 , 4134.87179487 , 4128.20512821 , 4134.35897436 , 4132.82051282 , 4131.79487179 , 4129.23076923 , 4128.20512821 , 4131.79487179 , 4134.87179487 , 4139.48717949 , 4191.28205128 , 4908.71794872 , 4136.92307692 , 4137.43589744 , 2043.0 , 2039.0 , 228.386 , 0.0 , 0.0 , 0.0 , 0.0 , 

120.0 , 4135.38461538 , 4131.28205128 , 4133.33333333 , 4134.35897436 , 4128.71794872 , 4128.71794872 , 4126.66666667 , 4134.35897436 , 4133.33333333 , 4138.97435897 , 4192.82051282 , 4912.30769231 , 4136.41025641 , 4141.02564103 , 2044.0 , 2039.0 , 228.398 , 0.0 , 0.0 , 0.0 , 0.0 , 

121.0 , 4135.8974359 , 4133.33333333 , 4134.87179487 , 4136.92307692 , 4130.25641026 , 4128.71794872 , 4128.71794872 , 4136.41025641 , 4137.94871795 , 4137.94871795 , 4193.84615385 , 4912.30769231 , 4132.82051282 , 4140.0 , 2043.0 , 2039.0 , 228.403 , 0.0 , 0.0 , 0.0 , 0.0 , 

122.0 , 4136.41025641 , 4131.79487179 , 4135.38461538 , 4134.87179487 , 4132.30769231 , 4129.23076923 , 4128.20512821 , 4135.8974359 , 4140.51282051 , 4138.46153846 , 4192.30769231 , 4911.79487179 , 4134.35897436 , 4140.0 , 2044.0 , 2039.0 , 228.409 , 0.0 , 0.0 , 0.0 , 0.0 , 

123.0 , 4135.8974359 , 4131.28205128 , 4136.41025641 , 4134.87179487 , 4132.82051282 , 4131.28205128 , 4127.69230769 , 4137.43589744 , 4138.97435897 , 4139.48717949 , 4192.30769231 , 4914.35897436 , 4136.92307692 , 4142.05128205 , 2042.0 , 2039.0 , 228.417 , 0.0 , 0.0 , 0.0 , 0.0 , 

124.0 , 4135.38461538 , 4133.33333333 , 4137.43589744 , 4136.92307692 , 4132.30769231 , 4129.74358974 , 4128.20512821 , 4137.94871795 , 4136.41025641 , 4140.51282051 , 4193.84615385 , 4915.38461538 , 4135.38461538 , 4144.1025641 , 2044.0 , 2038.0 , 228.429 , 0.0 , 0.0 , 0.0 , 0.0 , 

125.0 , 4134.87179487 , 4133.33333333 , 4135.8974359 , 4136.41025641 , 4131.79487179 , 4126.66666667 , 4127.17948718 , 4134.35897436 , 4135.8974359 , 4142.05128205 , 4192.82051282 , 4913.33333333 , 4133.84615385 , 4142.05128205 , 2043.0 , 2039.0 , 228.433 , 0.0 , 0.0 , 0.0 , 0.0 , 

126.0 , 4136.92307692 , 4132.30769231 , 4134.87179487 , 4134.87179487 , 4133.84615385 , 4129.74358974 , 4126.66666667 , 4134.87179487 , 4138.97435897 , 4140.0 , 4191.28205128 , 4913.84615385 , 4134.35897436 , 4139.48717949 , 2042.0 , 2040.0 , 228.44 , 0.0 , 0.0 , 0.0 , 0.0 , 

127.0 , 4135.8974359 , 4132.82051282 , 4136.41025641 , 4136.41025641 , 4133.33333333 , 4131.28205128 , 4128.71794872 , 4135.8974359 , 4138.46153846 , 4137.94871795 , 4191.79487179 , 4917.43589744 , 4135.38461538 , 4141.53846154 , 2043.0 , 2039.0 , 228.448 , 0.0 , 0.0 , 0.0 , 0.0 , 

128.0 , 4133.84615385 , 4134.87179487 , 4135.8974359 , 4136.92307692 , 4130.25641026 , 4130.25641026 , 4129.74358974 , 4135.8974359 , 4136.92307692 , 4137.94871795 , 4192.82051282 , 4915.38461538 , 4135.8974359 , 4138.97435897 , 2043.0 , 2039.0 , 228.461 , 0.0 , 0.0 , 0.0 , 0.0 , 

0.0 , 4138.46153846 , 4132.30769231 , 4136.41025641 , 4134.87179487 , 4129.74358974 , 4130.25641026 , 4126.15384615 , 4135.8974359 , 4136.41025641 , 4139.48717949 , 4192.82051282 , 4914.35897436 , 4134.87179487 , 4137.94871795 , 2044.0 , 2038.0 , 228.466 , 0.0 , 0.0 , 0.0 , 0.0 , 

1.0 , 4135.38461538 , 4133.33333333 , 4135.38461538 , 4135.38461538 , 4133.84615385 , 4131.28205128 , 4128.20512821 , 4137.43589744 , 4137.43589744 , 4140.0 , 4194.35897436 , 4912.82051282 , 4136.92307692 , 4136.41025641 , 2045.0 , 2038.0 , 228.472 , 0.0 , 0.0 , 0.0 , 0.0 , 

2.0 , 4130.76923077 , 4134.87179487 , 4134.87179487 , 4134.35897436 , 4134.35897436 , 4128.71794872 , 4128.20512821 , 4136.41025641 , 4135.8974359 , 4140.0 , 4194.87179487 , 4910.76923077 , 4135.8974359 , 4141.02564103 , 2043.0 , 2039.0 , 228.479 , 0.0 , 0.0 , 0.0 , 0.0 , 

3.0 , 4132.82051282 , 4133.33333333 , 4137.94871795 , 4134.35897436 , 4133.33333333 , 4127.69230769 , 4126.15384615 , 4136.92307692 , 4135.8974359 , 4139.48717949 , 4192.30769231 , 4909.23076923 , 4133.33333333 , 4142.05128205 , 2044.0 , 2039.0 , 228.491 , 0.0 , 0.0 , 0.0 , 0.0 , 

4.0 , 4137.94871795 , 4132.82051282 , 4137.94871795 , 4133.84615385 , 4131.79487179 , 4128.20512821 , 4127.17948718 , 4134.87179487 , 4137.94871795 , 4139.48717949 , 4191.28205128 , 4912.82051282 , 4131.79487179 , 4140.0 , 2045.0 , 2037.0 , 228.497 , 0.0 , 0.0 , 0.0 , 0.0 , 

5.0 , 4133.33333333 , 4134.35897436 , 4132.82051282 , 4135.38461538 , 4131.79487179 , 4130.25641026 , 4129.23076923 , 4133.84615385 , 4138.97435897 , 4139.48717949 , 4192.30769231 , 4911.79487179 , 4133.84615385 , 4134.35897436 , 2044.0 , 2037.0 , 228.502 , 0.0 , 0.0 , 0.0 , 0.0 , 

6.0 , 4132.82051282 , 4131.79487179 , 4134.87179487 , 4134.87179487 , 4131.28205128 , 4129.74358974 , 4127.69230769 , 4133.84615385 , 4134.35897436 , 4137.43589744 , 4193.33333333 , 4912.30769231 , 4136.92307692 , 4140.51282051 , 2046.0 , 2037.0 , 228.51 , 0.0 , 0.0 , 0.0 , 0.0 , 

7.0 , 4135.8974359 , 4131.79487179 , 4136.41025641 , 4134.35897436 , 4130.76923077 , 4128.71794872 , 4128.20512821 , 4136.92307692 , 4133.84615385 , 4137.43589744 , 4194.35897436 , 4913.84615385 , 4137.43589744 , 4144.1025641 , 2044.0 , 2036.0 , 228.523 , 0.0 , 0.0 , 0.0 , 0.0 , 

8.0 , 4137.43589744 , 4134.87179487 , 4134.35897436 , 4132.30769231 , 4131.28205128 , 4127.69230769 , 4126.15384615 , 4138.97435897 , 4138.97435897 , 4138.97435897 , 4193.84615385 , 4914.87179487 , 4137.43589744 , 4144.61538462 , 2044.0 , 2035.0 , 228.529 , 0.0 , 0.0 , 0.0 , 0.0 , 

9.0 , 4133.84615385 , 4135.38461538 , 4134.87179487 , 4134.35897436 , 4131.79487179 , 4130.25641026 , 4123.58974359 , 4135.8974359 , 4140.0 , 4140.0 , 4193.33333333 , 4913.33333333 , 4136.92307692 , 4141.02564103 , 2045.0 , 2034.0 , 228.534 , 0.0 , 0.0 , 0.0 , 0.0 , 

10.0 , 4133.84615385 , 4131.79487179 , 4137.94871795 , 4134.87179487 , 4130.25641026 , 4130.25641026 , 4126.66666667 , 4131.79487179 , 4135.8974359 , 4138.46153846 , 4193.84615385 , 4915.38461538 , 4135.8974359 , 4141.02564103 , 2045.0 , 2035.0 , 228.543 , 0.0 , 0.0 , 0.0 , 0.0 , 

11.0 , 4136.92307692 , 4130.25641026 , 4135.8974359 , 4133.84615385 , 4129.23076923 , 4129.23076923 , 4131.28205128 , 4134.35897436 , 4136.41025641 , 4138.46153846 , 4191.79487179 , 4914.35897436 , 4134.87179487 , 4141.02564103 , 2044.0 , 2032.0 , 228.558 , 0.0 , 0.0 , 0.0 , 0.0 , 

12.0 , 4136.41025641 , 4132.30769231 , 4134.87179487 , 4133.84615385 , 4131.79487179 , 4129.23076923 , 4128.20512821 , 4135.8974359 , 4137.43589744 , 4140.51282051 , 4190.25641026 , 4912.82051282 , 4135.38461538 , 4143.07692308 , 2045.0 , 2033.0 , 228.559 , 0.0 , 0.0 , 0.0 , 0.0 , 

13.0 , 4134.35897436 , 4134.87179487 , 4136.92307692 , 4133.84615385 , 4132.82051282 , 4130.25641026 , 4127.17948718 , 4135.8974359 , 4135.38461538 , 4141.02564103 , 4193.84615385 , 4914.35897436 , 4134.87179487 , 4139.48717949 , 2043.0 , 2035.0 , 228.565 , 0.0 , 0.0 , 0.0 , 0.0 , 

14.0 , 4135.8974359 , 4133.33333333 , 4137.94871795 , 4133.84615385 , 4130.25641026 , 4129.23076923 , 4127.17948718 , 4137.94871795 , 4133.84615385 , 4138.46153846 , 4194.87179487 , 4914.35897436 , 4135.38461538 , 4137.94871795 , 2043.0 , 2035.0 , 228.575 , 0.0 , 0.0 , 0.0 , 0.0 , 

15.0 , 4137.43589744 , 4131.79487179 , 4136.92307692 , 4133.33333333 , 4130.25641026 , 4127.69230769 , 4126.15384615 , 4137.43589744 , 4132.82051282 , 4138.97435897 , 4191.28205128 , 4913.33333333 , 4134.35897436 , 4141.53846154 , 2042.0 , 2035.0 , 228.587 , 0.0 , 0.0 , 0.0 , 0.0 , 

16.0 , 4135.38461538 , 4131.79487179 , 4135.38461538 , 4133.84615385 , 4132.30769231 , 4129.23076923 , 4126.15384615 , 4134.87179487 , 4135.38461538 , 4139.48717949 , 4190.76923077 , 4912.82051282 , 4134.87179487 , 4138.46153846 , 2042.0 , 2034.0 , 228.598 , 0.0 , 0.0 , 0.0 , 0.0 , 

17.0 , 4134.87179487 , 4131.28205128 , 4137.94871795 , 4133.33333333 , 4132.30769231 , 4130.76923077 , 4127.17948718 , 4134.35897436 , 4138.46153846 , 4134.87179487 , 4192.82051282 , 4912.30769231 , 4134.87179487 , 4138.46153846 , 2042.0 , 2033.0 , 228.602 , 0.0 , 0.0 , 0.0 , 0.0 , 

18.0 , 4135.38461538 , 4131.79487179 , 4138.97435897 , 4133.33333333 , 4130.76923077 , 4130.76923077 , 4127.17948718 , 4137.43589744 , 4138.46153846 , 4137.94871795 , 4192.82051282 , 4909.74358974 , 4135.8974359 , 4142.56410256 , 2042.0 , 2034.0 , 228.606 , 0.0 , 0.0 , 0.0 , 0.0 , 

19.0 , 4135.8974359 , 4131.79487179 , 4138.46153846 , 4131.79487179 , 4131.79487179 , 4127.69230769 , 4126.66666667 , 4137.43589744 , 4135.8974359 , 4145.64102564 , 4190.25641026 , 4913.33333333 , 4135.8974359 , 4146.66666667 , 2044.0 , 2035.0 , 228.62 , 0.0 , 0.0 , 0.0 , 0.0 , 

20.0 , 4135.38461538 , 4131.79487179 , 4138.97435897 , 4132.30769231 , 4134.35897436 , 4129.23076923 , 4129.74358974 , 4137.43589744 , 4137.43589744 , 4141.53846154 , 4190.76923077 , 4913.84615385 , 4136.92307692 , 4142.05128205 , 2043.0 , 2034.0 , 228.624 , 0.0 , 0.0 , 0.0 , 0.0 , 

21.0 , 4135.8974359 , 4134.87179487 , 4139.48717949 , 4132.30769231 , 4131.28205128 , 4131.28205128 , 4130.25641026 , 4135.8974359 , 4138.46153846 , 4135.8974359 , 4194.35897436 , 4913.33333333 , 4135.8974359 , 4144.1025641 , 2043.0 , 2035.0 , 228.628 , 0.0 , 0.0 , 0.0 , 0.0 , 

22.0 , 4134.87179487 , 4135.38461538 , 4136.41025641 , 4132.30769231 , 4131.28205128 , 4131.79487179 , 4127.69230769 , 4134.87179487 , 4137.94871795 , 4139.48717949 , 4193.84615385 , 4912.30769231 , 4133.84615385 , 4143.07692308 , 2043.0 , 2035.0 , 228.637 , 0.0 , 0.0 , 0.0 , 0.0 , 

23.0 , 4137.43589744 , 4128.71794872 , 4136.92307692 , 4134.35897436 , 4134.87179487 , 4130.25641026 , 4128.20512821 , 4134.87179487 , 4135.8974359 , 4142.05128205 , 4193.33333333 , 4914.87179487 , 4131.79487179 , 4146.15384615 , 2042.0 , 2035.0 , 228.649 , 0.0 , 0.0 , 0.0 , 0.0 , 

24.0 , 4133.84615385 , 4130.25641026 , 4135.8974359 , 4134.87179487 , 4133.84615385 , 4130.76923077 , 4130.76923077 , 4136.92307692 , 4134.87179487 , 4138.46153846 , 4194.35897436 , 4913.84615385 , 4134.35897436 , 4146.66666667 , 2042.0 , 2036.0 , 228.655 , 0.0 , 0.0 , 0.0 , 0.0 , 

25.0 , 4130.76923077 , 4132.82051282 , 4134.35897436 , 4132.30769231 , 4130.25641026 , 4129.74358974 , 4127.69230769 , 4135.8974359 , 4135.38461538 , 4138.46153846 , 4193.84615385 , 4913.84615385 , 4136.41025641 , 4148.71794872 , 2043.0 , 2037.0 , 228.661 , 0.0 , 0.0 , 0.0 , 0.0 , 

26.0 , 4130.76923077 , 4127.69230769 , 4137.43589744 , 4135.38461538 , 4130.25641026 , 4131.79487179 , 4125.64102564 , 4135.38461538 , 4135.8974359 , 4139.48717949 , 4191.79487179 , 4910.76923077 , 4135.8974359 , 4146.66666667 , 2041.0 , 2036.0 , 228.67 , 0.0 , 0.0 , 0.0 , 0.0 , 

27.0 , 4133.84615385 , 4124.1025641 , 4137.94871795 , 4136.41025641 , 4130.76923077 , 4129.23076923 , 4126.15384615 , 4137.94871795 , 4136.41025641 , 4138.46153846 , 4193.33333333 , 4911.28205128 , 4134.87179487 , 4147.17948718 , 2042.0 , 2037.0 , 228.681 , 0.0 , 0.0 , 0.0 , 0.0 , 

28.0 , 4130.76923077 , 4126.66666667 , 4131.79487179 , 4132.82051282 , 4130.25641026 , 4128.20512821 , 4129.74358974 , 4138.97435897 , 4137.94871795 , 4137.94871795 , 4193.84615385 , 4912.82051282 , 4135.38461538 , 4141.53846154 , 2042.0 , 2039.0 , 228.688 , 0.0 , 0.0 , 0.0 , 0.0 , 

29.0 , 4129.23076923 , 4128.20512821 , 4133.33333333 , 4131.79487179 , 4129.74358974 , 4132.30769231 , 4130.76923077 , 4135.38461538 , 4135.8974359 , 4138.97435897 , 4192.82051282 , 4913.33333333 , 4135.38461538 , 4138.46153846 , 2043.0 , 2038.0 , 228.692 , 0.0 , 0.0 , 0.0 , 0.0 , 

30.0 , 4132.30769231 , 4132.30769231 , 4140.0 , 4135.8974359 , 4130.25641026 , 4133.33333333 , 4129.74358974 , 4133.84615385 , 4134.87179487 , 4138.46153846 , 4192.82051282 , 4910.76923077 , 4135.8974359 , 4135.8974359 , 2044.0 , 2038.0 , 228.701 , 0.0 , 0.0 , 0.0 , 0.0 , 

31.0 , 4139.48717949 , 4133.33333333 , 4138.97435897 , 4135.8974359 , 4130.76923077 , 4126.15384615 , 4129.23076923 , 4135.8974359 , 4138.46153846 , 4138.46153846 , 4195.38461538 , 4911.79487179 , 4137.43589744 , 4136.41025641 , 2042.0 , 2038.0 , 228.712 , 0.0 , 0.0 , 0.0 , 0.0 , 

32.0 , 4140.0 , 4131.28205128 , 4133.84615385 , 4131.28205128 , 4131.28205128 , 4126.15384615 , 4130.25641026 , 4134.87179487 , 4138.97435897 , 4140.51282051 , 4195.38461538 , 4913.84615385 , 4134.35897436 , 4140.51282051 , 2043.0 , 2038.0 , 228.718 , 0.0 , 0.0 , 0.0 , 0.0 , 

33.0 , 4133.84615385 , 4132.82051282 , 4134.35897436 , 4131.28205128 , 4130.76923077 , 4130.76923077 , 4130.25641026 , 4130.76923077 , 4135.8974359 , 4140.0 , 4194.35897436 , 4914.35897436 , 4134.35897436 , 4147.17948718 , 2044.0 , 2037.0 , 228.724 , 0.0 , 0.0 , 0.0 , 0.0 , 

34.0 , 4135.38461538 , 4133.84615385 , 4141.53846154 , 4132.82051282 , 4131.79487179 , 4128.71794872 , 4129.74358974 , 4130.25641026 , 4134.35897436 , 4139.48717949 , 4192.82051282 , 4913.84615385 , 4135.8974359 , 4146.15384615 , 2044.0 , 2037.0 , 228.732 , 0.0 , 0.0 , 0.0 , 0.0 , 

35.0 , 4138.97435897 , 4132.82051282 , 4145.12820513 , 4133.84615385 , 4133.84615385 , 4126.66666667 , 4128.71794872 , 4135.38461538 , 4135.38461538 , 4141.53846154 , 4193.33333333 , 4913.84615385 , 4137.43589744 , 4138.46153846 , 2043.0 , 2037.0 , 228.744 , 0.0 , 0.0 , 0.0 , 0.0 , 

36.0 , 4135.38461538 , 4131.79487179 , 4139.48717949 , 4131.79487179 , 4133.33333333 , 4128.20512821 , 4128.71794872 , 4134.87179487 , 4135.38461538 , 4140.0 , 4193.33333333 , 4915.38461538 , 4137.43589744 , 4139.48717949 , 2046.0 , 2037.0 , 228.749 , 0.0 , 0.0 , 0.0 , 0.0 , 

37.0 , 4133.33333333 , 4128.71794872 , 4140.0 , 4129.74358974 , 4130.25641026 , 4128.71794872 , 4131.79487179 , 4130.76923077 , 4136.41025641 , 4138.46153846 , 4192.82051282 , 4914.35897436 , 4138.46153846 , 4144.1025641 , 2045.0 , 2037.0 , 228.754 , 0.0 , 0.0 , 0.0 , 0.0 , 

38.0 , 4137.43589744 , 4122.05128205 , 4146.66666667 , 4128.20512821 , 4130.76923077 , 4127.69230769 , 4130.25641026 , 4132.30769231 , 4134.87179487 , 4140.51282051 , 4193.33333333 , 4913.33333333 , 4136.92307692 , 4146.15384615 , 2046.0 , 2036.0 , 228.763 , 0.0 , 0.0 , 0.0 , 0.0 , 

39.0 , 4136.92307692 , 4116.92307692 , 4145.12820513 , 4130.76923077 , 4133.84615385 , 4128.71794872 , 4129.23076923 , 4137.43589744 , 4134.87179487 , 4141.53846154 , 4193.33333333 , 4913.33333333 , 4134.87179487 , 4137.43589744 , 2044.0 , 2036.0 , 228.775 , 0.0 , 0.0 , 0.0 , 0.0 , 

40.0 , 4137.94871795 , 4111.79487179 , 4142.05128205 , 4130.25641026 , 4132.82051282 , 4128.71794872 , 4128.20512821 , 4136.41025641 , 4136.41025641 , 4138.97435897 , 4192.30769231 , 4915.8974359 , 4134.35897436 , 4139.48717949 , 2044.0 , 2036.0 , 228.781 , 0.0 , 0.0 , 0.0 , 0.0 , 

41.0 , 4137.94871795 , 4109.74358974 , 4144.1025641 , 4128.71794872 , 4130.76923077 , 4130.76923077 , 4128.20512821 , 4135.8974359 , 4138.46153846 , 4137.43589744 , 4191.79487179 , 4913.84615385 , 4137.94871795 , 4141.02564103 , 2044.0 , 2035.0 , 228.786 , 0.0 , 0.0 , 0.0 , 0.0 , 

42.0 , 4138.97435897 , 4111.28205128 , 4149.74358974 , 4126.66666667 , 4131.79487179 , 4129.74358974 , 4129.74358974 , 4136.92307692 , 4136.92307692 , 4138.97435897 , 4193.33333333 , 4915.38461538 , 4137.43589744 , 4140.51282051 , 2045.0 , 2035.0 , 228.795 , 0.0 , 0.0 , 0.0 , 0.0 , 

43.0 , 4137.94871795 , 4115.38461538 , 4150.25641026 , 4124.61538462 , 4131.28205128 , 4129.23076923 , 4133.33333333 , 4136.92307692 , 4135.38461538 , 4139.48717949 , 4192.82051282 , 4914.87179487 , 4134.35897436 , 4137.43589744 , 2042.0 , 2034.0 , 228.806 , 0.0 , 0.0 , 0.0 , 0.0 , 

44.0 , 4135.38461538 , 4119.48717949 , 4147.69230769 , 4125.64102564 , 4129.23076923 , 4129.23076923 , 4132.30769231 , 4137.43589744 , 4135.8974359 , 4136.92307692 , 4191.28205128 , 4916.41025641 , 4135.8974359 , 4144.1025641 , 2043.0 , 2034.0 , 228.813 , 0.0 , 0.0 , 0.0 , 0.0 , 

45.0 , 4131.28205128 , 4119.48717949 , 4144.1025641 , 4129.23076923 , 4131.28205128 , 4130.25641026 , 4131.79487179 , 4138.97435897 , 4137.94871795 , 4138.46153846 , 4193.84615385 , 4916.92307692 , 4137.43589744 , 4144.61538462 , 2043.0 , 2036.0 , 228.817 , 0.0 , 0.0 , 0.0 , 0.0 , 

46.0 , 4135.8974359 , 4113.33333333 , 4146.15384615 , 4124.1025641 , 4131.28205128 , 4129.74358974 , 4132.82051282 , 4136.92307692 , 4135.38461538 , 4140.51282051 , 4198.46153846 , 4916.41025641 , 4135.38461538 , 4145.64102564 , 2043.0 , 2035.0 , 228.826 , 0.0 , 0.0 , 0.0 , 0.0 , 

47.0 , 4137.43589744 , 4108.20512821 , 4148.71794872 , 4121.02564103 , 4130.76923077 , 4130.76923077 , 4131.28205128 , 4135.8974359 , 4135.8974359 , 4138.97435897 , 4195.38461538 , 4913.33333333 , 4135.8974359 , 4145.64102564 , 2042.0 , 2034.0 , 228.84 , 0.0 , 0.0 , 0.0 , 0.0 , 

48.0 , 4134.35897436 , 4108.71794872 , 4150.76923077 , 4123.07692308 , 4130.76923077 , 4131.28205128 , 4128.20512821 , 4137.43589744 , 4139.48717949 , 4138.46153846 , 4192.82051282 , 4913.84615385 , 4137.94871795 , 4145.64102564 , 2044.0 , 2038.0 , 228.844 , 0.0 , 0.0 , 0.0 , 0.0 , 

49.0 , 4134.35897436 , 4113.33333333 , 4153.84615385 , 4123.58974359 , 4130.76923077 , 4130.25641026 , 4128.71794872 , 4137.94871795 , 4139.48717949 , 4138.97435897 , 4193.84615385 , 4913.84615385 , 4136.41025641 , 4141.53846154 , 2044.0 , 2036.0 , 228.849 , 0.0 , 0.0 , 0.0 , 0.0 , 

50.0 , 4136.92307692 , 4118.46153846 , 4150.25641026 , 4121.53846154 , 4132.30769231 , 4128.71794872 , 4130.76923077 , 4134.87179487 , 4138.46153846 , 4138.97435897 , 4192.82051282 , 4913.84615385 , 4135.38461538 , 4139.48717949 , 2044.0 , 2035.0 , 228.858 , 0.0 , 0.0 , 0.0 , 0.0 , 

51.0 , 4134.87179487 , 4123.58974359 , 4143.58974359 , 4123.07692308 , 4134.35897436 , 4128.71794872 , 4130.76923077 , 4134.35897436 , 4138.97435897 , 4140.0 , 4190.76923077 , 4914.35897436 , 4136.41025641 , 4140.51282051 , 2043.0 , 2036.0 , 228.869 , 0.0 , 0.0 , 0.0 , 0.0 , 

52.0 , 4132.30769231 , 4129.23076923 , 4141.02564103 , 4128.20512821 , 4132.30769231 , 4132.30769231 , 4127.17948718 , 4136.41025641 , 4138.97435897 , 4139.48717949 , 4193.84615385 , 4913.33333333 , 4136.92307692 , 4139.48717949 , 2045.0 , 2038.0 , 228.875 , 0.0 , 0.0 , 0.0 , 0.0 , 

53.0 , 4133.84615385 , 4132.30769231 , 4141.53846154 , 4131.28205128 , 4130.25641026 , 4132.82051282 , 4126.66666667 , 4136.41025641 , 4136.41025641 , 4137.94871795 , 4194.35897436 , 4912.30769231 , 4134.87179487 , 4142.56410256 , 2046.0 , 2037.0 , 228.881 , 0.0 , 0.0 , 0.0 , 0.0 , 

54.0 , 4129.23076923 , 4134.87179487 , 4140.0 , 4132.82051282 , 4132.30769231 , 4130.76923077 , 4128.71794872 , 4136.92307692 , 4137.43589744 , 4137.94871795 , 4192.30769231 , 4912.82051282 , 4135.38461538 , 4142.56410256 , 2045.0 , 2038.0 , 228.889 , 0.0 , 0.0 , 0.0 , 0.0 , 

55.0 , 4127.69230769 , 4137.94871795 , 4137.43589744 , 4133.84615385 , 4132.30769231 , 4130.25641026 , 4126.66666667 , 4136.92307692 , 4136.92307692 , 4136.41025641 , 4192.30769231 , 4913.33333333 , 4136.41025641 , 4141.02564103 , 2044.0 , 2034.0 , 228.901 , 0.0 , 0.0 , 0.0 , 0.0 , 

56.0 , 4130.76923077 , 4141.53846154 , 4134.87179487 , 4136.92307692 , 4131.79487179 , 4131.79487179 , 4126.15384615 , 4136.41025641 , 4135.38461538 , 4136.92307692 , 4193.33333333 , 4912.30769231 , 4136.41025641 , 4137.94871795 , 2045.0 , 2033.0 , 228.907 , 0.0 , 0.0 , 0.0 , 0.0 , 

57.0 , 4132.30769231 , 4138.97435897 , 4135.8974359 , 4136.92307692 , 4131.79487179 , 4130.76923077 , 4125.12820513 , 4136.41025641 , 4136.41025641 , 4140.0 , 4192.82051282 , 4915.38461538 , 4134.35897436 , 4140.51282051 , 2044.0 , 2035.0 , 228.913 , 0.0 , 0.0 , 0.0 , 0.0 , 

58.0 , 4130.76923077 , 4137.94871795 , 4136.92307692 , 4137.94871795 , 4131.79487179 , 4130.25641026 , 4125.12820513 , 4139.48717949 , 4137.94871795 , 4139.48717949 , 4193.33333333 , 4912.30769231 , 4135.38461538 , 4138.97435897 , 2043.0 , 2035.0 , 228.922 , 0.0 , 0.0 , 0.0 , 0.0 , 

59.0 , 4135.38461538 , 4141.53846154 , 4135.8974359 , 4136.92307692 , 4133.33333333 , 4130.25641026 , 4123.07692308 , 4137.43589744 , 4134.87179487 , 4137.94871795 , 4194.87179487 , 4910.25641026 , 4136.41025641 , 4143.58974359 , 2044.0 , 2037.0 , 228.935 , 0.0 , 0.0 , 0.0 , 0.0 , 

60.0 , 4136.41025641 , 4140.51282051 , 4132.82051282 , 4133.84615385 , 4133.33333333 , 4133.84615385 , 4124.1025641 , 4137.43589744 , 4135.38461538 , 4138.97435897 , 4193.33333333 , 4911.28205128 , 4136.41025641 , 4145.64102564 , 2045.0 , 2038.0 , 228.94 , 0.0 , 0.0 , 0.0 , 0.0 , 

61.0 , 4137.43589744 , 4136.92307692 , 4130.76923077 , 4134.35897436 , 4130.76923077 , 4135.38461538 , 4126.15384615 , 4136.92307692 , 4137.94871795 , 4140.0 , 4193.33333333 , 4913.33333333 , 4133.84615385 , 4144.1025641 , 2044.0 , 2038.0 , 228.943 , 0.0 , 0.0 , 0.0 , 0.0 , 

62.0 , 4137.43589744 , 4141.02564103 , 4129.23076923 , 4138.97435897 , 4130.25641026 , 4131.79487179 , 4129.23076923 , 4135.8974359 , 4136.41025641 , 4140.0 , 4193.84615385 , 4910.25641026 , 4131.28205128 , 4138.46153846 , 2044.0 , 2037.0 , 228.953 , 0.0 , 0.0 , 0.0 , 0.0 , 

63.0 , 4135.38461538 , 4144.1025641 , 4130.25641026 , 4140.51282051 , 4130.76923077 , 4127.17948718 , 4127.17948718 , 4134.87179487 , 4134.35897436 , 4136.92307692 , 4193.33333333 , 4911.79487179 , 4131.28205128 , 4142.05128205 , 2042.0 , 2037.0 , 228.963 , 0.0 , 0.0 , 0.0 , 0.0 , 

64.0 , 4132.30769231 , 4143.07692308 , 4129.23076923 , 4141.53846154 , 4131.28205128 , 4130.76923077 , 4124.61538462 , 4132.82051282 , 4136.41025641 , 4136.41025641 , 4191.79487179 , 4914.35897436 , 4132.82051282 , 4141.02564103 , 2043.0 , 2038.0 , 228.97 , 0.0 , 0.0 , 0.0 , 0.0 , 

65.0 , 4135.8974359 , 4140.51282051 , 4126.66666667 , 4141.02564103 , 4131.28205128 , 4131.79487179 , 4123.07692308 , 4130.76923077 , 4135.38461538 , 4139.48717949 , 4192.30769231 , 4913.84615385 , 4132.30769231 , 4140.0 , 2043.0 , 2037.0 , 228.976 , 0.0 , 0.0 , 0.0 , 0.0 , 

66.0 , 4137.43589744 , 4140.51282051 , 4128.20512821 , 4140.51282051 , 4132.30769231 , 4129.23076923 , 4123.58974359 , 4132.30769231 , 4135.8974359 , 4140.0 , 4192.30769231 , 4908.20512821 , 4131.79487179 , 4138.97435897 , 2042.0 , 2039.0 , 228.984 , 0.0 , 0.0 , 0.0 , 0.0 , 

67.0 , 4137.94871795 , 4140.51282051 , 4130.76923077 , 4138.97435897 , 4131.79487179 , 4128.20512821 , 4125.12820513 , 4134.35897436 , 4136.92307692 , 4139.48717949 , 4191.79487179 , 4907.69230769 , 4131.28205128 , 4140.0 , 2043.0 , 2037.0 , 228.996 , 0.0 , 0.0 , 0.0 , 0.0 , 

68.0 , 4137.94871795 , 4142.05128205 , 4129.23076923 , 4139.48717949 , 4131.28205128 , 4131.79487179 , 4127.17948718 , 4135.8974359 , 4135.8974359 , 4141.53846154 , 4193.84615385 , 4910.76923077 , 4132.82051282 , 4140.0 , 2042.0 , 2037.0 , 229.002 , 0.0 , 0.0 , 0.0 , 0.0 , 

69.0 , 4136.92307692 , 4142.56410256 , 4127.69230769 , 4143.58974359 , 4131.28205128 , 4132.82051282 , 4126.15384615 , 4138.46153846 , 4135.38461538 , 4143.58974359 , 4195.38461538 , 4912.82051282 , 4134.35897436 , 4144.1025641 , 2041.0 , 2036.0 , 229.008 , 0.0 , 0.0 , 0.0 , 0.0 , 

70.0 , 4135.8974359 , 4138.46153846 , 4129.23076923 , 4145.12820513 , 4132.30769231 , 4129.74358974 , 4126.66666667 , 4136.41025641 , 4136.41025641 , 4142.05128205 , 4194.87179487 , 4911.79487179 , 4132.30769231 , 4148.20512821 , 2041.0 , 2037.0 , 229.015 , 0.0 , 0.0 , 0.0 , 0.0 , 

71.0 , 4136.41025641 , 4136.92307692 , 4129.23076923 , 4142.56410256 , 4132.82051282 , 4128.71794872 , 4129.74358974 , 4133.84615385 , 4138.46153846 , 4138.46153846 , 4193.84615385 , 4909.74358974 , 4133.84615385 , 4145.64102564 , 2040.0 , 2037.0 , 229.026 , 0.0 , 0.0 , 0.0 , 0.0 , 

72.0 , 4137.94871795 , 4138.97435897 , 4128.71794872 , 4140.0 , 4132.30769231 , 4128.71794872 , 4127.17948718 , 4134.35897436 , 4138.46153846 , 4136.92307692 , 4192.82051282 , 4910.25641026 , 4135.38461538 , 4143.58974359 , 2041.0 , 2036.0 , 229.033 , 0.0 , 0.0 , 0.0 , 0.0 , 

73.0 , 4136.41025641 , 4140.51282051 , 4130.25641026 , 4140.0 , 4133.84615385 , 4128.20512821 , 4123.58974359 , 4134.87179487 , 4136.92307692 , 4138.46153846 , 4190.25641026 , 4911.28205128 , 4136.41025641 , 4143.07692308 , 2042.0 , 2035.0 , 229.039 , 0.0 , 0.0 , 0.0 , 0.0 , 

74.0 , 4136.41025641 , 4135.38461538 , 4135.38461538 , 4139.48717949 , 4135.38461538 , 4129.74358974 , 4125.12820513 , 4132.82051282 , 4134.35897436 , 4139.48717949 , 4191.79487179 , 4915.8974359 , 4136.92307692 , 4144.61538462 , 2041.0 , 2036.0 , 229.047 , 0.0 , 0.0 , 0.0 , 0.0 , 

75.0 , 4135.38461538 , 4134.35897436 , 4136.92307692 , 4140.0 , 4132.30769231 , 4132.82051282 , 4128.71794872 , 4132.82051282 , 4136.41025641 , 4138.46153846 , 4194.35897436 , 4915.8974359 , 4136.92307692 , 4141.02564103 , 2042.0 , 2035.0 , 229.059 , 0.0 , 0.0 , 0.0 , 0.0 , 

76.0 , 4133.84615385 , 4138.97435897 , 4135.8974359 , 4138.97435897 , 4129.74358974 , 4130.76923077 , 4128.20512821 , 4133.84615385 , 4137.94871795 , 4139.48717949 , 4194.35897436 , 4915.8974359 , 4133.84615385 , 4137.94871795 , 2043.0 , 2035.0 , 229.065 , 0.0 , 0.0 , 0.0 , 0.0 , 

77.0 , 4131.28205128 , 4139.48717949 , 4134.87179487 , 4140.0 , 4132.30769231 , 4129.23076923 , 4126.66666667 , 4136.92307692 , 4136.41025641 , 4141.02564103 , 4193.84615385 , 4911.28205128 , 4134.35897436 , 4134.35897436 , 2042.0 , 2035.0 , 229.071 , 0.0 , 0.0 , 0.0 , 0.0 , 

78.0 , 4134.35897436 , 4133.84615385 , 4135.38461538 , 4139.48717949 , 4132.82051282 , 4130.76923077 , 4126.15384615 , 4136.41025641 , 4133.84615385 , 4138.97435897 , 4194.87179487 , 4911.28205128 , 4134.35897436 , 4138.46153846 , 2043.0 , 2035.0 , 229.078 , 0.0 , 0.0 , 0.0 , 0.0 , 

79.0 , 4134.87179487 , 4132.82051282 , 4134.35897436 , 4135.38461538 , 4131.28205128 , 4133.84615385 , 4129.23076923 , 4135.38461538 , 4134.87179487 , 4138.97435897 , 4193.84615385 , 4910.76923077 , 4133.33333333 , 4136.41025641 , 2043.0 , 2036.0 , 229.092 , 0.0 , 0.0 , 0.0 , 0.0 , 

80.0 , 4135.8974359 , 4136.92307692 , 4135.8974359 , 4134.87179487 , 4131.79487179 , 4130.76923077 , 4128.71794872 , 4136.41025641 , 4135.8974359 , 4141.02564103 , 4193.33333333 , 4913.33333333 , 4136.92307692 , 4138.46153846 , 2043.0 , 2036.0 , 229.095 , 0.0 , 0.0 , 0.0 , 0.0 , 

81.0 , 4135.8974359 , 4140.0 , 4134.87179487 , 4140.0 , 4133.33333333 , 4129.74358974 , 4127.69230769 , 4138.97435897 , 4135.38461538 , 4141.02564103 , 4192.30769231 , 4913.84615385 , 4136.41025641 , 4139.48717949 , 2042.0 , 2035.0 , 229.102 , 0.0 , 0.0 , 0.0 , 0.0 , 

82.0 , 4134.87179487 , 4136.92307692 , 4132.30769231 , 4138.46153846 , 4132.82051282 , 4129.74358974 , 4129.23076923 , 4132.82051282 , 4136.41025641 , 4140.51282051 , 4193.84615385 , 4913.84615385 , 4131.79487179 , 4144.1025641 , 2043.0 , 2035.0 , 229.11 , 0.0 , 0.0 , 0.0 , 0.0 , 

83.0 , 4131.79487179 , 4134.35897436 , 4131.79487179 , 4135.8974359 , 4131.28205128 , 4131.28205128 , 4131.79487179 , 4129.74358974 , 4138.46153846 , 4141.53846154 , 4194.87179487 , 4912.82051282 , 4135.38461538 , 4143.58974359 , 2043.0 , 2035.0 , 229.124 , 0.0 , 0.0 , 0.0 , 0.0 , 

84.0 , 4135.8974359 , 4136.41025641 , 4133.33333333 , 4136.41025641 , 4130.25641026 , 4131.79487179 , 4128.71794872 , 4133.84615385 , 4136.92307692 , 4140.0 , 4193.33333333 , 4913.84615385 , 4140.0 , 4145.12820513 , 2042.0 , 2035.0 , 229.128 , 0.0 , 0.0 , 0.0 , 0.0 , 

85.0 , 4138.46153846 , 4137.94871795 , 4133.33333333 , 4135.38461538 , 4130.76923077 , 4129.74358974 , 4128.20512821 , 4135.8974359 , 4135.8974359 , 4137.94871795 , 4193.84615385 , 4912.30769231 , 4134.35897436 , 4144.61538462 , 2043.0 , 2037.0 , 229.133 , 0.0 , 0.0 , 0.0 , 0.0 , 

86.0 , 4136.92307692 , 4132.82051282 , 4134.35897436 , 4134.35897436 , 4132.30769231 , 4127.17948718 , 4129.74358974 , 4131.28205128 , 4137.43589744 , 4139.48717949 , 4195.8974359 , 4912.30769231 , 4132.82051282 , 4144.1025641 , 2042.0 , 2036.0 , 229.142 , 0.0 , 0.0 , 0.0 , 0.0 , 

87.0 , 4134.87179487 , 4131.79487179 , 4135.38461538 , 4137.94871795 , 4133.84615385 , 4129.23076923 , 4129.74358974 , 4130.25641026 , 4136.41025641 , 4141.02564103 , 4193.33333333 , 4915.8974359 , 4136.41025641 , 4143.07692308 , 2041.0 , 2037.0 , 229.157 , 0.0 , 0.0 , 0.0 , 0.0 , 

88.0 , 4132.30769231 , 4132.82051282 , 4134.87179487 , 4138.46153846 , 4132.30769231 , 4130.25641026 , 4129.23076923 , 4134.87179487 , 4134.35897436 , 4139.48717949 , 4191.28205128 , 4917.94871795 , 4137.43589744 , 4142.56410256 , 2041.0 , 2038.0 , 229.159 , 0.0 , 0.0 , 0.0 , 0.0 , 

89.0 , 4131.79487179 , 4132.30769231 , 4136.41025641 , 4136.41025641 , 4130.25641026 , 4130.25641026 , 4129.74358974 , 4134.35897436 , 4136.92307692 , 4136.92307692 , 4192.30769231 , 4914.35897436 , 4134.87179487 , 4143.07692308 , 2041.0 , 2039.0 , 229.164 , 0.0 , 0.0 , 0.0 , 0.0 , 

90.0 , 4134.87179487 , 4132.82051282 , 4135.38461538 , 4137.43589744 , 4130.76923077 , 4130.76923077 , 4128.20512821 , 4131.79487179 , 4138.97435897 , 4138.97435897 , 4192.30769231 , 4911.79487179 , 4135.38461538 , 4142.05128205 , 2039.0 , 2039.0 , 229.174 , 0.0 , 0.0 , 0.0 , 0.0 , 

91.0 , 4136.41025641 , 4135.38461538 , 4135.38461538 , 4137.94871795 , 4132.82051282 , 4129.74358974 , 4126.15384615 , 4131.79487179 , 4137.94871795 , 4144.1025641 , 4193.84615385 , 4913.33333333 , 4136.41025641 , 4141.02564103 , 2040.0 , 2039.0 , 229.186 , 0.0 , 0.0 , 0.0 , 0.0 , 

92.0 , 4132.30769231 , 4133.84615385 , 4136.41025641 , 4137.43589744 , 4131.79487179 , 4128.20512821 , 4128.71794872 , 4133.33333333 , 4138.46153846 , 4142.56410256 , 4194.35897436 , 4911.79487179 , 4136.41025641 , 4139.48717949 , 2039.0 , 2038.0 , 229.191 , 0.0 , 0.0 , 0.0 , 0.0 , 

93.0 , 4133.84615385 , 4130.76923077 , 4135.38461538 , 4136.92307692 , 4129.23076923 , 4129.74358974 , 4129.23076923 , 4135.38461538 , 4138.46153846 , 4138.46153846 , 4192.30769231 , 4912.82051282 , 4134.35897436 , 4143.58974359 , 2040.0 , 2039.0 , 229.197 , 0.0 , 0.0 , 0.0 , 0.0 , 

94.0 , 4134.87179487 , 4130.25641026 , 4132.82051282 , 4137.94871795 , 4130.25641026 , 4132.82051282 , 4128.20512821 , 4136.41025641 , 4136.92307692 , 4139.48717949 , 4191.28205128 , 4913.33333333 , 4135.38461538 , 4143.07692308 , 2040.0 , 2036.0 , 229.204 , 0.0 , 0.0 , 0.0 , 0.0 , 

95.0 , 4135.38461538 , 4131.79487179 , 4136.41025641 , 4135.8974359 , 4132.30769231 , 4131.28205128 , 4130.25641026 , 4133.33333333 , 4133.84615385 , 4138.97435897 , 4192.30769231 , 4913.33333333 , 4135.8974359 , 4144.1025641 , 2040.0 , 2035.0 , 229.215 , 0.0 , 0.0 , 0.0 , 0.0 , 

96.0 , 4133.84615385 , 4135.38461538 , 4140.0 , 4135.8974359 , 4131.79487179 , 4129.74358974 , 4133.33333333 , 4134.35897436 , 4134.35897436 , 4137.94871795 , 4193.33333333 , 4910.76923077 , 4135.38461538 , 4142.56410256 , 2041.0 , 2038.0 , 229.222 , 0.0 , 0.0 , 0.0 , 0.0 , 

97.0 , 4134.87179487 , 4134.35897436 , 4138.46153846 , 4136.41025641 , 4131.28205128 , 4129.74358974 , 4130.25641026 , 4136.92307692 , 4136.41025641 , 4140.0 , 4194.35897436 , 4913.84615385 , 4135.38461538 , 4145.12820513 , 2041.0 , 2037.0 , 229.228 , 0.0 , 0.0 , 0.0 , 0.0 , 

98.0 , 4134.87179487 , 4130.25641026 , 4136.41025641 , 4137.94871795 , 4133.84615385 , 4132.30769231 , 4130.25641026 , 4133.84615385 , 4137.94871795 , 4140.51282051 , 4192.82051282 , 4914.35897436 , 4134.87179487 , 4144.1025641 , 2041.0 , 2035.0 , 229.236 , 0.0 , 0.0 , 0.0 , 0.0 , 

99.0 , 4134.87179487 , 4127.69230769 , 4136.41025641 , 4137.43589744 , 4133.33333333 , 4130.76923077 , 4129.74358974 , 4131.79487179 , 4136.92307692 , 4139.48717949 , 4192.30769231 , 4913.84615385 , 4131.79487179 , 4145.64102564 , 2040.0 , 2038.0 , 229.249 , 0.0 , 0.0 , 0.0 , 0.0 , 

100.0 , 4131.28205128 , 4129.23076923 , 4135.8974359 , 4138.46153846 , 4131.28205128 , 4129.23076923 , 4127.69230769 , 4135.8974359 , 4135.8974359 , 4139.48717949 , 4193.84615385 , 4910.76923077 , 4131.28205128 , 4141.02564103 , 2040.0 , 2037.0 , 229.254 , 0.0 , 0.0 , 0.0 , 0.0 , 

101.0 , 4133.84615385 , 4133.33333333 , 4135.8974359 , 4138.46153846 , 4132.82051282 , 4129.74358974 , 4128.71794872 , 4134.87179487 , 4134.87179487 , 4138.46153846 , 4194.35897436 , 4910.25641026 , 4134.87179487 , 4141.53846154 , 2042.0 , 2036.0 , 229.26 , 0.0 , 0.0 , 0.0 , 0.0 , 

102.0 , 4136.92307692 , 4134.87179487 , 4135.38461538 , 4137.43589744 , 4132.82051282 , 4131.79487179 , 4131.79487179 , 4135.38461538 , 4136.92307692 , 4137.43589744 , 4193.33333333 , 4909.74358974 , 4134.87179487 , 4141.02564103 , 2042.0 , 2036.0 , 229.266 , 0.0 , 0.0 , 0.0 , 0.0 , 

103.0 , 4134.87179487 , 4131.79487179 , 4134.87179487 , 4136.92307692 , 4130.76923077 , 4131.28205128 , 4127.69230769 , 4137.43589744 , 4137.43589744 , 4138.46153846 , 4193.33333333 , 4912.30769231 , 4134.35897436 , 4139.48717949 , 2042.0 , 2037.0 , 229.282 , 0.0 , 0.0 , 0.0 , 0.0 , 

104.0 , 4131.79487179 , 4131.79487179 , 4135.38461538 , 4137.43589744 , 4132.30769231 , 4129.74358974 , 4127.17948718 , 4135.38461538 , 4134.87179487 , 4140.0 , 4192.82051282 , 4911.28205128 , 4135.8974359 , 4135.8974359 , 2042.0 , 2036.0 , 229.283 , 0.0 , 0.0 , 0.0 , 0.0 , 

105.0 , 4133.84615385 , 4134.35897436 , 4136.92307692 , 4136.41025641 , 4132.82051282 , 4128.20512821 , 4130.25641026 , 4134.87179487 , 4135.38461538 , 4138.97435897 , 4193.33333333 , 4910.76923077 , 4136.41025641 , 4136.41025641 , 2042.0 , 2036.0 , 229.292 , 0.0 , 0.0 , 0.0 , 0.0 , 

106.0 , 4132.82051282 , 4132.30769231 , 4135.38461538 , 4136.92307692 , 4131.79487179 , 4130.25641026 , 4129.74358974 , 4136.41025641 , 4136.41025641 , 4137.43589744 , 4193.84615385 , 4913.33333333 , 4135.38461538 , 4138.46153846 , 2043.0 , 2035.0 , 229.299 , 0.0 , 0.0 , 0.0 , 0.0 , 

107.0 , 4131.79487179 , 4131.79487179 , 4133.33333333 , 4136.92307692 , 4133.33333333 , 4132.30769231 , 4129.74358974 , 4136.41025641 , 4136.41025641 , 4140.51282051 , 4191.28205128 , 4915.8974359 , 4135.38461538 , 4141.53846154 , 2044.0 , 2035.0 , 229.31 , 0.0 , 0.0 , 0.0 , 0.0 , 

108.0 , 4135.8974359 , 4136.92307692 , 4135.8974359 , 4134.87179487 , 4133.84615385 , 4130.25641026 , 4131.28205128 , 4133.33333333 , 4138.97435897 , 4140.51282051 , 4190.76923077 , 4914.87179487 , 4136.92307692 , 4143.58974359 , 2043.0 , 2036.0 , 229.315 , 0.0 , 0.0 , 0.0 , 0.0 , 

109.0 , 4136.92307692 , 4137.94871795 , 4136.92307692 , 4134.35897436 , 4129.74358974 , 4129.23076923 , 4129.74358974 , 4135.38461538 , 4140.0 , 4142.05128205 , 4193.84615385 , 4913.33333333 , 4137.43589744 , 4141.53846154 , 2044.0 , 2036.0 , 229.324 , 0.0 , 0.0 , 0.0 , 0.0 , 

110.0 , 4134.87179487 , 4131.28205128 , 4135.38461538 , 4137.43589744 , 4130.76923077 , 4130.76923077 , 4127.69230769 , 4136.41025641 , 4135.38461538 , 4144.1025641 , 4195.38461538 , 4915.38461538 , 4132.30769231 , 4144.61538462 , 2042.0 , 2036.0 , 229.331 , 0.0 , 0.0 , 0.0 , 0.0 , 

111.0 , 4134.35897436 , 4131.28205128 , 4135.8974359 , 4140.51282051 , 4133.84615385 , 4131.28205128 , 4129.74358974 , 4134.35897436 , 4133.84615385 , 4141.53846154 , 4192.82051282 , 4914.87179487 , 4131.28205128 , 4144.61538462 , 2042.0 , 2034.0 , 229.343 , 0.0 , 0.0 , 0.0 , 0.0 , 

112.0 , 4135.8974359 , 4136.41025641 , 4136.92307692 , 4139.48717949 , 4131.28205128 , 4129.74358974 , 4130.25641026 , 4131.28205128 , 4134.35897436 , 4140.0 , 4191.28205128 , 4914.87179487 , 4134.35897436 , 4145.64102564 , 2042.0 , 2036.0 , 229.349 , 0.0 , 0.0 , 0.0 , 0.0 , 

113.0 , 4132.82051282 , 4136.41025641 , 4135.38461538 , 4137.94871795 , 4130.76923077 , 4132.82051282 , 4131.79487179 , 4131.79487179 , 4136.41025641 , 4142.05128205 , 4193.33333333 , 4912.82051282 , 4136.41025641 , 4141.02564103 , 2041.0 , 2036.0 , 229.354 , 0.0 , 0.0 , 0.0 , 0.0 , 

114.0 , 4132.82051282 , 4131.79487179 , 4134.87179487 , 4135.38461538 , 4133.84615385 , 4132.82051282 , 4132.30769231 , 4132.82051282 , 4136.41025641 , 4138.97435897 , 4194.87179487 , 4914.35897436 , 4135.38461538 , 4141.02564103 , 2040.0 , 2036.0 , 229.362 , 0.0 , 0.0 , 0.0 , 0.0 , 

115.0 , 4131.28205128 , 4132.30769231 , 4134.35897436 , 4136.92307692 , 4134.87179487 , 4131.28205128 , 4131.28205128 , 4135.8974359 , 4136.92307692 , 4137.43589744 , 4192.82051282 , 4913.33333333 , 4137.43589744 , 4140.51282051 , 2041.0 , 2034.0 , 229.373 , 0.0 , 0.0 , 0.0 , 0.0 , 

116.0 , 4130.25641026 , 4133.84615385 , 4134.87179487 , 4137.43589744 , 4131.28205128 , 4130.25641026 , 4129.23076923 , 4137.94871795 , 4138.97435897 , 4140.0 , 4190.76923077 , 4913.33333333 , 4136.41025641 , 4142.56410256 , 2041.0 , 2035.0 , 229.381 , 0.0 , 0.0 , 0.0 , 0.0 , 

117.0 , 4128.71794872 , 4134.35897436 , 4134.87179487 , 4137.43589744 , 4131.28205128 , 4131.28205128 , 4128.71794872 , 4136.92307692 , 4138.46153846 , 4137.94871795 , 4191.28205128 , 4913.33333333 , 4133.33333333 , 4139.48717949 , 2040.0 , 2034.0 , 229.385 , 0.0 , 0.0 , 0.0 , 0.0 , 

118.0 , 4133.33333333 , 4133.84615385 , 4135.38461538 , 4136.41025641 , 4133.33333333 , 4130.76923077 , 4126.66666667 , 4136.41025641 , 4133.33333333 , 4137.94871795 , 4191.28205128 , 4915.38461538 , 4133.33333333 , 4144.1025641 , 2041.0 , 2034.0 , 229.394 , 0.0 , 0.0 , 0.0 , 0.0 , 

119.0 , 4134.87179487 , 4132.30769231 , 4136.41025641 , 4136.92307692 , 4134.35897436 , 4131.28205128 , 4128.71794872 , 4138.97435897 , 4135.38461538 , 4141.53846154 , 4192.30769231 , 4911.79487179 , 4135.38461538 , 4144.61538462 , 2040.0 , 2034.0 , 229.406 , 0.0 , 0.0 , 0.0 , 0.0 , 

120.0 , 4134.35897436 , 4132.30769231 , 4137.94871795 , 4136.41025641 , 4131.28205128 , 4130.76923077 , 4130.25641026 , 4134.87179487 , 4139.48717949 , 4138.97435897 , 4195.38461538 , 4912.30769231 , 4136.41025641 , 4143.58974359 , 2039.0 , 2033.0 , 229.412 , 0.0 , 0.0 , 0.0 , 0.0 , 

121.0 , 4133.33333333 , 4136.41025641 , 4135.8974359 , 4136.41025641 , 4129.23076923 , 4129.74358974 , 4129.74358974 , 4132.82051282 , 4138.46153846 , 4137.94871795 , 4194.87179487 , 4914.35897436 , 4134.87179487 , 4144.61538462 , 2041.0 , 2033.0 , 229.416 , 0.0 , 0.0 , 0.0 , 0.0 , 

122.0 , 4132.30769231 , 4135.38461538 , 4134.35897436 , 4138.46153846 , 4130.25641026 , 4128.71794872 , 4128.71794872 , 4133.84615385 , 4137.43589744 , 4141.02564103 , 4192.30769231 , 4913.33333333 , 4133.33333333 , 4147.17948718 , 2040.0 , 2033.0 , 229.426 , 0.0 , 0.0 , 0.0 , 0.0 , 

123.0 , 4129.74358974 , 4132.82051282 , 4135.38461538 , 4140.0 , 4132.30769231 , 4130.76923077 , 4128.71794872 , 4134.35897436 , 4137.43589744 , 4142.56410256 , 4192.82051282 , 4912.82051282 , 4132.82051282 , 4140.51282051 , 2042.0 , 2034.0 , 229.439 , 0.0 , 0.0 , 0.0 , 0.0 , 

124.0 , 4130.25641026 , 4137.43589744 , 4134.35897436 , 4140.0 , 4133.33333333 , 4131.28205128 , 4129.23076923 , 4133.84615385 , 4136.41025641 , 4140.0 , 4194.35897436 , 4915.38461538 , 4135.8974359 , 4138.97435897 , 2042.0 , 2036.0 , 229.444 , 0.0 , 0.0 , 0.0 , 0.0 , 

125.0 , 4132.82051282 , 4137.94871795 , 4133.33333333 , 4140.0 , 4130.76923077 , 4131.28205128 , 4130.76923077 , 4135.38461538 , 4136.92307692 , 4138.97435897 , 4194.87179487 , 4915.8974359 , 4135.8974359 , 4143.07692308 , 2042.0 , 2037.0 , 229.448 , 0.0 , 0.0 , 0.0 , 0.0 , 

126.0 , 4133.33333333 , 4135.38461538 , 4133.33333333 , 4139.48717949 , 4131.28205128 , 4129.74358974 , 4131.28205128 , 4134.35897436 , 4137.43589744 , 4138.97435897 , 4193.84615385 , 4912.82051282 , 4134.87179487 , 4141.02564103 , 2042.0 , 2034.0 , 229.458 , 0.0 , 0.0 , 0.0 , 0.0 , 

127.0 , 4132.30769231 , 4136.41025641 , 4131.79487179 , 4137.43589744 , 4134.87179487 , 4129.74358974 , 4129.74358974 , 4134.87179487 , 4136.92307692 , 4137.43589744 , 4191.28205128 , 4910.76923077 , 4135.38461538 , 4138.97435897 , 2043.0 , 2034.0 , 229.47 , 0.0 , 0.0 , 0.0 , 0.0 , 

128.0 , 4132.82051282 , 4136.92307692 , 4131.28205128 , 4138.46153846 , 4132.82051282 , 4129.74358974 , 4128.20512821 , 4136.92307692 , 4137.94871795 , 4137.43589744 , 4192.30769231 , 4909.74358974 , 4135.38461538 , 4140.0 , 2044.0 , 2034.0 , 229.475 , 0.0 , 0.0 , 0.0 , 0.0 , 

0.0 , 4135.8974359 , 4133.84615385 , 4134.87179487 , 4137.94871795 , 4128.20512821 , 4128.71794872 , 4126.66666667 , 4134.87179487 , 4135.8974359 , 4139.48717949 , 4194.87179487 , 4910.76923077 , 4135.38461538 , 4144.61538462 , 2044.0 , 2036.0 , 229.479 , 0.0 , 0.0 , 0.0 , 0.0 , 

1.0 , 4136.41025641 , 4134.35897436 , 4132.30769231 , 4137.43589744 , 4131.79487179 , 4130.25641026 , 4128.20512821 , 4136.92307692 , 4134.35897436 , 4140.0 , 4194.35897436 , 4910.76923077 , 4134.87179487 , 4142.05128205 , 2045.0 , 2037.0 , 229.489 , 0.0 , 0.0 , 0.0 , 0.0 , 

2.0 , 4135.38461538 , 4134.87179487 , 4130.25641026 , 4136.41025641 , 4134.35897436 , 4130.25641026 , 4126.66666667 , 4136.92307692 , 4136.41025641 , 4139.48717949 , 4192.30769231 , 4914.87179487 , 4133.33333333 , 4140.0 , 2044.0 , 2038.0 , 229.5 , 0.0 , 0.0 , 0.0 , 0.0 , 

3.0 , 4132.30769231 , 4135.8974359 , 4132.30769231 , 4135.8974359 , 4131.28205128 , 4130.76923077 , 4126.15384615 , 4132.82051282 , 4136.92307692 , 4138.46153846 , 4192.30769231 , 4914.35897436 , 4136.41025641 , 4138.46153846 , 2043.0 , 2037.0 , 229.507 , 0.0 , 0.0 , 0.0 , 0.0 , 

4.0 , 4135.38461538 , 4136.41025641 , 4131.79487179 , 4136.41025641 , 4130.25641026 , 4129.23076923 , 4128.71794872 , 4135.38461538 , 4136.41025641 , 4137.94871795 , 4194.35897436 , 4914.35897436 , 4136.41025641 , 4146.15384615 , 2043.0 , 2040.0 , 229.512 , 0.0 , 0.0 , 0.0 , 0.0 , 

5.0 , 4134.87179487 , 4135.38461538 , 4130.76923077 , 4140.51282051 , 4133.33333333 , 4131.28205128 , 4131.28205128 , 4141.53846154 , 4136.92307692 , 4137.94871795 , 4194.35897436 , 4913.33333333 , 4132.30769231 , 4145.64102564 , 2044.0 , 2040.0 , 229.52 , 0.0 , 0.0 , 0.0 , 0.0 , 

6.0 , 4132.30769231 , 4135.38461538 , 4131.79487179 , 4137.43589744 , 4132.30769231 , 4130.76923077 , 4127.69230769 , 4134.87179487 , 4135.8974359 , 4137.94871795 , 4193.33333333 , 4914.87179487 , 4133.33333333 , 4143.07692308 , 2044.0 , 2040.0 , 229.531 , 0.0 , 0.0 , 0.0 , 0.0 , 

7.0 , 4128.71794872 , 4136.41025641 , 4130.25641026 , 4134.35897436 , 4131.79487179 , 4130.76923077 , 4128.20512821 , 4130.25641026 , 4135.38461538 , 4137.94871795 , 4192.82051282 , 4914.35897436 , 4138.46153846 , 4141.02564103 , 2041.0 , 2040.0 , 229.538 , 0.0 , 0.0 , 0.0 , 0.0 , 

8.0 , 4132.30769231 , 4133.33333333 , 4131.79487179 , 4135.38461538 , 4131.28205128 , 4129.23076923 , 4129.74358974 , 4133.33333333 , 4134.35897436 , 4137.94871795 , 4194.35897436 , 4917.43589744 , 4136.41025641 , 4145.12820513 , 2041.0 , 2038.0 , 229.543 , 0.0 , 0.0 , 0.0 , 0.0 , 

9.0 , 4132.82051282 , 4132.82051282 , 4134.87179487 , 4138.97435897 , 4130.76923077 , 4130.25641026 , 4129.23076923 , 4135.38461538 , 4133.33333333 , 4138.97435897 , 4193.33333333 , 4914.87179487 , 4133.33333333 , 4141.02564103 , 2041.0 , 2038.0 , 229.551 , 0.0 , 0.0 , 0.0 , 0.0 , 

10.0 , 4130.76923077 , 4134.35897436 , 4133.84615385 , 4138.46153846 , 4130.25641026 , 4130.25641026 , 4125.64102564 , 4134.87179487 , 4138.46153846 , 4138.97435897 , 4192.30769231 , 4912.30769231 , 4135.38461538 , 4139.48717949 , 2042.0 , 2039.0 , 229.562 , 0.0 , 0.0 , 0.0 , 0.0 , 

11.0 , 4129.23076923 , 4135.38461538 , 4132.82051282 , 4134.87179487 , 4132.82051282 , 4130.25641026 , 4126.15384615 , 4136.41025641 , 4142.56410256 , 4136.92307692 , 4193.33333333 , 4914.87179487 , 4135.8974359 , 4140.51282051 , 2042.0 , 2040.0 , 229.569 , 0.0 , 0.0 , 0.0 , 0.0 , 

12.0 , 4130.76923077 , 4132.30769231 , 4135.38461538 , 4133.33333333 , 4133.84615385 , 4129.74358974 , 4128.20512821 , 4137.94871795 , 4136.41025641 , 4137.94871795 , 4195.8974359 , 4917.94871795 , 4134.35897436 , 4143.07692308 , 2040.0 , 2039.0 , 229.575 , 0.0 , 0.0 , 0.0 , 0.0 , 

13.0 , 4132.30769231 , 4131.28205128 , 4135.38461538 , 4134.87179487 , 4132.30769231 , 4131.28205128 , 4127.69230769 , 4138.97435897 , 4134.87179487 , 4139.48717949 , 4194.87179487 , 4913.33333333 , 4133.33333333 , 4142.05128205 , 2040.0 , 2039.0 , 229.584 , 0.0 , 0.0 , 0.0 , 0.0 , 

14.0 , 4132.30769231 , 4132.30769231 , 4134.87179487 , 4135.38461538 , 4130.25641026 , 4129.74358974 , 4126.15384615 , 4137.43589744 , 4138.97435897 , 4138.97435897 , 4192.30769231 , 4910.25641026 , 4135.38461538 , 4141.02564103 , 2042.0 , 2040.0 , 229.596 , 0.0 , 0.0 , 0.0 , 0.0 , 

15.0 , 4133.33333333 , 4133.33333333 , 4135.38461538 , 4132.30769231 , 4129.74358974 , 4128.20512821 , 4128.20512821 , 4136.92307692 , 4136.92307692 , 4138.46153846 , 4192.30769231 , 4912.82051282 , 4137.94871795 , 4141.02564103 , 2042.0 , 2039.0 , 229.601 , 0.0 , 0.0 , 0.0 , 0.0 , 

16.0 , 4134.35897436 , 4132.82051282 , 4134.35897436 , 4133.33333333 , 4129.74358974 , 4131.79487179 , 4129.74358974 , 4137.43589744 , 4135.38461538 , 4138.46153846 , 4194.87179487 , 4913.84615385 , 4138.97435897 , 4138.46153846 , 2043.0 , 2038.0 , 229.606 , 0.0 , 0.0 , 0.0 , 0.0 , 

17.0 , 4133.84615385 , 4131.79487179 , 4136.92307692 , 4133.33333333 , 4129.74358974 , 4131.28205128 , 4128.20512821 , 4134.35897436 , 4137.94871795 , 4137.94871795 , 4193.84615385 , 4913.33333333 , 4137.43589744 , 4141.53846154 , 2042.0 , 2035.0 , 229.615 , 0.0 , 0.0 , 0.0 , 0.0 , 

18.0 , 4133.84615385 , 4130.25641026 , 4137.94871795 , 4130.25641026 , 4131.28205128 , 4129.74358974 , 4129.74358974 , 4133.84615385 , 4138.97435897 , 4138.46153846 , 4189.23076923 , 4912.82051282 , 4135.38461538 , 4143.07692308 , 2043.0 , 2036.0 , 229.628 , 0.0 , 0.0 , 0.0 , 0.0 , 

19.0 , 4135.38461538 , 4131.28205128 , 4136.41025641 , 4131.79487179 , 4131.79487179 , 4131.28205128 , 4129.74358974 , 4136.41025641 , 4137.43589744 , 4138.46153846 , 4192.30769231 , 4914.87179487 , 4133.84615385 , 4142.05128205 , 2043.0 , 2037.0 , 229.632 , 0.0 , 0.0 , 0.0 , 0.0 , 

20.0 , 4133.84615385 , 4133.84615385 , 4135.38461538 , 4137.94871795 , 4131.79487179 , 4132.30769231 , 4128.20512821 , 4138.46153846 , 4138.46153846 , 4139.48717949 , 4195.38461538 , 4914.87179487 , 4134.35897436 , 4138.97435897 , 2043.0 , 2033.0 , 229.637 , 0.0 , 0.0 , 0.0 , 0.0 , 

21.0 , 4132.82051282 , 4132.82051282 , 4137.43589744 , 4137.43589744 , 4131.79487179 , 4131.28205128 , 4127.69230769 , 4137.43589744 , 4137.94871795 , 4141.53846154 , 4193.84615385 , 4913.84615385 , 4133.33333333 , 4141.53846154 , 2045.0 , 2034.0 , 229.647 , 0.0 , 0.0 , 0.0 , 0.0 , 

22.0 , 4132.30769231 , 4132.82051282 , 4136.41025641 , 4135.8974359 , 4131.79487179 , 4132.82051282 , 4128.71794872 , 4137.94871795 , 4136.41025641 , 4139.48717949 , 4193.33333333 , 4912.82051282 , 4133.33333333 , 4138.97435897 , 2045.0 , 2035.0 , 229.659 , 0.0 , 0.0 , 0.0 , 0.0 , 

23.0 , 4133.84615385 , 4134.87179487 , 4136.92307692 , 4136.41025641 , 4130.76923077 , 4132.30769231 , 4126.66666667 , 4135.8974359 , 4134.35897436 , 4135.8974359 , 4195.8974359 , 4915.8974359 , 4135.38461538 , 4141.53846154 , 2043.0 , 2036.0 , 229.664 , 0.0 , 0.0 , 0.0 , 0.0 , 

24.0 , 4131.28205128 , 4135.38461538 , 4137.94871795 , 4137.43589744 , 4131.28205128 , 4131.79487179 , 4126.66666667 , 4135.38461538 , 4135.8974359 , 4136.92307692 , 4194.35897436 , 4912.30769231 , 4137.43589744 , 4139.48717949 , 2043.0 , 2035.0 , 229.669 , 0.0 , 0.0 , 0.0 , 0.0 , 

25.0 , 4132.30769231 , 4132.30769231 , 4137.43589744 , 4135.8974359 , 4130.25641026 , 4131.79487179 , 4126.66666667 , 4135.38461538 , 4139.48717949 , 4137.94871795 , 4191.28205128 , 4911.28205128 , 4136.92307692 , 4141.53846154 , 2043.0 , 2034.0 , 229.677 , 0.0 , 0.0 , 0.0 , 0.0 , 

26.0 , 4133.84615385 , 4132.30769231 , 4137.94871795 , 4134.35897436 , 4129.74358974 , 4131.28205128 , 4129.23076923 , 4134.87179487 , 4139.48717949 , 4137.43589744 , 4190.76923077 , 4912.30769231 , 4136.41025641 , 4140.0 , 2042.0 , 2034.0 , 229.688 , 0.0 , 0.0 , 0.0 , 0.0 , 

27.0 , 4135.8974359 , 4132.82051282 , 4138.97435897 , 4131.28205128 , 4130.25641026 , 4128.20512821 , 4129.23076923 , 4133.84615385 , 4135.8974359 , 4137.94871795 , 4191.28205128 , 4913.84615385 , 4137.43589744 , 4142.05128205 , 2044.0 , 2035.0 , 229.695 , 0.0 , 0.0 , 0.0 , 0.0 , 

28.0 , 4134.35897436 , 4133.33333333 , 4137.43589744 , 4131.79487179 , 4130.76923077 , 4128.71794872 , 4129.23076923 , 4137.94871795 , 4136.92307692 , 4140.0 , 4191.28205128 , 4911.79487179 , 4138.97435897 , 4141.02564103 , 2042.0 , 2034.0 , 229.7 , 0.0 , 0.0 , 0.0 , 0.0 , 

29.0 , 4133.33333333 , 4132.82051282 , 4135.8974359 , 4134.87179487 , 4130.76923077 , 4130.25641026 , 4127.17948718 , 4137.94871795 , 4140.51282051 , 4138.97435897 , 4191.28205128 , 4912.82051282 , 4140.51282051 , 4143.07692308 , 2043.0 , 2035.0 , 229.71 , 0.0 , 0.0 , 0.0 , 0.0 , 

30.0 , 4132.82051282 , 4131.28205128 , 4135.38461538 , 4136.92307692 , 4131.28205128 , 4132.82051282 , 4127.69230769 , 4133.84615385 , 4140.51282051 , 4137.94871795 , 4191.28205128 , 4911.79487179 , 4136.92307692 , 4144.1025641 , 2043.0 , 2037.0 , 229.724 , 0.0 , 0.0 , 0.0 , 0.0 , 

31.0 , 4133.84615385 , 4133.33333333 , 4138.46153846 , 4135.38461538 , 4131.79487179 , 4132.30769231 , 4128.20512821 , 4133.33333333 , 4137.94871795 , 4138.97435897 , 4192.82051282 , 4912.30769231 , 4133.33333333 , 4146.15384615 , 2043.0 , 2036.0 , 229.727 , 0.0 , 0.0 , 0.0 , 0.0 , 

32.0 , 4133.33333333 , 4135.38461538 , 4140.51282051 , 4135.38461538 , 4132.82051282 , 4130.25641026 , 4127.69230769 , 4133.33333333 , 4136.41025641 , 4140.51282051 , 4194.87179487 , 4914.35897436 , 4135.38461538 , 4146.66666667 , 2043.0 , 2038.0 , 229.733 , 0.0 , 0.0 , 0.0 , 0.0 , 

33.0 , 4131.28205128 , 4132.30769231 , 4137.43589744 , 4135.38461538 , 4131.79487179 , 4129.74358974 , 4128.20512821 , 4132.30769231 , 4137.43589744 , 4140.51282051 , 4194.87179487 , 4913.84615385 , 4136.92307692 , 4144.1025641 , 2044.0 , 2037.0 , 229.741 , 0.0 , 0.0 , 0.0 , 0.0 , 

34.0 , 4131.28205128 , 4130.25641026 , 4133.33333333 , 4133.33333333 , 4129.23076923 , 4130.76923077 , 4129.74358974 , 4131.79487179 , 4140.0 , 4140.0 , 4193.84615385 , 4913.84615385 , 4135.38461538 , 4143.07692308 , 2046.0 , 2037.0 , 229.754 , 0.0 , 0.0 , 0.0 , 0.0 , 

35.0 , 4132.82051282 , 4132.82051282 , 4132.30769231 , 4134.35897436 , 4129.23076923 , 4130.76923077 , 4131.79487179 , 4134.35897436 , 4137.43589744 , 4142.05128205 , 4194.87179487 , 4915.8974359 , 4135.8974359 , 4141.02564103 , 2045.0 , 2038.0 , 229.758 , 0.0 , 0.0 , 0.0 , 0.0 , 

36.0 , 4135.8974359 , 4132.82051282 , 4135.8974359 , 4135.8974359 , 4130.25641026 , 4128.20512821 , 4128.71794872 , 4136.41025641 , 4131.79487179 , 4143.07692308 , 4195.38461538 , 4916.92307692 , 4137.43589744 , 4141.53846154 , 2045.0 , 2036.0 , 229.764 , 0.0 , 0.0 , 0.0 , 0.0 , 

37.0 , 4135.38461538 , 4132.30769231 , 4139.48717949 , 4135.38461538 , 4130.76923077 , 4129.23076923 , 4126.66666667 , 4135.38461538 , 4135.38461538 , 4140.0 , 4193.84615385 , 4913.33333333 , 4137.43589744 , 4141.02564103 , 2047.0 , 2037.0 , 229.772 , 0.0 , 0.0 , 0.0 , 0.0 , 

38.0 , 4134.87179487 , 4134.35897436 , 4137.43589744 , 4132.82051282 , 4131.28205128 , 4132.30769231 , 4128.20512821 , 4132.82051282 , 4140.0 , 4136.92307692 , 4193.33333333 , 4911.79487179 , 4136.92307692 , 4141.02564103 , 2045.0 , 2037.0 , 229.783 , 0.0 , 0.0 , 0.0 , 0.0 , 

39.0 , 4135.38461538 , 4134.35897436 , 4132.82051282 , 4133.84615385 , 4131.28205128 , 4131.28205128 , 4130.76923077 , 4133.33333333 , 4137.43589744 , 4137.43589744 , 4192.30769231 , 4910.76923077 , 4137.94871795 , 4137.94871795 , 2043.0 , 2035.0 , 229.79 , 0.0 , 0.0 , 0.0 , 0.0 , 

40.0 , 4136.92307692 , 4131.28205128 , 4136.92307692 , 4133.84615385 , 4131.79487179 , 4126.15384615 , 4129.23076923 , 4133.84615385 , 4133.84615385 , 4140.0 , 4191.79487179 , 4912.82051282 , 4137.43589744 , 4142.05128205 , 2043.0 , 2037.0 , 229.795 , 0.0 , 0.0 , 0.0 , 0.0 , 

41.0 , 4133.33333333 , 4132.30769231 , 4137.43589744 , 4137.43589744 , 4134.87179487 , 4128.71794872 , 4128.71794872 , 4134.35897436 , 4137.94871795 , 4138.97435897 , 4193.84615385 , 4910.76923077 , 4137.94871795 , 4141.02564103 , 2045.0 , 2038.0 , 229.803 , 0.0 , 0.0 , 0.0 , 0.0 , 

42.0 , 4134.87179487 , 4133.33333333 , 4134.35897436 , 4136.41025641 , 4133.33333333 , 4130.25641026 , 4128.20512821 , 4133.84615385 , 4140.51282051 , 4137.94871795 , 4195.38461538 , 4911.79487179 , 4136.92307692 , 4143.07692308 , 2045.0 , 2037.0 , 229.817 , 0.0 , 0.0 , 0.0 , 0.0 , 

43.0 , 4135.8974359 , 4132.30769231 , 4134.87179487 , 4133.33333333 , 4132.30769231 , 4129.74358974 , 4128.20512821 , 4134.35897436 , 4139.48717949 , 4138.46153846 , 4193.84615385 , 4912.30769231 , 4135.38461538 , 4142.05128205 , 2045.0 , 2037.0 , 229.821 , 0.0 , 0.0 , 0.0 , 0.0 , 

44.0 , 4136.41025641 , 4131.79487179 , 4139.48717949 , 4132.82051282 , 4134.35897436 , 4129.74358974 , 4125.12820513 , 4134.35897436 , 4137.43589744 , 4138.46153846 , 4194.35897436 , 4912.82051282 , 4135.8974359 , 4144.1025641 , 2044.0 , 2037.0 , 229.827 , 0.0 , 0.0 , 0.0 , 0.0 , 

45.0 , 4134.35897436 , 4134.35897436 , 4139.48717949 , 4136.92307692 , 4134.87179487 , 4130.76923077 , 4125.64102564 , 4133.33333333 , 4136.41025641 , 4138.97435897 , 4193.84615385 , 4911.79487179 , 4135.8974359 , 4142.56410256 , 2045.0 , 2038.0 , 229.835 , 0.0 , 0.0 , 0.0 , 0.0 , 

46.0 , 4136.41025641 , 4135.38461538 , 4137.43589744 , 4137.43589744 , 4131.79487179 , 4130.76923077 , 4128.20512821 , 4133.84615385 , 4135.38461538 , 4139.48717949 , 4191.28205128 , 4914.87179487 , 4134.87179487 , 4144.1025641 , 2045.0 , 2038.0 , 229.846 , 0.0 , 0.0 , 0.0 , 0.0 , 

47.0 , 4135.38461538 , 4134.87179487 , 4135.38461538 , 4135.8974359 , 4132.30769231 , 4133.33333333 , 4128.71794872 , 4135.8974359 , 4136.92307692 , 4138.97435897 , 4191.79487179 , 4914.35897436 , 4135.38461538 , 4140.0 , 2043.0 , 2039.0 , 229.853 , 0.0 , 0.0 , 0.0 , 0.0 , 

48.0 , 4133.84615385 , 4132.82051282 , 4133.84615385 , 4135.8974359 , 4133.33333333 , 4132.30769231 , 4125.64102564 , 4132.82051282 , 4138.46153846 , 4137.94871795 , 4193.84615385 , 4912.30769231 , 4138.46153846 , 4140.51282051 , 2043.0 , 2039.0 , 229.859 , 0.0 , 0.0 , 0.0 , 0.0 , 

