['COUNTER', 'AF3', 'F7', 'F3', 'FC5', 'T7', 'P7', 'O1', 'O2', 'P8', 'T8', 'FC6', 'F4', 'F8', 'AF4', 'GYROX', 'GYROY', 'TIMESTAMP', 'FUNC_ID', 'FUNC_VALUE', 'MARKER', 'SYNC_SIGNAL']
89.0 , 4136.41025641 , 4130.76923077 , 4137.43589744 , 4131.79487179 , 4130.25641026 , 4133.84615385 , 4128.20512821 , 4135.38461538 , 4137.43589744 , 4140.0 , 4194.35897436 , 4914.87179487 , 4136.92307692 , 4142.56410256 , 2044.0 , 2036.0 , 261.702 , 0.0 , 0.0 , 0.0 , 0.0 , 

90.0 , 4134.87179487 , 4132.30769231 , 4136.41025641 , 4133.33333333 , 4131.28205128 , 4130.76923077 , 4126.66666667 , 4135.38461538 , 4138.46153846 , 4139.48717949 , 4192.82051282 , 4915.38461538 , 4137.43589744 , 4140.51282051 , 2043.0 , 2035.0 , 261.706 , 0.0 , 0.0 , 0.0 , 0.0 , 

91.0 , 4130.76923077 , 4132.82051282 , 4135.8974359 , 4138.97435897 , 4134.35897436 , 4128.20512821 , 4126.15384615 , 4136.41025641 , 4138.46153846 , 4138.46153846 , 4193.84615385 , 4914.35897436 , 4138.97435897 , 4140.51282051 , 2041.0 , 2035.0 , 261.711 , 0.0 , 0.0 , 0.0 , 0.0 , 

92.0 , 4129.74358974 , 4131.79487179 , 4136.41025641 , 4138.97435897 , 4132.82051282 , 4129.23076923 , 4127.17948718 , 4138.46153846 , 4139.48717949 , 4140.0 , 4195.38461538 , 4915.38461538 , 4138.46153846 , 4142.05128205 , 2044.0 , 2037.0 , 261.717 , 0.0 , 0.0 , 0.0 , 0.0 , 

93.0 , 4134.35897436 , 4130.76923077 , 4139.48717949 , 4133.33333333 , 4129.74358974 , 4130.76923077 , 4128.20512821 , 4136.41025641 , 4140.0 , 4140.51282051 , 4195.38461538 , 4917.43589744 , 4134.35897436 , 4144.61538462 , 2043.0 , 2035.0 , 261.73 , 0.0 , 0.0 , 0.0 , 0.0 , 

94.0 , 4134.35897436 , 4132.82051282 , 4139.48717949 , 4131.79487179 , 4131.28205128 , 4131.79487179 , 4129.23076923 , 4134.35897436 , 4139.48717949 , 4138.46153846 , 4193.33333333 , 4913.84615385 , 4133.33333333 , 4141.02564103 , 2043.0 , 2036.0 , 261.735 , 0.0 , 0.0 , 0.0 , 0.0 , 

95.0 , 4135.38461538 , 4134.35897436 , 4137.94871795 , 4132.82051282 , 4133.33333333 , 4129.74358974 , 4126.15384615 , 4132.82051282 , 4138.46153846 , 4138.46153846 , 4190.76923077 , 4913.33333333 , 4137.43589744 , 4142.05128205 , 2043.0 , 2036.0 , 261.742 , 0.0 , 0.0 , 0.0 , 0.0 , 

96.0 , 4133.84615385 , 4133.84615385 , 4137.94871795 , 4136.41025641 , 4131.79487179 , 4127.69230769 , 4127.69230769 , 4134.35897436 , 4140.0 , 4139.48717949 , 4192.30769231 , 4913.33333333 , 4140.0 , 4138.97435897 , 2043.0 , 2035.0 , 261.749 , 0.0 , 0.0 , 0.0 , 0.0 , 

97.0 , 4134.35897436 , 4131.79487179 , 4139.48717949 , 4137.43589744 , 4130.25641026 , 4128.20512821 , 4128.20512821 , 4134.35897436 , 4139.48717949 , 4138.46153846 , 4193.84615385 , 4913.84615385 , 4134.87179487 , 4138.97435897 , 2041.0 , 2036.0 , 261.763 , 0.0 , 0.0 , 0.0 , 0.0 , 

98.0 , 4135.8974359 , 4132.30769231 , 4138.46153846 , 4136.92307692 , 4132.30769231 , 4132.30769231 , 4127.17948718 , 4134.87179487 , 4136.92307692 , 4138.46153846 , 4192.82051282 , 4911.28205128 , 4133.33333333 , 4137.94871795 , 2042.0 , 2036.0 , 261.767 , 0.0 , 0.0 , 0.0 , 0.0 , 

99.0 , 4135.8974359 , 4133.84615385 , 4138.97435897 , 4133.84615385 , 4130.76923077 , 4131.28205128 , 4126.15384615 , 4134.35897436 , 4134.87179487 , 4139.48717949 , 4193.84615385 , 4913.84615385 , 4138.97435897 , 4143.07692308 , 2041.0 , 2035.0 , 261.776 , 0.0 , 0.0 , 0.0 , 0.0 , 

100.0 , 4130.25641026 , 4133.33333333 , 4138.46153846 , 4133.84615385 , 4129.74358974 , 4129.74358974 , 4128.20512821 , 4134.87179487 , 4138.97435897 , 4141.53846154 , 4193.84615385 , 4915.38461538 , 4140.0 , 4140.51282051 , 2040.0 , 2036.0 , 261.781 , 0.0 , 0.0 , 0.0 , 0.0 , 

101.0 , 4133.84615385 , 4133.84615385 , 4138.46153846 , 4133.33333333 , 4132.30769231 , 4129.23076923 , 4126.66666667 , 4133.84615385 , 4138.46153846 , 4142.56410256 , 4192.30769231 , 4916.41025641 , 4135.8974359 , 4142.05128205 , 2041.0 , 2037.0 , 261.794 , 0.0 , 0.0 , 0.0 , 0.0 , 

102.0 , 4135.8974359 , 4135.38461538 , 4137.94871795 , 4134.87179487 , 4134.35897436 , 4131.79487179 , 4125.12820513 , 4135.38461538 , 4134.87179487 , 4140.51282051 , 4192.82051282 , 4914.87179487 , 4135.8974359 , 4141.02564103 , 2040.0 , 2037.0 , 261.799 , 0.0 , 0.0 , 0.0 , 0.0 , 

103.0 , 4132.82051282 , 4133.33333333 , 4136.92307692 , 4134.35897436 , 4129.74358974 , 4130.76923077 , 4126.15384615 , 4136.92307692 , 4137.94871795 , 4141.02564103 , 4195.38461538 , 4916.92307692 , 4137.43589744 , 4143.58974359 , 2041.0 , 2038.0 , 261.804 , 0.0 , 0.0 , 0.0 , 0.0 , 

104.0 , 4130.76923077 , 4132.82051282 , 4139.48717949 , 4133.84615385 , 4130.76923077 , 4129.74358974 , 4128.20512821 , 4135.8974359 , 4143.07692308 , 4141.53846154 , 4193.84615385 , 4915.8974359 , 4135.8974359 , 4142.05128205 , 2040.0 , 2038.0 , 261.812 , 0.0 , 0.0 , 0.0 , 0.0 , 

105.0 , 4133.33333333 , 4133.84615385 , 4138.97435897 , 4135.8974359 , 4135.8974359 , 4129.74358974 , 4127.17948718 , 4134.35897436 , 4138.46153846 , 4138.46153846 , 4191.28205128 , 4913.84615385 , 4135.8974359 , 4142.05128205 , 2042.0 , 2039.0 , 261.823 , 0.0 , 0.0 , 0.0 , 0.0 , 

106.0 , 4132.30769231 , 4131.28205128 , 4133.84615385 , 4134.87179487 , 4134.87179487 , 4132.30769231 , 4127.17948718 , 4135.38461538 , 4135.38461538 , 4137.43589744 , 4192.30769231 , 4911.79487179 , 4135.8974359 , 4144.61538462 , 2041.0 , 2039.0 , 261.831 , 0.0 , 0.0 , 0.0 , 0.0 , 

107.0 , 4133.33333333 , 4130.76923077 , 4135.38461538 , 4131.28205128 , 4133.33333333 , 4132.82051282 , 4127.69230769 , 4135.38461538 , 4140.0 , 4139.48717949 , 4194.35897436 , 4911.79487179 , 4136.41025641 , 4145.12820513 , 2041.0 , 2039.0 , 261.836 , 0.0 , 0.0 , 0.0 , 0.0 , 

108.0 , 4135.38461538 , 4133.84615385 , 4140.51282051 , 4133.84615385 , 4135.38461538 , 4130.76923077 , 4127.17948718 , 4134.35897436 , 4138.97435897 , 4137.94871795 , 4193.84615385 , 4913.84615385 , 4137.43589744 , 4142.05128205 , 2043.0 , 2038.0 , 261.845 , 0.0 , 0.0 , 0.0 , 0.0 , 

109.0 , 4133.33333333 , 4135.38461538 , 4138.97435897 , 4138.97435897 , 4134.35897436 , 4129.74358974 , 4127.69230769 , 4135.38461538 , 4136.92307692 , 4136.41025641 , 4192.30769231 , 4914.87179487 , 4138.46153846 , 4138.97435897 , 2043.0 , 2037.0 , 261.859 , 0.0 , 0.0 , 0.0 , 0.0 , 

110.0 , 4135.38461538 , 4134.87179487 , 4137.43589744 , 4136.41025641 , 4132.82051282 , 4130.25641026 , 4128.20512821 , 4135.38461538 , 4138.46153846 , 4138.46153846 , 4191.79487179 , 4913.84615385 , 4135.8974359 , 4142.05128205 , 2043.0 , 2036.0 , 261.863 , 0.0 , 0.0 , 0.0 , 0.0 , 

111.0 , 4136.92307692 , 4134.35897436 , 4138.46153846 , 4134.35897436 , 4133.84615385 , 4130.76923077 , 4127.69230769 , 4135.38461538 , 4139.48717949 , 4140.51282051 , 4191.28205128 , 4913.33333333 , 4136.41025641 , 4141.53846154 , 2043.0 , 2037.0 , 261.867 , 0.0 , 0.0 , 0.0 , 0.0 , 

112.0 , 4137.43589744 , 4132.30769231 , 4136.92307692 , 4137.43589744 , 4132.30769231 , 4129.74358974 , 4128.20512821 , 4134.87179487 , 4137.94871795 , 4141.02564103 , 4192.30769231 , 4916.41025641 , 4136.92307692 , 4141.02564103 , 2043.0 , 2039.0 , 261.877 , 0.0 , 0.0 , 0.0 , 0.0 , 

113.0 , 4134.87179487 , 4133.33333333 , 4134.35897436 , 4141.02564103 , 4130.76923077 , 4130.25641026 , 4129.74358974 , 4135.38461538 , 4139.48717949 , 4137.94871795 , 4194.35897436 , 4915.38461538 , 4136.92307692 , 4140.51282051 , 2043.0 , 2038.0 , 261.894 , 0.0 , 0.0 , 0.0 , 0.0 , 

114.0 , 4134.35897436 , 4133.33333333 , 4135.8974359 , 4137.94871795 , 4130.25641026 , 4129.74358974 , 4126.66666667 , 4135.8974359 , 4139.48717949 , 4136.92307692 , 4193.84615385 , 4916.92307692 , 4136.41025641 , 4143.58974359 , 2044.0 , 2038.0 , 261.894 , 0.0 , 0.0 , 0.0 , 0.0 , 

115.0 , 4132.30769231 , 4133.84615385 , 4137.43589744 , 4136.92307692 , 4130.76923077 , 4131.28205128 , 4126.15384615 , 4137.94871795 , 4140.0 , 4139.48717949 , 4192.30769231 , 4916.41025641 , 4135.38461538 , 4140.0 , 2043.0 , 2038.0 , 261.899 , 0.0 , 0.0 , 0.0 , 0.0 , 

116.0 , 4133.84615385 , 4134.35897436 , 4136.41025641 , 4137.94871795 , 4132.30769231 , 4131.79487179 , 4129.23076923 , 4135.38461538 , 4140.0 , 4139.48717949 , 4191.79487179 , 4914.87179487 , 4137.43589744 , 4142.56410256 , 2044.0 , 2038.0 , 261.908 , 0.0 , 0.0 , 0.0 , 0.0 , 

117.0 , 4134.87179487 , 4132.82051282 , 4135.8974359 , 4135.8974359 , 4134.35897436 , 4132.30769231 , 4132.30769231 , 4135.8974359 , 4136.92307692 , 4137.94871795 , 4192.82051282 , 4912.82051282 , 4139.48717949 , 4141.02564103 , 2042.0 , 2036.0 , 261.922 , 0.0 , 0.0 , 0.0 , 0.0 , 

118.0 , 4135.38461538 , 4131.28205128 , 4136.41025641 , 4131.28205128 , 4132.82051282 , 4128.71794872 , 4128.71794872 , 4135.38461538 , 4134.87179487 , 4137.43589744 , 4194.35897436 , 4915.8974359 , 4136.92307692 , 4140.51282051 , 2042.0 , 2036.0 , 261.928 , 0.0 , 0.0 , 0.0 , 0.0 , 

119.0 , 4132.82051282 , 4133.84615385 , 4134.87179487 , 4134.35897436 , 4133.33333333 , 4129.23076923 , 4127.69230769 , 4130.76923077 , 4138.97435897 , 4138.46153846 , 4193.33333333 , 4914.87179487 , 4133.84615385 , 4138.97435897 , 2043.0 , 2037.0 , 261.931 , 0.0 , 0.0 , 0.0 , 0.0 , 

120.0 , 4135.38461538 , 4135.8974359 , 4137.43589744 , 4137.94871795 , 4133.84615385 , 4130.76923077 , 4128.20512821 , 4130.76923077 , 4140.0 , 4139.48717949 , 4193.84615385 , 4915.8974359 , 4135.8974359 , 4146.15384615 , 2041.0 , 2035.0 , 261.939 , 0.0 , 0.0 , 0.0 , 0.0 , 

121.0 , 4138.46153846 , 4134.87179487 , 4138.97435897 , 4138.46153846 , 4132.82051282 , 4130.76923077 , 4129.23076923 , 4137.43589744 , 4137.94871795 , 4139.48717949 , 4193.33333333 , 4915.8974359 , 4137.94871795 , 4143.58974359 , 2042.0 , 2034.0 , 261.953 , 0.0 , 0.0 , 0.0 , 0.0 , 

122.0 , 4140.51282051 , 4133.84615385 , 4137.94871795 , 4138.97435897 , 4131.28205128 , 4129.74358974 , 4128.71794872 , 4135.8974359 , 4137.94871795 , 4137.94871795 , 4191.79487179 , 4915.38461538 , 4134.87179487 , 4141.02564103 , 2043.0 , 2036.0 , 261.959 , 0.0 , 0.0 , 0.0 , 0.0 , 

123.0 , 4136.92307692 , 4133.84615385 , 4137.43589744 , 4141.02564103 , 4131.28205128 , 4132.30769231 , 4128.20512821 , 4132.30769231 , 4141.53846154 , 4136.41025641 , 4189.74358974 , 4914.35897436 , 4135.38461538 , 4138.46153846 , 2043.0 , 2035.0 , 261.963 , 0.0 , 0.0 , 0.0 , 0.0 , 

124.0 , 4134.35897436 , 4132.82051282 , 4139.48717949 , 4138.97435897 , 4132.82051282 , 4132.82051282 , 4125.64102564 , 4135.38461538 , 4140.51282051 , 4138.46153846 , 4192.82051282 , 4914.35897436 , 4138.46153846 , 4141.02564103 , 2041.0 , 2034.0 , 261.971 , 0.0 , 0.0 , 0.0 , 0.0 , 

125.0 , 4132.82051282 , 4132.30769231 , 4138.97435897 , 4136.92307692 , 4132.82051282 , 4130.76923077 , 4126.15384615 , 4137.94871795 , 4136.92307692 , 4140.51282051 , 4194.87179487 , 4913.33333333 , 4136.41025641 , 4143.58974359 , 2043.0 , 2034.0 , 261.982 , 0.0 , 0.0 , 0.0 , 0.0 , 

126.0 , 4131.79487179 , 4133.84615385 , 4136.41025641 , 4137.43589744 , 4132.30769231 , 4129.23076923 , 4129.23076923 , 4136.92307692 , 4136.92307692 , 4140.0 , 4191.79487179 , 4913.84615385 , 4135.8974359 , 4143.07692308 , 2043.0 , 2032.0 , 261.989 , 0.0 , 0.0 , 0.0 , 0.0 , 

127.0 , 4134.35897436 , 4133.33333333 , 4135.38461538 , 4134.87179487 , 4132.30769231 , 4129.74358974 , 4130.76923077 , 4133.84615385 , 4138.97435897 , 4138.46153846 , 4191.28205128 , 4915.8974359 , 4136.41025641 , 4142.56410256 , 2044.0 , 2034.0 , 261.993 , 0.0 , 0.0 , 0.0 , 0.0 , 

128.0 , 4135.38461538 , 4131.79487179 , 4135.38461538 , 4133.84615385 , 4132.82051282 , 4131.28205128 , 4129.74358974 , 4134.87179487 , 4137.94871795 , 4138.97435897 , 4191.79487179 , 4914.35897436 , 4135.8974359 , 4141.02564103 , 2044.0 , 2034.0 , 262.002 , 0.0 , 0.0 , 0.0 , 0.0 , 

0.0 , 4134.35897436 , 4132.30769231 , 4136.92307692 , 4134.87179487 , 4131.28205128 , 4131.79487179 , 4128.71794872 , 4136.41025641 , 4135.38461538 , 4140.0 , 4191.79487179 , 4914.87179487 , 4134.87179487 , 4142.05128205 , 2045.0 , 2034.0 , 262.014 , 0.0 , 0.0 , 0.0 , 0.0 , 

1.0 , 4134.87179487 , 4132.30769231 , 4136.92307692 , 4135.8974359 , 4130.25641026 , 4130.76923077 , 4130.76923077 , 4133.84615385 , 4137.43589744 , 4140.0 , 4193.33333333 , 4917.43589744 , 4136.92307692 , 4140.51282051 , 2045.0 , 2033.0 , 262.021 , 0.0 , 0.0 , 0.0 , 0.0 , 

2.0 , 4136.41025641 , 4130.25641026 , 4138.46153846 , 4135.8974359 , 4132.30769231 , 4130.25641026 , 4131.79487179 , 4131.28205128 , 4140.0 , 4138.97435897 , 4194.35897436 , 4916.92307692 , 4137.94871795 , 4145.12820513 , 2044.0 , 2034.0 , 262.025 , 0.0 , 0.0 , 0.0 , 0.0 , 

3.0 , 4130.76923077 , 4131.79487179 , 4137.94871795 , 4138.97435897 , 4134.87179487 , 4133.33333333 , 4129.74358974 , 4134.35897436 , 4139.48717949 , 4138.46153846 , 4194.35897436 , 4911.79487179 , 4136.92307692 , 4144.1025641 , 2043.0 , 2034.0 , 262.034 , 0.0 , 0.0 , 0.0 , 0.0 , 

4.0 , 4130.76923077 , 4132.30769231 , 4136.92307692 , 4136.41025641 , 4132.82051282 , 4130.76923077 , 4127.69230769 , 4136.92307692 , 4137.43589744 , 4138.97435897 , 4194.87179487 , 4914.35897436 , 4135.38461538 , 4141.53846154 , 2044.0 , 2035.0 , 262.047 , 0.0 , 0.0 , 0.0 , 0.0 , 

5.0 , 4132.30769231 , 4131.28205128 , 4135.8974359 , 4134.35897436 , 4131.28205128 , 4127.69230769 , 4130.76923077 , 4136.92307692 , 4140.0 , 4138.46153846 , 4193.33333333 , 4914.35897436 , 4135.8974359 , 4135.8974359 , 2043.0 , 2035.0 , 262.052 , 0.0 , 0.0 , 0.0 , 0.0 , 

6.0 , 4133.33333333 , 4130.76923077 , 4137.94871795 , 4134.87179487 , 4131.79487179 , 4128.20512821 , 4128.20512821 , 4134.87179487 , 4140.51282051 , 4137.94871795 , 4191.79487179 , 4914.35897436 , 4136.41025641 , 4140.51282051 , 2043.0 , 2036.0 , 262.056 , 0.0 , 0.0 , 0.0 , 0.0 , 

7.0 , 4133.33333333 , 4131.28205128 , 4137.94871795 , 4137.43589744 , 4131.79487179 , 4130.25641026 , 4125.64102564 , 4135.8974359 , 4140.0 , 4139.48717949 , 4193.84615385 , 4914.87179487 , 4135.38461538 , 4144.1025641 , 2041.0 , 2035.0 , 262.065 , 0.0 , 0.0 , 0.0 , 0.0 , 

8.0 , 4136.41025641 , 4130.76923077 , 4136.92307692 , 4138.46153846 , 4131.28205128 , 4129.74358974 , 4126.66666667 , 4136.41025641 , 4140.51282051 , 4140.0 , 4195.8974359 , 4916.41025641 , 4135.38461538 , 4147.17948718 , 2040.0 , 2034.0 , 262.078 , 0.0 , 0.0 , 0.0 , 0.0 , 

9.0 , 4135.38461538 , 4132.82051282 , 4135.8974359 , 4138.97435897 , 4132.30769231 , 4130.25641026 , 4129.23076923 , 4135.8974359 , 4141.02564103 , 4137.94871795 , 4192.82051282 , 4912.30769231 , 4136.41025641 , 4140.51282051 , 2041.0 , 2036.0 , 262.084 , 0.0 , 0.0 , 0.0 , 0.0 , 

10.0 , 4135.8974359 , 4134.87179487 , 4135.8974359 , 4137.43589744 , 4131.28205128 , 4129.74358974 , 4124.61538462 , 4133.84615385 , 4138.46153846 , 4137.43589744 , 4192.82051282 , 4913.33333333 , 4135.8974359 , 4142.05128205 , 2040.0 , 2037.0 , 262.088 , 0.0 , 0.0 , 0.0 , 0.0 , 

11.0 , 4133.33333333 , 4132.82051282 , 4134.87179487 , 4138.46153846 , 4130.76923077 , 4129.74358974 , 4123.58974359 , 4134.35897436 , 4137.43589744 , 4140.51282051 , 4194.35897436 , 4914.35897436 , 4135.38461538 , 4145.64102564 , 2040.0 , 2036.0 , 262.097 , 0.0 , 0.0 , 0.0 , 0.0 , 

12.0 , 4132.82051282 , 4129.74358974 , 4135.8974359 , 4139.48717949 , 4131.28205128 , 4128.71794872 , 4128.20512821 , 4133.84615385 , 4137.94871795 , 4139.48717949 , 4193.33333333 , 4915.38461538 , 4134.35897436 , 4146.66666667 , 2041.0 , 2036.0 , 262.111 , 0.0 , 0.0 , 0.0 , 0.0 , 

13.0 , 4134.87179487 , 4130.76923077 , 4134.87179487 , 4137.94871795 , 4131.79487179 , 4129.74358974 , 4129.23076923 , 4134.87179487 , 4137.94871795 , 4136.41025641 , 4191.79487179 , 4916.41025641 , 4133.84615385 , 4141.02564103 , 2042.0 , 2036.0 , 262.117 , 0.0 , 0.0 , 0.0 , 0.0 , 

14.0 , 4136.41025641 , 4132.82051282 , 4134.35897436 , 4135.38461538 , 4132.82051282 , 4132.30769231 , 4126.66666667 , 4137.94871795 , 4138.46153846 , 4137.94871795 , 4193.84615385 , 4915.38461538 , 4136.92307692 , 4139.48717949 , 2042.0 , 2035.0 , 262.12 , 0.0 , 0.0 , 0.0 , 0.0 , 

15.0 , 4133.33333333 , 4132.82051282 , 4137.43589744 , 4133.84615385 , 4132.82051282 , 4132.82051282 , 4126.66666667 , 4137.43589744 , 4139.48717949 , 4142.05128205 , 4193.33333333 , 4913.33333333 , 4136.41025641 , 4140.0 , 2043.0 , 2038.0 , 262.128 , 0.0 , 0.0 , 0.0 , 0.0 , 

16.0 , 4131.79487179 , 4134.35897436 , 4136.92307692 , 4135.8974359 , 4130.25641026 , 4130.25641026 , 4128.20512821 , 4135.38461538 , 4138.46153846 , 4140.0 , 4191.28205128 , 4914.87179487 , 4135.8974359 , 4138.97435897 , 2044.0 , 2036.0 , 262.143 , 0.0 , 0.0 , 0.0 , 0.0 , 

17.0 , 4134.35897436 , 4133.33333333 , 4135.38461538 , 4136.41025641 , 4129.23076923 , 4130.76923077 , 4127.69230769 , 4133.84615385 , 4137.43589744 , 4135.8974359 , 4191.79487179 , 4915.38461538 , 4137.43589744 , 4142.05128205 , 2044.0 , 2036.0 , 262.147 , 0.0 , 0.0 , 0.0 , 0.0 , 

18.0 , 4134.35897436 , 4131.28205128 , 4136.92307692 , 4133.84615385 , 4129.74358974 , 4132.30769231 , 4126.66666667 , 4134.87179487 , 4138.97435897 , 4137.94871795 , 4193.33333333 , 4910.76923077 , 4138.97435897 , 4144.1025641 , 2044.0 , 2037.0 , 262.151 , 0.0 , 0.0 , 0.0 , 0.0 , 

19.0 , 4135.38461538 , 4130.76923077 , 4137.94871795 , 4133.84615385 , 4130.25641026 , 4130.25641026 , 4126.66666667 , 4134.87179487 , 4138.46153846 , 4142.05128205 , 4192.30769231 , 4912.30769231 , 4135.38461538 , 4144.1025641 , 2044.0 , 2036.0 , 262.161 , 0.0 , 0.0 , 0.0 , 0.0 , 

20.0 , 4136.41025641 , 4133.84615385 , 4136.41025641 , 4137.94871795 , 4131.28205128 , 4128.71794872 , 4128.20512821 , 4135.38461538 , 4137.43589744 , 4141.02564103 , 4190.76923077 , 4915.8974359 , 4134.35897436 , 4141.02564103 , 2045.0 , 2034.0 , 262.177 , 0.0 , 0.0 , 0.0 , 0.0 , 

21.0 , 4135.8974359 , 4135.38461538 , 4136.92307692 , 4135.8974359 , 4131.28205128 , 4127.69230769 , 4127.69230769 , 4134.35897436 , 4136.92307692 , 4137.43589744 , 4191.79487179 , 4914.87179487 , 4137.43589744 , 4143.58974359 , 2044.0 , 2037.0 , 262.179 , 0.0 , 0.0 , 0.0 , 0.0 , 

22.0 , 4131.79487179 , 4134.87179487 , 4135.8974359 , 4134.35897436 , 4131.79487179 , 4133.33333333 , 4128.20512821 , 4137.43589744 , 4139.48717949 , 4137.94871795 , 4193.33333333 , 4910.76923077 , 4138.46153846 , 4141.02564103 , 2043.0 , 2035.0 , 262.183 , 0.0 , 0.0 , 0.0 , 0.0 , 

23.0 , 4135.8974359 , 4131.79487179 , 4134.87179487 , 4134.87179487 , 4132.82051282 , 4134.35897436 , 4128.71794872 , 4138.97435897 , 4140.51282051 , 4142.05128205 , 4194.87179487 , 4913.33333333 , 4135.8974359 , 4142.05128205 , 2045.0 , 2037.0 , 262.191 , 0.0 , 0.0 , 0.0 , 0.0 , 

24.0 , 4135.8974359 , 4131.79487179 , 4136.92307692 , 4136.41025641 , 4131.79487179 , 4131.79487179 , 4129.23076923 , 4137.43589744 , 4139.48717949 , 4141.53846154 , 4193.33333333 , 4912.82051282 , 4135.8974359 , 4142.05128205 , 2044.0 , 2036.0 , 262.203 , 0.0 , 0.0 , 0.0 , 0.0 , 

25.0 , 4134.87179487 , 4132.82051282 , 4137.94871795 , 4134.35897436 , 4129.74358974 , 4130.25641026 , 4127.69230769 , 4135.38461538 , 4137.43589744 , 4136.92307692 , 4193.33333333 , 4914.35897436 , 4136.92307692 , 4147.69230769 , 2043.0 , 2036.0 , 262.21 , 0.0 , 0.0 , 0.0 , 0.0 , 

26.0 , 4132.82051282 , 4131.28205128 , 4135.38461538 , 4132.30769231 , 4131.28205128 , 4131.79487179 , 4128.20512821 , 4137.43589744 , 4137.94871795 , 4137.43589744 , 4193.84615385 , 4914.87179487 , 4135.38461538 , 4144.1025641 , 2042.0 , 2036.0 , 262.215 , 0.0 , 0.0 , 0.0 , 0.0 , 

27.0 , 4133.33333333 , 4131.28205128 , 4136.41025641 , 4131.28205128 , 4130.25641026 , 4129.23076923 , 4126.66666667 , 4136.41025641 , 4135.8974359 , 4138.97435897 , 4193.33333333 , 4915.38461538 , 4135.8974359 , 4142.56410256 , 2042.0 , 2038.0 , 262.223 , 0.0 , 0.0 , 0.0 , 0.0 , 

28.0 , 4132.30769231 , 4135.38461538 , 4136.92307692 , 4133.33333333 , 4129.23076923 , 4130.76923077 , 4128.20512821 , 4136.92307692 , 4136.41025641 , 4138.97435897 , 4191.79487179 , 4914.35897436 , 4136.92307692 , 4141.02564103 , 2043.0 , 2035.0 , 262.235 , 0.0 , 0.0 , 0.0 , 0.0 , 

29.0 , 4133.84615385 , 4133.84615385 , 4135.38461538 , 4133.84615385 , 4131.28205128 , 4131.79487179 , 4129.74358974 , 4137.43589744 , 4138.97435897 , 4141.02564103 , 4193.33333333 , 4916.92307692 , 4135.38461538 , 4143.58974359 , 2043.0 , 2036.0 , 262.242 , 0.0 , 0.0 , 0.0 , 0.0 , 

30.0 , 4131.79487179 , 4129.23076923 , 4134.87179487 , 4133.84615385 , 4133.84615385 , 4129.74358974 , 4129.74358974 , 4135.38461538 , 4138.46153846 , 4142.56410256 , 4193.84615385 , 4915.8974359 , 4135.38461538 , 4141.02564103 , 2042.0 , 2037.0 , 262.246 , 0.0 , 0.0 , 0.0 , 0.0 , 

31.0 , 4130.25641026 , 4129.23076923 , 4135.8974359 , 4135.38461538 , 4133.84615385 , 4129.23076923 , 4128.20512821 , 4132.30769231 , 4135.8974359 , 4139.48717949 , 4193.33333333 , 4915.38461538 , 4137.43589744 , 4141.53846154 , 2043.0 , 2037.0 , 262.254 , 0.0 , 0.0 , 0.0 , 0.0 , 

32.0 , 4131.79487179 , 4131.79487179 , 4135.8974359 , 4136.41025641 , 4131.79487179 , 4130.25641026 , 4127.17948718 , 4134.87179487 , 4137.94871795 , 4138.46153846 , 4193.33333333 , 4914.87179487 , 4135.8974359 , 4144.61538462 , 2042.0 , 2037.0 , 262.267 , 0.0 , 0.0 , 0.0 , 0.0 , 

33.0 , 4132.82051282 , 4132.30769231 , 4135.8974359 , 4135.38461538 , 4129.74358974 , 4131.28205128 , 4127.17948718 , 4137.43589744 , 4137.43589744 , 4140.0 , 4192.82051282 , 4913.33333333 , 4136.41025641 , 4144.61538462 , 2042.0 , 2036.0 , 262.273 , 0.0 , 0.0 , 0.0 , 0.0 , 

34.0 , 4134.87179487 , 4131.79487179 , 4136.92307692 , 4133.33333333 , 4130.25641026 , 4133.84615385 , 4128.71794872 , 4133.84615385 , 4135.38461538 , 4138.46153846 , 4193.84615385 , 4913.84615385 , 4139.48717949 , 4141.02564103 , 2044.0 , 2036.0 , 262.278 , 0.0 , 0.0 , 0.0 , 0.0 , 

35.0 , 4134.87179487 , 4134.35897436 , 4135.8974359 , 4131.79487179 , 4132.30769231 , 4133.84615385 , 4128.20512821 , 4132.82051282 , 4135.38461538 , 4138.46153846 , 4196.92307692 , 4915.38461538 , 4138.46153846 , 4140.0 , 2046.0 , 2037.0 , 262.286 , 0.0 , 0.0 , 0.0 , 0.0 , 

36.0 , 4135.38461538 , 4136.41025641 , 4136.41025641 , 4131.79487179 , 4131.28205128 , 4128.20512821 , 4125.64102564 , 4134.87179487 , 4135.8974359 , 4140.0 , 4194.87179487 , 4914.35897436 , 4133.33333333 , 4141.02564103 , 2045.0 , 2035.0 , 262.301 , 0.0 , 0.0 , 0.0 , 0.0 , 

37.0 , 4136.41025641 , 4133.33333333 , 4137.94871795 , 4133.84615385 , 4129.74358974 , 4128.71794872 , 4127.17948718 , 4137.43589744 , 4135.8974359 , 4139.48717949 , 4191.28205128 , 4911.79487179 , 4134.35897436 , 4137.94871795 , 2044.0 , 2037.0 , 262.304 , 0.0 , 0.0 , 0.0 , 0.0 , 

38.0 , 4137.94871795 , 4131.79487179 , 4138.46153846 , 4132.30769231 , 4129.74358974 , 4133.33333333 , 4129.23076923 , 4136.92307692 , 4135.38461538 , 4139.48717949 , 4194.35897436 , 4916.41025641 , 4136.92307692 , 4141.02564103 , 2045.0 , 2037.0 , 262.309 , 0.0 , 0.0 , 0.0 , 0.0 , 

39.0 , 4134.87179487 , 4136.41025641 , 4137.43589744 , 4133.84615385 , 4131.28205128 , 4133.33333333 , 4129.23076923 , 4134.87179487 , 4136.92307692 , 4140.51282051 , 4195.38461538 , 4916.41025641 , 4138.97435897 , 4141.53846154 , 2043.0 , 2038.0 , 262.317 , 0.0 , 0.0 , 0.0 , 0.0 , 

40.0 , 4130.76923077 , 4133.84615385 , 4137.94871795 , 4136.41025641 , 4130.25641026 , 4129.23076923 , 4125.64102564 , 4132.82051282 , 4137.94871795 , 4140.0 , 4190.25641026 , 4913.84615385 , 4136.92307692 , 4145.12820513 , 2043.0 , 2037.0 , 262.329 , 0.0 , 0.0 , 0.0 , 0.0 , 

41.0 , 4127.17948718 , 4128.71794872 , 4135.8974359 , 4136.92307692 , 4130.25641026 , 4129.23076923 , 4127.69230769 , 4135.8974359 , 4139.48717949 , 4138.97435897 , 4190.25641026 , 4913.84615385 , 4135.8974359 , 4144.1025641 , 2044.0 , 2037.0 , 262.336 , 0.0 , 0.0 , 0.0 , 0.0 , 

42.0 , 4132.30769231 , 4130.25641026 , 4134.87179487 , 4133.33333333 , 4132.82051282 , 4129.23076923 , 4129.23076923 , 4138.46153846 , 4138.46153846 , 4137.94871795 , 4194.35897436 , 4917.43589744 , 4136.92307692 , 4145.64102564 , 2042.0 , 2037.0 , 262.34 , 0.0 , 0.0 , 0.0 , 0.0 , 

43.0 , 4132.82051282 , 4134.35897436 , 4135.8974359 , 4134.35897436 , 4134.87179487 , 4130.25641026 , 4128.20512821 , 4136.41025641 , 4139.48717949 , 4138.97435897 , 4192.30769231 , 4913.84615385 , 4138.97435897 , 4137.94871795 , 2042.0 , 2037.0 , 262.349 , 0.0 , 0.0 , 0.0 , 0.0 , 

44.0 , 4131.79487179 , 4131.79487179 , 4137.94871795 , 4133.33333333 , 4131.28205128 , 4130.25641026 , 4124.1025641 , 4131.28205128 , 4139.48717949 , 4140.0 , 4191.79487179 , 4912.30769231 , 4136.92307692 , 4139.48717949 , 2043.0 , 2038.0 , 262.363 , 0.0 , 0.0 , 0.0 , 0.0 , 

45.0 , 4133.84615385 , 4129.23076923 , 4136.41025641 , 4131.79487179 , 4130.76923077 , 4130.25641026 , 4125.12820513 , 4133.33333333 , 4137.94871795 , 4138.97435897 , 4194.87179487 , 4912.82051282 , 4135.38461538 , 4140.51282051 , 2044.0 , 2036.0 , 262.368 , 0.0 , 0.0 , 0.0 , 0.0 , 

46.0 , 4137.43589744 , 4131.79487179 , 4135.38461538 , 4133.33333333 , 4132.82051282 , 4129.23076923 , 4126.15384615 , 4137.43589744 , 4135.8974359 , 4138.46153846 , 4193.84615385 , 4914.87179487 , 4137.94871795 , 4142.56410256 , 2042.0 , 2036.0 , 262.372 , 0.0 , 0.0 , 0.0 , 0.0 , 

47.0 , 4133.33333333 , 4135.8974359 , 4136.92307692 , 4135.38461538 , 4132.30769231 , 4132.30769231 , 4127.69230769 , 4138.97435897 , 4135.38461538 , 4140.51282051 , 4190.25641026 , 4913.33333333 , 4138.97435897 , 4141.53846154 , 2042.0 , 2036.0 , 262.38 , 0.0 , 0.0 , 0.0 , 0.0 , 

48.0 , 4132.30769231 , 4132.82051282 , 4138.46153846 , 4134.87179487 , 4131.79487179 , 4131.79487179 , 4128.20512821 , 4134.35897436 , 4135.38461538 , 4142.05128205 , 4191.79487179 , 4914.87179487 , 4138.46153846 , 4144.61538462 , 2040.0 , 2036.0 , 262.394 , 0.0 , 0.0 , 0.0 , 0.0 , 

49.0 , 4133.33333333 , 4129.74358974 , 4135.8974359 , 4135.8974359 , 4131.79487179 , 4127.17948718 , 4126.66666667 , 4133.33333333 , 4136.41025641 , 4140.51282051 , 4194.35897436 , 4914.35897436 , 4136.41025641 , 4140.0 , 2041.0 , 2035.0 , 262.399 , 0.0 , 0.0 , 0.0 , 0.0 , 

50.0 , 4131.28205128 , 4132.30769231 , 4135.38461538 , 4136.41025641 , 4131.28205128 , 4125.64102564 , 4125.64102564 , 4135.8974359 , 4138.46153846 , 4140.0 , 4193.33333333 , 4913.84615385 , 4135.38461538 , 4138.97435897 , 2042.0 , 2036.0 , 262.403 , 0.0 , 0.0 , 0.0 , 0.0 , 

51.0 , 4130.25641026 , 4132.82051282 , 4137.94871795 , 4133.33333333 , 4130.76923077 , 4130.76923077 , 4127.69230769 , 4135.8974359 , 4137.43589744 , 4141.53846154 , 4191.79487179 , 4914.87179487 , 4137.94871795 , 4144.1025641 , 2040.0 , 2036.0 , 262.413 , 0.0 , 0.0 , 0.0 , 0.0 , 

52.0 , 4132.82051282 , 4131.79487179 , 4137.43589744 , 4130.76923077 , 4130.76923077 , 4130.25641026 , 4129.23076923 , 4135.8974359 , 4136.41025641 , 4140.51282051 , 4193.33333333 , 4914.35897436 , 4140.0 , 4143.07692308 , 2041.0 , 2035.0 , 262.431 , 0.0 , 0.0 , 0.0 , 0.0 , 

53.0 , 4134.87179487 , 4134.35897436 , 4134.87179487 , 4131.28205128 , 4131.79487179 , 4126.66666667 , 4128.20512821 , 4136.41025641 , 4137.94871795 , 4136.92307692 , 4195.38461538 , 4913.84615385 , 4136.41025641 , 4140.51282051 , 2042.0 , 2036.0 , 262.431 , 0.0 , 0.0 , 0.0 , 0.0 , 

54.0 , 4134.35897436 , 4134.87179487 , 4135.8974359 , 4133.84615385 , 4132.30769231 , 4129.23076923 , 4127.17948718 , 4135.8974359 , 4138.97435897 , 4136.92307692 , 4192.82051282 , 4915.38461538 , 4135.38461538 , 4144.1025641 , 2041.0 , 2035.0 , 262.435 , 0.0 , 0.0 , 0.0 , 0.0 , 

55.0 , 4135.8974359 , 4130.76923077 , 4140.51282051 , 4133.33333333 , 4131.79487179 , 4131.28205128 , 4126.66666667 , 4134.35897436 , 4136.41025641 , 4138.97435897 , 4192.30769231 , 4917.43589744 , 4136.41025641 , 4145.64102564 , 2044.0 , 2035.0 , 262.443 , 0.0 , 0.0 , 0.0 , 0.0 , 

56.0 , 4134.87179487 , 4131.79487179 , 4138.46153846 , 4132.30769231 , 4130.76923077 , 4130.76923077 , 4127.17948718 , 4134.87179487 , 4135.38461538 , 4140.51282051 , 4194.35897436 , 4913.84615385 , 4136.92307692 , 4140.51282051 , 2044.0 , 2035.0 , 262.457 , 0.0 , 0.0 , 0.0 , 0.0 , 

57.0 , 4134.87179487 , 4133.33333333 , 4134.35897436 , 4132.30769231 , 4130.76923077 , 4130.25641026 , 4128.71794872 , 4134.35897436 , 4137.43589744 , 4142.05128205 , 4193.84615385 , 4912.30769231 , 4135.8974359 , 4142.05128205 , 2044.0 , 2035.0 , 262.463 , 0.0 , 0.0 , 0.0 , 0.0 , 

58.0 , 4133.33333333 , 4134.35897436 , 4134.35897436 , 4135.8974359 , 4131.79487179 , 4132.30769231 , 4129.74358974 , 4134.35897436 , 4138.46153846 , 4143.07692308 , 4192.30769231 , 4911.28205128 , 4137.43589744 , 4137.94871795 , 2044.0 , 2034.0 , 262.467 , 0.0 , 0.0 , 0.0 , 0.0 , 

59.0 , 4133.84615385 , 4135.38461538 , 4137.94871795 , 4136.41025641 , 4130.76923077 , 4131.28205128 , 4126.66666667 , 4133.84615385 , 4136.41025641 , 4140.51282051 , 4191.79487179 , 4914.87179487 , 4136.41025641 , 4138.97435897 , 2043.0 , 2035.0 , 262.475 , 0.0 , 0.0 , 0.0 , 0.0 , 

60.0 , 4132.82051282 , 4134.35897436 , 4138.97435897 , 4136.92307692 , 4132.30769231 , 4130.25641026 , 4127.17948718 , 4134.35897436 , 4137.43589744 , 4137.94871795 , 4191.79487179 , 4915.38461538 , 4137.43589744 , 4140.0 , 2044.0 , 2035.0 , 262.488 , 0.0 , 0.0 , 0.0 , 0.0 , 

61.0 , 4133.84615385 , 4133.33333333 , 4138.97435897 , 4134.87179487 , 4132.82051282 , 4128.20512821 , 4126.15384615 , 4134.35897436 , 4137.43589744 , 4138.46153846 , 4194.35897436 , 4914.35897436 , 4140.0 , 4143.07692308 , 2044.0 , 2035.0 , 262.494 , 0.0 , 0.0 , 0.0 , 0.0 , 

62.0 , 4131.79487179 , 4134.87179487 , 4136.92307692 , 4134.87179487 , 4132.30769231 , 4130.76923077 , 4126.66666667 , 4136.41025641 , 4136.41025641 , 4140.0 , 4194.35897436 , 4912.30769231 , 4138.97435897 , 4141.02564103 , 2043.0 , 2035.0 , 262.498 , 0.0 , 0.0 , 0.0 , 0.0 , 

63.0 , 4133.84615385 , 4132.82051282 , 4136.41025641 , 4133.33333333 , 4130.25641026 , 4132.30769231 , 4127.69230769 , 4135.38461538 , 4137.43589744 , 4140.0 , 4193.84615385 , 4912.30769231 , 4135.38461538 , 4145.12820513 , 2042.0 , 2035.0 , 262.506 , 0.0 , 0.0 , 0.0 , 0.0 , 

64.0 , 4136.41025641 , 4130.25641026 , 4136.41025641 , 4132.82051282 , 4131.79487179 , 4131.79487179 , 4128.20512821 , 4132.30769231 , 4140.0 , 4139.48717949 , 4193.33333333 , 4911.28205128 , 4135.38461538 , 4142.56410256 , 2043.0 , 2034.0 , 262.519 , 0.0 , 0.0 , 0.0 , 0.0 , 

65.0 , 4135.8974359 , 4130.76923077 , 4136.41025641 , 4133.84615385 , 4133.33333333 , 4130.76923077 , 4126.66666667 , 4130.76923077 , 4138.46153846 , 4139.48717949 , 4193.84615385 , 4914.87179487 , 4136.92307692 , 4143.07692308 , 2043.0 , 2035.0 , 262.527 , 0.0 , 0.0 , 0.0 , 0.0 , 

66.0 , 4133.33333333 , 4131.79487179 , 4135.8974359 , 4136.41025641 , 4132.82051282 , 4131.28205128 , 4127.17948718 , 4133.84615385 , 4136.92307692 , 4138.46153846 , 4192.30769231 , 4915.38461538 , 4135.8974359 , 4142.05128205 , 2042.0 , 2036.0 , 262.53 , 0.0 , 0.0 , 0.0 , 0.0 , 

67.0 , 4135.38461538 , 4131.28205128 , 4136.92307692 , 4135.8974359 , 4129.74358974 , 4131.79487179 , 4126.66666667 , 4133.84615385 , 4137.43589744 , 4139.48717949 , 4193.33333333 , 4913.33333333 , 4136.92307692 , 4140.51282051 , 2043.0 , 2034.0 , 262.538 , 0.0 , 0.0 , 0.0 , 0.0 , 

68.0 , 4134.87179487 , 4134.87179487 , 4134.35897436 , 4134.87179487 , 4129.23076923 , 4132.30769231 , 4127.17948718 , 4132.82051282 , 4137.43589744 , 4140.51282051 , 4193.84615385 , 4910.76923077 , 4135.38461538 , 4139.48717949 , 2042.0 , 2034.0 , 262.551 , 0.0 , 0.0 , 0.0 , 0.0 , 

69.0 , 4132.30769231 , 4134.87179487 , 4134.35897436 , 4135.38461538 , 4133.33333333 , 4132.30769231 , 4128.20512821 , 4134.35897436 , 4136.92307692 , 4137.94871795 , 4192.82051282 , 4912.30769231 , 4135.38461538 , 4140.51282051 , 2043.0 , 2036.0 , 262.558 , 0.0 , 0.0 , 0.0 , 0.0 , 

70.0 , 4132.30769231 , 4132.82051282 , 4136.92307692 , 4134.87179487 , 4134.35897436 , 4132.82051282 , 4128.20512821 , 4136.92307692 , 4136.41025641 , 4136.92307692 , 4193.84615385 , 4912.82051282 , 4138.46153846 , 4140.0 , 2042.0 , 2036.0 , 262.562 , 0.0 , 0.0 , 0.0 , 0.0 , 

71.0 , 4134.35897436 , 4132.82051282 , 4137.43589744 , 4134.87179487 , 4131.28205128 , 4133.33333333 , 4128.20512821 , 4134.87179487 , 4137.43589744 , 4140.51282051 , 4194.87179487 , 4912.30769231 , 4137.94871795 , 4142.56410256 , 2040.0 , 2036.0 , 262.57 , 0.0 , 0.0 , 0.0 , 0.0 , 

72.0 , 4135.8974359 , 4132.30769231 , 4134.87179487 , 4135.38461538 , 4130.25641026 , 4131.28205128 , 4127.69230769 , 4132.82051282 , 4137.43589744 , 4142.05128205 , 4194.35897436 , 4913.84615385 , 4132.30769231 , 4144.61538462 , 2042.0 , 2038.0 , 262.583 , 0.0 , 0.0 , 0.0 , 0.0 , 

73.0 , 4134.87179487 , 4133.84615385 , 4133.33333333 , 4135.8974359 , 4131.79487179 , 4129.74358974 , 4126.66666667 , 4135.8974359 , 4136.92307692 , 4138.46153846 , 4192.30769231 , 4914.35897436 , 4134.35897436 , 4141.02564103 , 2041.0 , 2039.0 , 262.588 , 0.0 , 0.0 , 0.0 , 0.0 , 

74.0 , 4134.35897436 , 4133.84615385 , 4136.41025641 , 4133.33333333 , 4132.82051282 , 4131.28205128 , 4125.12820513 , 4138.46153846 , 4135.38461538 , 4136.41025641 , 4192.82051282 , 4913.84615385 , 4138.97435897 , 4145.12820513 , 2043.0 , 2038.0 , 262.593 , 0.0 , 0.0 , 0.0 , 0.0 , 

75.0 , 4134.87179487 , 4132.82051282 , 4136.92307692 , 4134.87179487 , 4132.30769231 , 4133.33333333 , 4123.58974359 , 4137.94871795 , 4136.41025641 , 4138.46153846 , 4193.84615385 , 4912.82051282 , 4137.94871795 , 4147.17948718 , 2042.0 , 2036.0 , 262.601 , 0.0 , 0.0 , 0.0 , 0.0 , 

76.0 , 4137.43589744 , 4133.33333333 , 4136.41025641 , 4135.8974359 , 4132.30769231 , 4130.76923077 , 4123.58974359 , 4136.41025641 , 4137.43589744 , 4140.0 , 4191.79487179 , 4914.35897436 , 4136.41025641 , 4145.12820513 , 2043.0 , 2039.0 , 262.612 , 0.0 , 0.0 , 0.0 , 0.0 , 

77.0 , 4134.35897436 , 4133.84615385 , 4136.41025641 , 4133.84615385 , 4132.30769231 , 4130.76923077 , 4128.20512821 , 4137.43589744 , 4138.46153846 , 4139.48717949 , 4189.74358974 , 4912.30769231 , 4137.94871795 , 4136.92307692 , 2042.0 , 2039.0 , 262.619 , 0.0 , 0.0 , 0.0 , 0.0 , 

78.0 , 4134.35897436 , 4131.28205128 , 4137.43589744 , 4132.30769231 , 4130.25641026 , 4133.33333333 , 4127.69230769 , 4136.41025641 , 4137.43589744 , 4138.97435897 , 4190.76923077 , 4912.82051282 , 4135.38461538 , 4140.51282051 , 2042.0 , 2038.0 , 262.624 , 0.0 , 0.0 , 0.0 , 0.0 , 

79.0 , 4135.38461538 , 4130.76923077 , 4136.41025641 , 4135.8974359 , 4131.28205128 , 4135.38461538 , 4125.12820513 , 4135.8974359 , 4137.43589744 , 4139.48717949 , 4192.30769231 , 4912.30769231 , 4133.84615385 , 4140.51282051 , 2042.0 , 2039.0 , 262.633 , 0.0 , 0.0 , 0.0 , 0.0 , 

80.0 , 4136.41025641 , 4130.76923077 , 4136.92307692 , 4134.35897436 , 4132.30769231 , 4130.76923077 , 4126.15384615 , 4135.8974359 , 4135.8974359 , 4140.51282051 , 4193.33333333 , 4913.84615385 , 4135.38461538 , 4140.51282051 , 2043.0 , 2037.0 , 262.645 , 0.0 , 0.0 , 0.0 , 0.0 , 

81.0 , 4131.79487179 , 4133.33333333 , 4134.87179487 , 4132.82051282 , 4131.79487179 , 4128.20512821 , 4129.23076923 , 4135.8974359 , 4135.38461538 , 4140.51282051 , 4192.82051282 , 4915.8974359 , 4136.41025641 , 4139.48717949 , 2042.0 , 2037.0 , 262.651 , 0.0 , 0.0 , 0.0 , 0.0 , 

82.0 , 4133.33333333 , 4133.33333333 , 4134.35897436 , 4133.84615385 , 4131.79487179 , 4129.23076923 , 4127.17948718 , 4135.8974359 , 4136.41025641 , 4139.48717949 , 4192.30769231 , 4918.46153846 , 4135.38461538 , 4143.58974359 , 2041.0 , 2037.0 , 262.656 , 0.0 , 0.0 , 0.0 , 0.0 , 

83.0 , 4134.35897436 , 4131.79487179 , 4137.43589744 , 4135.38461538 , 4133.33333333 , 4130.76923077 , 4128.20512821 , 4136.92307692 , 4137.43589744 , 4138.46153846 , 4192.82051282 , 4914.87179487 , 4132.82051282 , 4140.51282051 , 2043.0 , 2037.0 , 262.664 , 0.0 , 0.0 , 0.0 , 0.0 , 

84.0 , 4133.84615385 , 4133.33333333 , 4140.0 , 4132.82051282 , 4132.82051282 , 4129.23076923 , 4128.20512821 , 4136.92307692 , 4136.41025641 , 4138.97435897 , 4194.87179487 , 4913.33333333 , 4133.33333333 , 4142.05128205 , 2042.0 , 2036.0 , 262.676 , 0.0 , 0.0 , 0.0 , 0.0 , 

85.0 , 4130.76923077 , 4133.84615385 , 4137.43589744 , 4133.33333333 , 4132.30769231 , 4131.79487179 , 4130.25641026 , 4134.35897436 , 4136.41025641 , 4141.53846154 , 4192.82051282 , 4911.79487179 , 4136.92307692 , 4141.53846154 , 2041.0 , 2037.0 , 262.683 , 0.0 , 0.0 , 0.0 , 0.0 , 

86.0 , 4133.33333333 , 4129.74358974 , 4136.41025641 , 4136.92307692 , 4132.30769231 , 4133.84615385 , 4129.23076923 , 4133.84615385 , 4136.92307692 , 4142.05128205 , 4191.28205128 , 4911.79487179 , 4137.43589744 , 4138.97435897 , 2041.0 , 2037.0 , 262.687 , 0.0 , 0.0 , 0.0 , 0.0 , 

87.0 , 4134.35897436 , 4128.20512821 , 4136.92307692 , 4137.43589744 , 4133.33333333 , 4132.30769231 , 4125.64102564 , 4135.8974359 , 4138.46153846 , 4140.51282051 , 4193.33333333 , 4913.33333333 , 4135.38461538 , 4137.94871795 , 2041.0 , 2035.0 , 262.695 , 0.0 , 0.0 , 0.0 , 0.0 , 

88.0 , 4131.79487179 , 4130.25641026 , 4137.43589744 , 4136.41025641 , 4132.30769231 , 4131.28205128 , 4126.15384615 , 4133.84615385 , 4135.38461538 , 4139.48717949 , 4194.87179487 , 4914.35897436 , 4136.41025641 , 4143.58974359 , 2040.0 , 2035.0 , 262.708 , 0.0 , 0.0 , 0.0 , 0.0 , 

89.0 , 4129.74358974 , 4130.25641026 , 4138.46153846 , 4135.38461538 , 4131.79487179 , 4131.28205128 , 4130.76923077 , 4132.30769231 , 4132.30769231 , 4142.56410256 , 4192.82051282 , 4912.30769231 , 4134.35897436 , 4145.12820513 , 2041.0 , 2035.0 , 262.716 , 0.0 , 0.0 , 0.0 , 0.0 , 

90.0 , 4131.79487179 , 4131.79487179 , 4138.97435897 , 4136.41025641 , 4132.30769231 , 4130.76923077 , 4129.23076923 , 4134.35897436 , 4135.8974359 , 4141.53846154 , 4191.79487179 , 4912.82051282 , 4133.33333333 , 4141.53846154 , 2042.0 , 2037.0 , 262.719 , 0.0 , 0.0 , 0.0 , 0.0 , 

91.0 , 4137.43589744 , 4131.79487179 , 4137.94871795 , 4136.92307692 , 4130.76923077 , 4131.28205128 , 4125.12820513 , 4135.38461538 , 4137.43589744 , 4136.92307692 , 4191.79487179 , 4916.41025641 , 4135.38461538 , 4141.02564103 , 2042.0 , 2034.0 , 262.727 , 0.0 , 0.0 , 0.0 , 0.0 , 

92.0 , 4135.38461538 , 4132.82051282 , 4137.43589744 , 4137.43589744 , 4130.25641026 , 4132.30769231 , 4126.15384615 , 4136.92307692 , 4135.38461538 , 4141.53846154 , 4192.30769231 , 4913.33333333 , 4137.43589744 , 4141.02564103 , 2042.0 , 2034.0 , 262.737 , 0.0 , 0.0 , 0.0 , 0.0 , 

93.0 , 4134.35897436 , 4133.33333333 , 4139.48717949 , 4137.43589744 , 4132.82051282 , 4130.76923077 , 4126.15384615 , 4135.38461538 , 4134.87179487 , 4144.61538462 , 4194.87179487 , 4912.82051282 , 4135.8974359 , 4143.07692308 , 2043.0 , 2034.0 , 262.746 , 0.0 , 0.0 , 0.0 , 0.0 , 

94.0 , 4136.41025641 , 4133.33333333 , 4138.97435897 , 4137.94871795 , 4133.33333333 , 4131.28205128 , 4127.69230769 , 4134.87179487 , 4136.92307692 , 4140.51282051 , 4193.33333333 , 4915.8974359 , 4134.35897436 , 4140.0 , 2044.0 , 2035.0 , 262.75 , 0.0 , 0.0 , 0.0 , 0.0 , 

95.0 , 4135.8974359 , 4134.35897436 , 4137.94871795 , 4136.41025641 , 4130.76923077 , 4131.28205128 , 4129.23076923 , 4134.87179487 , 4136.92307692 , 4142.56410256 , 4190.25641026 , 4916.92307692 , 4133.84615385 , 4141.02564103 , 2043.0 , 2035.0 , 262.759 , 0.0 , 0.0 , 0.0 , 0.0 , 

96.0 , 4132.82051282 , 4136.41025641 , 4137.43589744 , 4134.87179487 , 4131.79487179 , 4131.79487179 , 4130.25641026 , 4135.38461538 , 4137.43589744 , 4143.58974359 , 4190.76923077 , 4910.25641026 , 4134.87179487 , 4137.94871795 , 2044.0 , 2035.0 , 262.77 , 0.0 , 0.0 , 0.0 , 0.0 , 

97.0 , 4135.8974359 , 4131.79487179 , 4137.43589744 , 4133.33333333 , 4132.30769231 , 4131.28205128 , 4128.71794872 , 4134.35897436 , 4136.92307692 , 4137.94871795 , 4192.30769231 , 4910.76923077 , 4134.87179487 , 4139.48717949 , 2045.0 , 2035.0 , 262.778 , 0.0 , 0.0 , 0.0 , 0.0 , 

98.0 , 4133.84615385 , 4130.25641026 , 4137.43589744 , 4135.38461538 , 4132.30769231 , 4131.28205128 , 4128.20512821 , 4134.35897436 , 4136.92307692 , 4138.46153846 , 4191.79487179 , 4913.84615385 , 4134.87179487 , 4138.46153846 , 2043.0 , 2036.0 , 262.782 , 0.0 , 0.0 , 0.0 , 0.0 , 

99.0 , 4133.33333333 , 4133.33333333 , 4140.0 , 4134.35897436 , 4132.82051282 , 4130.25641026 , 4127.17948718 , 4131.79487179 , 4135.8974359 , 4141.02564103 , 4192.82051282 , 4915.8974359 , 4133.84615385 , 4143.07692308 , 2043.0 , 2037.0 , 262.79 , 0.0 , 0.0 , 0.0 , 0.0 , 

100.0 , 4135.38461538 , 4134.35897436 , 4138.46153846 , 4132.82051282 , 4131.79487179 , 4133.84615385 , 4129.23076923 , 4132.82051282 , 4137.43589744 , 4136.92307692 , 4193.84615385 , 4911.79487179 , 4131.79487179 , 4140.51282051 , 2043.0 , 2036.0 , 262.805 , 0.0 , 0.0 , 0.0 , 0.0 , 

101.0 , 4137.43589744 , 4132.82051282 , 4135.8974359 , 4131.79487179 , 4128.71794872 , 4133.33333333 , 4129.23076923 , 4134.35897436 , 4138.97435897 , 4137.43589744 , 4193.33333333 , 4911.79487179 , 4134.35897436 , 4143.58974359 , 2042.0 , 2036.0 , 262.808 , 0.0 , 0.0 , 0.0 , 0.0 , 

102.0 , 4133.84615385 , 4134.87179487 , 4136.41025641 , 4137.43589744 , 4131.79487179 , 4130.76923077 , 4129.23076923 , 4134.35897436 , 4137.43589744 , 4141.02564103 , 4192.30769231 , 4913.33333333 , 4135.8974359 , 4142.05128205 , 2043.0 , 2035.0 , 262.813 , 0.0 , 0.0 , 0.0 , 0.0 , 

103.0 , 4135.38461538 , 4135.8974359 , 4138.46153846 , 4138.46153846 , 4137.43589744 , 4132.30769231 , 4130.76923077 , 4135.38461538 , 4134.87179487 , 4137.94871795 , 4192.82051282 , 4915.38461538 , 4133.33333333 , 4141.53846154 , 2042.0 , 2036.0 , 262.821 , 0.0 , 0.0 , 0.0 , 0.0 , 

104.0 , 4134.35897436 , 4134.35897436 , 4136.92307692 , 4137.94871795 , 4135.38461538 , 4137.43589744 , 4131.28205128 , 4137.43589744 , 4137.43589744 , 4137.43589744 , 4193.33333333 , 4914.87179487 , 4134.35897436 , 4141.02564103 , 2042.0 , 2035.0 , 262.835 , 0.0 , 0.0 , 0.0 , 0.0 , 

105.0 , 4133.33333333 , 4131.28205128 , 4135.8974359 , 4138.97435897 , 4131.79487179 , 4135.38461538 , 4128.20512821 , 4136.41025641 , 4140.0 , 4140.0 , 4193.84615385 , 4914.35897436 , 4135.8974359 , 4143.58974359 , 2041.0 , 2036.0 , 262.84 , 0.0 , 0.0 , 0.0 , 0.0 , 

106.0 , 4131.28205128 , 4129.74358974 , 4135.8974359 , 4137.43589744 , 4132.30769231 , 4132.30769231 , 4128.71794872 , 4136.92307692 , 4137.43589744 , 4141.02564103 , 4192.82051282 , 4913.84615385 , 4131.79487179 , 4143.07692308 , 2042.0 , 2037.0 , 262.845 , 0.0 , 0.0 , 0.0 , 0.0 , 

107.0 , 4132.82051282 , 4128.71794872 , 4136.41025641 , 4135.38461538 , 4131.79487179 , 4132.82051282 , 4130.25641026 , 4138.46153846 , 4136.41025641 , 4138.97435897 , 4192.82051282 , 4914.87179487 , 4131.79487179 , 4141.02564103 , 2042.0 , 2037.0 , 262.853 , 0.0 , 0.0 , 0.0 , 0.0 , 

108.0 , 4137.94871795 , 4131.79487179 , 4137.43589744 , 4137.94871795 , 4131.28205128 , 4132.30769231 , 4128.71794872 , 4135.38461538 , 4137.43589744 , 4137.94871795 , 4190.76923077 , 4914.87179487 , 4134.87179487 , 4142.05128205 , 2043.0 , 2038.0 , 262.867 , 0.0 , 0.0 , 0.0 , 0.0 , 

109.0 , 4135.8974359 , 4132.82051282 , 4136.41025641 , 4138.46153846 , 4130.76923077 , 4129.74358974 , 4128.71794872 , 4133.84615385 , 4137.94871795 , 4140.0 , 4190.76923077 , 4912.30769231 , 4134.87179487 , 4142.05128205 , 2043.0 , 2038.0 , 262.871 , 0.0 , 0.0 , 0.0 , 0.0 , 

110.0 , 4132.30769231 , 4130.25641026 , 4135.38461538 , 4134.87179487 , 4130.25641026 , 4129.74358974 , 4128.71794872 , 4132.82051282 , 4136.92307692 , 4140.51282051 , 4193.84615385 , 4914.87179487 , 4133.33333333 , 4141.02564103 , 2044.0 , 2037.0 , 262.877 , 0.0 , 0.0 , 0.0 , 0.0 , 

111.0 , 4136.41025641 , 4132.30769231 , 4135.38461538 , 4136.41025641 , 4130.76923077 , 4132.30769231 , 4128.20512821 , 4133.84615385 , 4138.97435897 , 4140.51282051 , 4193.84615385 , 4916.41025641 , 4133.84615385 , 4137.43589744 , 2045.0 , 2038.0 , 262.885 , 0.0 , 0.0 , 0.0 , 0.0 , 

112.0 , 4139.48717949 , 4134.35897436 , 4136.92307692 , 4137.94871795 , 4129.74358974 , 4133.33333333 , 4127.17948718 , 4136.41025641 , 4140.0 , 4141.53846154 , 4192.30769231 , 4915.38461538 , 4132.82051282 , 4138.97435897 , 2045.0 , 2038.0 , 262.898 , 0.0 , 0.0 , 0.0 , 0.0 , 

113.0 , 4132.82051282 , 4130.76923077 , 4135.8974359 , 4137.94871795 , 4130.76923077 , 4133.84615385 , 4130.25641026 , 4137.94871795 , 4139.48717949 , 4141.02564103 , 4193.84615385 , 4912.30769231 , 4133.84615385 , 4138.46153846 , 2045.0 , 2038.0 , 262.903 , 0.0 , 0.0 , 0.0 , 0.0 , 

114.0 , 4134.35897436 , 4128.20512821 , 4136.92307692 , 4137.94871795 , 4133.33333333 , 4130.76923077 , 4130.76923077 , 4135.38461538 , 4137.43589744 , 4138.97435897 , 4194.87179487 , 4914.35897436 , 4134.87179487 , 4141.02564103 , 2046.0 , 2037.0 , 262.908 , 0.0 , 0.0 , 0.0 , 0.0 , 

115.0 , 4136.41025641 , 4131.28205128 , 4140.51282051 , 4138.97435897 , 4132.82051282 , 4129.74358974 , 4129.74358974 , 4136.92307692 , 4138.46153846 , 4138.97435897 , 4191.28205128 , 4914.35897436 , 4133.33333333 , 4137.43589744 , 2045.0 , 2037.0 , 262.916 , 0.0 , 0.0 , 0.0 , 0.0 , 

116.0 , 4134.87179487 , 4129.23076923 , 4140.51282051 , 4136.92307692 , 4130.25641026 , 4130.76923077 , 4129.23076923 , 4137.43589744 , 4137.94871795 , 4140.51282051 , 4193.33333333 , 4916.41025641 , 4134.35897436 , 4138.97435897 , 2045.0 , 2037.0 , 262.93 , 0.0 , 0.0 , 0.0 , 0.0 , 

117.0 , 4132.30769231 , 4129.74358974 , 4136.41025641 , 4135.8974359 , 4132.30769231 , 4133.33333333 , 4131.28205128 , 4138.46153846 , 4136.92307692 , 4139.48717949 , 4194.35897436 , 4915.8974359 , 4136.41025641 , 4138.46153846 , 2044.0 , 2037.0 , 262.935 , 0.0 , 0.0 , 0.0 , 0.0 , 

118.0 , 4133.84615385 , 4131.79487179 , 4136.41025641 , 4134.35897436 , 4132.82051282 , 4128.71794872 , 4127.69230769 , 4137.43589744 , 4137.43589744 , 4138.97435897 , 4191.79487179 , 4915.38461538 , 4135.38461538 , 4142.05128205 , 2043.0 , 2036.0 , 262.939 , 0.0 , 0.0 , 0.0 , 0.0 , 

119.0 , 4133.84615385 , 4130.76923077 , 4136.92307692 , 4135.8974359 , 4130.76923077 , 4128.20512821 , 4126.66666667 , 4134.35897436 , 4138.97435897 , 4139.48717949 , 4191.79487179 , 4914.87179487 , 4134.87179487 , 4140.51282051 , 2042.0 , 2035.0 , 262.947 , 0.0 , 0.0 , 0.0 , 0.0 , 

120.0 , 4135.38461538 , 4129.74358974 , 4135.8974359 , 4134.35897436 , 4129.23076923 , 4130.76923077 , 4128.71794872 , 4133.84615385 , 4137.94871795 , 4139.48717949 , 4193.33333333 , 4917.94871795 , 4135.38461538 , 4141.02564103 , 2042.0 , 2036.0 , 262.96 , 0.0 , 0.0 , 0.0 , 0.0 , 

121.0 , 4133.33333333 , 4131.79487179 , 4134.87179487 , 4133.33333333 , 4130.25641026 , 4131.79487179 , 4128.71794872 , 4136.41025641 , 4136.92307692 , 4140.0 , 4193.33333333 , 4914.35897436 , 4132.82051282 , 4142.05128205 , 2042.0 , 2036.0 , 262.967 , 0.0 , 0.0 , 0.0 , 0.0 , 

122.0 , 4132.82051282 , 4130.25641026 , 4137.43589744 , 4135.8974359 , 4132.30769231 , 4129.74358974 , 4126.66666667 , 4135.38461538 , 4137.43589744 , 4139.48717949 , 4194.87179487 , 4911.28205128 , 4134.35897436 , 4143.58974359 , 2041.0 , 2035.0 , 262.97 , 0.0 , 0.0 , 0.0 , 0.0 , 

123.0 , 4132.30769231 , 4130.25641026 , 4136.41025641 , 4138.46153846 , 4134.87179487 , 4131.28205128 , 4129.74358974 , 4133.84615385 , 4136.41025641 , 4139.48717949 , 4194.87179487 , 4912.30769231 , 4137.43589744 , 4139.48717949 , 2041.0 , 2038.0 , 262.979 , 0.0 , 0.0 , 0.0 , 0.0 , 

124.0 , 4132.30769231 , 4132.82051282 , 4135.8974359 , 4138.46153846 , 4133.33333333 , 4132.82051282 , 4129.74358974 , 4133.84615385 , 4135.8974359 , 4141.53846154 , 4191.79487179 , 4915.38461538 , 4136.92307692 , 4140.51282051 , 2041.0 , 2037.0 , 262.993 , 0.0 , 0.0 , 0.0 , 0.0 , 

125.0 , 4133.33333333 , 4131.79487179 , 4138.46153846 , 4135.8974359 , 4130.76923077 , 4130.25641026 , 4125.64102564 , 4134.35897436 , 4136.41025641 , 4142.05128205 , 4191.79487179 , 4915.38461538 , 4135.8974359 , 4141.53846154 , 2041.0 , 2038.0 , 262.998 , 0.0 , 0.0 , 0.0 , 0.0 , 

126.0 , 4135.38461538 , 4131.79487179 , 4137.94871795 , 4131.79487179 , 4132.30769231 , 4128.20512821 , 4125.64102564 , 4134.87179487 , 4135.38461538 , 4138.97435897 , 4193.33333333 , 4913.33333333 , 4137.94871795 , 4138.46153846 , 2041.0 , 2038.0 , 263.002 , 0.0 , 0.0 , 0.0 , 0.0 , 

127.0 , 4135.38461538 , 4133.84615385 , 4135.8974359 , 4133.33333333 , 4132.30769231 , 4129.74358974 , 4126.15384615 , 4135.38461538 , 4134.35897436 , 4137.94871795 , 4192.30769231 , 4913.33333333 , 4137.94871795 , 4137.43589744 , 2042.0 , 2038.0 , 263.011 , 0.0 , 0.0 , 0.0 , 0.0 , 

128.0 , 4135.38461538 , 4133.84615385 , 4136.92307692 , 4137.43589744 , 4129.74358974 , 4131.79487179 , 4125.64102564 , 4135.8974359 , 4135.8974359 , 4139.48717949 , 4191.28205128 , 4913.84615385 , 4136.92307692 , 4139.48717949 , 2043.0 , 2039.0 , 263.025 , 0.0 , 0.0 , 0.0 , 0.0 , 

0.0 , 4137.94871795 , 4130.25641026 , 4139.48717949 , 4136.41025641 , 4130.76923077 , 4131.28205128 , 4127.69230769 , 4134.87179487 , 4137.43589744 , 4139.48717949 , 4192.30769231 , 4912.82051282 , 4135.38461538 , 4142.56410256 , 2044.0 , 2037.0 , 263.03 , 0.0 , 0.0 , 0.0 , 0.0 , 

1.0 , 4134.87179487 , 4129.74358974 , 4137.94871795 , 4134.35897436 , 4133.84615385 , 4131.79487179 , 4130.25641026 , 4135.38461538 , 4136.41025641 , 4140.0 , 4192.30769231 , 4912.82051282 , 4135.8974359 , 4142.56410256 , 2044.0 , 2037.0 , 263.034 , 0.0 , 0.0 , 0.0 , 0.0 , 

2.0 , 4133.33333333 , 4132.30769231 , 4137.43589744 , 4133.33333333 , 4132.82051282 , 4131.79487179 , 4127.17948718 , 4135.8974359 , 4134.87179487 , 4139.48717949 , 4192.30769231 , 4917.94871795 , 4134.35897436 , 4144.1025641 , 2045.0 , 2035.0 , 263.042 , 0.0 , 0.0 , 0.0 , 0.0 , 

3.0 , 4133.33333333 , 4135.38461538 , 4136.41025641 , 4134.87179487 , 4133.33333333 , 4132.30769231 , 4127.17948718 , 4137.43589744 , 4135.8974359 , 4140.0 , 4192.30769231 , 4915.8974359 , 4134.87179487 , 4139.48717949 , 2044.0 , 2036.0 , 263.057 , 0.0 , 0.0 , 0.0 , 0.0 , 

4.0 , 4133.84615385 , 4135.8974359 , 4136.41025641 , 4133.84615385 , 4133.84615385 , 4130.76923077 , 4128.20512821 , 4135.8974359 , 4135.8974359 , 4139.48717949 , 4192.82051282 , 4914.87179487 , 4135.8974359 , 4139.48717949 , 2046.0 , 2036.0 , 263.062 , 0.0 , 0.0 , 0.0 , 0.0 , 

5.0 , 4131.79487179 , 4135.38461538 , 4136.92307692 , 4132.82051282 , 4133.33333333 , 4131.28205128 , 4127.69230769 , 4134.35897436 , 4136.92307692 , 4138.97435897 , 4191.28205128 , 4915.8974359 , 4136.41025641 , 4137.43589744 , 2043.0 , 2035.0 , 263.065 , 0.0 , 0.0 , 0.0 , 0.0 , 

6.0 , 4135.38461538 , 4133.33333333 , 4138.46153846 , 4132.30769231 , 4133.33333333 , 4129.74358974 , 4125.64102564 , 4132.82051282 , 4138.46153846 , 4141.53846154 , 4191.79487179 , 4918.97435897 , 4136.92307692 , 4142.56410256 , 2044.0 , 2037.0 , 263.075 , 0.0 , 0.0 , 0.0 , 0.0 , 

7.0 , 4134.87179487 , 4131.79487179 , 4137.94871795 , 4136.41025641 , 4133.84615385 , 4130.76923077 , 4129.23076923 , 4134.35897436 , 4138.46153846 , 4142.56410256 , 4192.82051282 , 4913.33333333 , 4136.92307692 , 4142.56410256 , 2045.0 , 2035.0 , 263.086 , 0.0 , 0.0 , 0.0 , 0.0 , 

8.0 , 4131.79487179 , 4129.23076923 , 4138.46153846 , 4136.92307692 , 4132.82051282 , 4129.74358974 , 4128.20512821 , 4134.87179487 , 4134.35897436 , 4138.97435897 , 4191.79487179 , 4912.30769231 , 4137.43589744 , 4143.07692308 , 2044.0 , 2035.0 , 263.093 , 0.0 , 0.0 , 0.0 , 0.0 , 

9.0 , 4129.74358974 , 4129.23076923 , 4135.8974359 , 4135.8974359 , 4131.79487179 , 4130.76923077 , 4127.17948718 , 4133.33333333 , 4134.35897436 , 4138.97435897 , 4190.76923077 , 4914.35897436 , 4137.94871795 , 4140.51282051 , 2042.0 , 2035.0 , 263.097 , 0.0 , 0.0 , 0.0 , 0.0 , 

10.0 , 4134.87179487 , 4130.76923077 , 4135.8974359 , 4133.84615385 , 4132.82051282 , 4130.76923077 , 4126.66666667 , 4132.30769231 , 4134.35897436 , 4140.0 , 4192.82051282 , 4915.38461538 , 4134.87179487 , 4145.12820513 , 2042.0 , 2037.0 , 263.105 , 0.0 , 0.0 , 0.0 , 0.0 , 

11.0 , 4134.87179487 , 4131.28205128 , 4138.46153846 , 4134.87179487 , 4133.33333333 , 4131.28205128 , 4127.69230769 , 4135.38461538 , 4133.33333333 , 4138.46153846 , 4192.82051282 , 4913.33333333 , 4133.33333333 , 4144.61538462 , 2043.0 , 2037.0 , 263.117 , 0.0 , 0.0 , 0.0 , 0.0 , 

12.0 , 4133.33333333 , 4129.23076923 , 4139.48717949 , 4137.43589744 , 4131.28205128 , 4129.74358974 , 4127.69230769 , 4135.38461538 , 4133.33333333 , 4141.02564103 , 4190.25641026 , 4914.35897436 , 4134.87179487 , 4144.1025641 , 2042.0 , 2036.0 , 263.124 , 0.0 , 0.0 , 0.0 , 0.0 , 

13.0 , 4133.33333333 , 4131.79487179 , 4136.92307692 , 4136.41025641 , 4132.82051282 , 4128.71794872 , 4127.69230769 , 4134.35897436 , 4135.8974359 , 4143.07692308 , 4190.25641026 , 4913.84615385 , 4131.28205128 , 4143.07692308 , 2042.0 , 2035.0 , 263.128 , 0.0 , 0.0 , 0.0 , 0.0 , 

14.0 , 4133.33333333 , 4134.35897436 , 4137.43589744 , 4134.87179487 , 4135.8974359 , 4130.25641026 , 4127.17948718 , 4135.8974359 , 4136.92307692 , 4140.0 , 4194.35897436 , 4911.79487179 , 4132.82051282 , 4141.02564103 , 2042.0 , 2037.0 , 263.137 , 0.0 , 0.0 , 0.0 , 0.0 , 

15.0 , 4133.84615385 , 4134.35897436 , 4138.97435897 , 4137.94871795 , 4133.84615385 , 4132.30769231 , 4128.20512821 , 4135.8974359 , 4134.87179487 , 4139.48717949 , 4194.87179487 , 4911.79487179 , 4136.41025641 , 4138.46153846 , 2042.0 , 2036.0 , 263.152 , 0.0 , 0.0 , 0.0 , 0.0 , 

16.0 , 4135.38461538 , 4133.33333333 , 4136.92307692 , 4138.97435897 , 4130.76923077 , 4132.30769231 , 4129.23076923 , 4134.35897436 , 4135.8974359 , 4140.51282051 , 4193.84615385 , 4913.84615385 , 4134.87179487 , 4137.94871795 , 2044.0 , 2036.0 , 263.156 , 0.0 , 0.0 , 0.0 , 0.0 , 

17.0 , 4135.38461538 , 4130.25641026 , 4135.8974359 , 4135.38461538 , 4133.84615385 , 4131.79487179 , 4127.17948718 , 4134.87179487 , 4136.41025641 , 4139.48717949 , 4193.84615385 , 4913.84615385 , 4132.82051282 , 4140.0 , 2042.0 , 2036.0 , 263.161 , 0.0 , 0.0 , 0.0 , 0.0 , 

18.0 , 4134.87179487 , 4129.74358974 , 4136.41025641 , 4138.46153846 , 4135.8974359 , 4130.76923077 , 4128.20512821 , 4136.41025641 , 4135.8974359 , 4138.97435897 , 4192.82051282 , 4912.82051282 , 4136.92307692 , 4138.97435897 , 2043.0 , 2035.0 , 263.167 , 0.0 , 0.0 , 0.0 , 0.0 , 

19.0 , 4138.46153846 , 4131.79487179 , 4137.43589744 , 4140.51282051 , 4131.28205128 , 4130.25641026 , 4130.25641026 , 4134.87179487 , 4136.41025641 , 4138.97435897 , 4190.76923077 , 4916.41025641 , 4135.38461538 , 4142.56410256 , 2044.0 , 2035.0 , 263.181 , 0.0 , 0.0 , 0.0 , 0.0 , 

20.0 , 4136.41025641 , 4132.82051282 , 4136.41025641 , 4136.41025641 , 4130.76923077 , 4132.30769231 , 4128.71794872 , 4135.8974359 , 4139.48717949 , 4140.0 , 4192.30769231 , 4914.87179487 , 4133.33333333 , 4140.0 , 2044.0 , 2036.0 , 263.187 , 0.0 , 0.0 , 0.0 , 0.0 , 

21.0 , 4133.84615385 , 4132.82051282 , 4136.92307692 , 4135.8974359 , 4132.82051282 , 4131.79487179 , 4126.15384615 , 4137.94871795 , 4136.92307692 , 4140.51282051 , 4194.35897436 , 4911.79487179 , 4133.84615385 , 4139.48717949 , 2045.0 , 2034.0 , 263.191 , 0.0 , 0.0 , 0.0 , 0.0 , 

22.0 , 4134.35897436 , 4133.33333333 , 4137.94871795 , 4140.0 , 4131.79487179 , 4130.76923077 , 4129.74358974 , 4138.97435897 , 4134.87179487 , 4138.46153846 , 4192.82051282 , 4911.79487179 , 4134.87179487 , 4139.48717949 , 2044.0 , 2035.0 , 263.2 , 0.0 , 0.0 , 0.0 , 0.0 , 

23.0 , 4137.43589744 , 4134.35897436 , 4138.46153846 , 4136.92307692 , 4129.74358974 , 4130.25641026 , 4130.76923077 , 4136.41025641 , 4134.87179487 , 4137.43589744 , 4192.82051282 , 4915.8974359 , 4134.87179487 , 4143.07692308 , 2046.0 , 2035.0 , 263.212 , 0.0 , 0.0 , 0.0 , 0.0 , 

24.0 , 4133.33333333 , 4134.35897436 , 4136.92307692 , 4135.38461538 , 4132.82051282 , 4132.82051282 , 4126.15384615 , 4135.8974359 , 4135.8974359 , 4139.48717949 , 4194.35897436 , 4913.33333333 , 4133.84615385 , 4140.51282051 , 2047.0 , 2036.0 , 263.219 , 0.0 , 0.0 , 0.0 , 0.0 , 

25.0 , 4134.35897436 , 4133.33333333 , 4136.92307692 , 4137.43589744 , 4134.87179487 , 4132.82051282 , 4123.07692308 , 4135.38461538 , 4134.87179487 , 4139.48717949 , 4193.84615385 , 4913.33333333 , 4133.33333333 , 4142.56410256 , 2046.0 , 2034.0 , 263.223 , 0.0 , 0.0 , 0.0 , 0.0 , 

26.0 , 4136.92307692 , 4133.33333333 , 4136.41025641 , 4138.97435897 , 4133.33333333 , 4133.33333333 , 4129.74358974 , 4135.8974359 , 4135.38461538 , 4138.97435897 , 4192.82051282 , 4911.79487179 , 4135.38461538 , 4140.0 , 2047.0 , 2036.0 , 263.232 , 0.0 , 0.0 , 0.0 , 0.0 , 

27.0 , 4136.41025641 , 4134.35897436 , 4137.43589744 , 4134.35897436 , 4132.30769231 , 4129.74358974 , 4133.33333333 , 4136.41025641 , 4136.92307692 , 4138.46153846 , 4195.38461538 , 4913.84615385 , 4134.87179487 , 4141.02564103 , 2047.0 , 2035.0 , 263.245 , 0.0 , 0.0 , 0.0 , 0.0 , 

28.0 , 4133.33333333 , 4135.38461538 , 4136.41025641 , 4132.82051282 , 4133.33333333 , 4129.74358974 , 4129.74358974 , 4136.41025641 , 4138.46153846 , 4138.97435897 , 4193.84615385 , 4916.41025641 , 4133.33333333 , 4142.56410256 , 2047.0 , 2037.0 , 263.25 , 0.0 , 0.0 , 0.0 , 0.0 , 

29.0 , 4135.38461538 , 4131.28205128 , 4134.87179487 , 4135.38461538 , 4131.79487179 , 4131.28205128 , 4125.12820513 , 4134.35897436 , 4136.92307692 , 4141.02564103 , 4189.74358974 , 4915.8974359 , 4134.35897436 , 4145.12820513 , 2046.0 , 2035.0 , 263.254 , 0.0 , 0.0 , 0.0 , 0.0 , 

30.0 , 4133.84615385 , 4128.71794872 , 4137.94871795 , 4138.46153846 , 4131.28205128 , 4130.25641026 , 4127.69230769 , 4135.38461538 , 4136.41025641 , 4140.51282051 , 4189.74358974 , 4911.28205128 , 4134.35897436 , 4140.51282051 , 2045.0 , 2039.0 , 263.263 , 0.0 , 0.0 , 0.0 , 0.0 , 

31.0 , 4130.76923077 , 4132.82051282 , 4140.51282051 , 4136.92307692 , 4132.30769231 , 4128.20512821 , 4129.23076923 , 4137.94871795 , 4137.94871795 , 4137.94871795 , 4194.87179487 , 4913.84615385 , 4134.87179487 , 4138.97435897 , 2045.0 , 2037.0 , 263.274 , 0.0 , 0.0 , 0.0 , 0.0 , 

32.0 , 4130.25641026 , 4136.41025641 , 4137.43589744 , 4135.38461538 , 4133.84615385 , 4130.76923077 , 4128.20512821 , 4137.43589744 , 4137.43589744 , 4138.46153846 , 4193.84615385 , 4916.92307692 , 4135.8974359 , 4139.48717949 , 2046.0 , 2039.0 , 263.281 , 0.0 , 0.0 , 0.0 , 0.0 , 

33.0 , 4132.30769231 , 4130.76923077 , 4135.8974359 , 4137.94871795 , 4132.30769231 , 4132.82051282 , 4127.17948718 , 4134.35897436 , 4135.38461538 , 4138.97435897 , 4191.28205128 , 4914.35897436 , 4134.87179487 , 4141.02564103 , 2043.0 , 2039.0 , 263.286 , 0.0 , 0.0 , 0.0 , 0.0 , 

34.0 , 4134.35897436 , 4127.69230769 , 4138.46153846 , 4138.97435897 , 4130.76923077 , 4128.20512821 , 4126.66666667 , 4135.38461538 , 4135.38461538 , 4137.94871795 , 4193.33333333 , 4913.33333333 , 4133.33333333 , 4143.07692308 , 2043.0 , 2038.0 , 263.296 , 0.0 , 0.0 , 0.0 , 0.0 , 

35.0 , 4135.38461538 , 4132.82051282 , 4138.46153846 , 4135.8974359 , 4131.79487179 , 4125.64102564 , 4126.66666667 , 4138.97435897 , 4135.8974359 , 4138.46153846 , 4194.87179487 , 4914.35897436 , 4135.8974359 , 4141.02564103 , 2044.0 , 2039.0 , 263.308 , 0.0 , 0.0 , 0.0 , 0.0 , 

36.0 , 4135.38461538 , 4134.35897436 , 4138.97435897 , 4133.33333333 , 4133.33333333 , 4127.69230769 , 4126.66666667 , 4136.41025641 , 4135.8974359 , 4139.48717949 , 4193.84615385 , 4914.35897436 , 4136.41025641 , 4140.0 , 2044.0 , 2038.0 , 263.312 , 0.0 , 0.0 , 0.0 , 0.0 , 

37.0 , 4133.84615385 , 4132.30769231 , 4139.48717949 , 4134.35897436 , 4132.30769231 , 4129.74358974 , 4126.66666667 , 4132.82051282 , 4137.43589744 , 4139.48717949 , 4191.28205128 , 4910.76923077 , 4134.35897436 , 4138.97435897 , 2044.0 , 2038.0 , 263.317 , 0.0 , 0.0 , 0.0 , 0.0 , 

38.0 , 4134.35897436 , 4132.82051282 , 4137.94871795 , 4134.35897436 , 4131.28205128 , 4129.23076923 , 4125.64102564 , 4133.84615385 , 4136.92307692 , 4140.51282051 , 4190.25641026 , 4912.30769231 , 4133.84615385 , 4143.58974359 , 2042.0 , 2038.0 , 263.327 , 0.0 , 0.0 , 0.0 , 0.0 , 

39.0 , 4134.35897436 , 4134.35897436 , 4137.94871795 , 4135.38461538 , 4133.33333333 , 4129.74358974 , 4127.17948718 , 4136.41025641 , 4137.43589744 , 4142.56410256 , 4191.79487179 , 4913.33333333 , 4136.41025641 , 4141.53846154 , 2042.0 , 2040.0 , 263.339 , 0.0 , 0.0 , 0.0 , 0.0 , 

40.0 , 4134.87179487 , 4132.82051282 , 4141.53846154 , 4135.38461538 , 4133.33333333 , 4130.76923077 , 4127.69230769 , 4133.33333333 , 4137.43589744 , 4142.05128205 , 4192.30769231 , 4913.33333333 , 4134.87179487 , 4143.07692308 , 2041.0 , 2039.0 , 263.345 , 0.0 , 0.0 , 0.0 , 0.0 , 

41.0 , 4131.79487179 , 4133.84615385 , 4139.48717949 , 4135.38461538 , 4133.33333333 , 4132.82051282 , 4126.66666667 , 4134.87179487 , 4135.8974359 , 4138.97435897 , 4191.28205128 , 4911.28205128 , 4134.35897436 , 4143.58974359 , 2042.0 , 2039.0 , 263.349 , 0.0 , 0.0 , 0.0 , 0.0 , 

42.0 , 4133.33333333 , 4134.87179487 , 4135.38461538 , 4134.35897436 , 4132.82051282 , 4131.28205128 , 4126.66666667 , 4136.41025641 , 4132.82051282 , 4138.46153846 , 4192.30769231 , 4915.38461538 , 4135.8974359 , 4145.12820513 , 2043.0 , 2037.0 , 263.359 , 0.0 , 0.0 , 0.0 , 0.0 , 

43.0 , 4131.79487179 , 4133.33333333 , 4133.84615385 , 4134.87179487 , 4132.30769231 , 4130.25641026 , 4126.66666667 , 4136.41025641 , 4134.35897436 , 4140.0 , 4192.82051282 , 4916.41025641 , 4138.46153846 , 4139.48717949 , 2043.0 , 2040.0 , 263.372 , 0.0 , 0.0 , 0.0 , 0.0 , 

44.0 , 4131.28205128 , 4131.28205128 , 4136.92307692 , 4133.33333333 , 4133.84615385 , 4130.25641026 , 4123.07692308 , 4135.8974359 , 4136.92307692 , 4138.46153846 , 4193.84615385 , 4915.38461538 , 4138.46153846 , 4143.58974359 , 2044.0 , 2038.0 , 263.376 , 0.0 , 0.0 , 0.0 , 0.0 , 

45.0 , 4132.82051282 , 4133.33333333 , 4137.94871795 , 4136.41025641 , 4134.87179487 , 4132.30769231 , 4126.66666667 , 4133.84615385 , 4137.94871795 , 4137.94871795 , 4194.35897436 , 4911.28205128 , 4137.43589744 , 4144.61538462 , 2045.0 , 2038.0 , 263.381 , 0.0 , 0.0 , 0.0 , 0.0 , 

46.0 , 4135.8974359 , 4133.84615385 , 4136.92307692 , 4136.92307692 , 4130.76923077 , 4129.23076923 , 4129.23076923 , 4132.30769231 , 4134.87179487 , 4139.48717949 , 4191.28205128 , 4913.33333333 , 4136.92307692 , 4142.56410256 , 2046.0 , 2038.0 , 263.389 , 0.0 , 0.0 , 0.0 , 0.0 , 

47.0 , 4134.87179487 , 4132.82051282 , 4136.41025641 , 4133.84615385 , 4129.74358974 , 4128.71794872 , 4128.20512821 , 4134.35897436 , 4133.84615385 , 4138.97435897 , 4188.20512821 , 4915.38461538 , 4134.87179487 , 4137.94871795 , 2044.0 , 2038.0 , 263.401 , 0.0 , 0.0 , 0.0 , 0.0 , 

48.0 , 4136.41025641 , 4131.79487179 , 4137.94871795 , 4133.84615385 , 4134.87179487 , 4131.28205128 , 4126.15384615 , 4135.38461538 , 4135.38461538 , 4140.0 , 4193.84615385 , 4916.92307692 , 4135.8974359 , 4142.05128205 , 2044.0 , 2037.0 , 263.408 , 0.0 , 0.0 , 0.0 , 0.0 , 

49.0 , 4136.92307692 , 4131.28205128 , 4138.46153846 , 4137.94871795 , 4135.38461538 , 4130.76923077 , 4127.17948718 , 4135.8974359 , 4136.92307692 , 4141.02564103 , 4196.41025641 , 4913.84615385 , 4137.94871795 , 4141.02564103 , 2045.0 , 2038.0 , 263.413 , 0.0 , 0.0 , 0.0 , 0.0 , 

50.0 , 4135.38461538 , 4130.76923077 , 4138.97435897 , 4135.38461538 , 4129.74358974 , 4126.66666667 , 4126.66666667 , 4137.94871795 , 4135.38461538 , 4139.48717949 , 4192.30769231 , 4913.33333333 , 4137.94871795 , 4141.02564103 , 2046.0 , 2038.0 , 263.422 , 0.0 , 0.0 , 0.0 , 0.0 , 

51.0 , 4133.84615385 , 4131.79487179 , 4140.51282051 , 4132.82051282 , 4129.23076923 , 4129.74358974 , 4126.66666667 , 4137.43589744 , 4135.38461538 , 4138.46153846 , 4190.25641026 , 4915.8974359 , 4133.84615385 , 4142.56410256 , 2045.0 , 2037.0 , 263.434 , 0.0 , 0.0 , 0.0 , 0.0 , 

52.0 , 4134.87179487 , 4132.82051282 , 4141.02564103 , 4136.41025641 , 4132.30769231 , 4133.33333333 , 4126.66666667 , 4133.33333333 , 4137.94871795 , 4138.97435897 , 4193.84615385 , 4914.87179487 , 4132.82051282 , 4143.07692308 , 2045.0 , 2037.0 , 263.44 , 0.0 , 0.0 , 0.0 , 0.0 , 

53.0 , 4137.43589744 , 4132.82051282 , 4140.51282051 , 4137.94871795 , 4133.33333333 , 4130.76923077 , 4126.15384615 , 4131.79487179 , 4136.41025641 , 4138.97435897 , 4195.38461538 , 4910.76923077 , 4136.41025641 , 4142.05128205 , 2044.0 , 2036.0 , 263.444 , 0.0 , 0.0 , 0.0 , 0.0 , 

54.0 , 4137.43589744 , 4131.79487179 , 4138.46153846 , 4135.8974359 , 4133.84615385 , 4130.25641026 , 4125.64102564 , 4133.33333333 , 4134.87179487 , 4138.97435897 , 4192.30769231 , 4911.79487179 , 4137.43589744 , 4138.46153846 , 2044.0 , 2036.0 , 263.451 , 0.0 , 0.0 , 0.0 , 0.0 , 

55.0 , 4134.35897436 , 4130.76923077 , 4137.94871795 , 4133.84615385 , 4133.33333333 , 4133.84615385 , 4123.58974359 , 4132.30769231 , 4135.8974359 , 4138.46153846 , 4190.76923077 , 4914.87179487 , 4131.79487179 , 4143.58974359 , 2043.0 , 2035.0 , 263.463 , 0.0 , 0.0 , 0.0 , 0.0 , 

56.0 , 4130.76923077 , 4131.79487179 , 4136.41025641 , 4133.84615385 , 4131.28205128 , 4133.84615385 , 4124.61538462 , 4132.82051282 , 4137.43589744 , 4138.46153846 , 4192.30769231 , 4913.33333333 , 4129.74358974 , 4148.20512821 , 2043.0 , 2033.0 , 263.471 , 0.0 , 0.0 , 0.0 , 0.0 , 

57.0 , 4130.76923077 , 4127.69230769 , 4134.87179487 , 4134.35897436 , 4131.79487179 , 4130.25641026 , 4127.17948718 , 4136.41025641 , 4137.94871795 , 4139.48717949 , 4194.35897436 , 4914.87179487 , 4132.30769231 , 4151.79487179 , 2044.0 , 2033.0 , 263.476 , 0.0 , 0.0 , 0.0 , 0.0 , 

58.0 , 4130.25641026 , 4122.05128205 , 4134.35897436 , 4138.46153846 , 4131.28205128 , 4132.82051282 , 4129.23076923 , 4140.0 , 4138.97435897 , 4140.0 , 4193.84615385 , 4913.84615385 , 4133.84615385 , 4147.69230769 , 2044.0 , 2034.0 , 263.484 , 0.0 , 0.0 , 0.0 , 0.0 , 

59.0 , 4133.33333333 , 4123.58974359 , 4135.8974359 , 4138.46153846 , 4130.76923077 , 4131.28205128 , 4127.17948718 , 4138.97435897 , 4136.92307692 , 4140.0 , 4193.33333333 , 4912.30769231 , 4132.30769231 , 4144.1025641 , 2044.0 , 2034.0 , 263.501 , 0.0 , 0.0 , 0.0 , 0.0 , 

60.0 , 4132.82051282 , 4127.69230769 , 4135.8974359 , 4136.92307692 , 4132.82051282 , 4130.25641026 , 4127.17948718 , 4137.43589744 , 4137.43589744 , 4139.48717949 , 4194.35897436 , 4909.23076923 , 4134.87179487 , 4136.41025641 , 2044.0 , 2034.0 , 263.501 , 0.0 , 0.0 , 0.0 , 0.0 , 

61.0 , 4133.33333333 , 4130.25641026 , 4137.43589744 , 4132.82051282 , 4131.79487179 , 4128.71794872 , 4127.17948718 , 4134.87179487 , 4140.0 , 4135.8974359 , 4195.38461538 , 4913.33333333 , 4133.84615385 , 4137.94871795 , 2045.0 , 2034.0 , 263.506 , 0.0 , 0.0 , 0.0 , 0.0 , 

62.0 , 4133.33333333 , 4133.84615385 , 4136.92307692 , 4132.30769231 , 4130.25641026 , 4130.25641026 , 4128.20512821 , 4134.35897436 , 4138.97435897 , 4135.38461538 , 4193.33333333 , 4915.38461538 , 4132.30769231 , 4137.94871795 , 2044.0 , 2033.0 , 263.515 , 0.0 , 0.0 , 0.0 , 0.0 , 

63.0 , 4136.92307692 , 4134.87179487 , 4135.38461538 , 4136.92307692 , 4131.79487179 , 4132.30769231 , 4127.69230769 , 4134.35897436 , 4134.87179487 , 4140.51282051 , 4193.84615385 , 4915.38461538 , 4134.87179487 , 4139.48717949 , 2046.0 , 2035.0 , 263.529 , 0.0 , 0.0 , 0.0 , 0.0 , 

64.0 , 4135.8974359 , 4134.35897436 , 4135.38461538 , 4138.46153846 , 4133.33333333 , 4132.82051282 , 4129.23076923 , 4133.84615385 , 4136.41025641 , 4142.05128205 , 4194.87179487 , 4911.79487179 , 4135.8974359 , 4143.07692308 , 2044.0 , 2035.0 , 263.534 , 0.0 , 0.0 , 0.0 , 0.0 , 

65.0 , 4134.35897436 , 4135.38461538 , 4135.38461538 , 4132.82051282 , 4131.79487179 , 4129.74358974 , 4128.20512821 , 4131.28205128 , 4136.41025641 , 4140.0 , 4191.79487179 , 4913.33333333 , 4132.82051282 , 4149.23076923 , 2044.0 , 2034.0 , 263.538 , 0.0 , 0.0 , 0.0 , 0.0 , 

66.0 , 4131.79487179 , 4134.35897436 , 4134.87179487 , 4135.38461538 , 4132.30769231 , 4130.25641026 , 4125.64102564 , 4131.28205128 , 4136.41025641 , 4139.48717949 , 4190.76923077 , 4913.84615385 , 4132.30769231 , 4142.05128205 , 2045.0 , 2034.0 , 263.547 , 0.0 , 0.0 , 0.0 , 0.0 , 

67.0 , 4132.30769231 , 4132.30769231 , 4135.8974359 , 4137.94871795 , 4131.28205128 , 4132.30769231 , 4124.61538462 , 4132.30769231 , 4137.43589744 , 4140.51282051 , 4196.41025641 , 4913.33333333 , 4135.8974359 , 4136.41025641 , 2044.0 , 2036.0 , 263.56 , 0.0 , 0.0 , 0.0 , 0.0 , 

68.0 , 4132.82051282 , 4134.87179487 , 4135.8974359 , 4133.84615385 , 4131.28205128 , 4132.82051282 , 4126.66666667 , 4133.84615385 , 4137.43589744 , 4138.46153846 , 4194.35897436 , 4914.35897436 , 4134.87179487 , 4138.97435897 , 2043.0 , 2035.0 , 263.566 , 0.0 , 0.0 , 0.0 , 0.0 , 

69.0 , 4130.76923077 , 4133.33333333 , 4136.41025641 , 4133.33333333 , 4134.35897436 , 4130.76923077 , 4126.66666667 , 4134.35897436 , 4134.35897436 , 4138.97435897 , 4191.28205128 , 4916.92307692 , 4133.84615385 , 4144.1025641 , 2044.0 , 2035.0 , 263.57 , 0.0 , 0.0 , 0.0 , 0.0 , 

70.0 , 4132.30769231 , 4129.74358974 , 4136.92307692 , 4138.46153846 , 4134.87179487 , 4129.23076923 , 4127.17948718 , 4133.84615385 , 4133.33333333 , 4141.02564103 , 4193.84615385 , 4914.87179487 , 4134.35897436 , 4142.05128205 , 2044.0 , 2036.0 , 263.579 , 0.0 , 0.0 , 0.0 , 0.0 , 

71.0 , 4136.92307692 , 4131.79487179 , 4136.41025641 , 4137.94871795 , 4135.38461538 , 4129.74358974 , 4130.76923077 , 4134.35897436 , 4135.38461538 , 4140.51282051 , 4193.33333333 , 4912.82051282 , 4134.87179487 , 4140.0 , 2046.0 , 2037.0 , 263.597 , 0.0 , 0.0 , 0.0 , 0.0 , 

72.0 , 4136.41025641 , 4130.76923077 , 4136.41025641 , 4134.35897436 , 4135.38461538 , 4130.25641026 , 4131.28205128 , 4135.8974359 , 4136.41025641 , 4139.48717949 , 4191.28205128 , 4913.33333333 , 4132.82051282 , 4141.02564103 , 2045.0 , 2036.0 , 263.597 , 0.0 , 0.0 , 0.0 , 0.0 , 

73.0 , 4133.33333333 , 4126.15384615 , 4136.92307692 , 4135.38461538 , 4133.33333333 , 4129.74358974 , 4130.25641026 , 4136.41025641 , 4136.92307692 , 4139.48717949 , 4192.30769231 , 4911.79487179 , 4134.35897436 , 4139.48717949 , 2045.0 , 2036.0 , 263.601 , 0.0 , 0.0 , 0.0 , 0.0 , 

74.0 , 4133.84615385 , 4127.69230769 , 4136.41025641 , 4133.84615385 , 4131.79487179 , 4129.74358974 , 4127.69230769 , 4133.84615385 , 4137.94871795 , 4138.97435897 , 4193.33333333 , 4912.30769231 , 4135.38461538 , 4140.51282051 , 2044.0 , 2037.0 , 263.61 , 0.0 , 0.0 , 0.0 , 0.0 , 

75.0 , 4132.82051282 , 4129.74358974 , 4135.38461538 , 4133.33333333 , 4133.33333333 , 4130.25641026 , 4126.66666667 , 4134.87179487 , 4138.97435897 , 4137.94871795 , 4192.82051282 , 4913.33333333 , 4134.87179487 , 4138.46153846 , 2043.0 , 2036.0 , 263.623 , 0.0 , 0.0 , 0.0 , 0.0 , 

76.0 , 4135.38461538 , 4128.71794872 , 4137.94871795 , 4132.82051282 , 4132.82051282 , 4127.69230769 , 4125.64102564 , 4137.94871795 , 4135.8974359 , 4137.94871795 , 4193.84615385 , 4915.38461538 , 4135.38461538 , 4138.97435897 , 2045.0 , 2036.0 , 263.629 , 0.0 , 0.0 , 0.0 , 0.0 , 

77.0 , 4135.38461538 , 4133.33333333 , 4138.46153846 , 4133.33333333 , 4130.76923077 , 4129.23076923 , 4126.15384615 , 4139.48717949 , 4135.8974359 , 4140.0 , 4194.87179487 , 4913.84615385 , 4136.92307692 , 4135.8974359 , 2044.0 , 2034.0 , 263.632 , 0.0 , 0.0 , 0.0 , 0.0 , 

78.0 , 4135.38461538 , 4134.35897436 , 4138.46153846 , 4135.8974359 , 4130.76923077 , 4131.28205128 , 4126.66666667 , 4136.92307692 , 4137.94871795 , 4140.51282051 , 4195.8974359 , 4914.35897436 , 4136.92307692 , 4139.48717949 , 2044.0 , 2034.0 , 263.642 , 0.0 , 0.0 , 0.0 , 0.0 , 

79.0 , 4134.35897436 , 4129.74358974 , 4137.94871795 , 4137.43589744 , 4132.30769231 , 4131.28205128 , 4129.23076923 , 4134.35897436 , 4137.94871795 , 4138.97435897 , 4196.92307692 , 4913.33333333 , 4136.92307692 , 4138.46153846 , 2044.0 , 2035.0 , 263.654 , 0.0 , 0.0 , 0.0 , 0.0 , 

80.0 , 4137.43589744 , 4128.71794872 , 4139.48717949 , 4132.82051282 , 4132.30769231 , 4128.20512821 , 4129.23076923 , 4133.84615385 , 4136.92307692 , 4140.0 , 4195.8974359 , 4914.87179487 , 4136.92307692 , 4142.56410256 , 2045.0 , 2035.0 , 263.66 , 0.0 , 0.0 , 0.0 , 0.0 , 

81.0 , 4135.38461538 , 4133.84615385 , 4136.41025641 , 4133.84615385 , 4132.30769231 , 4129.74358974 , 4127.17948718 , 4137.94871795 , 4138.46153846 , 4141.53846154 , 4192.30769231 , 4914.87179487 , 4136.41025641 , 4142.05128205 , 2043.0 , 2034.0 , 263.664 , 0.0 , 0.0 , 0.0 , 0.0 , 

82.0 , 4133.84615385 , 4134.87179487 , 4133.84615385 , 4134.87179487 , 4132.82051282 , 4131.28205128 , 4126.66666667 , 4137.94871795 , 4137.94871795 , 4138.97435897 , 4192.30769231 , 4915.8974359 , 4135.8974359 , 4142.05128205 , 2043.0 , 2034.0 , 263.673 , 0.0 , 0.0 , 0.0 , 0.0 , 

83.0 , 4133.33333333 , 4132.30769231 , 4135.8974359 , 4132.82051282 , 4133.84615385 , 4130.76923077 , 4127.17948718 , 4135.38461538 , 4136.92307692 , 4137.94871795 , 4194.35897436 , 4913.84615385 , 4135.8974359 , 4139.48717949 , 2044.0 , 2034.0 , 263.685 , 0.0 , 0.0 , 0.0 , 0.0 , 

84.0 , 4134.87179487 , 4129.23076923 , 4138.97435897 , 4132.30769231 , 4131.28205128 , 4128.71794872 , 4126.15384615 , 4134.87179487 , 4136.92307692 , 4139.48717949 , 4194.35897436 , 4914.35897436 , 4137.43589744 , 4142.56410256 , 2042.0 , 2034.0 , 263.692 , 0.0 , 0.0 , 0.0 , 0.0 , 

85.0 , 4132.30769231 , 4129.23076923 , 4137.94871795 , 4134.35897436 , 4131.28205128 , 4131.79487179 , 4129.23076923 , 4134.87179487 , 4137.43589744 , 4140.51282051 , 4190.76923077 , 4914.87179487 , 4138.46153846 , 4142.05128205 , 2043.0 , 2034.0 , 263.697 , 0.0 , 0.0 , 0.0 , 0.0 , 

86.0 , 4133.84615385 , 4130.25641026 , 4135.8974359 , 4133.33333333 , 4132.30769231 , 4133.33333333 , 4128.20512821 , 4133.84615385 , 4137.94871795 , 4138.97435897 , 4192.30769231 , 4914.87179487 , 4135.8974359 , 4144.1025641 , 2041.0 , 2033.0 , 263.704 , 0.0 , 0.0 , 0.0 , 0.0 , 

87.0 , 4138.46153846 , 4131.79487179 , 4136.41025641 , 4133.84615385 , 4131.28205128 , 4131.28205128 , 4125.64102564 , 4135.8974359 , 4137.94871795 , 4137.94871795 , 4194.87179487 , 4912.82051282 , 4134.87179487 , 4144.1025641 , 2043.0 , 2035.0 , 263.719 , 0.0 , 0.0 , 0.0 , 0.0 , 

88.0 , 4138.46153846 , 4132.82051282 , 4138.46153846 , 4134.87179487 , 4129.74358974 , 4130.76923077 , 4126.15384615 , 4136.41025641 , 4134.87179487 , 4138.97435897 , 4193.33333333 , 4914.35897436 , 4136.92307692 , 4141.53846154 , 2042.0 , 2036.0 , 263.722 , 0.0 , 0.0 , 0.0 , 0.0 , 

89.0 , 4133.84615385 , 4130.76923077 , 4138.97435897 , 4133.84615385 , 4132.82051282 , 4132.82051282 , 4127.17948718 , 4134.87179487 , 4133.33333333 , 4140.0 , 4191.79487179 , 4914.87179487 , 4133.84615385 , 4140.0 , 2043.0 , 2036.0 , 263.728 , 0.0 , 0.0 , 0.0 , 0.0 , 

90.0 , 4134.35897436 , 4128.71794872 , 4136.92307692 , 4132.82051282 , 4133.33333333 , 4133.84615385 , 4124.61538462 , 4134.35897436 , 4134.87179487 , 4138.46153846 , 4193.33333333 , 4914.35897436 , 4131.79487179 , 4141.53846154 , 2042.0 , 2036.0 , 263.736 , 0.0 , 0.0 , 0.0 , 0.0 , 

91.0 , 4138.46153846 , 4130.76923077 , 4135.38461538 , 4132.82051282 , 4129.74358974 , 4131.79487179 , 4123.58974359 , 4134.35897436 , 4135.8974359 , 4138.46153846 , 4194.35897436 , 4916.92307692 , 4134.35897436 , 4144.1025641 , 2042.0 , 2036.0 , 263.749 , 0.0 , 0.0 , 0.0 , 0.0 , 

92.0 , 4135.8974359 , 4132.30769231 , 4135.8974359 , 4133.84615385 , 4132.30769231 , 4131.28205128 , 4126.15384615 , 4135.8974359 , 4136.41025641 , 4139.48717949 , 4191.79487179 , 4916.92307692 , 4136.92307692 , 4142.56410256 , 2042.0 , 2037.0 , 263.754 , 0.0 , 0.0 , 0.0 , 0.0 , 

93.0 , 4134.87179487 , 4130.25641026 , 4136.41025641 , 4134.35897436 , 4135.8974359 , 4131.28205128 , 4127.17948718 , 4134.35897436 , 4135.38461538 , 4136.92307692 , 4191.79487179 , 4918.46153846 , 4136.92307692 , 4144.1025641 , 2042.0 , 2039.0 , 263.759 , 0.0 , 0.0 , 0.0 , 0.0 , 

94.0 , 4136.41025641 , 4130.25641026 , 4136.41025641 , 4135.38461538 , 4135.8974359 , 4131.28205128 , 4129.23076923 , 4133.33333333 , 4135.38461538 , 4137.94871795 , 4193.33333333 , 4917.94871795 , 4136.41025641 , 4142.05128205 , 2043.0 , 2039.0 , 263.767 , 0.0 , 0.0 , 0.0 , 0.0 , 

95.0 , 4138.46153846 , 4130.25641026 , 4136.92307692 , 4134.35897436 , 4132.30769231 , 4129.23076923 , 4127.17948718 , 4134.87179487 , 4135.8974359 , 4140.0 , 4192.82051282 , 4916.41025641 , 4134.87179487 , 4143.07692308 , 2044.0 , 2037.0 , 263.779 , 0.0 , 0.0 , 0.0 , 0.0 , 

96.0 , 4135.8974359 , 4130.76923077 , 4136.41025641 , 4134.35897436 , 4132.82051282 , 4129.74358974 , 4127.69230769 , 4135.38461538 , 4137.94871795 , 4137.43589744 , 4191.28205128 , 4912.30769231 , 4134.87179487 , 4140.0 , 2045.0 , 2036.0 , 263.786 , 0.0 , 0.0 , 0.0 , 0.0 , 

97.0 , 4136.92307692 , 4129.74358974 , 4136.92307692 , 4133.33333333 , 4134.87179487 , 4129.23076923 , 4130.25641026 , 4132.82051282 , 4138.46153846 , 4136.92307692 , 4190.76923077 , 4914.87179487 , 4135.38461538 , 4142.56410256 , 2043.0 , 2036.0 , 263.79 , 0.0 , 0.0 , 0.0 , 0.0 , 

98.0 , 4136.92307692 , 4132.82051282 , 4136.41025641 , 4134.35897436 , 4134.35897436 , 4130.25641026 , 4129.23076923 , 4136.41025641 , 4138.46153846 , 4141.02564103 , 4191.28205128 , 4914.87179487 , 4135.38461538 , 4139.48717949 , 2044.0 , 2037.0 , 263.799 , 0.0 , 0.0 , 0.0 , 0.0 , 

99.0 , 4137.43589744 , 4134.87179487 , 4137.94871795 , 4134.35897436 , 4132.82051282 , 4130.25641026 , 4126.15384615 , 4136.92307692 , 4137.94871795 , 4140.51282051 , 4192.82051282 , 4912.82051282 , 4135.8974359 , 4143.07692308 , 2043.0 , 2036.0 , 263.812 , 0.0 , 0.0 , 0.0 , 0.0 , 

100.0 , 4137.43589744 , 4133.84615385 , 4139.48717949 , 4135.38461538 , 4135.38461538 , 4130.76923077 , 4129.23076923 , 4134.35897436 , 4137.94871795 , 4138.46153846 , 4193.84615385 , 4910.76923077 , 4136.92307692 , 4145.12820513 , 2042.0 , 2039.0 , 263.818 , 0.0 , 0.0 , 0.0 , 0.0 , 

101.0 , 4140.0 , 4132.30769231 , 4140.0 , 4133.84615385 , 4134.87179487 , 4128.20512821 , 4129.23076923 , 4132.82051282 , 4136.41025641 , 4140.0 , 4192.30769231 , 4914.35897436 , 4135.8974359 , 4147.17948718 , 2042.0 , 2039.0 , 263.822 , 0.0 , 0.0 , 0.0 , 0.0 , 

102.0 , 4137.43589744 , 4131.28205128 , 4137.43589744 , 4133.84615385 , 4130.76923077 , 4131.79487179 , 4125.64102564 , 4133.84615385 , 4135.8974359 , 4139.48717949 , 4190.25641026 , 4913.84615385 , 4133.33333333 , 4144.1025641 , 2042.0 , 2037.0 , 263.829 , 0.0 , 0.0 , 0.0 , 0.0 , 

103.0 , 4135.38461538 , 4131.28205128 , 4137.94871795 , 4135.8974359 , 4130.25641026 , 4135.38461538 , 4126.15384615 , 4134.35897436 , 4136.92307692 , 4140.0 , 4192.82051282 , 4912.30769231 , 4132.30769231 , 4146.66666667 , 2043.0 , 2037.0 , 263.844 , 0.0 , 0.0 , 0.0 , 0.0 , 

104.0 , 4135.8974359 , 4132.30769231 , 4138.97435897 , 4137.43589744 , 4132.30769231 , 4133.33333333 , 4128.71794872 , 4134.35897436 , 4137.94871795 , 4141.53846154 , 4195.8974359 , 4913.33333333 , 4132.82051282 , 4147.69230769 , 2043.0 , 2037.0 , 263.849 , 0.0 , 0.0 , 0.0 , 0.0 , 

105.0 , 4138.97435897 , 4133.33333333 , 4137.94871795 , 4132.82051282 , 4130.25641026 , 4129.23076923 , 4124.61538462 , 4133.84615385 , 4139.48717949 , 4139.48717949 , 4193.84615385 , 4914.35897436 , 4133.33333333 , 4150.76923077 , 2043.0 , 2035.0 , 263.853 , 0.0 , 0.0 , 0.0 , 0.0 , 

106.0 , 4136.92307692 , 4133.33333333 , 4137.43589744 , 4130.76923077 , 4131.28205128 , 4129.74358974 , 4124.1025641 , 4134.35897436 , 4139.48717949 , 4138.97435897 , 4191.28205128 , 4911.28205128 , 4132.82051282 , 4150.25641026 , 2042.0 , 2036.0 , 263.863 , 0.0 , 0.0 , 0.0 , 0.0 , 

107.0 , 4132.30769231 , 4133.84615385 , 4136.92307692 , 4135.8974359 , 4134.35897436 , 4130.25641026 , 4129.74358974 , 4135.8974359 , 4138.46153846 , 4141.53846154 , 4193.33333333 , 4912.30769231 , 4134.87179487 , 4146.15384615 , 2042.0 , 2037.0 , 263.876 , 0.0 , 0.0 , 0.0 , 0.0 , 

108.0 , 4132.30769231 , 4134.35897436 , 4136.41025641 , 4138.46153846 , 4135.38461538 , 4130.25641026 , 4128.71794872 , 4134.87179487 , 4137.94871795 , 4139.48717949 , 4194.87179487 , 4915.8974359 , 4135.38461538 , 4145.12820513 , 2042.0 , 2037.0 , 263.88 , 0.0 , 0.0 , 0.0 , 0.0 , 

109.0 , 4134.87179487 , 4131.79487179 , 4135.38461538 , 4134.35897436 , 4132.82051282 , 4130.25641026 , 4125.64102564 , 4133.33333333 , 4137.94871795 , 4140.0 , 4193.33333333 , 4914.35897436 , 4133.33333333 , 4143.58974359 , 2041.0 , 2035.0 , 263.885 , 0.0 , 0.0 , 0.0 , 0.0 , 

110.0 , 4134.87179487 , 4128.20512821 , 4135.38461538 , 4132.82051282 , 4130.76923077 , 4129.74358974 , 4127.69230769 , 4132.82051282 , 4135.8974359 , 4143.58974359 , 4193.33333333 , 4913.84615385 , 4133.33333333 , 4142.56410256 , 2040.0 , 2037.0 , 263.893 , 0.0 , 0.0 , 0.0 , 0.0 , 

111.0 , 4131.28205128 , 4130.25641026 , 4137.94871795 , 4135.38461538 , 4130.25641026 , 4129.23076923 , 4128.20512821 , 4135.38461538 , 4136.41025641 , 4142.05128205 , 4192.82051282 , 4913.33333333 , 4136.41025641 , 4140.0 , 2041.0 , 2037.0 , 263.907 , 0.0 , 0.0 , 0.0 , 0.0 , 

112.0 , 4134.87179487 , 4133.84615385 , 4140.0 , 4134.87179487 , 4130.25641026 , 4127.17948718 , 4122.56410256 , 4136.41025641 , 4138.97435897 , 4138.46153846 , 4191.28205128 , 4913.84615385 , 4135.38461538 , 4143.58974359 , 2041.0 , 2036.0 , 263.913 , 0.0 , 0.0 , 0.0 , 0.0 , 

113.0 , 4137.43589744 , 4133.84615385 , 4139.48717949 , 4134.87179487 , 4130.76923077 , 4129.23076923 , 4122.56410256 , 4136.41025641 , 4138.46153846 , 4138.46153846 , 4191.28205128 , 4913.33333333 , 4133.84615385 , 4138.97435897 , 2042.0 , 2036.0 , 263.917 , 0.0 , 0.0 , 0.0 , 0.0 , 

114.0 , 4136.92307692 , 4134.87179487 , 4138.46153846 , 4133.33333333 , 4130.76923077 , 4129.74358974 , 4125.64102564 , 4134.87179487 , 4135.38461538 , 4139.48717949 , 4194.35897436 , 4916.41025641 , 4133.33333333 , 4134.87179487 , 2042.0 , 2036.0 , 263.925 , 0.0 , 0.0 , 0.0 , 0.0 , 

115.0 , 4135.38461538 , 4136.41025641 , 4135.38461538 , 4133.33333333 , 4132.82051282 , 4128.71794872 , 4126.15384615 , 4135.38461538 , 4137.94871795 , 4138.97435897 , 4194.87179487 , 4912.82051282 , 4134.35897436 , 4133.33333333 , 2044.0 , 2037.0 , 263.938 , 0.0 , 0.0 , 0.0 , 0.0 , 

116.0 , 4138.46153846 , 4131.79487179 , 4135.8974359 , 4132.82051282 , 4132.82051282 , 4128.71794872 , 4124.61538462 , 4135.8974359 , 4140.0 , 4137.94871795 , 4194.87179487 , 4915.38461538 , 4134.87179487 , 4141.02564103 , 2044.0 , 2036.0 , 263.944 , 0.0 , 0.0 , 0.0 , 0.0 , 

117.0 , 4135.38461538 , 4130.76923077 , 4137.43589744 , 4133.84615385 , 4132.30769231 , 4132.30769231 , 4129.74358974 , 4135.38461538 , 4137.43589744 , 4137.94871795 , 4193.33333333 , 4917.43589744 , 4134.87179487 , 4140.0 , 2044.0 , 2034.0 , 263.949 , 0.0 , 0.0 , 0.0 , 0.0 , 

118.0 , 4135.8974359 , 4131.79487179 , 4137.43589744 , 4131.79487179 , 4133.33333333 , 4130.25641026 , 4130.25641026 , 4133.33333333 , 4135.38461538 , 4140.51282051 , 4191.79487179 , 4916.41025641 , 4135.38461538 , 4138.97435897 , 2044.0 , 2036.0 , 263.956 , 0.0 , 0.0 , 0.0 , 0.0 , 

119.0 , 4137.43589744 , 4131.79487179 , 4138.46153846 , 4133.84615385 , 4134.35897436 , 4129.74358974 , 4127.17948718 , 4134.35897436 , 4136.92307692 , 4140.51282051 , 4191.79487179 , 4913.84615385 , 4135.38461538 , 4138.97435897 , 2044.0 , 2036.0 , 263.969 , 0.0 , 0.0 , 0.0 , 0.0 , 

120.0 , 4138.46153846 , 4130.76923077 , 4140.51282051 , 4135.38461538 , 4132.30769231 , 4131.79487179 , 4126.15384615 , 4135.8974359 , 4136.41025641 , 4140.0 , 4194.35897436 , 4917.43589744 , 4135.38461538 , 4144.61538462 , 2044.0 , 2036.0 , 263.976 , 0.0 , 0.0 , 0.0 , 0.0 , 

121.0 , 4137.43589744 , 4131.28205128 , 4136.92307692 , 4132.82051282 , 4132.30769231 , 4130.76923077 , 4128.20512821 , 4135.8974359 , 4137.43589744 , 4142.05128205 , 4195.8974359 , 4916.92307692 , 4136.41025641 , 4142.05128205 , 2045.0 , 2035.0 , 263.98 , 0.0 , 0.0 , 0.0 , 0.0 , 

122.0 , 4137.94871795 , 4131.79487179 , 4136.92307692 , 4131.28205128 , 4132.30769231 , 4128.20512821 , 4125.12820513 , 4133.33333333 , 4137.43589744 , 4140.51282051 , 4193.33333333 , 4914.35897436 , 4137.43589744 , 4141.53846154 , 2044.0 , 2035.0 , 263.987 , 0.0 , 0.0 , 0.0 , 0.0 , 

123.0 , 4133.84615385 , 4132.30769231 , 4137.94871795 , 4134.35897436 , 4133.33333333 , 4130.25641026 , 4125.12820513 , 4133.84615385 , 4135.8974359 , 4138.46153846 , 4190.25641026 , 4912.82051282 , 4136.41025641 , 4140.0 , 2044.0 , 2036.0 , 263.999 , 0.0 , 0.0 , 0.0 , 0.0 , 

124.0 , 4132.82051282 , 4131.28205128 , 4135.38461538 , 4136.92307692 , 4134.35897436 , 4130.76923077 , 4127.17948718 , 4136.41025641 , 4136.41025641 , 4140.0 , 4191.79487179 , 4912.82051282 , 4134.35897436 , 4140.0 , 2043.0 , 2034.0 , 264.006 , 0.0 , 0.0 , 0.0 , 0.0 , 

125.0 , 4137.94871795 , 4128.71794872 , 4135.38461538 , 4133.33333333 , 4132.30769231 , 4130.25641026 , 4127.17948718 , 4135.8974359 , 4137.43589744 , 4140.0 , 4192.82051282 , 4912.30769231 , 4133.84615385 , 4140.51282051 , 2043.0 , 2036.0 , 264.011 , 0.0 , 0.0 , 0.0 , 0.0 , 

126.0 , 4138.46153846 , 4131.79487179 , 4138.97435897 , 4131.28205128 , 4131.28205128 , 4131.79487179 , 4128.20512821 , 4134.35897436 , 4137.94871795 , 4137.43589744 , 4191.79487179 , 4911.79487179 , 4136.41025641 , 4142.56410256 , 2043.0 , 2038.0 , 264.019 , 0.0 , 0.0 , 0.0 , 0.0 , 

127.0 , 4133.33333333 , 4133.33333333 , 4138.46153846 , 4135.38461538 , 4132.82051282 , 4129.74358974 , 4128.71794872 , 4135.38461538 , 4137.43589744 , 4135.8974359 , 4193.84615385 , 4912.82051282 , 4136.92307692 , 4142.05128205 , 2044.0 , 2037.0 , 264.032 , 0.0 , 0.0 , 0.0 , 0.0 , 

128.0 , 4133.33333333 , 4134.35897436 , 4135.38461538 , 4137.94871795 , 4133.84615385 , 4127.69230769 , 4126.15384615 , 4138.97435897 , 4135.8974359 , 4138.97435897 , 4194.35897436 , 4913.33333333 , 4135.38461538 , 4138.97435897 , 2044.0 , 2037.0 , 264.039 , 0.0 , 0.0 , 0.0 , 0.0 , 

0.0 , 4138.46153846 , 4135.38461538 , 4135.38461538 , 4134.35897436 , 4131.79487179 , 4129.23076923 , 4125.12820513 , 4137.94871795 , 4134.87179487 , 4141.53846154 , 4193.33333333 , 4915.8974359 , 4134.35897436 , 4141.53846154 , 2042.0 , 2037.0 , 264.043 , 0.0 , 0.0 , 0.0 , 0.0 , 

1.0 , 4134.87179487 , 4130.76923077 , 4135.38461538 , 4136.41025641 , 4131.79487179 , 4132.30769231 , 4127.17948718 , 4135.38461538 , 4137.43589744 , 4139.48717949 , 4192.82051282 , 4915.8974359 , 4136.41025641 , 4141.53846154 , 2043.0 , 2037.0 , 264.051 , 0.0 , 0.0 , 0.0 , 0.0 , 

2.0 , 4133.33333333 , 4128.20512821 , 4136.92307692 , 4135.8974359 , 4132.82051282 , 4130.76923077 , 4126.66666667 , 4134.35897436 , 4137.43589744 , 4138.46153846 , 4193.33333333 , 4915.38461538 , 4136.41025641 , 4142.05128205 , 2042.0 , 2038.0 , 264.063 , 0.0 , 0.0 , 0.0 , 0.0 , 

3.0 , 4135.8974359 , 4132.30769231 , 4137.94871795 , 4131.79487179 , 4133.33333333 , 4127.69230769 , 4127.17948718 , 4134.35897436 , 4136.41025641 , 4138.97435897 , 4194.35897436 , 4911.28205128 , 4134.87179487 , 4140.0 , 2042.0 , 2038.0 , 264.072 , 0.0 , 0.0 , 0.0 , 0.0 , 

4.0 , 4135.38461538 , 4133.33333333 , 4138.46153846 , 4133.33333333 , 4134.35897436 , 4127.17948718 , 4127.69230769 , 4133.33333333 , 4134.87179487 , 4139.48717949 , 4193.84615385 , 4912.30769231 , 4133.33333333 , 4143.58974359 , 2042.0 , 2038.0 , 264.076 , 0.0 , 0.0 , 0.0 , 0.0 , 

5.0 , 4131.28205128 , 4130.25641026 , 4136.41025641 , 4140.0 , 4136.41025641 , 4132.30769231 , 4129.23076923 , 4134.87179487 , 4135.38461538 , 4140.0 , 4191.28205128 , 4914.35897436 , 4137.43589744 , 4138.46153846 , 2042.0 , 2038.0 , 264.083 , 0.0 , 0.0 , 0.0 , 0.0 , 

6.0 , 4133.84615385 , 4129.23076923 , 4136.92307692 , 4135.38461538 , 4135.8974359 , 4131.79487179 , 4127.17948718 , 4134.87179487 , 4134.35897436 , 4139.48717949 , 4192.30769231 , 4914.35897436 , 4136.92307692 , 4139.48717949 , 2042.0 , 2037.0 , 264.096 , 0.0 , 0.0 , 0.0 , 0.0 , 

7.0 , 4134.87179487 , 4133.33333333 , 4138.46153846 , 4132.82051282 , 4132.30769231 , 4128.71794872 , 4126.66666667 , 4136.92307692 , 4135.38461538 , 4138.46153846 , 4194.35897436 , 4910.76923077 , 4131.28205128 , 4139.48717949 , 2044.0 , 2039.0 , 264.1 , 0.0 , 0.0 , 0.0 , 0.0 , 

8.0 , 4135.8974359 , 4132.82051282 , 4139.48717949 , 4137.43589744 , 4131.79487179 , 4128.71794872 , 4126.66666667 , 4137.43589744 , 4136.41025641 , 4140.0 , 4193.84615385 , 4913.33333333 , 4131.28205128 , 4140.51282051 , 2044.0 , 2037.0 , 264.105 , 0.0 , 0.0 , 0.0 , 0.0 , 

9.0 , 4135.38461538 , 4132.82051282 , 4137.43589744 , 4138.46153846 , 4133.84615385 , 4133.33333333 , 4129.74358974 , 4136.41025641 , 4136.92307692 , 4140.51282051 , 4191.79487179 , 4914.87179487 , 4135.8974359 , 4138.97435897 , 2043.0 , 2037.0 , 264.113 , 0.0 , 0.0 , 0.0 , 0.0 , 

10.0 , 4137.94871795 , 4133.33333333 , 4137.43589744 , 4134.35897436 , 4131.79487179 , 4131.79487179 , 4128.71794872 , 4135.38461538 , 4136.41025641 , 4138.46153846 , 4193.33333333 , 4914.87179487 , 4135.8974359 , 4143.58974359 , 2044.0 , 2038.0 , 264.124 , 0.0 , 0.0 , 0.0 , 0.0 , 

11.0 , 4138.46153846 , 4131.79487179 , 4138.46153846 , 4132.30769231 , 4131.28205128 , 4131.28205128 , 4127.17948718 , 4135.38461538 , 4137.43589744 , 4139.48717949 , 4194.87179487 , 4913.84615385 , 4131.79487179 , 4140.51282051 , 2044.0 , 2038.0 , 264.133 , 0.0 , 0.0 , 0.0 , 0.0 , 

12.0 , 4137.43589744 , 4128.71794872 , 4137.94871795 , 4131.28205128 , 4131.79487179 , 4130.76923077 , 4129.74358974 , 4133.33333333 , 4138.97435897 , 4138.97435897 , 4194.35897436 , 4916.41025641 , 4132.30769231 , 4138.46153846 , 2043.0 , 2038.0 , 264.137 , 0.0 , 0.0 , 0.0 , 0.0 , 

13.0 , 4135.38461538 , 4132.82051282 , 4137.43589744 , 4135.8974359 , 4132.30769231 , 4129.23076923 , 4129.23076923 , 4134.87179487 , 4137.43589744 , 4136.92307692 , 4192.82051282 , 4914.87179487 , 4136.41025641 , 4138.46153846 , 2044.0 , 2038.0 , 264.145 , 0.0 , 0.0 , 0.0 , 0.0 , 

14.0 , 4134.87179487 , 4135.38461538 , 4137.94871795 , 4138.97435897 , 4131.79487179 , 4129.23076923 , 4125.12820513 , 4137.94871795 , 4137.43589744 , 4140.0 , 4193.33333333 , 4912.30769231 , 4135.38461538 , 4140.0 , 2044.0 , 2036.0 , 264.16 , 0.0 , 0.0 , 0.0 , 0.0 , 

15.0 , 4132.82051282 , 4130.76923077 , 4137.94871795 , 4133.84615385 , 4132.82051282 , 4130.25641026 , 4126.66666667 , 4134.87179487 , 4140.0 , 4141.53846154 , 4193.33333333 , 4916.41025641 , 4130.25641026 , 4141.53846154 , 2042.0 , 2038.0 , 264.164 , 0.0 , 0.0 , 0.0 , 0.0 , 

16.0 , 4131.79487179 , 4130.25641026 , 4137.43589744 , 4133.33333333 , 4132.82051282 , 4129.23076923 , 4131.28205128 , 4132.82051282 , 4138.97435897 , 4139.48717949 , 4192.30769231 , 4918.46153846 , 4133.33333333 , 4141.02564103 , 2043.0 , 2037.0 , 264.169 , 0.0 , 0.0 , 0.0 , 0.0 , 

17.0 , 4133.84615385 , 4132.82051282 , 4137.94871795 , 4136.41025641 , 4132.30769231 , 4128.71794872 , 4129.74358974 , 4132.82051282 , 4134.87179487 , 4140.0 , 4192.30769231 , 4915.8974359 , 4136.41025641 , 4141.02564103 , 2042.0 , 2036.0 , 264.178 , 0.0 , 0.0 , 0.0 , 0.0 , 

18.0 , 4130.76923077 , 4131.79487179 , 4136.41025641 , 4136.41025641 , 4134.87179487 , 4130.25641026 , 4125.64102564 , 4132.82051282 , 4136.41025641 , 4140.0 , 4193.84615385 , 4913.84615385 , 4133.33333333 , 4142.05128205 , 2042.0 , 2036.0 , 264.189 , 0.0 , 0.0 , 0.0 , 0.0 , 

19.0 , 4130.76923077 , 4131.28205128 , 4135.8974359 , 4136.92307692 , 4135.38461538 , 4129.74358974 , 4125.64102564 , 4133.84615385 , 4137.94871795 , 4137.43589744 , 4195.38461538 , 4916.92307692 , 4132.82051282 , 4146.15384615 , 2042.0 , 2036.0 , 264.196 , 0.0 , 0.0 , 0.0 , 0.0 , 

20.0 , 4133.84615385 , 4132.30769231 , 4135.8974359 , 4139.48717949 , 4132.82051282 , 4130.25641026 , 4130.76923077 , 4133.33333333 , 4137.94871795 , 4137.94871795 , 4193.84615385 , 4914.87179487 , 4136.41025641 , 4140.0 , 2042.0 , 2036.0 , 264.201 , 0.0 , 0.0 , 0.0 , 0.0 , 

21.0 , 4134.87179487 , 4131.28205128 , 4137.94871795 , 4137.94871795 , 4131.79487179 , 4129.23076923 , 4131.28205128 , 4131.28205128 , 4137.43589744 , 4139.48717949 , 4192.30769231 , 4912.82051282 , 4133.33333333 , 4136.92307692 , 2041.0 , 2036.0 , 264.209 , 0.0 , 0.0 , 0.0 , 0.0 , 

22.0 , 4130.76923077 , 4131.79487179 , 4136.92307692 , 4137.94871795 , 4134.35897436 , 4129.23076923 , 4128.20512821 , 4135.38461538 , 4136.41025641 , 4139.48717949 , 4193.33333333 , 4911.79487179 , 4130.25641026 , 4137.94871795 , 2041.0 , 2036.0 , 264.221 , 0.0 , 0.0 , 0.0 , 0.0 , 

23.0 , 4133.33333333 , 4133.84615385 , 4136.92307692 , 4135.8974359 , 4133.33333333 , 4129.23076923 , 4125.12820513 , 4136.92307692 , 4136.92307692 , 4138.46153846 , 4194.35897436 , 4911.79487179 , 4131.28205128 , 4145.64102564 , 2041.0 , 2036.0 , 264.227 , 0.0 , 0.0 , 0.0 , 0.0 , 

24.0 , 4133.84615385 , 4134.35897436 , 4138.46153846 , 4134.35897436 , 4132.82051282 , 4130.76923077 , 4126.66666667 , 4136.41025641 , 4139.48717949 , 4138.97435897 , 4191.79487179 , 4910.25641026 , 4133.33333333 , 4143.58974359 , 2042.0 , 2035.0 , 264.231 , 0.0 , 0.0 , 0.0 , 0.0 , 

25.0 , 4134.35897436 , 4132.30769231 , 4140.51282051 , 4132.82051282 , 4135.38461538 , 4128.71794872 , 4127.69230769 , 4135.38461538 , 4136.92307692 , 4140.51282051 , 4190.25641026 , 4913.33333333 , 4132.82051282 , 4141.53846154 , 2043.0 , 2035.0 , 264.239 , 0.0 , 0.0 , 0.0 , 0.0 , 

26.0 , 4133.84615385 , 4130.76923077 , 4137.43589744 , 4134.87179487 , 4135.38461538 , 4127.69230769 , 4127.17948718 , 4135.8974359 , 4135.8974359 , 4141.02564103 , 4190.76923077 , 4911.79487179 , 4133.33333333 , 4138.46153846 , 2042.0 , 2035.0 , 264.253 , 0.0 , 0.0 , 0.0 , 0.0 , 

27.0 , 4135.8974359 , 4130.25641026 , 4136.92307692 , 4135.8974359 , 4131.79487179 , 4127.17948718 , 4126.15384615 , 4133.84615385 , 4136.92307692 , 4139.48717949 , 4193.84615385 , 4911.79487179 , 4134.87179487 , 4144.1025641 , 2042.0 , 2037.0 , 264.259 , 0.0 , 0.0 , 0.0 , 0.0 , 

28.0 , 4133.33333333 , 4131.79487179 , 4138.46153846 , 4137.94871795 , 4131.79487179 , 4129.74358974 , 4131.28205128 , 4134.87179487 , 4137.43589744 , 4138.46153846 , 4193.84615385 , 4912.82051282 , 4134.35897436 , 4144.61538462 , 2043.0 , 2035.0 , 264.263 , 0.0 , 0.0 , 0.0 , 0.0 , 

29.0 , 4133.33333333 , 4130.76923077 , 4138.97435897 , 4138.46153846 , 4131.28205128 , 4130.25641026 , 4131.79487179 , 4134.35897436 , 4136.92307692 , 4138.46153846 , 4191.79487179 , 4916.41025641 , 4134.35897436 , 4143.58974359 , 2043.0 , 2035.0 , 264.272 , 0.0 , 0.0 , 0.0 , 0.0 , 

30.0 , 4134.87179487 , 4130.25641026 , 4136.92307692 , 4140.0 , 4132.82051282 , 4129.74358974 , 4127.17948718 , 4133.33333333 , 4137.43589744 , 4140.51282051 , 4191.79487179 , 4915.38461538 , 4134.35897436 , 4141.53846154 , 2043.0 , 2033.0 , 264.285 , 0.0 , 0.0 , 0.0 , 0.0 , 

31.0 , 4135.8974359 , 4131.79487179 , 4136.41025641 , 4138.46153846 , 4134.87179487 , 4128.71794872 , 4125.12820513 , 4133.84615385 , 4136.41025641 , 4140.51282051 , 4195.38461538 , 4914.35897436 , 4136.41025641 , 4144.61538462 , 2044.0 , 2037.0 , 264.291 , 0.0 , 0.0 , 0.0 , 0.0 , 

32.0 , 4132.30769231 , 4131.79487179 , 4136.41025641 , 4134.87179487 , 4131.79487179 , 4129.23076923 , 4127.69230769 , 4133.84615385 , 4134.87179487 , 4138.97435897 , 4195.8974359 , 4914.35897436 , 4137.43589744 , 4145.12820513 , 2042.0 , 2036.0 , 264.296 , 0.0 , 0.0 , 0.0 , 0.0 , 

33.0 , 4133.33333333 , 4129.74358974 , 4135.38461538 , 4134.87179487 , 4131.28205128 , 4128.20512821 , 4128.20512821 , 4134.87179487 , 4136.92307692 , 4138.97435897 , 4194.35897436 , 4913.84615385 , 4138.97435897 , 4142.05128205 , 2043.0 , 2037.0 , 264.302 , 0.0 , 0.0 , 0.0 , 0.0 , 

34.0 , 4137.43589744 , 4132.30769231 , 4135.8974359 , 4135.8974359 , 4134.35897436 , 4127.69230769 , 4127.69230769 , 4136.41025641 , 4137.94871795 , 4139.48717949 , 4193.33333333 , 4913.84615385 , 4138.46153846 , 4143.07692308 , 2043.0 , 2038.0 , 264.315 , 0.0 , 0.0 , 0.0 , 0.0 , 

35.0 , 4135.38461538 , 4135.8974359 , 4136.92307692 , 4135.38461538 , 4132.30769231 , 4128.20512821 , 4128.20512821 , 4136.41025641 , 4136.41025641 , 4140.0 , 4193.33333333 , 4911.79487179 , 4137.43589744 , 4144.61538462 , 2043.0 , 2038.0 , 264.322 , 0.0 , 0.0 , 0.0 , 0.0 , 

36.0 , 4134.87179487 , 4134.87179487 , 4135.38461538 , 4132.30769231 , 4130.76923077 , 4128.20512821 , 4127.69230769 , 4133.33333333 , 4134.35897436 , 4142.05128205 , 4193.33333333 , 4912.30769231 , 4134.87179487 , 4146.15384615 , 2042.0 , 2039.0 , 264.327 , 0.0 , 0.0 , 0.0 , 0.0 , 

37.0 , 4136.41025641 , 4131.79487179 , 4133.84615385 , 4134.35897436 , 4131.28205128 , 4131.28205128 , 4127.69230769 , 4132.82051282 , 4134.35897436 , 4140.51282051 , 4194.87179487 , 4914.35897436 , 4134.35897436 , 4143.07692308 , 2043.0 , 2039.0 , 264.336 , 0.0 , 0.0 , 0.0 , 0.0 , 

38.0 , 4135.38461538 , 4130.25641026 , 4135.38461538 , 4135.8974359 , 4129.74358974 , 4130.76923077 , 4126.66666667 , 4134.35897436 , 4134.87179487 , 4136.92307692 , 4194.35897436 , 4916.41025641 , 4135.38461538 , 4144.61538462 , 2043.0 , 2037.0 , 264.347 , 0.0 , 0.0 , 0.0 , 0.0 , 

39.0 , 4132.30769231 , 4133.84615385 , 4137.43589744 , 4134.35897436 , 4132.30769231 , 4127.69230769 , 4128.71794872 , 4135.8974359 , 4137.94871795 , 4140.0 , 4191.28205128 , 4911.28205128 , 4134.87179487 , 4143.07692308 , 2043.0 , 2037.0 , 264.354 , 0.0 , 0.0 , 0.0 , 0.0 , 

40.0 , 4133.84615385 , 4134.35897436 , 4137.94871795 , 4130.25641026 , 4136.92307692 , 4128.71794872 , 4131.28205128 , 4136.41025641 , 4138.46153846 , 4144.1025641 , 4192.30769231 , 4911.79487179 , 4131.79487179 , 4144.61538462 , 2045.0 , 2037.0 , 264.358 , 0.0 , 0.0 , 0.0 , 0.0 , 

41.0 , 4133.33333333 , 4133.33333333 , 4134.87179487 , 4132.82051282 , 4135.8974359 , 4131.79487179 , 4130.25641026 , 4137.43589744 , 4135.8974359 , 4140.0 , 4194.35897436 , 4914.35897436 , 4131.79487179 , 4140.51282051 , 2043.0 , 2037.0 , 264.367 , 0.0 , 0.0 , 0.0 , 0.0 , 

42.0 , 4135.8974359 , 4132.30769231 , 4135.8974359 , 4135.38461538 , 4132.30769231 , 4129.23076923 , 4125.64102564 , 4136.41025641 , 4134.35897436 , 4136.41025641 , 4195.8974359 , 4918.46153846 , 4134.87179487 , 4141.02564103 , 2043.0 , 2037.0 , 264.38 , 0.0 , 0.0 , 0.0 , 0.0 , 

43.0 , 4133.33333333 , 4131.28205128 , 4137.43589744 , 4134.35897436 , 4131.28205128 , 4130.25641026 , 4129.74358974 , 4136.41025641 , 4137.94871795 , 4138.46153846 , 4193.84615385 , 4916.92307692 , 4136.41025641 , 4142.05128205 , 2043.0 , 2037.0 , 264.386 , 0.0 , 0.0 , 0.0 , 0.0 , 

44.0 , 4131.28205128 , 4129.74358974 , 4135.8974359 , 4132.82051282 , 4130.76923077 , 4130.25641026 , 4132.30769231 , 4136.41025641 , 4137.94871795 , 4137.94871795 , 4193.33333333 , 4915.38461538 , 4134.35897436 , 4148.20512821 , 2042.0 , 2037.0 , 264.39 , 0.0 , 0.0 , 0.0 , 0.0 , 

45.0 , 4131.28205128 , 4132.30769231 , 4134.87179487 , 4135.38461538 , 4132.30769231 , 4130.76923077 , 4127.69230769 , 4137.43589744 , 4135.38461538 , 4136.92307692 , 4195.38461538 , 4914.87179487 , 4132.30769231 , 4147.17948718 , 2043.0 , 2037.0 , 264.398 , 0.0 , 0.0 , 0.0 , 0.0 , 

46.0 , 4133.33333333 , 4131.79487179 , 4135.8974359 , 4133.84615385 , 4131.79487179 , 4129.23076923 , 4121.53846154 , 4138.97435897 , 4136.41025641 , 4137.94871795 , 4196.41025641 , 4917.94871795 , 4133.84615385 , 4150.76923077 , 2044.0 , 2037.0 , 264.412 , 0.0 , 0.0 , 0.0 , 0.0 , 

47.0 , 4129.23076923 , 4127.69230769 , 4133.33333333 , 4130.76923077 , 4130.76923077 , 4129.74358974 , 4125.64102564 , 4140.51282051 , 4138.97435897 , 4137.94871795 , 4194.35897436 , 4915.8974359 , 4135.8974359 , 4152.30769231 , 2045.0 , 2037.0 , 264.416 , 0.0 , 0.0 , 0.0 , 0.0 , 

48.0 , 4129.23076923 , 4127.17948718 , 4134.35897436 , 4132.30769231 , 4132.30769231 , 4129.23076923 , 4129.23076923 , 4139.48717949 , 4137.94871795 , 4140.51282051 , 4194.87179487 , 4913.84615385 , 4133.33333333 , 4149.74358974 , 2045.0 , 2037.0 , 264.42 , 0.0 , 0.0 , 0.0 , 0.0 , 

49.0 , 4132.82051282 , 4130.76923077 , 4137.94871795 , 4134.87179487 , 4133.33333333 , 4130.25641026 , 4129.23076923 , 4138.97435897 , 4136.41025641 , 4145.12820513 , 4194.87179487 , 4913.84615385 , 4129.74358974 , 4136.92307692 , 2045.0 , 2037.0 , 264.43 , 0.0 , 0.0 , 0.0 , 0.0 , 

50.0 , 4135.8974359 , 4131.28205128 , 4137.94871795 , 4131.28205128 , 4132.82051282 , 4129.23076923 , 4128.20512821 , 4138.46153846 , 4137.43589744 , 4141.02564103 , 4192.82051282 , 4914.87179487 , 4134.35897436 , 4130.76923077 , 2045.0 , 2036.0 , 264.446 , 0.0 , 0.0 , 0.0 , 0.0 , 

51.0 , 4134.35897436 , 4130.76923077 , 4136.92307692 , 4131.28205128 , 4133.84615385 , 4127.69230769 , 4129.74358974 , 4136.41025641 , 4136.41025641 , 4135.8974359 , 4192.82051282 , 4913.33333333 , 4137.94871795 , 4136.41025641 , 2046.0 , 2035.0 , 264.448 , 0.0 , 0.0 , 0.0 , 0.0 , 

52.0 , 4131.79487179 , 4133.84615385 , 4135.38461538 , 4135.8974359 , 4132.30769231 , 4129.74358974 , 4129.74358974 , 4135.8974359 , 4135.8974359 , 4141.02564103 , 4195.8974359 , 4914.87179487 , 4136.41025641 , 4145.12820513 , 2046.0 , 2036.0 , 264.453 , 0.0 , 0.0 , 0.0 , 0.0 , 

53.0 , 4132.82051282 , 4135.38461538 , 4133.84615385 , 4134.87179487 , 4131.79487179 , 4129.74358974 , 4128.20512821 , 4133.84615385 , 4134.87179487 , 4143.58974359 , 4194.35897436 , 4917.94871795 , 4135.8974359 , 4148.20512821 , 2047.0 , 2036.0 , 264.461 , 0.0 , 0.0 , 0.0 , 0.0 , 

54.0 , 4132.82051282 , 4134.35897436 , 4133.84615385 , 4132.30769231 , 4132.82051282 , 4128.71794872 , 4129.23076923 , 4133.84615385 , 4134.35897436 , 4138.46153846 , 4193.33333333 , 4915.38461538 , 4138.46153846 , 4142.56410256 , 2047.0 , 2037.0 , 264.475 , 0.0 , 0.0 , 0.0 , 0.0 , 

55.0 , 4133.33333333 , 4134.35897436 , 4133.33333333 , 4132.82051282 , 4132.30769231 , 4131.28205128 , 4128.71794872 , 4135.38461538 , 4134.35897436 , 4138.46153846 , 4195.38461538 , 4916.41025641 , 4138.97435897 , 4141.02564103 , 2046.0 , 2037.0 , 264.48 , 0.0 , 0.0 , 0.0 , 0.0 , 

56.0 , 4132.30769231 , 4134.87179487 , 4133.33333333 , 4137.43589744 , 4131.79487179 , 4133.33333333 , 4129.23076923 , 4133.84615385 , 4133.84615385 , 4142.05128205 , 4193.33333333 , 4918.97435897 , 4138.46153846 , 4143.07692308 , 2045.0 , 2040.0 , 264.484 , 0.0 , 0.0 , 0.0 , 0.0 , 

57.0 , 4129.74358974 , 4135.8974359 , 4136.41025641 , 4135.38461538 , 4130.76923077 , 4129.74358974 , 4128.71794872 , 4130.25641026 , 4132.30769231 , 4139.48717949 , 4189.74358974 , 4916.41025641 , 4136.41025641 , 4147.69230769 , 2044.0 , 2039.0 , 264.492 , 0.0 , 0.0 , 0.0 , 0.0 , 

58.0 , 4127.69230769 , 4135.8974359 , 4136.41025641 , 4132.82051282 , 4130.76923077 , 4128.71794872 , 4126.66666667 , 4133.84615385 , 4135.38461538 , 4137.43589744 , 4191.79487179 , 4910.25641026 , 4134.87179487 , 4144.1025641 , 2045.0 , 2039.0 , 264.507 , 0.0 , 0.0 , 0.0 , 0.0 , 

59.0 , 4133.33333333 , 4130.76923077 , 4136.92307692 , 4133.33333333 , 4132.30769231 , 4131.79487179 , 4124.1025641 , 4135.38461538 , 4136.92307692 , 4142.56410256 , 4194.87179487 , 4914.87179487 , 4135.38461538 , 4144.61538462 , 2046.0 , 2036.0 , 264.51 , 0.0 , 0.0 , 0.0 , 0.0 , 

60.0 , 4133.33333333 , 4130.25641026 , 4135.38461538 , 4134.35897436 , 4131.28205128 , 4133.84615385 , 4129.23076923 , 4134.35897436 , 4135.8974359 , 4142.05128205 , 4192.30769231 , 4915.8974359 , 4135.38461538 , 4140.51282051 , 2045.0 , 2036.0 , 264.515 , 0.0 , 0.0 , 0.0 , 0.0 , 

61.0 , 4132.82051282 , 4135.8974359 , 4134.87179487 , 4132.30769231 , 4129.74358974 , 4131.28205128 , 4129.74358974 , 4133.84615385 , 4135.38461538 , 4135.8974359 , 4192.30769231 , 4913.84615385 , 4134.87179487 , 4142.56410256 , 2045.0 , 2035.0 , 264.524 , 0.0 , 0.0 , 0.0 , 0.0 , 

62.0 , 4134.87179487 , 4135.8974359 , 4136.41025641 , 4134.35897436 , 4132.82051282 , 4133.84615385 , 4126.15384615 , 4135.8974359 , 4136.92307692 , 4137.94871795 , 4194.35897436 , 4912.82051282 , 4134.35897436 , 4141.02564103 , 2046.0 , 2035.0 , 264.537 , 0.0 , 0.0 , 0.0 , 0.0 , 

63.0 , 4138.46153846 , 4130.25641026 , 4137.43589744 , 4132.82051282 , 4132.30769231 , 4133.84615385 , 4124.1025641 , 4134.35897436 , 4135.38461538 , 4141.53846154 , 4194.87179487 , 4915.38461538 , 4133.84615385 , 4140.51282051 , 2045.0 , 2037.0 , 264.543 , 0.0 , 0.0 , 0.0 , 0.0 , 

64.0 , 4136.41025641 , 4130.76923077 , 4136.41025641 , 4131.79487179 , 4131.28205128 , 4130.76923077 , 4127.69230769 , 4135.8974359 , 4136.92307692 , 4138.97435897 , 4193.33333333 , 4914.35897436 , 4133.84615385 , 4137.94871795 , 2044.0 , 2037.0 , 264.547 , 0.0 , 0.0 , 0.0 , 0.0 , 

65.0 , 4137.43589744 , 4133.84615385 , 4138.97435897 , 4133.33333333 , 4132.82051282 , 4127.69230769 , 4129.23076923 , 4136.41025641 , 4138.97435897 , 4136.92307692 , 4192.30769231 , 4915.38461538 , 4134.87179487 , 4143.58974359 , 2043.0 , 2034.0 , 264.555 , 0.0 , 0.0 , 0.0 , 0.0 , 

66.0 , 4135.8974359 , 4134.35897436 , 4137.94871795 , 4133.33333333 , 4132.30769231 , 4129.74358974 , 4127.17948718 , 4133.84615385 , 4138.97435897 , 4138.97435897 , 4192.30769231 , 4913.33333333 , 4134.87179487 , 4143.07692308 , 2043.0 , 2036.0 , 264.567 , 0.0 , 0.0 , 0.0 , 0.0 , 

67.0 , 4133.33333333 , 4131.79487179 , 4135.8974359 , 4131.28205128 , 4130.25641026 , 4129.74358974 , 4126.15384615 , 4132.82051282 , 4137.94871795 , 4139.48717949 , 4193.84615385 , 4912.30769231 , 4135.8974359 , 4143.07692308 , 2043.0 , 2035.0 , 264.574 , 0.0 , 0.0 , 0.0 , 0.0 , 

68.0 , 4133.33333333 , 4132.30769231 , 4137.94871795 , 4136.41025641 , 4131.79487179 , 4128.71794872 , 4129.74358974 , 4132.30769231 , 4136.92307692 , 4138.46153846 , 4192.30769231 , 4912.30769231 , 4135.8974359 , 4141.53846154 , 2043.0 , 2036.0 , 264.579 , 0.0 , 0.0 , 0.0 , 0.0 , 

69.0 , 4133.33333333 , 4136.92307692 , 4138.46153846 , 4140.0 , 4131.79487179 , 4128.71794872 , 4130.25641026 , 4130.76923077 , 4135.38461538 , 4137.94871795 , 4192.30769231 , 4913.33333333 , 4134.87179487 , 4140.0 , 2043.0 , 2037.0 , 264.587 , 0.0 , 0.0 , 0.0 , 0.0 , 

70.0 , 4132.30769231 , 4136.41025641 , 4138.97435897 , 4136.41025641 , 4132.30769231 , 4128.71794872 , 4127.17948718 , 4133.33333333 , 4135.8974359 , 4137.43589744 , 4194.35897436 , 4913.84615385 , 4135.38461538 , 4140.0 , 2043.0 , 2037.0 , 264.599 , 0.0 , 0.0 , 0.0 , 0.0 , 

71.0 , 4131.79487179 , 4134.87179487 , 4138.97435897 , 4134.87179487 , 4132.82051282 , 4129.23076923 , 4127.69230769 , 4136.92307692 , 4137.43589744 , 4137.94871795 , 4195.38461538 , 4912.82051282 , 4138.97435897 , 4142.05128205 , 2043.0 , 2035.0 , 264.606 , 0.0 , 0.0 , 0.0 , 0.0 , 

72.0 , 4132.82051282 , 4136.92307692 , 4135.8974359 , 4136.41025641 , 4130.25641026 , 4128.71794872 , 4128.20512821 , 4133.84615385 , 4138.97435897 , 4140.0 , 4193.33333333 , 4914.87179487 , 4137.94871795 , 4143.58974359 , 2040.0 , 2036.0 , 264.61 , 0.0 , 0.0 , 0.0 , 0.0 , 

73.0 , 4132.82051282 , 4137.43589744 , 4134.87179487 , 4138.97435897 , 4130.76923077 , 4129.23076923 , 4126.66666667 , 4132.30769231 , 4140.0 , 4141.02564103 , 4192.82051282 , 4918.97435897 , 4136.41025641 , 4140.51282051 , 2041.0 , 2036.0 , 264.618 , 0.0 , 0.0 , 0.0 , 0.0 , 

74.0 , 4137.94871795 , 4132.30769231 , 4135.8974359 , 4137.94871795 , 4133.33333333 , 4131.79487179 , 4127.17948718 , 4134.35897436 , 4137.94871795 , 4140.0 , 4193.84615385 , 4918.46153846 , 4134.87179487 , 4142.56410256 , 2042.0 , 2036.0 , 264.63 , 0.0 , 0.0 , 0.0 , 0.0 , 

75.0 , 4136.92307692 , 4132.30769231 , 4133.84615385 , 4135.38461538 , 4132.82051282 , 4132.30769231 , 4130.25641026 , 4135.38461538 , 4136.41025641 , 4138.46153846 , 4193.33333333 , 4911.28205128 , 4134.35897436 , 4141.53846154 , 2041.0 , 2035.0 , 264.636 , 0.0 , 0.0 , 0.0 , 0.0 , 

76.0 , 4133.84615385 , 4135.38461538 , 4134.87179487 , 4133.33333333 , 4130.76923077 , 4128.71794872 , 4128.71794872 , 4134.87179487 , 4137.43589744 , 4138.46153846 , 4192.82051282 , 4912.30769231 , 4135.8974359 , 4139.48717949 , 2042.0 , 2036.0 , 264.641 , 0.0 , 0.0 , 0.0 , 0.0 , 

77.0 , 4135.38461538 , 4137.43589744 , 4138.46153846 , 4137.94871795 , 4131.79487179 , 4129.74358974 , 4126.15384615 , 4135.8974359 , 4139.48717949 , 4138.97435897 , 4192.82051282 , 4913.84615385 , 4137.43589744 , 4134.87179487 , 2042.0 , 2035.0 , 264.65 , 0.0 , 0.0 , 0.0 , 0.0 , 

78.0 , 4140.0 , 4135.8974359 , 4139.48717949 , 4138.97435897 , 4132.30769231 , 4131.28205128 , 4126.15384615 , 4133.33333333 , 4137.43589744 , 4138.46153846 , 4192.82051282 , 4913.84615385 , 4134.87179487 , 4137.94871795 , 2042.0 , 2036.0 , 264.662 , 0.0 , 0.0 , 0.0 , 0.0 , 

79.0 , 4136.41025641 , 4131.28205128 , 4136.92307692 , 4137.43589744 , 4132.82051282 , 4130.76923077 , 4129.74358974 , 4133.33333333 , 4134.87179487 , 4138.46153846 , 4193.33333333 , 4912.30769231 , 4134.87179487 , 4136.92307692 , 2043.0 , 2035.0 , 264.669 , 0.0 , 0.0 , 0.0 , 0.0 , 

80.0 , 4135.8974359 , 4131.28205128 , 4136.92307692 , 4136.41025641 , 4131.79487179 , 4128.71794872 , 4130.76923077 , 4133.84615385 , 4135.38461538 , 4138.97435897 , 4194.35897436 , 4915.8974359 , 4135.38461538 , 4142.56410256 , 2044.0 , 2035.0 , 264.673 , 0.0 , 0.0 , 0.0 , 0.0 , 

81.0 , 4134.87179487 , 4136.41025641 , 4136.92307692 , 4138.46153846 , 4131.28205128 , 4130.25641026 , 4128.71794872 , 4133.33333333 , 4137.94871795 , 4138.46153846 , 4194.35897436 , 4915.8974359 , 4134.35897436 , 4143.07692308 , 2045.0 , 2036.0 , 264.681 , 0.0 , 0.0 , 0.0 , 0.0 , 

82.0 , 4135.38461538 , 4132.82051282 , 4138.97435897 , 4137.43589744 , 4131.79487179 , 4129.74358974 , 4127.17948718 , 4131.79487179 , 4135.8974359 , 4138.97435897 , 4195.38461538 , 4915.8974359 , 4134.87179487 , 4143.07692308 , 2043.0 , 2037.0 , 264.694 , 0.0 , 0.0 , 0.0 , 0.0 , 

83.0 , 4134.87179487 , 4129.74358974 , 4138.97435897 , 4136.41025641 , 4134.35897436 , 4128.71794872 , 4128.20512821 , 4134.35897436 , 4134.87179487 , 4140.0 , 4194.87179487 , 4915.8974359 , 4136.41025641 , 4140.0 , 2045.0 , 2036.0 , 264.7 , 0.0 , 0.0 , 0.0 , 0.0 , 

84.0 , 4135.8974359 , 4132.30769231 , 4140.0 , 4136.41025641 , 4134.35897436 , 4127.69230769 , 4127.17948718 , 4134.35897436 , 4136.92307692 , 4137.43589744 , 4193.33333333 , 4917.94871795 , 4136.41025641 , 4142.05128205 , 2043.0 , 2034.0 , 264.704 , 0.0 , 0.0 , 0.0 , 0.0 , 

85.0 , 4133.33333333 , 4135.38461538 , 4138.46153846 , 4139.48717949 , 4133.33333333 , 4129.74358974 , 4127.17948718 , 4133.33333333 , 4137.94871795 , 4135.8974359 , 4193.33333333 , 4914.87179487 , 4134.87179487 , 4139.48717949 , 2043.0 , 2035.0 , 264.713 , 0.0 , 0.0 , 0.0 , 0.0 , 

86.0 , 4133.84615385 , 4133.33333333 , 4136.41025641 , 4137.94871795 , 4131.79487179 , 4130.76923077 , 4129.23076923 , 4133.84615385 , 4137.94871795 , 4138.97435897 , 4193.84615385 , 4913.84615385 , 4134.87179487 , 4138.97435897 , 2045.0 , 2036.0 , 264.725 , 0.0 , 0.0 , 0.0 , 0.0 , 

87.0 , 4134.87179487 , 4130.76923077 , 4139.48717949 , 4133.84615385 , 4130.76923077 , 4132.30769231 , 4130.76923077 , 4135.38461538 , 4137.94871795 , 4141.53846154 , 4193.33333333 , 4916.41025641 , 4134.35897436 , 4136.92307692 , 2045.0 , 2035.0 , 264.732 , 0.0 , 0.0 , 0.0 , 0.0 , 

88.0 , 4135.38461538 , 4132.30769231 , 4142.56410256 , 4134.35897436 , 4129.23076923 , 4132.82051282 , 4129.23076923 , 4134.87179487 , 4134.35897436 , 4138.97435897 , 4193.84615385 , 4915.38461538 , 4134.87179487 , 4138.46153846 , 2045.0 , 2036.0 , 264.736 , 0.0 , 0.0 , 0.0 , 0.0 , 

89.0 , 4134.35897436 , 4135.38461538 , 4138.97435897 , 4134.87179487 , 4130.76923077 , 4131.28205128 , 4128.20512821 , 4132.82051282 , 4132.30769231 , 4138.46153846 , 4193.33333333 , 4911.79487179 , 4135.8974359 , 4142.05128205 , 2044.0 , 2037.0 , 264.745 , 0.0 , 0.0 , 0.0 , 0.0 , 

90.0 , 4132.82051282 , 4133.33333333 , 4136.41025641 , 4133.33333333 , 4132.30769231 , 4130.76923077 , 4128.71794872 , 4133.33333333 , 4135.8974359 , 4140.0 , 4192.30769231 , 4912.82051282 , 4136.41025641 , 4141.02564103 , 2044.0 , 2036.0 , 264.757 , 0.0 , 0.0 , 0.0 , 0.0 , 

91.0 , 4135.8974359 , 4129.23076923 , 4138.97435897 , 4132.30769231 , 4131.28205128 , 4134.35897436 , 4130.25641026 , 4134.87179487 , 4135.8974359 , 4138.97435897 , 4193.84615385 , 4915.8974359 , 4133.33333333 , 4141.02564103 , 2042.0 , 2037.0 , 264.763 , 0.0 , 0.0 , 0.0 , 0.0 , 

92.0 , 4136.41025641 , 4132.82051282 , 4137.94871795 , 4134.87179487 , 4129.23076923 , 4133.84615385 , 4131.28205128 , 4135.8974359 , 4133.84615385 , 4137.94871795 , 4194.87179487 , 4912.30769231 , 4134.87179487 , 4141.02564103 , 2044.0 , 2038.0 , 264.767 , 0.0 , 0.0 , 0.0 , 0.0 , 

93.0 , 4135.38461538 , 4135.38461538 , 4137.94871795 , 4136.41025641 , 4130.25641026 , 4128.71794872 , 4129.74358974 , 4134.35897436 , 4136.92307692 , 4137.94871795 , 4193.84615385 , 4914.35897436 , 4136.92307692 , 4144.1025641 , 2044.0 , 2038.0 , 264.776 , 0.0 , 0.0 , 0.0 , 0.0 , 

94.0 , 4133.84615385 , 4134.87179487 , 4139.48717949 , 4138.46153846 , 4133.84615385 , 4130.25641026 , 4130.76923077 , 4134.35897436 , 4138.97435897 , 4139.48717949 , 4192.82051282 , 4917.43589744 , 4136.41025641 , 4141.53846154 , 2044.0 , 2039.0 , 264.788 , 0.0 , 0.0 , 0.0 , 0.0 , 

95.0 , 4135.38461538 , 4134.35897436 , 4137.43589744 , 4137.94871795 , 4131.28205128 , 4131.79487179 , 4130.25641026 , 4134.35897436 , 4135.8974359 , 4141.02564103 , 4192.82051282 , 4917.94871795 , 4134.87179487 , 4142.56410256 , 2044.0 , 2040.0 , 264.794 , 0.0 , 0.0 , 0.0 , 0.0 , 

96.0 , 4133.33333333 , 4134.87179487 , 4135.38461538 , 4136.92307692 , 4130.25641026 , 4130.76923077 , 4130.25641026 , 4134.35897436 , 4134.87179487 , 4141.02564103 , 4191.79487179 , 4915.38461538 , 4134.87179487 , 4139.48717949 , 2042.0 , 2037.0 , 264.8 , 0.0 , 0.0 , 0.0 , 0.0 , 

97.0 , 4136.41025641 , 4136.41025641 , 4138.46153846 , 4137.43589744 , 4134.35897436 , 4131.28205128 , 4127.17948718 , 4133.84615385 , 4134.35897436 , 4141.02564103 , 4193.84615385 , 4915.38461538 , 4134.35897436 , 4143.07692308 , 2044.0 , 2039.0 , 264.808 , 0.0 , 0.0 , 0.0 , 0.0 , 

98.0 , 4136.41025641 , 4135.8974359 , 4140.0 , 4137.43589744 , 4135.38461538 , 4134.87179487 , 4127.17948718 , 4134.87179487 , 4132.82051282 , 4140.0 , 4195.38461538 , 4910.76923077 , 4134.87179487 , 4143.58974359 , 2044.0 , 2037.0 , 264.819 , 0.0 , 0.0 , 0.0 , 0.0 , 

99.0 , 4136.41025641 , 4132.30769231 , 4138.46153846 , 4133.84615385 , 4130.76923077 , 4130.25641026 , 4128.20512821 , 4133.33333333 , 4130.76923077 , 4139.48717949 , 4193.33333333 , 4911.28205128 , 4137.94871795 , 4144.1025641 , 2044.0 , 2036.0 , 264.827 , 0.0 , 0.0 , 0.0 , 0.0 , 

100.0 , 4137.94871795 , 4133.33333333 , 4137.43589744 , 4134.87179487 , 4131.28205128 , 4129.23076923 , 4129.74358974 , 4132.82051282 , 4133.84615385 , 4138.97435897 , 4192.82051282 , 4912.30769231 , 4137.94871795 , 4138.97435897 , 2043.0 , 2036.0 , 264.831 , 0.0 , 0.0 , 0.0 , 0.0 , 

101.0 , 4139.48717949 , 4135.8974359 , 4136.92307692 , 4136.41025641 , 4132.30769231 , 4131.28205128 , 4127.69230769 , 4132.82051282 , 4135.38461538 , 4138.46153846 , 4194.87179487 , 4913.33333333 , 4133.84615385 , 4142.56410256 , 2043.0 , 2036.0 , 264.839 , 0.0 , 0.0 , 0.0 , 0.0 , 

102.0 , 4133.33333333 , 4133.33333333 , 4136.41025641 , 4136.92307692 , 4130.76923077 , 4131.28205128 , 4130.25641026 , 4135.38461538 , 4135.38461538 , 4138.46153846 , 4192.30769231 , 4912.30769231 , 4133.33333333 , 4142.05128205 , 2044.0 , 2036.0 , 264.853 , 0.0 , 0.0 , 0.0 , 0.0 , 

103.0 , 4131.79487179 , 4129.74358974 , 4137.94871795 , 4136.92307692 , 4129.74358974 , 4129.74358974 , 4131.28205128 , 4135.38461538 , 4136.92307692 , 4141.53846154 , 4191.28205128 , 4913.84615385 , 4136.92307692 , 4142.56410256 , 2044.0 , 2037.0 , 264.857 , 0.0 , 0.0 , 0.0 , 0.0 , 

104.0 , 4133.33333333 , 4132.30769231 , 4139.48717949 , 4135.8974359 , 4131.79487179 , 4130.76923077 , 4129.23076923 , 4134.87179487 , 4139.48717949 , 4142.56410256 , 4192.82051282 , 4912.30769231 , 4134.35897436 , 4143.07692308 , 2044.0 , 2037.0 , 264.862 , 0.0 , 0.0 , 0.0 , 0.0 , 

105.0 , 4133.84615385 , 4134.87179487 , 4138.97435897 , 4134.87179487 , 4131.79487179 , 4129.74358974 , 4129.23076923 , 4134.87179487 , 4139.48717949 , 4138.97435897 , 4193.33333333 , 4912.82051282 , 4132.82051282 , 4144.1025641 , 2045.0 , 2036.0 , 264.871 , 0.0 , 0.0 , 0.0 , 0.0 , 

106.0 , 4133.84615385 , 4132.30769231 , 4139.48717949 , 4137.43589744 , 4133.33333333 , 4129.74358974 , 4130.25641026 , 4134.87179487 , 4136.92307692 , 4138.46153846 , 4192.82051282 , 4913.84615385 , 4135.38461538 , 4142.56410256 , 2045.0 , 2035.0 , 264.884 , 0.0 , 0.0 , 0.0 , 0.0 , 

107.0 , 4134.87179487 , 4131.28205128 , 4141.53846154 , 4137.43589744 , 4132.82051282 , 4130.76923077 , 4126.66666667 , 4134.87179487 , 4136.41025641 , 4139.48717949 , 4193.33333333 , 4912.82051282 , 4138.97435897 , 4143.07692308 , 2043.0 , 2035.0 , 264.888 , 0.0 , 0.0 , 0.0 , 0.0 , 

108.0 , 4136.92307692 , 4135.8974359 , 4139.48717949 , 4133.33333333 , 4132.82051282 , 4129.23076923 , 4128.71794872 , 4135.38461538 , 4135.8974359 , 4138.46153846 , 4194.35897436 , 4914.35897436 , 4138.97435897 , 4143.58974359 , 2043.0 , 2035.0 , 264.893 , 0.0 , 0.0 , 0.0 , 0.0 , 

109.0 , 4136.41025641 , 4135.8974359 , 4135.38461538 , 4132.82051282 , 4132.30769231 , 4130.25641026 , 4134.35897436 , 4135.8974359 , 4134.87179487 , 4138.46153846 , 4193.33333333 , 4914.87179487 , 4136.92307692 , 4137.94871795 , 2043.0 , 2036.0 , 264.902 , 0.0 , 0.0 , 0.0 , 0.0 , 

110.0 , 4135.8974359 , 4129.23076923 , 4136.41025641 , 4132.82051282 , 4131.28205128 , 4131.28205128 , 4130.76923077 , 4133.84615385 , 4134.35897436 , 4141.53846154 , 4192.30769231 , 4914.87179487 , 4134.35897436 , 4141.02564103 , 2043.0 , 2035.0 , 264.916 , 0.0 , 0.0 , 0.0 , 0.0 , 

111.0 , 4134.87179487 , 4129.23076923 , 4138.46153846 , 4133.33333333 , 4133.33333333 , 4129.74358974 , 4126.15384615 , 4135.38461538 , 4136.92307692 , 4141.02564103 , 4194.35897436 , 4913.84615385 , 4135.38461538 , 4143.58974359 , 2042.0 , 2035.0 , 264.921 , 0.0 , 0.0 , 0.0 , 0.0 , 

112.0 , 4134.35897436 , 4132.30769231 , 4137.94871795 , 4133.33333333 , 4135.8974359 , 4128.20512821 , 4127.17948718 , 4135.8974359 , 4137.43589744 , 4137.94871795 , 4195.8974359 , 4914.35897436 , 4137.43589744 , 4141.53846154 , 2042.0 , 2035.0 , 264.925 , 0.0 , 0.0 , 0.0 , 0.0 , 

113.0 , 4131.28205128 , 4132.82051282 , 4134.87179487 , 4134.35897436 , 4131.28205128 , 4130.25641026 , 4130.76923077 , 4136.41025641 , 4137.43589744 , 4137.43589744 , 4192.82051282 , 4912.30769231 , 4137.43589744 , 4138.46153846 , 2042.0 , 2034.0 , 264.935 , 0.0 , 0.0 , 0.0 , 0.0 , 

114.0 , 4133.33333333 , 4131.28205128 , 4136.41025641 , 4133.84615385 , 4128.71794872 , 4128.20512821 , 4128.20512821 , 4134.87179487 , 4137.43589744 , 4139.48717949 , 4193.33333333 , 4913.84615385 , 4135.38461538 , 4144.1025641 , 2043.0 , 2034.0 , 264.946 , 0.0 , 0.0 , 0.0 , 0.0 , 

115.0 , 4133.33333333 , 4132.82051282 , 4137.94871795 , 4134.35897436 , 4132.82051282 , 4129.23076923 , 4127.69230769 , 4134.35897436 , 4137.43589744 , 4140.51282051 , 4196.41025641 , 4913.33333333 , 4135.8974359 , 4140.0 , 2042.0 , 2034.0 , 264.952 , 0.0 , 0.0 , 0.0 , 0.0 , 

116.0 , 4134.87179487 , 4132.82051282 , 4139.48717949 , 4132.82051282 , 4132.30769231 , 4128.71794872 , 4127.69230769 , 4134.87179487 , 4135.38461538 , 4137.43589744 , 4193.84615385 , 4913.33333333 , 4138.97435897 , 4139.48717949 , 2042.0 , 2034.0 , 264.956 , 0.0 , 0.0 , 0.0 , 0.0 , 

117.0 , 4133.84615385 , 4131.79487179 , 4137.94871795 , 4133.84615385 , 4130.25641026 , 4127.69230769 , 4128.20512821 , 4134.87179487 , 4135.8974359 , 4137.43589744 , 4191.79487179 , 4911.79487179 , 4137.43589744 , 4138.97435897 , 2042.0 , 2032.0 , 264.964 , 0.0 , 0.0 , 0.0 , 0.0 , 

118.0 , 4134.35897436 , 4129.74358974 , 4137.94871795 , 4133.33333333 , 4132.82051282 , 4126.15384615 , 4127.17948718 , 4134.35897436 , 4137.43589744 , 4140.51282051 , 4194.35897436 , 4913.84615385 , 4134.87179487 , 4142.05128205 , 2042.0 , 2032.0 , 264.977 , 0.0 , 0.0 , 0.0 , 0.0 , 

119.0 , 4133.33333333 , 4130.76923077 , 4137.43589744 , 4131.79487179 , 4133.84615385 , 4127.69230769 , 4127.17948718 , 4137.94871795 , 4140.0 , 4141.53846154 , 4194.87179487 , 4913.84615385 , 4136.92307692 , 4142.05128205 , 2042.0 , 2033.0 , 264.984 , 0.0 , 0.0 , 0.0 , 0.0 , 

120.0 , 4134.87179487 , 4132.30769231 , 4136.41025641 , 4132.82051282 , 4130.76923077 , 4128.20512821 , 4126.66666667 , 4140.0 , 4138.46153846 , 4140.51282051 , 4193.84615385 , 4913.84615385 , 4137.43589744 , 4147.69230769 , 2043.0 , 2032.0 , 264.989 , 0.0 , 0.0 , 0.0 , 0.0 , 

121.0 , 4132.30769231 , 4130.25641026 , 4136.41025641 , 4135.8974359 , 4131.79487179 , 4127.69230769 , 4126.15384615 , 4137.43589744 , 4135.8974359 , 4140.51282051 , 4191.79487179 , 4911.79487179 , 4134.87179487 , 4143.58974359 , 2042.0 , 2033.0 , 264.997 , 0.0 , 0.0 , 0.0 , 0.0 , 

122.0 , 4132.30769231 , 4128.71794872 , 4138.46153846 , 4134.35897436 , 4135.38461538 , 4125.12820513 , 4125.12820513 , 4134.87179487 , 4138.46153846 , 4141.02564103 , 4193.84615385 , 4913.33333333 , 4135.38461538 , 4140.0 , 2042.0 , 2033.0 , 265.011 , 0.0 , 0.0 , 0.0 , 0.0 , 

123.0 , 4133.84615385 , 4134.35897436 , 4137.43589744 , 4134.35897436 , 4134.87179487 , 4126.66666667 , 4127.69230769 , 4136.41025641 , 4141.02564103 , 4141.02564103 , 4195.8974359 , 4915.38461538 , 4136.41025641 , 4141.02564103 , 2042.0 , 2033.0 , 265.015 , 0.0 , 0.0 , 0.0 , 0.0 , 

124.0 , 4132.82051282 , 4134.35897436 , 4136.92307692 , 4136.41025641 , 4132.82051282 , 4129.74358974 , 4130.25641026 , 4136.92307692 , 4136.41025641 , 4140.0 , 4193.84615385 , 4915.8974359 , 4136.92307692 , 4142.56410256 , 2044.0 , 2034.0 , 265.02 , 0.0 , 0.0 , 0.0 , 0.0 , 

125.0 , 4131.79487179 , 4129.23076923 , 4136.41025641 , 4135.38461538 , 4133.33333333 , 4128.20512821 , 4129.23076923 , 4135.38461538 , 4133.84615385 , 4137.94871795 , 4193.33333333 , 4916.41025641 , 4135.38461538 , 4141.02564103 , 2044.0 , 2034.0 , 265.028 , 0.0 , 0.0 , 0.0 , 0.0 , 

