['COUNTER', 'AF3', 'F7', 'F3', 'FC5', 'T7', 'P7', 'O1', 'O2', 'P8', 'T8', 'FC6', 'F4', 'F8', 'AF4', 'GYROX', 'GYROY', 'TIMESTAMP', 'FUNC_ID', 'FUNC_VALUE', 'MARKER', 'SYNC_SIGNAL']
63.0 , 4142.05128205 , 4136.41025641 , 4134.87179487 , 4132.30769231 , 4131.28205128 , 4136.92307692 , 4129.23076923 , 4126.66666667 , 4131.28205128 , 4136.41025641 , 4195.8974359 , 4910.25641026 , 4139.48717949 , 4146.66666667 , 2045.0 , 2038.0 , 187.282 , 0.0 , 0.0 , 0.0 , 0.0 , 

64.0 , 4142.05128205 , 4136.92307692 , 4134.87179487 , 4133.33333333 , 4130.76923077 , 4132.82051282 , 4130.76923077 , 4129.23076923 , 4133.33333333 , 4137.94871795 , 4192.30769231 , 4908.20512821 , 4138.97435897 , 4146.15384615 , 2044.0 , 2038.0 , 187.29 , 0.0 , 0.0 , 0.0 , 0.0 , 

65.0 , 4142.56410256 , 4135.38461538 , 4136.41025641 , 4133.33333333 , 4130.25641026 , 4132.82051282 , 4128.71794872 , 4128.71794872 , 4132.30769231 , 4138.46153846 , 4192.30769231 , 4909.74358974 , 4140.51282051 , 4146.66666667 , 2045.0 , 2038.0 , 187.301 , 0.0 , 0.0 , 0.0 , 0.0 , 

66.0 , 4139.48717949 , 4134.87179487 , 4138.46153846 , 4131.28205128 , 4131.28205128 , 4136.41025641 , 4129.74358974 , 4127.69230769 , 4130.76923077 , 4138.46153846 , 4196.41025641 , 4911.28205128 , 4140.51282051 , 4147.69230769 , 2043.0 , 2037.0 , 187.304 , 0.0 , 0.0 , 0.0 , 0.0 , 

67.0 , 4140.0 , 4132.82051282 , 4139.48717949 , 4130.76923077 , 4132.30769231 , 4134.35897436 , 4133.33333333 , 4130.76923077 , 4132.30769231 , 4140.51282051 , 4195.38461538 , 4911.79487179 , 4137.94871795 , 4150.25641026 , 2043.0 , 2036.0 , 187.314 , 0.0 , 0.0 , 0.0 , 0.0 , 

68.0 , 4141.53846154 , 4132.82051282 , 4138.46153846 , 4134.35897436 , 4131.79487179 , 4133.33333333 , 4133.33333333 , 4133.84615385 , 4134.87179487 , 4140.51282051 , 4191.79487179 , 4912.30769231 , 4136.41025641 , 4144.61538462 , 2044.0 , 2036.0 , 187.324 , 0.0 , 0.0 , 0.0 , 0.0 , 

69.0 , 4138.46153846 , 4133.33333333 , 4136.41025641 , 4133.84615385 , 4130.76923077 , 4133.84615385 , 4130.25641026 , 4132.30769231 , 4134.35897436 , 4138.46153846 , 4192.82051282 , 4914.87179487 , 4140.51282051 , 4143.07692308 , 2044.0 , 2036.0 , 187.334 , 0.0 , 0.0 , 0.0 , 0.0 , 

70.0 , 4134.35897436 , 4132.30769231 , 4136.92307692 , 4132.82051282 , 4131.28205128 , 4133.33333333 , 4131.28205128 , 4131.28205128 , 4133.84615385 , 4138.97435897 , 4195.8974359 , 4916.41025641 , 4141.02564103 , 4145.64102564 , 2044.0 , 2037.0 , 187.337 , 0.0 , 0.0 , 0.0 , 0.0 , 

71.0 , 4135.38461538 , 4131.28205128 , 4136.92307692 , 4133.84615385 , 4130.76923077 , 4132.30769231 , 4130.76923077 , 4132.30769231 , 4135.8974359 , 4140.0 , 4194.87179487 , 4916.41025641 , 4137.94871795 , 4146.15384615 , 2044.0 , 2036.0 , 187.344 , 0.0 , 0.0 , 0.0 , 0.0 , 

72.0 , 4134.35897436 , 4131.28205128 , 4135.38461538 , 4135.38461538 , 4131.79487179 , 4130.25641026 , 4128.20512821 , 4130.76923077 , 4135.38461538 , 4139.48717949 , 4190.76923077 , 4912.30769231 , 4138.97435897 , 4143.58974359 , 2044.0 , 2036.0 , 187.353 , 0.0 , 0.0 , 0.0 , 0.0 , 

73.0 , 4131.28205128 , 4129.74358974 , 4134.87179487 , 4136.41025641 , 4132.30769231 , 4127.69230769 , 4126.15384615 , 4133.33333333 , 4135.38461538 , 4138.97435897 , 4191.28205128 , 4908.71794872 , 4140.51282051 , 4141.53846154 , 2044.0 , 2039.0 , 187.364 , 0.0 , 0.0 , 0.0 , 0.0 , 

74.0 , 4133.84615385 , 4131.79487179 , 4136.92307692 , 4137.43589744 , 4130.25641026 , 4129.74358974 , 4125.12820513 , 4133.84615385 , 4135.8974359 , 4139.48717949 , 4194.87179487 , 4912.30769231 , 4135.38461538 , 4144.61538462 , 2045.0 , 2038.0 , 187.368 , 0.0 , 0.0 , 0.0 , 0.0 , 

75.0 , 4135.38461538 , 4133.84615385 , 4136.41025641 , 4139.48717949 , 4130.76923077 , 4131.28205128 , 4125.64102564 , 4130.76923077 , 4136.41025641 , 4138.97435897 , 4194.35897436 , 4913.84615385 , 4133.84615385 , 4144.1025641 , 2044.0 , 2038.0 , 187.377 , 0.0 , 0.0 , 0.0 , 0.0 , 

76.0 , 4136.41025641 , 4131.28205128 , 4137.43589744 , 4134.35897436 , 4132.30769231 , 4128.71794872 , 4125.64102564 , 4130.76923077 , 4135.38461538 , 4137.43589744 , 4192.30769231 , 4913.84615385 , 4136.41025641 , 4145.12820513 , 2045.0 , 2039.0 , 187.385 , 0.0 , 0.0 , 0.0 , 0.0 , 

77.0 , 4135.8974359 , 4132.30769231 , 4138.46153846 , 4131.28205128 , 4133.84615385 , 4129.23076923 , 4128.20512821 , 4132.82051282 , 4136.41025641 , 4136.41025641 , 4191.79487179 , 4912.30769231 , 4138.97435897 , 4144.61538462 , 2045.0 , 2038.0 , 187.397 , 0.0 , 0.0 , 0.0 , 0.0 , 

78.0 , 4134.35897436 , 4133.84615385 , 4136.92307692 , 4134.87179487 , 4134.87179487 , 4130.76923077 , 4128.71794872 , 4133.33333333 , 4138.46153846 , 4136.92307692 , 4193.33333333 , 4911.28205128 , 4136.41025641 , 4146.15384615 , 2045.0 , 2036.0 , 187.4 , 0.0 , 0.0 , 0.0 , 0.0 , 

79.0 , 4131.28205128 , 4132.82051282 , 4135.38461538 , 4138.97435897 , 4133.33333333 , 4131.28205128 , 4129.23076923 , 4136.92307692 , 4138.97435897 , 4138.46153846 , 4192.30769231 , 4911.28205128 , 4135.38461538 , 4142.56410256 , 2043.0 , 2037.0 , 187.407 , 0.0 , 0.0 , 0.0 , 0.0 , 

80.0 , 4134.87179487 , 4132.30769231 , 4137.94871795 , 4135.38461538 , 4131.79487179 , 4129.74358974 , 4127.17948718 , 4137.43589744 , 4135.8974359 , 4139.48717949 , 4191.28205128 , 4913.84615385 , 4135.8974359 , 4144.61538462 , 2044.0 , 2038.0 , 187.417 , 0.0 , 0.0 , 0.0 , 0.0 , 

81.0 , 4135.8974359 , 4134.87179487 , 4135.8974359 , 4134.87179487 , 4132.30769231 , 4131.79487179 , 4126.15384615 , 4134.87179487 , 4135.38461538 , 4138.46153846 , 4191.28205128 , 4910.76923077 , 4137.94871795 , 4144.1025641 , 2044.0 , 2037.0 , 187.427 , 0.0 , 0.0 , 0.0 , 0.0 , 

82.0 , 4136.41025641 , 4132.30769231 , 4133.33333333 , 4135.38461538 , 4130.76923077 , 4132.82051282 , 4125.12820513 , 4133.84615385 , 4137.43589744 , 4137.94871795 , 4192.30769231 , 4913.33333333 , 4137.43589744 , 4147.17948718 , 2043.0 , 2036.0 , 187.431 , 0.0 , 0.0 , 0.0 , 0.0 , 

83.0 , 4135.38461538 , 4130.25641026 , 4134.87179487 , 4133.84615385 , 4129.74358974 , 4131.79487179 , 4126.15384615 , 4137.94871795 , 4136.92307692 , 4138.97435897 , 4192.30769231 , 4915.8974359 , 4135.38461538 , 4146.15384615 , 2043.0 , 2036.0 , 187.44 , 0.0 , 0.0 , 0.0 , 0.0 , 

84.0 , 4133.84615385 , 4132.30769231 , 4137.94871795 , 4133.33333333 , 4131.28205128 , 4130.25641026 , 4125.64102564 , 4137.43589744 , 4133.84615385 , 4140.51282051 , 4190.76923077 , 4915.38461538 , 4136.41025641 , 4145.64102564 , 2044.0 , 2036.0 , 187.449 , 0.0 , 0.0 , 0.0 , 0.0 , 

85.0 , 4130.76923077 , 4134.35897436 , 4137.43589744 , 4135.8974359 , 4131.79487179 , 4132.30769231 , 4127.17948718 , 4135.8974359 , 4133.84615385 , 4139.48717949 , 4191.79487179 , 4912.82051282 , 4139.48717949 , 4142.56410256 , 2044.0 , 2036.0 , 187.459 , 0.0 , 0.0 , 0.0 , 0.0 , 

86.0 , 4131.79487179 , 4132.30769231 , 4136.41025641 , 4136.41025641 , 4130.25641026 , 4132.30769231 , 4129.23076923 , 4137.94871795 , 4134.87179487 , 4136.92307692 , 4195.38461538 , 4913.84615385 , 4136.92307692 , 4142.56410256 , 2043.0 , 2035.0 , 187.463 , 0.0 , 0.0 , 0.0 , 0.0 , 

87.0 , 4133.33333333 , 4131.28205128 , 4134.35897436 , 4134.35897436 , 4131.28205128 , 4129.23076923 , 4129.23076923 , 4137.94871795 , 4134.87179487 , 4137.94871795 , 4194.87179487 , 4912.82051282 , 4131.79487179 , 4140.0 , 2044.0 , 2036.0 , 187.47 , 0.0 , 0.0 , 0.0 , 0.0 , 

88.0 , 4133.84615385 , 4133.33333333 , 4134.35897436 , 4133.33333333 , 4132.82051282 , 4129.23076923 , 4127.17948718 , 4133.84615385 , 4134.87179487 , 4138.97435897 , 4191.79487179 , 4911.79487179 , 4132.82051282 , 4140.51282051 , 2044.0 , 2036.0 , 187.48 , 0.0 , 0.0 , 0.0 , 0.0 , 

89.0 , 4132.82051282 , 4133.84615385 , 4137.94871795 , 4133.84615385 , 4132.30769231 , 4131.79487179 , 4130.25641026 , 4134.87179487 , 4135.38461538 , 4138.46153846 , 4192.30769231 , 4911.79487179 , 4133.84615385 , 4142.05128205 , 2043.0 , 2034.0 , 187.49 , 0.0 , 0.0 , 0.0 , 0.0 , 

90.0 , 4135.38461538 , 4129.74358974 , 4138.97435897 , 4133.84615385 , 4130.76923077 , 4131.79487179 , 4130.76923077 , 4136.92307692 , 4134.35897436 , 4138.46153846 , 4195.38461538 , 4913.33333333 , 4133.84615385 , 4142.05128205 , 2044.0 , 2035.0 , 187.493 , 0.0 , 0.0 , 0.0 , 0.0 , 

91.0 , 4138.97435897 , 4130.25641026 , 4136.92307692 , 4132.82051282 , 4132.30769231 , 4130.25641026 , 4127.69230769 , 4133.33333333 , 4134.35897436 , 4140.0 , 4194.87179487 , 4914.87179487 , 4135.8974359 , 4143.07692308 , 2042.0 , 2035.0 , 187.501 , 0.0 , 0.0 , 0.0 , 0.0 , 

92.0 , 4135.38461538 , 4133.84615385 , 4136.92307692 , 4133.33333333 , 4133.33333333 , 4128.20512821 , 4127.69230769 , 4132.82051282 , 4136.92307692 , 4139.48717949 , 4193.33333333 , 4912.82051282 , 4136.92307692 , 4141.53846154 , 2043.0 , 2035.0 , 187.51 , 0.0 , 0.0 , 0.0 , 0.0 , 

93.0 , 4133.84615385 , 4132.82051282 , 4138.46153846 , 4133.84615385 , 4130.76923077 , 4127.17948718 , 4127.17948718 , 4135.38461538 , 4136.92307692 , 4136.92307692 , 4193.33333333 , 4911.79487179 , 4136.41025641 , 4142.56410256 , 2044.0 , 2037.0 , 187.521 , 0.0 , 0.0 , 0.0 , 0.0 , 

94.0 , 4134.87179487 , 4131.79487179 , 4137.94871795 , 4136.41025641 , 4129.74358974 , 4130.25641026 , 4127.17948718 , 4135.8974359 , 4134.87179487 , 4138.46153846 , 4194.35897436 , 4912.30769231 , 4136.41025641 , 4141.53846154 , 2044.0 , 2037.0 , 187.526 , 0.0 , 0.0 , 0.0 , 0.0 , 

95.0 , 4135.8974359 , 4133.84615385 , 4135.8974359 , 4137.43589744 , 4131.28205128 , 4130.76923077 , 4127.69230769 , 4132.82051282 , 4135.8974359 , 4141.53846154 , 4194.35897436 , 4915.8974359 , 4133.84615385 , 4142.56410256 , 2043.0 , 2038.0 , 187.535 , 0.0 , 0.0 , 0.0 , 0.0 , 

96.0 , 4132.30769231 , 4134.35897436 , 4133.84615385 , 4138.46153846 , 4132.82051282 , 4128.71794872 , 4126.66666667 , 4131.28205128 , 4137.94871795 , 4140.0 , 4192.82051282 , 4915.8974359 , 4134.87179487 , 4139.48717949 , 2043.0 , 2037.0 , 187.543 , 0.0 , 0.0 , 0.0 , 0.0 , 

97.0 , 4133.84615385 , 4131.79487179 , 4135.8974359 , 4138.46153846 , 4133.84615385 , 4128.71794872 , 4127.17948718 , 4132.82051282 , 4133.84615385 , 4137.43589744 , 4192.82051282 , 4915.8974359 , 4137.43589744 , 4141.02564103 , 2042.0 , 2036.0 , 187.554 , 0.0 , 0.0 , 0.0 , 0.0 , 

98.0 , 4134.35897436 , 4130.76923077 , 4135.38461538 , 4138.46153846 , 4132.82051282 , 4131.79487179 , 4131.79487179 , 4137.94871795 , 4133.84615385 , 4139.48717949 , 4192.82051282 , 4914.87179487 , 4135.38461538 , 4138.46153846 , 2042.0 , 2037.0 , 187.557 , 0.0 , 0.0 , 0.0 , 0.0 , 

99.0 , 4134.35897436 , 4129.74358974 , 4135.38461538 , 4135.38461538 , 4130.76923077 , 4130.25641026 , 4128.71794872 , 4135.38461538 , 4136.92307692 , 4138.46153846 , 4192.82051282 , 4916.41025641 , 4134.35897436 , 4142.05128205 , 2042.0 , 2037.0 , 187.566 , 0.0 , 0.0 , 0.0 , 0.0 , 

100.0 , 4132.82051282 , 4131.28205128 , 4137.43589744 , 4134.87179487 , 4131.79487179 , 4130.25641026 , 4126.66666667 , 4131.28205128 , 4136.41025641 , 4135.8974359 , 4191.79487179 , 4912.30769231 , 4137.43589744 , 4140.0 , 2042.0 , 2037.0 , 187.574 , 0.0 , 0.0 , 0.0 , 0.0 , 

101.0 , 4135.8974359 , 4133.33333333 , 4137.94871795 , 4134.87179487 , 4130.76923077 , 4129.74358974 , 4130.76923077 , 4135.8974359 , 4135.8974359 , 4136.92307692 , 4191.79487179 , 4911.79487179 , 4136.41025641 , 4141.53846154 , 2042.0 , 2038.0 , 187.585 , 0.0 , 0.0 , 0.0 , 0.0 , 

102.0 , 4135.38461538 , 4132.30769231 , 4134.35897436 , 4135.8974359 , 4130.25641026 , 4128.20512821 , 4131.28205128 , 4137.94871795 , 4136.92307692 , 4138.46153846 , 4193.33333333 , 4913.84615385 , 4133.84615385 , 4142.56410256 , 2042.0 , 2038.0 , 187.589 , 0.0 , 0.0 , 0.0 , 0.0 , 

103.0 , 4132.82051282 , 4129.74358974 , 4133.33333333 , 4132.82051282 , 4130.76923077 , 4129.23076923 , 4126.66666667 , 4132.82051282 , 4134.87179487 , 4137.94871795 , 4194.87179487 , 4914.87179487 , 4134.87179487 , 4143.07692308 , 2042.0 , 2038.0 , 187.598 , 0.0 , 0.0 , 0.0 , 0.0 , 

104.0 , 4132.30769231 , 4131.79487179 , 4134.87179487 , 4131.28205128 , 4131.79487179 , 4132.82051282 , 4127.69230769 , 4134.87179487 , 4133.84615385 , 4138.46153846 , 4193.84615385 , 4910.76923077 , 4136.92307692 , 4137.94871795 , 2043.0 , 2039.0 , 187.606 , 0.0 , 0.0 , 0.0 , 0.0 , 

105.0 , 4135.38461538 , 4133.33333333 , 4135.38461538 , 4134.87179487 , 4130.25641026 , 4131.79487179 , 4128.71794872 , 4138.46153846 , 4134.87179487 , 4141.02564103 , 4192.82051282 , 4912.82051282 , 4135.8974359 , 4138.97435897 , 2043.0 , 2039.0 , 187.617 , 0.0 , 0.0 , 0.0 , 0.0 , 

106.0 , 4133.84615385 , 4131.28205128 , 4134.35897436 , 4138.46153846 , 4129.74358974 , 4131.28205128 , 4127.69230769 , 4135.38461538 , 4136.41025641 , 4140.51282051 , 4193.84615385 , 4915.38461538 , 4134.35897436 , 4138.46153846 , 2042.0 , 2037.0 , 187.621 , 0.0 , 0.0 , 0.0 , 0.0 , 

107.0 , 4132.82051282 , 4130.25641026 , 4133.84615385 , 4137.43589744 , 4130.25641026 , 4131.79487179 , 4128.20512821 , 4132.82051282 , 4136.41025641 , 4137.94871795 , 4193.84615385 , 4914.87179487 , 4135.8974359 , 4137.43589744 , 2043.0 , 2038.0 , 187.628 , 0.0 , 0.0 , 0.0 , 0.0 , 

108.0 , 4134.87179487 , 4131.28205128 , 4136.41025641 , 4134.35897436 , 4132.30769231 , 4129.23076923 , 4128.71794872 , 4133.33333333 , 4135.38461538 , 4137.94871795 , 4191.28205128 , 4913.84615385 , 4136.92307692 , 4140.0 , 2042.0 , 2038.0 , 187.637 , 0.0 , 0.0 , 0.0 , 0.0 , 

109.0 , 4134.35897436 , 4132.30769231 , 4137.94871795 , 4135.38461538 , 4132.82051282 , 4129.23076923 , 4127.69230769 , 4133.33333333 , 4135.38461538 , 4137.94871795 , 4191.28205128 , 4913.84615385 , 4136.92307692 , 4141.02564103 , 2042.0 , 2038.0 , 187.649 , 0.0 , 0.0 , 0.0 , 0.0 , 

110.0 , 4133.84615385 , 4132.82051282 , 4135.8974359 , 4135.8974359 , 4131.28205128 , 4130.76923077 , 4129.23076923 , 4133.84615385 , 4135.38461538 , 4136.41025641 , 4192.82051282 , 4915.38461538 , 4136.41025641 , 4140.0 , 2043.0 , 2038.0 , 187.651 , 0.0 , 0.0 , 0.0 , 0.0 , 

111.0 , 4132.30769231 , 4134.35897436 , 4133.33333333 , 4135.38461538 , 4130.25641026 , 4130.25641026 , 4131.79487179 , 4136.41025641 , 4135.38461538 , 4137.43589744 , 4193.84615385 , 4915.38461538 , 4136.41025641 , 4138.46153846 , 2044.0 , 2039.0 , 187.661 , 0.0 , 0.0 , 0.0 , 0.0 , 

112.0 , 4131.28205128 , 4132.82051282 , 4134.87179487 , 4135.38461538 , 4130.25641026 , 4130.25641026 , 4129.23076923 , 4136.41025641 , 4136.41025641 , 4138.46153846 , 4193.33333333 , 4915.38461538 , 4134.87179487 , 4140.0 , 2042.0 , 2039.0 , 187.669 , 0.0 , 0.0 , 0.0 , 0.0 , 

113.0 , 4131.79487179 , 4132.30769231 , 4135.8974359 , 4136.41025641 , 4130.76923077 , 4131.79487179 , 4126.15384615 , 4137.43589744 , 4136.92307692 , 4137.94871795 , 4193.84615385 , 4912.82051282 , 4135.38461538 , 4138.97435897 , 2042.0 , 2040.0 , 187.68 , 0.0 , 0.0 , 0.0 , 0.0 , 

114.0 , 4134.35897436 , 4131.79487179 , 4135.8974359 , 4136.41025641 , 4129.74358974 , 4128.71794872 , 4125.12820513 , 4136.92307692 , 4134.87179487 , 4139.48717949 , 4193.33333333 , 4912.82051282 , 4134.35897436 , 4141.02564103 , 2043.0 , 2038.0 , 187.684 , 0.0 , 0.0 , 0.0 , 0.0 , 

115.0 , 4133.84615385 , 4132.30769231 , 4134.87179487 , 4139.48717949 , 4130.76923077 , 4129.74358974 , 4128.71794872 , 4135.8974359 , 4135.38461538 , 4138.97435897 , 4192.30769231 , 4911.79487179 , 4133.33333333 , 4137.94871795 , 2043.0 , 2036.0 , 187.692 , 0.0 , 0.0 , 0.0 , 0.0 , 

116.0 , 4136.41025641 , 4133.84615385 , 4136.41025641 , 4139.48717949 , 4132.82051282 , 4131.79487179 , 4129.74358974 , 4133.84615385 , 4135.38461538 , 4135.8974359 , 4193.84615385 , 4915.38461538 , 4135.38461538 , 4138.97435897 , 2044.0 , 2036.0 , 187.701 , 0.0 , 0.0 , 0.0 , 0.0 , 

117.0 , 4135.8974359 , 4135.38461538 , 4136.41025641 , 4136.41025641 , 4132.82051282 , 4132.30769231 , 4129.74358974 , 4135.8974359 , 4136.92307692 , 4136.92307692 , 4193.84615385 , 4915.8974359 , 4137.94871795 , 4140.0 , 2043.0 , 2036.0 , 187.711 , 0.0 , 0.0 , 0.0 , 0.0 , 

118.0 , 4134.35897436 , 4132.82051282 , 4135.8974359 , 4134.87179487 , 4132.30769231 , 4129.23076923 , 4128.71794872 , 4136.41025641 , 4137.94871795 , 4138.46153846 , 4192.30769231 , 4913.33333333 , 4137.43589744 , 4142.05128205 , 2043.0 , 2035.0 , 187.715 , 0.0 , 0.0 , 0.0 , 0.0 , 

119.0 , 4134.35897436 , 4131.79487179 , 4135.8974359 , 4136.41025641 , 4132.82051282 , 4130.25641026 , 4128.71794872 , 4135.38461538 , 4137.94871795 , 4138.46153846 , 4191.79487179 , 4911.28205128 , 4135.8974359 , 4138.46153846 , 2043.0 , 2034.0 , 187.724 , 0.0 , 0.0 , 0.0 , 0.0 , 

120.0 , 4136.92307692 , 4133.33333333 , 4136.92307692 , 4134.35897436 , 4132.82051282 , 4129.74358974 , 4128.20512821 , 4135.38461538 , 4137.43589744 , 4137.43589744 , 4193.33333333 , 4916.41025641 , 4135.38461538 , 4140.51282051 , 2043.0 , 2035.0 , 187.732 , 0.0 , 0.0 , 0.0 , 0.0 , 

121.0 , 4135.8974359 , 4134.35897436 , 4134.87179487 , 4134.87179487 , 4131.28205128 , 4128.71794872 , 4128.71794872 , 4134.87179487 , 4137.43589744 , 4136.92307692 , 4192.82051282 , 4913.84615385 , 4134.35897436 , 4141.02564103 , 2043.0 , 2034.0 , 187.743 , 0.0 , 0.0 , 0.0 , 0.0 , 

122.0 , 4136.41025641 , 4133.33333333 , 4134.35897436 , 4137.43589744 , 4129.23076923 , 4127.17948718 , 4128.71794872 , 4132.30769231 , 4135.8974359 , 4140.0 , 4192.30769231 , 4911.28205128 , 4134.35897436 , 4142.05128205 , 2042.0 , 2036.0 , 187.746 , 0.0 , 0.0 , 0.0 , 0.0 , 

123.0 , 4134.87179487 , 4133.33333333 , 4136.92307692 , 4137.43589744 , 4131.28205128 , 4129.74358974 , 4130.76923077 , 4134.35897436 , 4136.41025641 , 4141.53846154 , 4192.30769231 , 4913.84615385 , 4133.33333333 , 4140.51282051 , 2042.0 , 2035.0 , 187.754 , 0.0 , 0.0 , 0.0 , 0.0 , 

124.0 , 4132.82051282 , 4132.30769231 , 4137.43589744 , 4135.38461538 , 4132.30769231 , 4130.25641026 , 4129.74358974 , 4138.46153846 , 4137.43589744 , 4138.97435897 , 4193.33333333 , 4915.8974359 , 4133.84615385 , 4139.48717949 , 2043.0 , 2035.0 , 187.763 , 0.0 , 0.0 , 0.0 , 0.0 , 

125.0 , 4131.79487179 , 4133.33333333 , 4134.87179487 , 4136.41025641 , 4132.82051282 , 4128.71794872 , 4128.71794872 , 4134.87179487 , 4135.38461538 , 4137.43589744 , 4194.35897436 , 4911.28205128 , 4135.38461538 , 4136.41025641 , 2043.0 , 2038.0 , 187.775 , 0.0 , 0.0 , 0.0 , 0.0 , 

126.0 , 4133.33333333 , 4134.87179487 , 4134.87179487 , 4136.92307692 , 4132.82051282 , 4129.74358974 , 4131.28205128 , 4133.33333333 , 4133.84615385 , 4138.46153846 , 4193.33333333 , 4910.76923077 , 4135.38461538 , 4136.92307692 , 2042.0 , 2035.0 , 187.778 , 0.0 , 0.0 , 0.0 , 0.0 , 

127.0 , 4134.35897436 , 4132.30769231 , 4135.38461538 , 4135.38461538 , 4131.79487179 , 4130.76923077 , 4132.30769231 , 4135.8974359 , 4134.35897436 , 4136.92307692 , 4192.30769231 , 4913.33333333 , 4132.82051282 , 4137.94871795 , 2042.0 , 2037.0 , 187.787 , 0.0 , 0.0 , 0.0 , 0.0 , 

128.0 , 4133.33333333 , 4132.30769231 , 4134.35897436 , 4137.43589744 , 4131.28205128 , 4129.23076923 , 4129.74358974 , 4136.41025641 , 4135.38461538 , 4136.41025641 , 4193.84615385 , 4912.30769231 , 4132.30769231 , 4135.8974359 , 2041.0 , 2037.0 , 187.795 , 0.0 , 0.0 , 0.0 , 0.0 , 

0.0 , 4135.8974359 , 4134.87179487 , 4135.38461538 , 4141.02564103 , 4130.76923077 , 4128.71794872 , 4128.20512821 , 4134.35897436 , 4134.87179487 , 4138.46153846 , 4194.87179487 , 4913.33333333 , 4132.30769231 , 4138.97435897 , 2043.0 , 2036.0 , 187.805 , 0.0 , 0.0 , 0.0 , 0.0 , 

1.0 , 4136.41025641 , 4134.35897436 , 4137.43589744 , 4140.51282051 , 4130.76923077 , 4128.20512821 , 4129.74358974 , 4136.41025641 , 4134.87179487 , 4137.94871795 , 4192.30769231 , 4913.84615385 , 4132.82051282 , 4141.02564103 , 2043.0 , 2035.0 , 187.808 , 0.0 , 0.0 , 0.0 , 0.0 , 

2.0 , 4136.92307692 , 4131.28205128 , 4138.46153846 , 4135.38461538 , 4130.76923077 , 4128.20512821 , 4128.71794872 , 4137.43589744 , 4134.35897436 , 4138.97435897 , 4191.28205128 , 4913.33333333 , 4134.87179487 , 4141.53846154 , 2042.0 , 2035.0 , 187.818 , 0.0 , 0.0 , 0.0 , 0.0 , 

3.0 , 4134.87179487 , 4131.79487179 , 4136.41025641 , 4136.41025641 , 4131.79487179 , 4130.76923077 , 4130.76923077 , 4135.38461538 , 4134.87179487 , 4139.48717949 , 4193.33333333 , 4913.33333333 , 4134.87179487 , 4138.46153846 , 2042.0 , 2036.0 , 187.826 , 0.0 , 0.0 , 0.0 , 0.0 , 

4.0 , 4134.87179487 , 4134.35897436 , 4135.38461538 , 4140.0 , 4130.76923077 , 4129.74358974 , 4132.82051282 , 4133.33333333 , 4135.8974359 , 4137.43589744 , 4194.35897436 , 4914.35897436 , 4132.30769231 , 4138.97435897 , 2041.0 , 2037.0 , 187.837 , 0.0 , 0.0 , 0.0 , 0.0 , 

5.0 , 4134.35897436 , 4135.38461538 , 4133.84615385 , 4138.97435897 , 4131.28205128 , 4128.71794872 , 4131.79487179 , 4135.8974359 , 4137.94871795 , 4135.8974359 , 4191.79487179 , 4913.33333333 , 4132.30769231 , 4138.46153846 , 2042.0 , 2038.0 , 187.84 , 0.0 , 0.0 , 0.0 , 0.0 , 

6.0 , 4134.87179487 , 4132.82051282 , 4135.38461538 , 4135.38461538 , 4132.30769231 , 4130.25641026 , 4128.20512821 , 4136.92307692 , 4136.92307692 , 4136.41025641 , 4192.82051282 , 4915.8974359 , 4133.84615385 , 4142.05128205 , 2042.0 , 2036.0 , 187.85 , 0.0 , 0.0 , 0.0 , 0.0 , 

7.0 , 4134.87179487 , 4133.84615385 , 4136.41025641 , 4136.92307692 , 4131.28205128 , 4132.30769231 , 4128.20512821 , 4135.8974359 , 4136.92307692 , 4137.94871795 , 4192.82051282 , 4912.82051282 , 4133.84615385 , 4134.87179487 , 2043.0 , 2036.0 , 187.858 , 0.0 , 0.0 , 0.0 , 0.0 , 

8.0 , 4137.94871795 , 4134.87179487 , 4136.41025641 , 4136.41025641 , 4130.76923077 , 4130.25641026 , 4127.69230769 , 4132.30769231 , 4137.94871795 , 4137.94871795 , 4191.79487179 , 4910.76923077 , 4132.30769231 , 4135.38461538 , 2043.0 , 2036.0 , 187.869 , 0.0 , 0.0 , 0.0 , 0.0 , 

9.0 , 4135.8974359 , 4133.84615385 , 4134.87179487 , 4134.35897436 , 4131.79487179 , 4130.25641026 , 4128.71794872 , 4131.79487179 , 4138.46153846 , 4136.92307692 , 4191.28205128 , 4913.33333333 , 4131.79487179 , 4139.48717949 , 2043.0 , 2037.0 , 187.872 , 0.0 , 0.0 , 0.0 , 0.0 , 

10.0 , 4134.35897436 , 4133.33333333 , 4136.41025641 , 4135.38461538 , 4130.76923077 , 4128.71794872 , 4129.23076923 , 4133.33333333 , 4135.38461538 , 4138.97435897 , 4191.79487179 , 4916.92307692 , 4132.30769231 , 4141.53846154 , 2044.0 , 2037.0 , 187.881 , 0.0 , 0.0 , 0.0 , 0.0 , 

11.0 , 4134.35897436 , 4135.38461538 , 4140.51282051 , 4135.8974359 , 4131.79487179 , 4129.23076923 , 4130.25641026 , 4137.43589744 , 4133.33333333 , 4141.53846154 , 4192.30769231 , 4913.33333333 , 4134.35897436 , 4136.92307692 , 2043.0 , 2035.0 , 187.89 , 0.0 , 0.0 , 0.0 , 0.0 , 

12.0 , 4134.87179487 , 4131.79487179 , 4140.51282051 , 4134.87179487 , 4131.28205128 , 4130.76923077 , 4130.25641026 , 4137.94871795 , 4134.87179487 , 4138.46153846 , 4194.35897436 , 4913.33333333 , 4134.35897436 , 4140.51282051 , 2043.0 , 2037.0 , 187.9 , 0.0 , 0.0 , 0.0 , 0.0 , 

13.0 , 4131.28205128 , 4130.25641026 , 4137.94871795 , 4136.92307692 , 4129.74358974 , 4131.79487179 , 4130.25641026 , 4136.41025641 , 4136.41025641 , 4136.92307692 , 4193.84615385 , 4913.84615385 , 4134.35897436 , 4142.05128205 , 2044.0 , 2035.0 , 187.904 , 0.0 , 0.0 , 0.0 , 0.0 , 

14.0 , 4133.84615385 , 4133.84615385 , 4137.94871795 , 4136.41025641 , 4132.82051282 , 4131.28205128 , 4129.74358974 , 4137.94871795 , 4135.38461538 , 4139.48717949 , 4192.82051282 , 4913.33333333 , 4135.8974359 , 4141.02564103 , 2043.0 , 2035.0 , 187.912 , 0.0 , 0.0 , 0.0 , 0.0 , 

15.0 , 4136.41025641 , 4135.38461538 , 4136.41025641 , 4132.82051282 , 4135.38461538 , 4130.76923077 , 4128.71794872 , 4137.94871795 , 4136.92307692 , 4140.0 , 4193.84615385 , 4914.35897436 , 4132.82051282 , 4141.02564103 , 2044.0 , 2035.0 , 187.921 , 0.0 , 0.0 , 0.0 , 0.0 , 

16.0 , 4134.87179487 , 4131.79487179 , 4134.87179487 , 4133.33333333 , 4132.30769231 , 4130.25641026 , 4128.20512821 , 4135.38461538 , 4137.43589744 , 4139.48717949 , 4194.87179487 , 4914.35897436 , 4132.82051282 , 4141.53846154 , 2044.0 , 2038.0 , 187.932 , 0.0 , 0.0 , 0.0 , 0.0 , 

17.0 , 4135.8974359 , 4130.25641026 , 4136.92307692 , 4134.87179487 , 4130.25641026 , 4131.79487179 , 4128.71794872 , 4133.33333333 , 4135.8974359 , 4138.46153846 , 4193.84615385 , 4913.84615385 , 4134.87179487 , 4143.58974359 , 2044.0 , 2038.0 , 187.935 , 0.0 , 0.0 , 0.0 , 0.0 , 

18.0 , 4136.92307692 , 4131.28205128 , 4137.94871795 , 4132.82051282 , 4132.82051282 , 4132.30769231 , 4129.23076923 , 4135.8974359 , 4137.94871795 , 4137.94871795 , 4193.84615385 , 4913.33333333 , 4135.38461538 , 4144.1025641 , 2043.0 , 2037.0 , 187.943 , 0.0 , 0.0 , 0.0 , 0.0 , 

19.0 , 4133.84615385 , 4131.28205128 , 4135.38461538 , 4130.76923077 , 4133.33333333 , 4128.71794872 , 4128.71794872 , 4136.92307692 , 4136.92307692 , 4138.97435897 , 4193.33333333 , 4914.87179487 , 4134.35897436 , 4145.12820513 , 2044.0 , 2037.0 , 187.953 , 0.0 , 0.0 , 0.0 , 0.0 , 

20.0 , 4132.30769231 , 4132.30769231 , 4134.35897436 , 4134.35897436 , 4132.82051282 , 4130.76923077 , 4129.23076923 , 4134.35897436 , 4134.87179487 , 4138.97435897 , 4193.33333333 , 4913.84615385 , 4134.35897436 , 4141.53846154 , 2045.0 , 2038.0 , 187.964 , 0.0 , 0.0 , 0.0 , 0.0 , 

21.0 , 4134.35897436 , 4133.84615385 , 4135.38461538 , 4134.35897436 , 4133.84615385 , 4131.79487179 , 4128.20512821 , 4133.84615385 , 4137.43589744 , 4137.43589744 , 4193.84615385 , 4914.87179487 , 4135.38461538 , 4141.53846154 , 2044.0 , 2039.0 , 187.968 , 0.0 , 0.0 , 0.0 , 0.0 , 

22.0 , 4132.30769231 , 4133.33333333 , 4134.35897436 , 4133.84615385 , 4134.35897436 , 4129.74358974 , 4127.69230769 , 4136.92307692 , 4138.46153846 , 4137.94871795 , 4193.84615385 , 4913.84615385 , 4134.87179487 , 4138.97435897 , 2043.0 , 2038.0 , 187.975 , 0.0 , 0.0 , 0.0 , 0.0 , 

23.0 , 4133.33333333 , 4130.76923077 , 4134.35897436 , 4134.87179487 , 4132.82051282 , 4130.25641026 , 4128.71794872 , 4137.43589744 , 4134.35897436 , 4139.48717949 , 4193.84615385 , 4913.33333333 , 4131.79487179 , 4142.05128205 , 2042.0 , 2037.0 , 187.984 , 0.0 , 0.0 , 0.0 , 0.0 , 

24.0 , 4133.84615385 , 4132.30769231 , 4135.38461538 , 4139.48717949 , 4132.30769231 , 4134.87179487 , 4130.25641026 , 4136.92307692 , 4135.8974359 , 4138.46153846 , 4190.76923077 , 4914.87179487 , 4131.28205128 , 4140.0 , 2042.0 , 2036.0 , 187.994 , 0.0 , 0.0 , 0.0 , 0.0 , 

25.0 , 4133.33333333 , 4133.33333333 , 4137.43589744 , 4138.97435897 , 4132.82051282 , 4130.76923077 , 4128.20512821 , 4136.92307692 , 4136.92307692 , 4137.94871795 , 4191.28205128 , 4917.94871795 , 4134.87179487 , 4138.97435897 , 2044.0 , 2037.0 , 187.998 , 0.0 , 0.0 , 0.0 , 0.0 , 

26.0 , 4131.79487179 , 4132.30769231 , 4137.43589744 , 4136.92307692 , 4133.33333333 , 4130.76923077 , 4128.20512821 , 4137.43589744 , 4135.8974359 , 4138.97435897 , 4193.33333333 , 4913.33333333 , 4135.8974359 , 4137.43589744 , 2043.0 , 2035.0 , 188.006 , 0.0 , 0.0 , 0.0 , 0.0 , 

27.0 , 4135.38461538 , 4132.30769231 , 4136.41025641 , 4134.87179487 , 4131.79487179 , 4133.84615385 , 4127.17948718 , 4137.43589744 , 4136.92307692 , 4138.97435897 , 4192.30769231 , 4913.33333333 , 4133.84615385 , 4145.12820513 , 2042.0 , 2037.0 , 188.015 , 0.0 , 0.0 , 0.0 , 0.0 , 

28.0 , 4135.8974359 , 4134.87179487 , 4135.8974359 , 4132.82051282 , 4130.76923077 , 4131.79487179 , 4129.23076923 , 4137.94871795 , 4136.41025641 , 4138.97435897 , 4191.28205128 , 4915.38461538 , 4136.41025641 , 4145.12820513 , 2040.0 , 2037.0 , 188.025 , 0.0 , 0.0 , 0.0 , 0.0 , 

29.0 , 4135.38461538 , 4131.79487179 , 4136.41025641 , 4131.79487179 , 4129.74358974 , 4128.71794872 , 4130.76923077 , 4135.38461538 , 4135.38461538 , 4140.51282051 , 4192.82051282 , 4915.38461538 , 4138.46153846 , 4143.58974359 , 2040.0 , 2036.0 , 188.029 , 0.0 , 0.0 , 0.0 , 0.0 , 

30.0 , 4133.33333333 , 4130.25641026 , 4136.92307692 , 4134.35897436 , 4130.76923077 , 4129.23076923 , 4132.30769231 , 4135.8974359 , 4137.94871795 , 4141.02564103 , 4192.82051282 , 4912.82051282 , 4137.43589744 , 4141.53846154 , 2042.0 , 2036.0 , 188.039 , 0.0 , 0.0 , 0.0 , 0.0 , 

31.0 , 4133.33333333 , 4133.33333333 , 4136.41025641 , 4134.35897436 , 4133.33333333 , 4130.25641026 , 4131.79487179 , 4136.41025641 , 4134.87179487 , 4140.0 , 4191.28205128 , 4915.38461538 , 4137.94871795 , 4141.02564103 , 2042.0 , 2037.0 , 188.048 , 0.0 , 0.0 , 0.0 , 0.0 , 

32.0 , 4134.87179487 , 4134.87179487 , 4135.8974359 , 4133.33333333 , 4133.33333333 , 4131.79487179 , 4128.20512821 , 4135.38461538 , 4132.30769231 , 4138.97435897 , 4191.79487179 , 4916.41025641 , 4135.38461538 , 4141.02564103 , 2042.0 , 2037.0 , 188.059 , 0.0 , 0.0 , 0.0 , 0.0 , 

33.0 , 4134.35897436 , 4134.35897436 , 4136.92307692 , 4133.84615385 , 4130.76923077 , 4131.28205128 , 4125.64102564 , 4135.38461538 , 4134.87179487 , 4139.48717949 , 4193.33333333 , 4914.87179487 , 4134.87179487 , 4144.61538462 , 2042.0 , 2036.0 , 188.061 , 0.0 , 0.0 , 0.0 , 0.0 , 

34.0 , 4132.30769231 , 4132.82051282 , 4137.43589744 , 4133.84615385 , 4130.25641026 , 4129.74358974 , 4128.20512821 , 4137.94871795 , 4135.38461538 , 4138.97435897 , 4194.35897436 , 4916.41025641 , 4137.43589744 , 4143.07692308 , 2042.0 , 2034.0 , 188.07 , 0.0 , 0.0 , 0.0 , 0.0 , 

35.0 , 4133.33333333 , 4129.74358974 , 4136.41025641 , 4133.33333333 , 4131.28205128 , 4130.25641026 , 4130.25641026 , 4138.46153846 , 4133.84615385 , 4138.46153846 , 4192.30769231 , 4917.43589744 , 4138.97435897 , 4140.0 , 2043.0 , 2035.0 , 188.078 , 0.0 , 0.0 , 0.0 , 0.0 , 

36.0 , 4133.33333333 , 4131.28205128 , 4135.8974359 , 4133.33333333 , 4132.30769231 , 4129.74358974 , 4128.20512821 , 4133.33333333 , 4134.35897436 , 4138.46153846 , 4191.28205128 , 4916.41025641 , 4135.38461538 , 4142.56410256 , 2043.0 , 2035.0 , 188.089 , 0.0 , 0.0 , 0.0 , 0.0 , 

37.0 , 4132.30769231 , 4134.35897436 , 4135.8974359 , 4134.87179487 , 4133.33333333 , 4128.20512821 , 4128.20512821 , 4132.82051282 , 4135.8974359 , 4138.46153846 , 4193.33333333 , 4914.35897436 , 4134.87179487 , 4139.48717949 , 2043.0 , 2035.0 , 188.092 , 0.0 , 0.0 , 0.0 , 0.0 , 

38.0 , 4134.87179487 , 4131.28205128 , 4135.8974359 , 4134.35897436 , 4133.84615385 , 4130.76923077 , 4130.76923077 , 4135.38461538 , 4135.38461538 , 4138.46153846 , 4193.84615385 , 4916.41025641 , 4137.94871795 , 4139.48717949 , 2044.0 , 2035.0 , 188.102 , 0.0 , 0.0 , 0.0 , 0.0 , 

39.0 , 4135.38461538 , 4130.25641026 , 4134.87179487 , 4133.33333333 , 4133.33333333 , 4134.87179487 , 4131.79487179 , 4136.41025641 , 4135.8974359 , 4138.97435897 , 4192.30769231 , 4915.8974359 , 4137.43589744 , 4142.56410256 , 2044.0 , 2035.0 , 188.111 , 0.0 , 0.0 , 0.0 , 0.0 , 

40.0 , 4135.8974359 , 4133.84615385 , 4135.8974359 , 4134.35897436 , 4132.82051282 , 4132.82051282 , 4127.69230769 , 4134.35897436 , 4134.87179487 , 4138.97435897 , 4191.79487179 , 4913.84615385 , 4134.87179487 , 4143.58974359 , 2045.0 , 2037.0 , 188.121 , 0.0 , 0.0 , 0.0 , 0.0 , 

41.0 , 4134.87179487 , 4133.33333333 , 4136.92307692 , 4137.94871795 , 4132.30769231 , 4130.25641026 , 4127.69230769 , 4133.84615385 , 4136.92307692 , 4138.46153846 , 4192.30769231 , 4912.30769231 , 4135.38461538 , 4140.0 , 2045.0 , 2037.0 , 188.125 , 0.0 , 0.0 , 0.0 , 0.0 , 

42.0 , 4135.38461538 , 4130.76923077 , 4136.41025641 , 4135.8974359 , 4131.79487179 , 4129.74358974 , 4129.23076923 , 4133.33333333 , 4137.94871795 , 4138.97435897 , 4194.35897436 , 4915.8974359 , 4135.8974359 , 4145.64102564 , 2045.0 , 2038.0 , 188.133 , 0.0 , 0.0 , 0.0 , 0.0 , 

43.0 , 4133.84615385 , 4131.79487179 , 4132.30769231 , 4134.87179487 , 4131.28205128 , 4131.28205128 , 4128.20512821 , 4136.41025641 , 4136.41025641 , 4140.0 , 4194.35897436 , 4915.38461538 , 4136.41025641 , 4144.1025641 , 2045.0 , 2038.0 , 188.141 , 0.0 , 0.0 , 0.0 , 0.0 , 

44.0 , 4135.38461538 , 4131.28205128 , 4131.79487179 , 4134.35897436 , 4129.74358974 , 4128.71794872 , 4127.17948718 , 4136.41025641 , 4135.38461538 , 4140.0 , 4192.30769231 , 4913.84615385 , 4136.41025641 , 4142.56410256 , 2045.0 , 2037.0 , 188.152 , 0.0 , 0.0 , 0.0 , 0.0 , 

45.0 , 4135.38461538 , 4131.79487179 , 4134.35897436 , 4133.84615385 , 4131.79487179 , 4129.74358974 , 4130.76923077 , 4130.76923077 , 4135.8974359 , 4140.51282051 , 4190.76923077 , 4913.33333333 , 4136.41025641 , 4140.51282051 , 2043.0 , 2038.0 , 188.156 , 0.0 , 0.0 , 0.0 , 0.0 , 

46.0 , 4134.35897436 , 4132.82051282 , 4135.38461538 , 4132.82051282 , 4131.28205128 , 4131.28205128 , 4127.17948718 , 4130.25641026 , 4135.38461538 , 4138.97435897 , 4192.30769231 , 4916.92307692 , 4138.97435897 , 4143.58974359 , 2045.0 , 2037.0 , 188.165 , 0.0 , 0.0 , 0.0 , 0.0 , 

47.0 , 4132.82051282 , 4133.33333333 , 4134.35897436 , 4134.87179487 , 4129.74358974 , 4130.76923077 , 4126.66666667 , 4137.43589744 , 4136.41025641 , 4137.94871795 , 4192.30769231 , 4916.92307692 , 4142.56410256 , 4146.15384615 , 2043.0 , 2038.0 , 188.173 , 0.0 , 0.0 , 0.0 , 0.0 , 

48.0 , 4133.84615385 , 4132.82051282 , 4135.8974359 , 4135.38461538 , 4131.28205128 , 4130.25641026 , 4129.23076923 , 4138.97435897 , 4136.92307692 , 4138.97435897 , 4193.33333333 , 4916.41025641 , 4143.07692308 , 4148.20512821 , 2042.0 , 2038.0 , 188.184 , 0.0 , 0.0 , 0.0 , 0.0 , 

49.0 , 4134.87179487 , 4132.30769231 , 4136.41025641 , 4134.87179487 , 4132.30769231 , 4133.33333333 , 4127.17948718 , 4137.43589744 , 4135.38461538 , 4139.48717949 , 4194.35897436 , 4914.35897436 , 4140.0 , 4141.02564103 , 2045.0 , 2038.0 , 188.188 , 0.0 , 0.0 , 0.0 , 0.0 , 

50.0 , 4135.38461538 , 4131.28205128 , 4135.38461538 , 4134.87179487 , 4131.28205128 , 4132.30769231 , 4125.64102564 , 4136.41025641 , 4135.38461538 , 4138.46153846 , 4193.33333333 , 4913.84615385 , 4136.92307692 , 4144.1025641 , 2047.0 , 2037.0 , 188.195 , 0.0 , 0.0 , 0.0 , 0.0 , 

51.0 , 4132.82051282 , 4131.79487179 , 4135.38461538 , 4134.35897436 , 4130.76923077 , 4129.23076923 , 4130.25641026 , 4136.41025641 , 4135.38461538 , 4138.46153846 , 4192.30769231 , 4914.35897436 , 4134.35897436 , 4147.69230769 , 2047.0 , 2036.0 , 188.204 , 0.0 , 0.0 , 0.0 , 0.0 , 

52.0 , 4133.33333333 , 4132.30769231 , 4134.35897436 , 4133.33333333 , 4130.76923077 , 4130.25641026 , 4129.74358974 , 4135.8974359 , 4134.87179487 , 4138.97435897 , 4192.30769231 , 4912.82051282 , 4135.8974359 , 4141.02564103 , 2046.0 , 2035.0 , 188.216 , 0.0 , 0.0 , 0.0 , 0.0 , 

53.0 , 4135.8974359 , 4131.28205128 , 4136.92307692 , 4134.35897436 , 4130.25641026 , 4130.76923077 , 4127.17948718 , 4134.87179487 , 4136.41025641 , 4138.97435897 , 4192.30769231 , 4911.79487179 , 4135.8974359 , 4141.02564103 , 2046.0 , 2035.0 , 188.219 , 0.0 , 0.0 , 0.0 , 0.0 , 

54.0 , 4135.38461538 , 4132.82051282 , 4139.48717949 , 4135.8974359 , 4131.79487179 , 4127.17948718 , 4129.23076923 , 4134.87179487 , 4138.97435897 , 4138.46153846 , 4193.84615385 , 4912.82051282 , 4135.8974359 , 4147.17948718 , 2046.0 , 2040.0 , 188.226 , 0.0 , 0.0 , 0.0 , 0.0 , 

55.0 , 4134.87179487 , 4132.82051282 , 4137.94871795 , 4133.84615385 , 4133.33333333 , 4127.69230769 , 4130.25641026 , 4136.41025641 , 4138.97435897 , 4136.92307692 , 4193.84615385 , 4914.35897436 , 4139.48717949 , 4146.66666667 , 2045.0 , 2040.0 , 188.235 , 0.0 , 0.0 , 0.0 , 0.0 , 

56.0 , 4135.38461538 , 4133.33333333 , 4135.38461538 , 4132.30769231 , 4132.30769231 , 4132.82051282 , 4128.71794872 , 4136.92307692 , 4137.43589744 , 4137.43589744 , 4191.79487179 , 4912.30769231 , 4140.51282051 , 4144.61538462 , 2044.0 , 2038.0 , 188.246 , 0.0 , 0.0 , 0.0 , 0.0 , 

57.0 , 4134.87179487 , 4133.84615385 , 4136.92307692 , 4135.38461538 , 4131.28205128 , 4130.25641026 , 4128.20512821 , 4135.8974359 , 4136.41025641 , 4138.97435897 , 4192.30769231 , 4913.33333333 , 4135.8974359 , 4150.25641026 , 2043.0 , 2038.0 , 188.25 , 0.0 , 0.0 , 0.0 , 0.0 , 

58.0 , 4132.30769231 , 4134.35897436 , 4136.41025641 , 4139.48717949 , 4132.30769231 , 4128.20512821 , 4129.23076923 , 4137.94871795 , 4138.46153846 , 4139.48717949 , 4194.87179487 , 4913.84615385 , 4137.94871795 , 4145.64102564 , 2045.0 , 2038.0 , 188.259 , 0.0 , 0.0 , 0.0 , 0.0 , 

59.0 , 4134.35897436 , 4133.84615385 , 4135.38461538 , 4137.43589744 , 4130.76923077 , 4129.74358974 , 4127.69230769 , 4136.41025641 , 4135.38461538 , 4137.43589744 , 4194.87179487 , 4914.35897436 , 4137.43589744 , 4143.58974359 , 2044.0 , 2038.0 , 188.267 , 0.0 , 0.0 , 0.0 , 0.0 , 

60.0 , 4135.8974359 , 4135.38461538 , 4136.41025641 , 4135.38461538 , 4131.28205128 , 4132.82051282 , 4127.17948718 , 4132.30769231 , 4133.84615385 , 4137.43589744 , 4193.33333333 , 4911.28205128 , 4133.84615385 , 4143.58974359 , 2043.0 , 2038.0 , 188.278 , 0.0 , 0.0 , 0.0 , 0.0 , 

61.0 , 4138.46153846 , 4134.35897436 , 4136.92307692 , 4133.84615385 , 4133.84615385 , 4131.28205128 , 4126.15384615 , 4131.28205128 , 4135.8974359 , 4139.48717949 , 4194.35897436 , 4913.84615385 , 4134.87179487 , 4146.15384615 , 2042.0 , 2037.0 , 188.281 , 0.0 , 0.0 , 0.0 , 0.0 , 

62.0 , 4135.38461538 , 4133.33333333 , 4135.38461538 , 4134.35897436 , 4133.84615385 , 4131.79487179 , 4126.66666667 , 4135.8974359 , 4136.92307692 , 4139.48717949 , 4194.87179487 , 4916.41025641 , 4137.43589744 , 4142.05128205 , 2040.0 , 2035.0 , 188.291 , 0.0 , 0.0 , 0.0 , 0.0 , 

63.0 , 4132.30769231 , 4132.30769231 , 4135.38461538 , 4134.87179487 , 4129.74358974 , 4131.79487179 , 4130.25641026 , 4136.92307692 , 4134.87179487 , 4137.94871795 , 4193.33333333 , 4914.35897436 , 4135.8974359 , 4142.56410256 , 2040.0 , 2036.0 , 188.299 , 0.0 , 0.0 , 0.0 , 0.0 , 

64.0 , 4132.82051282 , 4131.28205128 , 4136.41025641 , 4138.46153846 , 4130.25641026 , 4132.30769231 , 4132.82051282 , 4136.92307692 , 4136.41025641 , 4137.94871795 , 4191.79487179 , 4909.23076923 , 4135.8974359 , 4141.53846154 , 2041.0 , 2036.0 , 188.311 , 0.0 , 0.0 , 0.0 , 0.0 , 

65.0 , 4136.92307692 , 4130.76923077 , 4137.43589744 , 4137.43589744 , 4131.79487179 , 4132.30769231 , 4129.74358974 , 4136.41025641 , 4136.92307692 , 4138.46153846 , 4194.87179487 , 4911.79487179 , 4136.92307692 , 4143.58974359 , 2040.0 , 2035.0 , 188.313 , 0.0 , 0.0 , 0.0 , 0.0 , 

66.0 , 4135.8974359 , 4132.30769231 , 4137.43589744 , 4137.43589744 , 4130.76923077 , 4132.30769231 , 4128.20512821 , 4134.35897436 , 4134.87179487 , 4137.94871795 , 4193.84615385 , 4913.84615385 , 4134.87179487 , 4141.02564103 , 2039.0 , 2034.0 , 188.323 , 0.0 , 0.0 , 0.0 , 0.0 , 

67.0 , 4134.87179487 , 4133.33333333 , 4137.94871795 , 4137.94871795 , 4130.76923077 , 4130.25641026 , 4127.17948718 , 4133.84615385 , 4134.35897436 , 4138.46153846 , 4191.28205128 , 4912.30769231 , 4133.84615385 , 4141.53846154 , 2039.0 , 2034.0 , 188.331 , 0.0 , 0.0 , 0.0 , 0.0 , 

68.0 , 4134.87179487 , 4131.79487179 , 4135.8974359 , 4138.97435897 , 4132.82051282 , 4130.25641026 , 4125.64102564 , 4136.41025641 , 4135.38461538 , 4139.48717949 , 4193.84615385 , 4911.28205128 , 4135.38461538 , 4143.07692308 , 2037.0 , 2035.0 , 188.342 , 0.0 , 0.0 , 0.0 , 0.0 , 

69.0 , 4135.38461538 , 4128.71794872 , 4134.35897436 , 4137.43589744 , 4131.79487179 , 4130.25641026 , 4127.17948718 , 4135.8974359 , 4135.38461538 , 4138.97435897 , 4194.87179487 , 4913.84615385 , 4136.41025641 , 4144.1025641 , 2039.0 , 2034.0 , 188.345 , 0.0 , 0.0 , 0.0 , 0.0 , 

70.0 , 4133.33333333 , 4131.28205128 , 4136.92307692 , 4136.41025641 , 4129.23076923 , 4131.79487179 , 4128.71794872 , 4133.84615385 , 4135.8974359 , 4138.46153846 , 4192.82051282 , 4913.33333333 , 4133.33333333 , 4138.46153846 , 2040.0 , 2033.0 , 188.353 , 0.0 , 0.0 , 0.0 , 0.0 , 

71.0 , 4133.84615385 , 4135.38461538 , 4138.46153846 , 4136.41025641 , 4131.79487179 , 4132.30769231 , 4129.23076923 , 4132.82051282 , 4136.41025641 , 4137.94871795 , 4193.33333333 , 4911.28205128 , 4132.30769231 , 4136.41025641 , 2040.0 , 2034.0 , 188.363 , 0.0 , 0.0 , 0.0 , 0.0 , 

72.0 , 4137.43589744 , 4134.87179487 , 4136.41025641 , 4135.38461538 , 4133.33333333 , 4130.25641026 , 4130.76923077 , 4132.82051282 , 4134.35897436 , 4137.94871795 , 4193.84615385 , 4911.79487179 , 4134.35897436 , 4142.56410256 , 2040.0 , 2035.0 , 188.374 , 0.0 , 0.0 , 0.0 , 0.0 , 

73.0 , 4136.41025641 , 4132.82051282 , 4135.38461538 , 4137.43589744 , 4129.74358974 , 4129.74358974 , 4129.74358974 , 4134.87179487 , 4133.33333333 , 4139.48717949 , 4192.82051282 , 4912.82051282 , 4134.35897436 , 4142.56410256 , 2041.0 , 2034.0 , 188.377 , 0.0 , 0.0 , 0.0 , 0.0 , 

74.0 , 4136.41025641 , 4132.30769231 , 4136.92307692 , 4138.46153846 , 4129.74358974 , 4130.25641026 , 4126.15384615 , 4134.35897436 , 4133.33333333 , 4139.48717949 , 4192.82051282 , 4914.35897436 , 4130.25641026 , 4138.46153846 , 2041.0 , 2034.0 , 188.386 , 0.0 , 0.0 , 0.0 , 0.0 , 

75.0 , 4135.8974359 , 4134.35897436 , 4136.41025641 , 4137.94871795 , 4134.35897436 , 4129.74358974 , 4128.71794872 , 4133.84615385 , 4135.8974359 , 4138.97435897 , 4192.82051282 , 4912.30769231 , 4131.79487179 , 4140.0 , 2043.0 , 2036.0 , 188.394 , 0.0 , 0.0 , 0.0 , 0.0 , 

76.0 , 4136.92307692 , 4134.87179487 , 4136.41025641 , 4135.8974359 , 4132.30769231 , 4129.74358974 , 4130.25641026 , 4132.82051282 , 4138.46153846 , 4140.51282051 , 4193.33333333 , 4911.79487179 , 4133.84615385 , 4143.58974359 , 2043.0 , 2036.0 , 188.405 , 0.0 , 0.0 , 0.0 , 0.0 , 

77.0 , 4136.41025641 , 4133.33333333 , 4136.41025641 , 4140.0 , 4128.71794872 , 4132.82051282 , 4126.66666667 , 4133.33333333 , 4136.41025641 , 4140.0 , 4193.33333333 , 4909.74358974 , 4133.33333333 , 4136.41025641 , 2045.0 , 2035.0 , 188.408 , 0.0 , 0.0 , 0.0 , 0.0 , 

78.0 , 4134.35897436 , 4133.33333333 , 4136.41025641 , 4141.53846154 , 4130.25641026 , 4130.25641026 , 4124.61538462 , 4134.35897436 , 4130.76923077 , 4136.92307692 , 4193.33333333 , 4910.76923077 , 4132.82051282 , 4137.43589744 , 2044.0 , 2035.0 , 188.417 , 0.0 , 0.0 , 0.0 , 0.0 , 

79.0 , 4131.79487179 , 4133.84615385 , 4135.38461538 , 4139.48717949 , 4131.28205128 , 4128.20512821 , 4130.25641026 , 4133.84615385 , 4132.30769231 , 4137.94871795 , 4194.35897436 , 4909.74358974 , 4133.84615385 , 4140.0 , 2043.0 , 2036.0 , 188.425 , 0.0 , 0.0 , 0.0 , 0.0 , 

80.0 , 4135.38461538 , 4133.84615385 , 4135.8974359 , 4137.43589744 , 4130.25641026 , 4128.20512821 , 4131.28205128 , 4129.23076923 , 4133.84615385 , 4139.48717949 , 4194.87179487 , 4910.25641026 , 4133.33333333 , 4141.53846154 , 2043.0 , 2036.0 , 188.435 , 0.0 , 0.0 , 0.0 , 0.0 , 

81.0 , 4136.41025641 , 4134.87179487 , 4136.41025641 , 4137.43589744 , 4132.82051282 , 4129.74358974 , 4128.20512821 , 4132.82051282 , 4133.84615385 , 4137.94871795 , 4192.30769231 , 4911.28205128 , 4134.35897436 , 4139.48717949 , 2044.0 , 2036.0 , 188.44 , 0.0 , 0.0 , 0.0 , 0.0 , 

82.0 , 4135.38461538 , 4133.33333333 , 4136.41025641 , 4136.41025641 , 4134.87179487 , 4129.23076923 , 4128.20512821 , 4137.43589744 , 4134.35897436 , 4137.43589744 , 4192.30769231 , 4914.35897436 , 4135.38461538 , 4142.56410256 , 2043.0 , 2037.0 , 188.449 , 0.0 , 0.0 , 0.0 , 0.0 , 

83.0 , 4133.84615385 , 4131.79487179 , 4134.35897436 , 4136.92307692 , 4132.82051282 , 4131.28205128 , 4131.28205128 , 4134.87179487 , 4134.87179487 , 4137.94871795 , 4192.82051282 , 4912.82051282 , 4134.35897436 , 4140.0 , 2042.0 , 2039.0 , 188.457 , 0.0 , 0.0 , 0.0 , 0.0 , 

84.0 , 4135.8974359 , 4130.76923077 , 4133.84615385 , 4135.8974359 , 4130.25641026 , 4129.23076923 , 4128.20512821 , 4131.28205128 , 4136.92307692 , 4137.43589744 , 4192.30769231 , 4912.30769231 , 4135.38461538 , 4142.56410256 , 2043.0 , 2038.0 , 188.468 , 0.0 , 0.0 , 0.0 , 0.0 , 

85.0 , 4134.87179487 , 4129.74358974 , 4133.84615385 , 4135.38461538 , 4131.79487179 , 4128.71794872 , 4126.15384615 , 4135.38461538 , 4137.94871795 , 4136.41025641 , 4192.82051282 , 4912.82051282 , 4136.41025641 , 4143.07692308 , 2042.0 , 2036.0 , 188.471 , 0.0 , 0.0 , 0.0 , 0.0 , 

86.0 , 4135.38461538 , 4130.76923077 , 4133.84615385 , 4135.8974359 , 4131.79487179 , 4130.76923077 , 4128.20512821 , 4137.94871795 , 4135.8974359 , 4137.43589744 , 4193.33333333 , 4914.35897436 , 4135.8974359 , 4141.53846154 , 2042.0 , 2037.0 , 188.479 , 0.0 , 0.0 , 0.0 , 0.0 , 

87.0 , 4135.8974359 , 4134.87179487 , 4134.35897436 , 4137.94871795 , 4130.76923077 , 4131.28205128 , 4128.71794872 , 4135.38461538 , 4135.38461538 , 4137.94871795 , 4192.82051282 , 4911.28205128 , 4137.94871795 , 4139.48717949 , 2043.0 , 2040.0 , 188.487 , 0.0 , 0.0 , 0.0 , 0.0 , 

88.0 , 4134.87179487 , 4132.30769231 , 4135.38461538 , 4137.94871795 , 4130.76923077 , 4129.23076923 , 4126.15384615 , 4133.33333333 , 4134.87179487 , 4136.92307692 , 4193.33333333 , 4910.76923077 , 4137.94871795 , 4139.48717949 , 2042.0 , 2036.0 , 188.498 , 0.0 , 0.0 , 0.0 , 0.0 , 

89.0 , 4132.82051282 , 4131.28205128 , 4135.8974359 , 4136.41025641 , 4132.30769231 , 4128.71794872 , 4127.69230769 , 4135.38461538 , 4132.82051282 , 4137.94871795 , 4193.84615385 , 4911.79487179 , 4132.30769231 , 4138.97435897 , 2041.0 , 2036.0 , 188.503 , 0.0 , 0.0 , 0.0 , 0.0 , 

90.0 , 4134.87179487 , 4132.30769231 , 4136.92307692 , 4135.8974359 , 4132.82051282 , 4131.28205128 , 4129.23076923 , 4136.92307692 , 4134.35897436 , 4140.51282051 , 4193.84615385 , 4912.30769231 , 4132.30769231 , 4140.51282051 , 2042.0 , 2036.0 , 188.511 , 0.0 , 0.0 , 0.0 , 0.0 , 

91.0 , 4136.92307692 , 4128.71794872 , 4136.92307692 , 4136.41025641 , 4133.33333333 , 4132.30769231 , 4127.17948718 , 4135.38461538 , 4134.87179487 , 4139.48717949 , 4193.33333333 , 4913.33333333 , 4134.87179487 , 4144.61538462 , 2043.0 , 2039.0 , 188.519 , 0.0 , 0.0 , 0.0 , 0.0 , 

92.0 , 4135.8974359 , 4131.28205128 , 4136.41025641 , 4137.43589744 , 4134.35897436 , 4130.76923077 , 4128.20512821 , 4135.8974359 , 4135.38461538 , 4137.43589744 , 4192.82051282 , 4912.82051282 , 4133.84615385 , 4141.53846154 , 2042.0 , 2038.0 , 188.53 , 0.0 , 0.0 , 0.0 , 0.0 , 

93.0 , 4136.41025641 , 4135.8974359 , 4136.92307692 , 4135.8974359 , 4134.35897436 , 4129.23076923 , 4127.69230769 , 4138.97435897 , 4136.41025641 , 4138.46153846 , 4192.82051282 , 4913.84615385 , 4134.35897436 , 4138.97435897 , 2041.0 , 2039.0 , 188.534 , 0.0 , 0.0 , 0.0 , 0.0 , 

94.0 , 4135.8974359 , 4134.87179487 , 4135.8974359 , 4134.35897436 , 4133.33333333 , 4128.71794872 , 4125.64102564 , 4140.0 , 4135.38461538 , 4138.97435897 , 4193.33333333 , 4914.87179487 , 4136.41025641 , 4138.97435897 , 2042.0 , 2037.0 , 188.543 , 0.0 , 0.0 , 0.0 , 0.0 , 

95.0 , 4136.92307692 , 4133.33333333 , 4134.35897436 , 4133.33333333 , 4129.23076923 , 4127.69230769 , 4128.20512821 , 4134.87179487 , 4134.35897436 , 4136.41025641 , 4194.35897436 , 4914.35897436 , 4132.30769231 , 4143.07692308 , 2042.0 , 2038.0 , 188.551 , 0.0 , 0.0 , 0.0 , 0.0 , 

96.0 , 4135.8974359 , 4133.84615385 , 4133.84615385 , 4136.92307692 , 4129.74358974 , 4130.25641026 , 4133.33333333 , 4133.33333333 , 4136.92307692 , 4136.92307692 , 4193.33333333 , 4909.74358974 , 4131.79487179 , 4137.94871795 , 2042.0 , 2039.0 , 188.562 , 0.0 , 0.0 , 0.0 , 0.0 , 

97.0 , 4134.35897436 , 4131.79487179 , 4136.41025641 , 4135.38461538 , 4132.30769231 , 4130.25641026 , 4129.74358974 , 4135.8974359 , 4135.38461538 , 4139.48717949 , 4193.33333333 , 4913.33333333 , 4135.38461538 , 4136.92307692 , 2041.0 , 2038.0 , 188.566 , 0.0 , 0.0 , 0.0 , 0.0 , 

98.0 , 4133.33333333 , 4132.82051282 , 4136.92307692 , 4132.82051282 , 4132.82051282 , 4128.71794872 , 4124.61538462 , 4138.97435897 , 4133.84615385 , 4141.02564103 , 4193.33333333 , 4915.8974359 , 4133.84615385 , 4135.8974359 , 2043.0 , 2038.0 , 188.575 , 0.0 , 0.0 , 0.0 , 0.0 , 

99.0 , 4137.94871795 , 4133.84615385 , 4136.92307692 , 4133.33333333 , 4130.76923077 , 4127.69230769 , 4125.64102564 , 4137.94871795 , 4134.35897436 , 4139.48717949 , 4193.84615385 , 4916.41025641 , 4130.25641026 , 4140.0 , 2043.0 , 2040.0 , 188.583 , 0.0 , 0.0 , 0.0 , 0.0 , 

100.0 , 4136.92307692 , 4132.82051282 , 4133.84615385 , 4136.92307692 , 4130.76923077 , 4131.28205128 , 4130.76923077 , 4137.43589744 , 4135.8974359 , 4140.51282051 , 4193.84615385 , 4914.87179487 , 4131.79487179 , 4140.51282051 , 2044.0 , 2036.0 , 188.595 , 0.0 , 0.0 , 0.0 , 0.0 , 

101.0 , 4134.87179487 , 4131.28205128 , 4133.84615385 , 4134.87179487 , 4131.79487179 , 4131.79487179 , 4128.71794872 , 4135.38461538 , 4137.43589744 , 4140.0 , 4192.82051282 , 4917.43589744 , 4131.79487179 , 4142.56410256 , 2044.0 , 2036.0 , 188.597 , 0.0 , 0.0 , 0.0 , 0.0 , 

102.0 , 4134.35897436 , 4130.25641026 , 4136.92307692 , 4134.35897436 , 4133.33333333 , 4131.28205128 , 4126.66666667 , 4133.84615385 , 4137.43589744 , 4138.46153846 , 4191.79487179 , 4916.92307692 , 4130.25641026 , 4136.92307692 , 2045.0 , 2038.0 , 188.606 , 0.0 , 0.0 , 0.0 , 0.0 , 

103.0 , 4134.35897436 , 4128.71794872 , 4137.43589744 , 4135.38461538 , 4133.84615385 , 4130.25641026 , 4129.23076923 , 4135.38461538 , 4134.35897436 , 4137.43589744 , 4192.82051282 , 4914.87179487 , 4132.82051282 , 4138.97435897 , 2044.0 , 2038.0 , 188.614 , 0.0 , 0.0 , 0.0 , 0.0 , 

104.0 , 4130.76923077 , 4130.25641026 , 4135.38461538 , 4134.35897436 , 4132.82051282 , 4131.79487179 , 4129.74358974 , 4136.41025641 , 4133.84615385 , 4137.43589744 , 4192.30769231 , 4913.33333333 , 4135.38461538 , 4142.56410256 , 2044.0 , 2035.0 , 188.626 , 0.0 , 0.0 , 0.0 , 0.0 , 

105.0 , 4132.30769231 , 4131.79487179 , 4134.87179487 , 4133.84615385 , 4131.28205128 , 4131.28205128 , 4127.17948718 , 4133.33333333 , 4135.8974359 , 4140.0 , 4192.30769231 , 4915.38461538 , 4136.41025641 , 4143.07692308 , 2043.0 , 2033.0 , 188.628 , 0.0 , 0.0 , 0.0 , 0.0 , 

106.0 , 4134.35897436 , 4130.76923077 , 4134.87179487 , 4134.35897436 , 4131.79487179 , 4128.71794872 , 4128.71794872 , 4131.28205128 , 4135.8974359 , 4141.53846154 , 4192.82051282 , 4914.87179487 , 4135.38461538 , 4141.53846154 , 2044.0 , 2031.0 , 188.638 , 0.0 , 0.0 , 0.0 , 0.0 , 

107.0 , 4132.82051282 , 4131.28205128 , 4133.84615385 , 4133.33333333 , 4132.82051282 , 4129.23076923 , 4129.74358974 , 4134.87179487 , 4135.8974359 , 4138.97435897 , 4191.79487179 , 4911.28205128 , 4136.92307692 , 4143.58974359 , 2044.0 , 2034.0 , 188.646 , 0.0 , 0.0 , 0.0 , 0.0 , 

108.0 , 4133.33333333 , 4133.33333333 , 4135.38461538 , 4131.79487179 , 4132.82051282 , 4131.79487179 , 4127.69230769 , 4136.92307692 , 4134.35897436 , 4137.43589744 , 4190.76923077 , 4912.30769231 , 4135.8974359 , 4146.15384615 , 2044.0 , 2035.0 , 188.656 , 0.0 , 0.0 , 0.0 , 0.0 , 

109.0 , 4135.38461538 , 4130.76923077 , 4136.41025641 , 4132.30769231 , 4132.30769231 , 4131.28205128 , 4125.64102564 , 4134.87179487 , 4135.38461538 , 4139.48717949 , 4191.79487179 , 4915.8974359 , 4137.43589744 , 4148.20512821 , 2043.0 , 2037.0 , 188.659 , 0.0 , 0.0 , 0.0 , 0.0 , 

110.0 , 4135.38461538 , 4127.69230769 , 4135.8974359 , 4133.33333333 , 4130.76923077 , 4127.17948718 , 4124.1025641 , 4135.38461538 , 4136.92307692 , 4140.0 , 4195.38461538 , 4915.38461538 , 4139.48717949 , 4148.20512821 , 2041.0 , 2037.0 , 188.668 , 0.0 , 0.0 , 0.0 , 0.0 , 

111.0 , 4133.84615385 , 4131.28205128 , 4134.87179487 , 4135.8974359 , 4132.30769231 , 4127.17948718 , 4127.69230769 , 4138.97435897 , 4138.46153846 , 4138.46153846 , 4196.92307692 , 4912.30769231 , 4137.43589744 , 4143.58974359 , 2041.0 , 2035.0 , 188.677 , 0.0 , 0.0 , 0.0 , 0.0 , 

112.0 , 4135.38461538 , 4133.84615385 , 4133.33333333 , 4135.8974359 , 4134.35897436 , 4130.76923077 , 4130.25641026 , 4134.87179487 , 4136.92307692 , 4138.97435897 , 4194.87179487 , 4912.30769231 , 4135.38461538 , 4144.61538462 , 2041.0 , 2034.0 , 188.688 , 0.0 , 0.0 , 0.0 , 0.0 , 

113.0 , 4132.30769231 , 4130.76923077 , 4131.28205128 , 4135.8974359 , 4132.82051282 , 4133.33333333 , 4126.66666667 , 4129.74358974 , 4134.87179487 , 4138.97435897 , 4192.30769231 , 4911.79487179 , 4136.41025641 , 4141.53846154 , 2041.0 , 2032.0 , 188.691 , 0.0 , 0.0 , 0.0 , 0.0 , 

114.0 , 4130.25641026 , 4127.17948718 , 4132.82051282 , 4135.38461538 , 4130.25641026 , 4129.74358974 , 4121.53846154 , 4131.79487179 , 4135.38461538 , 4138.97435897 , 4193.33333333 , 4913.33333333 , 4136.41025641 , 4138.46153846 , 2040.0 , 2031.0 , 188.701 , 0.0 , 0.0 , 0.0 , 0.0 , 

115.0 , 4131.79487179 , 4128.20512821 , 4135.8974359 , 4134.35897436 , 4132.30769231 , 4128.71794872 , 4124.1025641 , 4134.87179487 , 4137.43589744 , 4138.46153846 , 4193.84615385 , 4911.79487179 , 4134.87179487 , 4138.97435897 , 2040.0 , 2031.0 , 188.709 , 0.0 , 0.0 , 0.0 , 0.0 , 

116.0 , 4133.84615385 , 4128.71794872 , 4135.8974359 , 4132.82051282 , 4134.35897436 , 4130.25641026 , 4125.64102564 , 4133.84615385 , 4138.46153846 , 4137.43589744 , 4193.33333333 , 4912.30769231 , 4132.82051282 , 4146.15384615 , 2041.0 , 2032.0 , 188.72 , 0.0 , 0.0 , 0.0 , 0.0 , 

117.0 , 4132.30769231 , 4129.23076923 , 4134.35897436 , 4134.87179487 , 4132.82051282 , 4132.82051282 , 4127.69230769 , 4136.92307692 , 4137.43589744 , 4138.97435897 , 4193.84615385 , 4913.84615385 , 4132.82051282 , 4139.48717949 , 2042.0 , 2031.0 , 188.723 , 0.0 , 0.0 , 0.0 , 0.0 , 

118.0 , 4135.38461538 , 4128.20512821 , 4136.41025641 , 4135.38461538 , 4130.76923077 , 4131.79487179 , 4128.71794872 , 4136.92307692 , 4135.38461538 , 4143.07692308 , 4194.87179487 , 4918.97435897 , 4133.84615385 , 4138.97435897 , 2042.0 , 2033.0 , 188.731 , 0.0 , 0.0 , 0.0 , 0.0 , 

119.0 , 4136.92307692 , 4130.76923077 , 4136.41025641 , 4136.92307692 , 4131.28205128 , 4130.76923077 , 4129.23076923 , 4130.76923077 , 4135.38461538 , 4141.53846154 , 4194.35897436 , 4915.8974359 , 4133.33333333 , 4143.58974359 , 2041.0 , 2034.0 , 188.74 , 0.0 , 0.0 , 0.0 , 0.0 , 

120.0 , 4136.41025641 , 4133.33333333 , 4134.87179487 , 4137.43589744 , 4130.25641026 , 4130.25641026 , 4127.69230769 , 4128.20512821 , 4135.8974359 , 4136.41025641 , 4194.35897436 , 4911.79487179 , 4134.35897436 , 4143.07692308 , 2042.0 , 2035.0 , 188.751 , 0.0 , 0.0 , 0.0 , 0.0 , 

121.0 , 4134.87179487 , 4131.79487179 , 4134.35897436 , 4137.43589744 , 4128.71794872 , 4130.25641026 , 4128.20512821 , 4130.76923077 , 4136.92307692 , 4136.92307692 , 4192.30769231 , 4911.79487179 , 4136.41025641 , 4138.46153846 , 2041.0 , 2034.0 , 188.755 , 0.0 , 0.0 , 0.0 , 0.0 , 

122.0 , 4137.43589744 , 4128.20512821 , 4136.92307692 , 4136.41025641 , 4129.74358974 , 4130.25641026 , 4126.66666667 , 4133.33333333 , 4134.87179487 , 4140.51282051 , 4192.30769231 , 4913.84615385 , 4137.94871795 , 4146.66666667 , 2043.0 , 2035.0 , 188.763 , 0.0 , 0.0 , 0.0 , 0.0 , 

123.0 , 4136.41025641 , 4129.23076923 , 4133.84615385 , 4134.87179487 , 4131.79487179 , 4132.30769231 , 4125.12820513 , 4135.38461538 , 4133.84615385 , 4140.0 , 4193.84615385 , 4911.79487179 , 4138.46153846 , 4149.23076923 , 2043.0 , 2035.0 , 188.771 , 0.0 , 0.0 , 0.0 , 0.0 , 

124.0 , 4134.87179487 , 4131.28205128 , 4132.30769231 , 4132.30769231 , 4130.76923077 , 4131.28205128 , 4125.64102564 , 4136.41025641 , 4136.92307692 , 4137.43589744 , 4195.8974359 , 4912.82051282 , 4141.02564103 , 4144.61538462 , 2044.0 , 2034.0 , 188.783 , 0.0 , 0.0 , 0.0 , 0.0 , 

125.0 , 4133.84615385 , 4131.79487179 , 4136.41025641 , 4134.35897436 , 4130.25641026 , 4129.23076923 , 4127.17948718 , 4134.35897436 , 4137.43589744 , 4138.46153846 , 4194.35897436 , 4913.84615385 , 4140.51282051 , 4143.58974359 , 2044.0 , 2034.0 , 188.786 , 0.0 , 0.0 , 0.0 , 0.0 , 

126.0 , 4132.30769231 , 4128.71794872 , 4137.43589744 , 4136.41025641 , 4130.76923077 , 4129.74358974 , 4127.17948718 , 4132.82051282 , 4136.41025641 , 4140.0 , 4193.33333333 , 4911.79487179 , 4141.02564103 , 4144.61538462 , 2043.0 , 2034.0 , 188.795 , 0.0 , 0.0 , 0.0 , 0.0 , 

127.0 , 4131.79487179 , 4128.20512821 , 4134.87179487 , 4133.84615385 , 4130.76923077 , 4132.30769231 , 4126.66666667 , 4133.84615385 , 4138.46153846 , 4139.48717949 , 4194.87179487 , 4912.82051282 , 4140.0 , 4143.07692308 , 2044.0 , 2036.0 , 188.803 , 0.0 , 0.0 , 0.0 , 0.0 , 

128.0 , 4133.33333333 , 4131.28205128 , 4134.87179487 , 4134.35897436 , 4132.30769231 , 4133.84615385 , 4130.25641026 , 4133.33333333 , 4137.94871795 , 4138.46153846 , 4194.87179487 , 4914.87179487 , 4137.43589744 , 4142.56410256 , 2044.0 , 2036.0 , 188.814 , 0.0 , 0.0 , 0.0 , 0.0 , 

0.0 , 4136.41025641 , 4133.33333333 , 4135.38461538 , 4135.8974359 , 4132.30769231 , 4131.79487179 , 4129.74358974 , 4133.33333333 , 4132.82051282 , 4137.94871795 , 4192.82051282 , 4916.41025641 , 4134.87179487 , 4144.1025641 , 2044.0 , 2036.0 , 188.818 , 0.0 , 0.0 , 0.0 , 0.0 , 

1.0 , 4134.35897436 , 4133.33333333 , 4133.84615385 , 4135.38461538 , 4130.25641026 , 4130.25641026 , 4125.12820513 , 4135.38461538 , 4133.84615385 , 4137.43589744 , 4192.30769231 , 4913.33333333 , 4134.35897436 , 4140.0 , 2044.0 , 2036.0 , 188.827 , 0.0 , 0.0 , 0.0 , 0.0 , 

2.0 , 4134.87179487 , 4130.76923077 , 4135.38461538 , 4134.87179487 , 4130.25641026 , 4130.25641026 , 4123.58974359 , 4135.38461538 , 4135.8974359 , 4137.94871795 , 4192.82051282 , 4911.79487179 , 4136.92307692 , 4142.56410256 , 2044.0 , 2038.0 , 188.835 , 0.0 , 0.0 , 0.0 , 0.0 , 

3.0 , 4134.87179487 , 4130.76923077 , 4136.92307692 , 4136.41025641 , 4131.79487179 , 4131.79487179 , 4126.66666667 , 4135.38461538 , 4134.35897436 , 4138.46153846 , 4192.82051282 , 4913.33333333 , 4139.48717949 , 4142.05128205 , 2042.0 , 2038.0 , 188.845 , 0.0 , 0.0 , 0.0 , 0.0 , 

4.0 , 4133.84615385 , 4134.35897436 , 4135.38461538 , 4136.92307692 , 4130.76923077 , 4129.74358974 , 4126.66666667 , 4135.8974359 , 4134.87179487 , 4137.43589744 , 4194.87179487 , 4916.92307692 , 4135.38461538 , 4144.1025641 , 2042.0 , 2037.0 , 188.85 , 0.0 , 0.0 , 0.0 , 0.0 , 

5.0 , 4132.82051282 , 4134.35897436 , 4133.33333333 , 4139.48717949 , 4130.76923077 , 4129.23076923 , 4127.69230769 , 4137.94871795 , 4136.41025641 , 4136.92307692 , 4193.84615385 , 4910.76923077 , 4133.33333333 , 4143.07692308 , 2043.0 , 2039.0 , 188.857 , 0.0 , 0.0 , 0.0 , 0.0 , 

6.0 , 4136.41025641 , 4128.71794872 , 4134.35897436 , 4136.41025641 , 4130.76923077 , 4130.25641026 , 4127.69230769 , 4134.87179487 , 4134.35897436 , 4137.94871795 , 4192.30769231 , 4909.74358974 , 4133.84615385 , 4142.05128205 , 2043.0 , 2037.0 , 188.866 , 0.0 , 0.0 , 0.0 , 0.0 , 

7.0 , 4134.87179487 , 4131.79487179 , 4133.84615385 , 4130.76923077 , 4130.76923077 , 4131.28205128 , 4128.20512821 , 4134.35897436 , 4133.33333333 , 4138.46153846 , 4192.30769231 , 4914.35897436 , 4134.87179487 , 4137.94871795 , 2042.0 , 2037.0 , 188.877 , 0.0 , 0.0 , 0.0 , 0.0 , 

8.0 , 4136.92307692 , 4133.33333333 , 4133.33333333 , 4131.79487179 , 4130.76923077 , 4129.23076923 , 4128.20512821 , 4134.87179487 , 4130.76923077 , 4138.97435897 , 4193.84615385 , 4914.87179487 , 4134.35897436 , 4143.58974359 , 2042.0 , 2039.0 , 188.88 , 0.0 , 0.0 , 0.0 , 0.0 , 

9.0 , 4137.94871795 , 4128.20512821 , 4134.35897436 , 4135.8974359 , 4130.25641026 , 4130.25641026 , 4128.71794872 , 4135.8974359 , 4131.79487179 , 4139.48717949 , 4192.82051282 , 4910.25641026 , 4133.84615385 , 4145.12820513 , 2043.0 , 2038.0 , 188.89 , 0.0 , 0.0 , 0.0 , 0.0 , 

10.0 , 4136.92307692 , 4127.69230769 , 4137.43589744 , 4134.87179487 , 4129.74358974 , 4131.28205128 , 4128.20512821 , 4136.92307692 , 4133.84615385 , 4138.97435897 , 4192.82051282 , 4912.82051282 , 4133.84615385 , 4143.07692308 , 2041.0 , 2038.0 , 188.899 , 0.0 , 0.0 , 0.0 , 0.0 , 

11.0 , 4134.87179487 , 4132.30769231 , 4135.8974359 , 4134.87179487 , 4132.30769231 , 4130.76923077 , 4128.71794872 , 4138.46153846 , 4135.38461538 , 4137.94871795 , 4193.84615385 , 4914.35897436 , 4134.35897436 , 4139.48717949 , 2042.0 , 2036.0 , 188.909 , 0.0 , 0.0 , 0.0 , 0.0 , 

12.0 , 4134.87179487 , 4134.87179487 , 4135.38461538 , 4135.8974359 , 4132.30769231 , 4129.23076923 , 4127.69230769 , 4136.92307692 , 4134.87179487 , 4140.0 , 4194.35897436 , 4913.33333333 , 4133.84615385 , 4139.48717949 , 2042.0 , 2034.0 , 188.912 , 0.0 , 0.0 , 0.0 , 0.0 , 

13.0 , 4134.87179487 , 4136.92307692 , 4137.43589744 , 4136.41025641 , 4131.28205128 , 4129.74358974 , 4126.66666667 , 4136.92307692 , 4133.84615385 , 4140.51282051 , 4194.35897436 , 4913.84615385 , 4133.84615385 , 4135.38461538 , 2042.0 , 2035.0 , 188.92 , 0.0 , 0.0 , 0.0 , 0.0 , 

14.0 , 4135.8974359 , 4135.38461538 , 4136.41025641 , 4136.41025641 , 4131.79487179 , 4128.71794872 , 4127.69230769 , 4136.92307692 , 4134.87179487 , 4137.43589744 , 4194.35897436 , 4914.87179487 , 4134.87179487 , 4136.92307692 , 2042.0 , 2034.0 , 188.929 , 0.0 , 0.0 , 0.0 , 0.0 , 

15.0 , 4134.87179487 , 4129.74358974 , 4133.84615385 , 4136.92307692 , 4131.28205128 , 4129.74358974 , 4128.20512821 , 4135.38461538 , 4136.92307692 , 4136.41025641 , 4193.33333333 , 4912.82051282 , 4131.79487179 , 4138.97435897 , 2040.0 , 2035.0 , 188.94 , 0.0 , 0.0 , 0.0 , 0.0 , 

16.0 , 4134.87179487 , 4132.82051282 , 4134.87179487 , 4136.41025641 , 4130.76923077 , 4129.74358974 , 4126.66666667 , 4137.43589744 , 4136.92307692 , 4138.97435897 , 4192.30769231 , 4911.28205128 , 4131.79487179 , 4137.43589744 , 2042.0 , 2035.0 , 188.943 , 0.0 , 0.0 , 0.0 , 0.0 , 

17.0 , 4137.43589744 , 4137.94871795 , 4135.8974359 , 4135.38461538 , 4131.79487179 , 4129.74358974 , 4126.66666667 , 4136.92307692 , 4134.35897436 , 4140.0 , 4192.30769231 , 4913.84615385 , 4134.87179487 , 4137.43589744 , 2041.0 , 2036.0 , 188.952 , 0.0 , 0.0 , 0.0 , 0.0 , 

18.0 , 4137.43589744 , 4135.38461538 , 4134.87179487 , 4134.87179487 , 4131.28205128 , 4131.28205128 , 4128.20512821 , 4132.82051282 , 4136.41025641 , 4141.02564103 , 4192.82051282 , 4914.35897436 , 4135.38461538 , 4135.8974359 , 2041.0 , 2037.0 , 188.962 , 0.0 , 0.0 , 0.0 , 0.0 , 

19.0 , 4138.46153846 , 4132.82051282 , 4136.92307692 , 4133.33333333 , 4129.74358974 , 4131.79487179 , 4128.71794872 , 4133.33333333 , 4136.92307692 , 4142.05128205 , 4193.33333333 , 4914.35897436 , 4132.82051282 , 4137.94871795 , 2043.0 , 2035.0 , 188.973 , 0.0 , 0.0 , 0.0 , 0.0 , 

20.0 , 4140.0 , 4136.41025641 , 4137.94871795 , 4132.82051282 , 4133.84615385 , 4131.79487179 , 4128.71794872 , 4138.97435897 , 4135.8974359 , 4138.97435897 , 4192.82051282 , 4913.33333333 , 4133.33333333 , 4141.02564103 , 2042.0 , 2035.0 , 188.976 , 0.0 , 0.0 , 0.0 , 0.0 , 

21.0 , 4140.0 , 4135.8974359 , 4137.43589744 , 4133.33333333 , 4136.41025641 , 4131.28205128 , 4129.23076923 , 4137.43589744 , 4136.41025641 , 4135.38461538 , 4192.82051282 , 4914.35897436 , 4134.87179487 , 4145.12820513 , 2044.0 , 2035.0 , 188.983 , 0.0 , 0.0 , 0.0 , 0.0 , 

22.0 , 4136.41025641 , 4132.82051282 , 4134.87179487 , 4135.8974359 , 4131.79487179 , 4131.28205128 , 4130.76923077 , 4133.33333333 , 4136.92307692 , 4137.43589744 , 4191.79487179 , 4914.35897436 , 4135.8974359 , 4142.56410256 , 2044.0 , 2033.0 , 188.992 , 0.0 , 0.0 , 0.0 , 0.0 , 

23.0 , 4136.41025641 , 4133.84615385 , 4133.33333333 , 4134.87179487 , 4130.25641026 , 4129.74358974 , 4128.71794872 , 4133.84615385 , 4135.38461538 , 4139.48717949 , 4191.79487179 , 4917.94871795 , 4133.33333333 , 4146.66666667 , 2043.0 , 2034.0 , 189.003 , 0.0 , 0.0 , 0.0 , 0.0 , 

24.0 , 4135.8974359 , 4135.38461538 , 4135.8974359 , 4135.38461538 , 4132.82051282 , 4132.30769231 , 4128.71794872 , 4137.94871795 , 4134.35897436 , 4138.97435897 , 4194.35897436 , 4915.8974359 , 4132.82051282 , 4142.56410256 , 2045.0 , 2036.0 , 189.007 , 0.0 , 0.0 , 0.0 , 0.0 , 

25.0 , 4137.94871795 , 4132.30769231 , 4137.43589744 , 4135.38461538 , 4131.79487179 , 4130.76923077 , 4128.71794872 , 4136.92307692 , 4133.84615385 , 4138.97435897 , 4195.38461538 , 4913.33333333 , 4135.38461538 , 4138.46153846 , 2044.0 , 2037.0 , 189.015 , 0.0 , 0.0 , 0.0 , 0.0 , 

26.0 , 4134.87179487 , 4131.28205128 , 4135.38461538 , 4135.8974359 , 4129.23076923 , 4129.74358974 , 4129.74358974 , 4134.35897436 , 4135.38461538 , 4140.0 , 4191.79487179 , 4913.84615385 , 4134.87179487 , 4140.51282051 , 2043.0 , 2038.0 , 189.023 , 0.0 , 0.0 , 0.0 , 0.0 , 

27.0 , 4134.35897436 , 4133.33333333 , 4136.41025641 , 4136.41025641 , 4129.23076923 , 4129.23076923 , 4127.17948718 , 4135.38461538 , 4135.8974359 , 4141.53846154 , 4191.79487179 , 4918.46153846 , 4133.33333333 , 4143.07692308 , 2044.0 , 2036.0 , 189.035 , 0.0 , 0.0 , 0.0 , 0.0 , 

28.0 , 4136.41025641 , 4134.87179487 , 4137.43589744 , 4138.46153846 , 4130.76923077 , 4128.71794872 , 4126.15384615 , 4137.43589744 , 4135.38461538 , 4141.53846154 , 4192.82051282 , 4914.35897436 , 4135.38461538 , 4135.38461538 , 2043.0 , 2037.0 , 189.039 , 0.0 , 0.0 , 0.0 , 0.0 , 

29.0 , 4136.92307692 , 4132.30769231 , 4135.8974359 , 4137.43589744 , 4130.25641026 , 4128.20512821 , 4128.20512821 , 4134.35897436 , 4133.84615385 , 4137.94871795 , 4191.28205128 , 4910.76923077 , 4134.87179487 , 4140.51282051 , 2044.0 , 2037.0 , 189.047 , 0.0 , 0.0 , 0.0 , 0.0 , 

30.0 , 4134.87179487 , 4133.33333333 , 4134.35897436 , 4134.35897436 , 4129.74358974 , 4131.79487179 , 4129.74358974 , 4133.33333333 , 4134.87179487 , 4136.41025641 , 4189.23076923 , 4912.30769231 , 4131.79487179 , 4145.12820513 , 2044.0 , 2036.0 , 189.056 , 0.0 , 0.0 , 0.0 , 0.0 , 

31.0 , 4134.87179487 , 4133.84615385 , 4135.8974359 , 4133.33333333 , 4130.25641026 , 4132.82051282 , 4125.64102564 , 4137.43589744 , 4135.38461538 , 4139.48717949 , 4193.33333333 , 4914.87179487 , 4131.79487179 , 4138.46153846 , 2043.0 , 2036.0 , 189.068 , 0.0 , 0.0 , 0.0 , 0.0 , 

32.0 , 4133.84615385 , 4132.30769231 , 4138.46153846 , 4133.33333333 , 4131.79487179 , 4129.23076923 , 4124.61538462 , 4140.0 , 4134.87179487 , 4140.0 , 4194.35897436 , 4913.84615385 , 4133.84615385 , 4137.94871795 , 2042.0 , 2036.0 , 189.071 , 0.0 , 0.0 , 0.0 , 0.0 , 

33.0 , 4134.87179487 , 4132.30769231 , 4139.48717949 , 4134.35897436 , 4131.28205128 , 4129.23076923 , 4128.20512821 , 4139.48717949 , 4135.8974359 , 4137.94871795 , 4192.30769231 , 4912.82051282 , 4136.41025641 , 4145.64102564 , 2043.0 , 2038.0 , 189.079 , 0.0 , 0.0 , 0.0 , 0.0 , 

34.0 , 4137.94871795 , 4133.33333333 , 4137.43589744 , 4135.8974359 , 4131.28205128 , 4131.79487179 , 4129.74358974 , 4138.97435897 , 4136.92307692 , 4138.46153846 , 4192.82051282 , 4914.87179487 , 4134.35897436 , 4142.56410256 , 2040.0 , 2037.0 , 189.087 , 0.0 , 0.0 , 0.0 , 0.0 , 

35.0 , 4135.38461538 , 4132.82051282 , 4134.87179487 , 4137.94871795 , 4132.82051282 , 4130.25641026 , 4127.69230769 , 4137.43589744 , 4136.41025641 , 4140.0 , 4193.33333333 , 4915.8974359 , 4132.30769231 , 4137.94871795 , 2041.0 , 2036.0 , 189.098 , 0.0 , 0.0 , 0.0 , 0.0 , 

36.0 , 4133.84615385 , 4132.82051282 , 4136.92307692 , 4135.8974359 , 4132.82051282 , 4128.20512821 , 4125.64102564 , 4134.35897436 , 4135.8974359 , 4140.51282051 , 4191.28205128 , 4915.8974359 , 4135.38461538 , 4143.58974359 , 2041.0 , 2035.0 , 189.102 , 0.0 , 0.0 , 0.0 , 0.0 , 

37.0 , 4135.8974359 , 4134.35897436 , 4137.94871795 , 4133.33333333 , 4133.33333333 , 4131.79487179 , 4126.66666667 , 4134.35897436 , 4136.92307692 , 4139.48717949 , 4191.79487179 , 4914.35897436 , 4138.46153846 , 4146.15384615 , 2041.0 , 2036.0 , 189.111 , 0.0 , 0.0 , 0.0 , 0.0 , 

38.0 , 4136.92307692 , 4133.33333333 , 4135.38461538 , 4132.30769231 , 4131.79487179 , 4131.28205128 , 4127.17948718 , 4135.38461538 , 4136.92307692 , 4138.97435897 , 4194.35897436 , 4915.38461538 , 4134.87179487 , 4145.12820513 , 2043.0 , 2039.0 , 189.119 , 0.0 , 0.0 , 0.0 , 0.0 , 

39.0 , 4133.33333333 , 4130.76923077 , 4134.35897436 , 4133.84615385 , 4130.76923077 , 4129.74358974 , 4126.15384615 , 4135.8974359 , 4137.94871795 , 4140.0 , 4192.30769231 , 4913.33333333 , 4134.35897436 , 4139.48717949 , 2042.0 , 2038.0 , 189.129 , 0.0 , 0.0 , 0.0 , 0.0 , 

40.0 , 4134.35897436 , 4131.79487179 , 4136.92307692 , 4134.87179487 , 4130.76923077 , 4130.25641026 , 4122.56410256 , 4134.87179487 , 4137.43589744 , 4138.97435897 , 4190.25641026 , 4914.35897436 , 4135.38461538 , 4140.0 , 2043.0 , 2038.0 , 189.133 , 0.0 , 0.0 , 0.0 , 0.0 , 

41.0 , 4133.33333333 , 4135.38461538 , 4136.92307692 , 4135.38461538 , 4132.30769231 , 4131.28205128 , 4122.56410256 , 4135.8974359 , 4136.41025641 , 4138.46153846 , 4190.76923077 , 4914.35897436 , 4132.30769231 , 4137.43589744 , 2042.0 , 2037.0 , 189.142 , 0.0 , 0.0 , 0.0 , 0.0 , 

42.0 , 4134.35897436 , 4133.33333333 , 4134.35897436 , 4135.38461538 , 4130.25641026 , 4129.74358974 , 4126.15384615 , 4136.41025641 , 4134.87179487 , 4140.0 , 4192.82051282 , 4913.33333333 , 4133.33333333 , 4138.97435897 , 2044.0 , 2034.0 , 189.151 , 0.0 , 0.0 , 0.0 , 0.0 , 

43.0 , 4134.35897436 , 4130.76923077 , 4133.33333333 , 4135.38461538 , 4130.76923077 , 4131.28205128 , 4130.76923077 , 4137.94871795 , 4134.35897436 , 4140.0 , 4192.30769231 , 4909.74358974 , 4138.46153846 , 4140.0 , 2045.0 , 2035.0 , 189.161 , 0.0 , 0.0 , 0.0 , 0.0 , 

44.0 , 4134.87179487 , 4132.30769231 , 4136.41025641 , 4133.33333333 , 4132.82051282 , 4130.76923077 , 4129.23076923 , 4136.41025641 , 4133.33333333 , 4137.94871795 , 4191.79487179 , 4913.33333333 , 4137.43589744 , 4144.61538462 , 2044.0 , 2035.0 , 189.165 , 0.0 , 0.0 , 0.0 , 0.0 , 

45.0 , 4134.35897436 , 4133.84615385 , 4136.92307692 , 4134.87179487 , 4131.79487179 , 4129.23076923 , 4127.69230769 , 4133.84615385 , 4134.87179487 , 4137.43589744 , 4191.79487179 , 4913.84615385 , 4136.41025641 , 4143.58974359 , 2043.0 , 2036.0 , 189.173 , 0.0 , 0.0 , 0.0 , 0.0 , 

46.0 , 4132.30769231 , 4130.25641026 , 4133.84615385 , 4134.35897436 , 4128.71794872 , 4130.76923077 , 4128.20512821 , 4135.38461538 , 4135.8974359 , 4138.97435897 , 4192.30769231 , 4912.82051282 , 4137.43589744 , 4147.69230769 , 2042.0 , 2037.0 , 189.183 , 0.0 , 0.0 , 0.0 , 0.0 , 

47.0 , 4131.28205128 , 4131.79487179 , 4131.79487179 , 4132.30769231 , 4129.23076923 , 4132.82051282 , 4127.69230769 , 4138.46153846 , 4136.92307692 , 4139.48717949 , 4194.35897436 , 4912.82051282 , 4137.43589744 , 4147.69230769 , 2043.0 , 2037.0 , 189.193 , 0.0 , 0.0 , 0.0 , 0.0 , 

48.0 , 4134.87179487 , 4134.35897436 , 4134.35897436 , 4131.79487179 , 4130.25641026 , 4127.69230769 , 4124.1025641 , 4136.92307692 , 4138.97435897 , 4138.97435897 , 4195.8974359 , 4916.92307692 , 4140.51282051 , 4146.66666667 , 2044.0 , 2036.0 , 189.197 , 0.0 , 0.0 , 0.0 , 0.0 , 

49.0 , 4132.82051282 , 4130.25641026 , 4134.87179487 , 4134.87179487 , 4131.28205128 , 4127.69230769 , 4127.17948718 , 4136.41025641 , 4138.46153846 , 4137.94871795 , 4193.84615385 , 4915.8974359 , 4141.53846154 , 4146.15384615 , 2044.0 , 2036.0 , 189.204 , 0.0 , 0.0 , 0.0 , 0.0 , 

50.0 , 4128.71794872 , 4127.69230769 , 4132.82051282 , 4136.41025641 , 4131.28205128 , 4133.33333333 , 4129.23076923 , 4135.38461538 , 4134.87179487 , 4138.97435897 , 4193.84615385 , 4914.35897436 , 4137.43589744 , 4146.66666667 , 2044.0 , 2036.0 , 189.213 , 0.0 , 0.0 , 0.0 , 0.0 , 

51.0 , 4133.33333333 , 4132.82051282 , 4134.87179487 , 4135.8974359 , 4130.76923077 , 4134.35897436 , 4127.69230769 , 4135.38461538 , 4134.35897436 , 4139.48717949 , 4194.87179487 , 4913.33333333 , 4134.35897436 , 4142.56410256 , 2045.0 , 2035.0 , 189.224 , 0.0 , 0.0 , 0.0 , 0.0 , 

52.0 , 4136.92307692 , 4134.35897436 , 4136.92307692 , 4135.8974359 , 4130.76923077 , 4129.74358974 , 4126.15384615 , 4138.46153846 , 4136.41025641 , 4138.97435897 , 4195.38461538 , 4913.33333333 , 4136.41025641 , 4141.53846154 , 2044.0 , 2034.0 , 189.228 , 0.0 , 0.0 , 0.0 , 0.0 , 

53.0 , 4134.35897436 , 4130.76923077 , 4136.92307692 , 4135.38461538 , 4131.79487179 , 4128.71794872 , 4127.17948718 , 4135.8974359 , 4134.35897436 , 4138.97435897 , 4194.87179487 , 4913.84615385 , 4136.41025641 , 4144.61538462 , 2044.0 , 2034.0 , 189.236 , 0.0 , 0.0 , 0.0 , 0.0 , 

54.0 , 4133.84615385 , 4132.30769231 , 4135.8974359 , 4134.35897436 , 4132.82051282 , 4130.76923077 , 4127.69230769 , 4131.28205128 , 4133.33333333 , 4140.51282051 , 4194.35897436 , 4912.30769231 , 4136.41025641 , 4143.58974359 , 2045.0 , 2034.0 , 189.244 , 0.0 , 0.0 , 0.0 , 0.0 , 

55.0 , 4133.33333333 , 4132.82051282 , 4135.8974359 , 4135.38461538 , 4132.82051282 , 4129.74358974 , 4126.66666667 , 4133.33333333 , 4136.41025641 , 4140.0 , 4193.33333333 , 4912.30769231 , 4136.92307692 , 4144.61538462 , 2044.0 , 2035.0 , 189.255 , 0.0 , 0.0 , 0.0 , 0.0 , 

56.0 , 4132.82051282 , 4131.28205128 , 4135.8974359 , 4135.8974359 , 4131.28205128 , 4129.74358974 , 4127.17948718 , 4137.94871795 , 4137.43589744 , 4139.48717949 , 4193.84615385 , 4912.82051282 , 4137.43589744 , 4144.1025641 , 2043.0 , 2035.0 , 189.259 , 0.0 , 0.0 , 0.0 , 0.0 , 

57.0 , 4136.92307692 , 4132.30769231 , 4137.94871795 , 4133.84615385 , 4131.28205128 , 4131.79487179 , 4127.69230769 , 4136.41025641 , 4133.33333333 , 4139.48717949 , 4193.84615385 , 4916.41025641 , 4135.8974359 , 4143.58974359 , 2042.0 , 2035.0 , 189.268 , 0.0 , 0.0 , 0.0 , 0.0 , 

58.0 , 4135.8974359 , 4133.33333333 , 4136.41025641 , 4135.38461538 , 4131.28205128 , 4132.30769231 , 4129.23076923 , 4135.8974359 , 4133.33333333 , 4138.46153846 , 4191.28205128 , 4914.35897436 , 4134.35897436 , 4140.0 , 2040.0 , 2035.0 , 189.276 , 0.0 , 0.0 , 0.0 , 0.0 , 

59.0 , 4134.87179487 , 4132.30769231 , 4133.33333333 , 4137.43589744 , 4129.74358974 , 4129.74358974 , 4129.74358974 , 4133.84615385 , 4135.38461538 , 4138.97435897 , 4191.79487179 , 4910.76923077 , 4133.33333333 , 4142.05128205 , 2040.0 , 2037.0 , 189.287 , 0.0 , 0.0 , 0.0 , 0.0 , 

60.0 , 4134.87179487 , 4132.30769231 , 4133.33333333 , 4137.94871795 , 4130.25641026 , 4130.25641026 , 4129.23076923 , 4133.33333333 , 4135.8974359 , 4139.48717949 , 4193.33333333 , 4910.25641026 , 4133.84615385 , 4140.51282051 , 2041.0 , 2038.0 , 189.29 , 0.0 , 0.0 , 0.0 , 0.0 , 

61.0 , 4136.41025641 , 4130.76923077 , 4136.41025641 , 4135.8974359 , 4131.28205128 , 4130.25641026 , 4125.64102564 , 4135.38461538 , 4135.8974359 , 4136.92307692 , 4193.33333333 , 4914.87179487 , 4133.33333333 , 4145.12820513 , 2040.0 , 2036.0 , 189.299 , 0.0 , 0.0 , 0.0 , 0.0 , 

62.0 , 4134.35897436 , 4132.82051282 , 4137.43589744 , 4135.8974359 , 4132.30769231 , 4129.74358974 , 4125.64102564 , 4135.8974359 , 4136.92307692 , 4138.46153846 , 4190.76923077 , 4913.84615385 , 4133.33333333 , 4144.1025641 , 2040.0 , 2036.0 , 189.308 , 0.0 , 0.0 , 0.0 , 0.0 , 

63.0 , 4135.38461538 , 4135.38461538 , 4135.8974359 , 4137.43589744 , 4131.79487179 , 4127.17948718 , 4127.17948718 , 4132.30769231 , 4134.35897436 , 4142.56410256 , 4191.79487179 , 4911.79487179 , 4133.33333333 , 4142.05128205 , 2042.0 , 2037.0 , 189.319 , 0.0 , 0.0 , 0.0 , 0.0 , 

64.0 , 4133.84615385 , 4133.84615385 , 4134.35897436 , 4140.51282051 , 4130.25641026 , 4127.69230769 , 4128.71794872 , 4134.87179487 , 4133.84615385 , 4140.51282051 , 4192.30769231 , 4910.76923077 , 4131.28205128 , 4139.48717949 , 2042.0 , 2037.0 , 189.322 , 0.0 , 0.0 , 0.0 , 0.0 , 

65.0 , 4136.41025641 , 4132.30769231 , 4138.46153846 , 4138.46153846 , 4129.23076923 , 4129.74358974 , 4127.69230769 , 4137.43589744 , 4136.92307692 , 4137.43589744 , 4190.76923077 , 4914.35897436 , 4131.28205128 , 4142.56410256 , 2041.0 , 2036.0 , 189.33 , 0.0 , 0.0 , 0.0 , 0.0 , 

66.0 , 4137.43589744 , 4134.87179487 , 4138.46153846 , 4136.41025641 , 4130.76923077 , 4131.79487179 , 4129.23076923 , 4137.94871795 , 4137.94871795 , 4138.97435897 , 4192.30769231 , 4912.82051282 , 4133.33333333 , 4138.46153846 , 2042.0 , 2035.0 , 189.339 , 0.0 , 0.0 , 0.0 , 0.0 , 

67.0 , 4135.38461538 , 4135.8974359 , 4134.35897436 , 4136.41025641 , 4131.28205128 , 4131.28205128 , 4129.74358974 , 4136.41025641 , 4134.87179487 , 4138.97435897 , 4195.38461538 , 4910.25641026 , 4135.8974359 , 4137.94871795 , 2041.0 , 2036.0 , 189.351 , 0.0 , 0.0 , 0.0 , 0.0 , 

68.0 , 4132.30769231 , 4134.35897436 , 4135.38461538 , 4137.43589744 , 4131.28205128 , 4131.79487179 , 4129.23076923 , 4134.35897436 , 4132.82051282 , 4137.94871795 , 4194.87179487 , 4910.76923077 , 4136.92307692 , 4138.97435897 , 2042.0 , 2035.0 , 189.353 , 0.0 , 0.0 , 0.0 , 0.0 , 

69.0 , 4134.35897436 , 4134.35897436 , 4138.97435897 , 4136.41025641 , 4131.79487179 , 4132.82051282 , 4126.15384615 , 4133.33333333 , 4135.38461538 , 4138.46153846 , 4192.82051282 , 4912.30769231 , 4135.38461538 , 4141.02564103 , 2043.0 , 2037.0 , 189.362 , 0.0 , 0.0 , 0.0 , 0.0 , 

70.0 , 4138.46153846 , 4133.84615385 , 4136.92307692 , 4135.8974359 , 4132.82051282 , 4130.76923077 , 4124.1025641 , 4135.38461538 , 4137.43589744 , 4138.46153846 , 4192.82051282 , 4910.76923077 , 4131.79487179 , 4143.07692308 , 2041.0 , 2038.0 , 189.371 , 0.0 , 0.0 , 0.0 , 0.0 , 

71.0 , 4137.94871795 , 4132.30769231 , 4134.87179487 , 4137.43589744 , 4131.79487179 , 4130.25641026 , 4126.15384615 , 4136.41025641 , 4137.43589744 , 4138.97435897 , 4193.84615385 , 4911.79487179 , 4132.82051282 , 4143.07692308 , 2042.0 , 2037.0 , 189.383 , 0.0 , 0.0 , 0.0 , 0.0 , 

72.0 , 4134.87179487 , 4132.30769231 , 4137.43589744 , 4136.92307692 , 4130.76923077 , 4130.76923077 , 4129.23076923 , 4137.43589744 , 4135.8974359 , 4137.94871795 , 4193.84615385 , 4914.35897436 , 4135.8974359 , 4142.56410256 , 2042.0 , 2036.0 , 189.386 , 0.0 , 0.0 , 0.0 , 0.0 , 

73.0 , 4132.82051282 , 4132.30769231 , 4136.92307692 , 4136.41025641 , 4130.76923077 , 4130.76923077 , 4128.71794872 , 4140.0 , 4136.92307692 , 4141.53846154 , 4191.79487179 , 4912.30769231 , 4134.35897436 , 4141.53846154 , 2041.0 , 2037.0 , 189.394 , 0.0 , 0.0 , 0.0 , 0.0 , 

74.0 , 4136.92307692 , 4132.30769231 , 4135.8974359 , 4135.8974359 , 4130.25641026 , 4129.74358974 , 4126.15384615 , 4136.41025641 , 4136.41025641 , 4146.66666667 , 4190.76923077 , 4914.87179487 , 4133.33333333 , 4143.07692308 , 2042.0 , 2039.0 , 189.403 , 0.0 , 0.0 , 0.0 , 0.0 , 

75.0 , 4137.43589744 , 4132.82051282 , 4137.43589744 , 4136.92307692 , 4130.76923077 , 4131.79487179 , 4127.69230769 , 4132.82051282 , 4135.8974359 , 4142.56410256 , 4191.79487179 , 4915.38461538 , 4136.41025641 , 4143.07692308 , 2041.0 , 2037.0 , 189.413 , 0.0 , 0.0 , 0.0 , 0.0 , 

76.0 , 4134.35897436 , 4132.82051282 , 4140.0 , 4134.35897436 , 4132.30769231 , 4132.82051282 , 4127.69230769 , 4133.84615385 , 4137.43589744 , 4136.41025641 , 4191.79487179 , 4912.30769231 , 4135.38461538 , 4146.15384615 , 2042.0 , 2036.0 , 189.417 , 0.0 , 0.0 , 0.0 , 0.0 , 

77.0 , 4133.33333333 , 4134.35897436 , 4138.46153846 , 4132.82051282 , 4133.84615385 , 4133.84615385 , 4127.69230769 , 4136.41025641 , 4138.97435897 , 4138.97435897 , 4191.79487179 , 4911.28205128 , 4133.33333333 , 4142.05128205 , 2043.0 , 2037.0 , 189.426 , 0.0 , 0.0 , 0.0 , 0.0 , 

78.0 , 4135.38461538 , 4134.35897436 , 4136.92307692 , 4133.33333333 , 4132.82051282 , 4130.76923077 , 4128.20512821 , 4136.92307692 , 4134.87179487 , 4140.51282051 , 4194.87179487 , 4914.87179487 , 4133.33333333 , 4140.51282051 , 2043.0 , 2038.0 , 189.435 , 0.0 , 0.0 , 0.0 , 0.0 , 

79.0 , 4133.84615385 , 4133.84615385 , 4136.92307692 , 4135.8974359 , 4131.28205128 , 4126.66666667 , 4129.74358974 , 4137.43589744 , 4133.33333333 , 4137.43589744 , 4193.33333333 , 4912.30769231 , 4131.79487179 , 4140.0 , 2043.0 , 2037.0 , 189.447 , 0.0 , 0.0 , 0.0 , 0.0 , 

80.0 , 4134.87179487 , 4132.30769231 , 4138.46153846 , 4134.87179487 , 4130.25641026 , 4125.12820513 , 4127.17948718 , 4135.8974359 , 4135.38461538 , 4138.46153846 , 4189.23076923 , 4913.84615385 , 4130.76923077 , 4141.02564103 , 2044.0 , 2036.0 , 189.45 , 0.0 , 0.0 , 0.0 , 0.0 , 

81.0 , 4134.35897436 , 4130.76923077 , 4138.46153846 , 4134.87179487 , 4130.76923077 , 4128.71794872 , 4126.15384615 , 4137.43589744 , 4136.41025641 , 4138.97435897 , 4189.74358974 , 4914.87179487 , 4133.84615385 , 4133.84615385 , 2044.0 , 2036.0 , 189.456 , 0.0 , 0.0 , 0.0 , 0.0 , 

82.0 , 4134.35897436 , 4129.74358974 , 4137.94871795 , 4135.8974359 , 4131.28205128 , 4129.74358974 , 4126.15384615 , 4136.92307692 , 4134.87179487 , 4137.94871795 , 4193.33333333 , 4915.38461538 , 4134.35897436 , 4137.94871795 , 2042.0 , 2035.0 , 189.465 , 0.0 , 0.0 , 0.0 , 0.0 , 

83.0 , 4135.38461538 , 4130.76923077 , 4137.43589744 , 4136.41025641 , 4131.28205128 , 4132.30769231 , 4127.17948718 , 4134.87179487 , 4135.8974359 , 4140.51282051 , 4192.30769231 , 4912.82051282 , 4132.82051282 , 4143.07692308 , 2042.0 , 2036.0 , 189.476 , 0.0 , 0.0 , 0.0 , 0.0 , 

84.0 , 4135.38461538 , 4131.79487179 , 4137.43589744 , 4134.35897436 , 4130.25641026 , 4131.28205128 , 4126.66666667 , 4135.8974359 , 4136.92307692 , 4140.0 , 4190.76923077 , 4914.35897436 , 4134.87179487 , 4144.61538462 , 2044.0 , 2034.0 , 189.48 , 0.0 , 0.0 , 0.0 , 0.0 , 

85.0 , 4133.84615385 , 4131.79487179 , 4137.94871795 , 4135.38461538 , 4131.28205128 , 4129.23076923 , 4128.20512821 , 4139.48717949 , 4137.94871795 , 4137.43589744 , 4191.79487179 , 4913.33333333 , 4136.92307692 , 4142.05128205 , 2044.0 , 2034.0 , 189.488 , 0.0 , 0.0 , 0.0 , 0.0 , 

86.0 , 4135.38461538 , 4130.76923077 , 4138.97435897 , 4135.38461538 , 4133.33333333 , 4127.69230769 , 4129.74358974 , 4136.41025641 , 4138.46153846 , 4137.94871795 , 4192.30769231 , 4912.30769231 , 4135.8974359 , 4144.1025641 , 2042.0 , 2032.0 , 189.496 , 0.0 , 0.0 , 0.0 , 0.0 , 

87.0 , 4134.35897436 , 4131.28205128 , 4137.94871795 , 4133.84615385 , 4133.84615385 , 4129.23076923 , 4130.25641026 , 4134.87179487 , 4138.46153846 , 4140.0 , 4192.82051282 , 4913.84615385 , 4133.33333333 , 4146.15384615 , 2043.0 , 2032.0 , 189.507 , 0.0 , 0.0 , 0.0 , 0.0 , 

88.0 , 4134.87179487 , 4130.76923077 , 4137.43589744 , 4133.33333333 , 4132.82051282 , 4130.76923077 , 4127.17948718 , 4135.8974359 , 4136.92307692 , 4136.92307692 , 4195.38461538 , 4913.84615385 , 4135.8974359 , 4147.17948718 , 2042.0 , 2033.0 , 189.512 , 0.0 , 0.0 , 0.0 , 0.0 , 

89.0 , 4135.8974359 , 4131.79487179 , 4138.46153846 , 4133.33333333 , 4132.82051282 , 4131.79487179 , 4125.64102564 , 4135.8974359 , 4134.87179487 , 4135.38461538 , 4194.35897436 , 4913.33333333 , 4137.43589744 , 4146.15384615 , 2043.0 , 2032.0 , 189.519 , 0.0 , 0.0 , 0.0 , 0.0 , 

90.0 , 4134.35897436 , 4133.33333333 , 4138.46153846 , 4132.82051282 , 4132.82051282 , 4130.25641026 , 4126.66666667 , 4138.46153846 , 4137.43589744 , 4139.48717949 , 4192.82051282 , 4914.35897436 , 4137.94871795 , 4147.17948718 , 2043.0 , 2034.0 , 189.528 , 0.0 , 0.0 , 0.0 , 0.0 , 

91.0 , 4132.82051282 , 4132.30769231 , 4135.38461538 , 4132.82051282 , 4132.30769231 , 4129.74358974 , 4125.12820513 , 4139.48717949 , 4138.46153846 , 4140.0 , 4196.41025641 , 4916.41025641 , 4137.94871795 , 4151.79487179 , 2042.0 , 2036.0 , 189.54 , 0.0 , 0.0 , 0.0 , 0.0 , 

92.0 , 4130.25641026 , 4131.28205128 , 4132.30769231 , 4133.33333333 , 4129.74358974 , 4131.79487179 , 4122.05128205 , 4135.8974359 , 4135.8974359 , 4138.97435897 , 4196.92307692 , 4915.38461538 , 4137.94871795 , 4148.71794872 , 2044.0 , 2035.0 , 189.543 , 0.0 , 0.0 , 0.0 , 0.0 , 

93.0 , 4130.76923077 , 4131.79487179 , 4134.35897436 , 4130.25641026 , 4127.69230769 , 4129.23076923 , 4124.1025641 , 4132.30769231 , 4135.8974359 , 4140.51282051 , 4194.35897436 , 4912.82051282 , 4137.43589744 , 4148.20512821 , 2045.0 , 2034.0 , 189.551 , 0.0 , 0.0 , 0.0 , 0.0 , 

94.0 , 4131.79487179 , 4131.79487179 , 4135.8974359 , 4130.76923077 , 4129.74358974 , 4128.20512821 , 4128.20512821 , 4134.87179487 , 4137.94871795 , 4141.53846154 , 4196.41025641 , 4908.20512821 , 4136.92307692 , 4146.66666667 , 2044.0 , 2034.0 , 189.56 , 0.0 , 0.0 , 0.0 , 0.0 , 

95.0 , 4132.82051282 , 4129.74358974 , 4135.38461538 , 4134.35897436 , 4131.28205128 , 4128.71794872 , 4126.15384615 , 4134.35897436 , 4134.87179487 , 4140.51282051 , 4197.94871795 , 4909.23076923 , 4136.92307692 , 4142.05128205 , 2046.0 , 2036.0 , 189.57 , 0.0 , 0.0 , 0.0 , 0.0 , 

96.0 , 4132.30769231 , 4131.79487179 , 4135.38461538 , 4134.87179487 , 4130.25641026 , 4129.23076923 , 4126.15384615 , 4133.84615385 , 4134.87179487 , 4140.51282051 , 4192.82051282 , 4911.28205128 , 4136.92307692 , 4138.46153846 , 2044.0 , 2034.0 , 189.573 , 0.0 , 0.0 , 0.0 , 0.0 , 

97.0 , 4134.87179487 , 4133.33333333 , 4136.41025641 , 4133.33333333 , 4131.28205128 , 4128.20512821 , 4129.23076923 , 4136.41025641 , 4137.94871795 , 4140.0 , 4192.30769231 , 4911.28205128 , 4134.87179487 , 4142.05128205 , 2044.0 , 2034.0 , 189.583 , 0.0 , 0.0 , 0.0 , 0.0 , 

98.0 , 4133.33333333 , 4133.33333333 , 4135.38461538 , 4134.87179487 , 4133.84615385 , 4129.23076923 , 4129.23076923 , 4138.46153846 , 4139.48717949 , 4137.94871795 , 4195.38461538 , 4910.25641026 , 4136.41025641 , 4136.41025641 , 2045.0 , 2037.0 , 189.592 , 0.0 , 0.0 , 0.0 , 0.0 , 

99.0 , 4134.35897436 , 4133.33333333 , 4135.38461538 , 4135.8974359 , 4131.79487179 , 4130.25641026 , 4125.64102564 , 4136.92307692 , 4136.92307692 , 4138.46153846 , 4193.84615385 , 4913.84615385 , 4137.43589744 , 4137.94871795 , 2045.0 , 2037.0 , 189.604 , 0.0 , 0.0 , 0.0 , 0.0 , 

100.0 , 4135.8974359 , 4133.84615385 , 4136.41025641 , 4135.8974359 , 4131.79487179 , 4133.84615385 , 4126.66666667 , 4135.38461538 , 4134.87179487 , 4139.48717949 , 4191.28205128 , 4912.82051282 , 4133.33333333 , 4143.07692308 , 2043.0 , 2038.0 , 189.607 , 0.0 , 0.0 , 0.0 , 0.0 , 

101.0 , 4136.41025641 , 4132.30769231 , 4137.43589744 , 4133.84615385 , 4134.35897436 , 4131.79487179 , 4126.66666667 , 4133.84615385 , 4133.33333333 , 4140.51282051 , 4192.30769231 , 4912.82051282 , 4133.33333333 , 4146.15384615 , 2042.0 , 2037.0 , 189.616 , 0.0 , 0.0 , 0.0 , 0.0 , 

102.0 , 4132.82051282 , 4132.82051282 , 4137.43589744 , 4134.35897436 , 4132.82051282 , 4128.20512821 , 4125.64102564 , 4135.38461538 , 4133.84615385 , 4139.48717949 , 4193.84615385 , 4913.84615385 , 4138.46153846 , 4142.56410256 , 2041.0 , 2036.0 , 189.625 , 0.0 , 0.0 , 0.0 , 0.0 , 

103.0 , 4134.35897436 , 4133.33333333 , 4135.8974359 , 4135.8974359 , 4130.25641026 , 4130.25641026 , 4125.64102564 , 4137.43589744 , 4135.38461538 , 4138.46153846 , 4195.38461538 , 4913.84615385 , 4135.8974359 , 4142.05128205 , 2041.0 , 2037.0 , 189.633 , 0.0 , 0.0 , 0.0 , 0.0 , 

104.0 , 4134.87179487 , 4132.82051282 , 4131.79487179 , 4134.87179487 , 4131.79487179 , 4133.84615385 , 4126.66666667 , 4135.8974359 , 4135.8974359 , 4138.97435897 , 4193.33333333 , 4912.30769231 , 4131.28205128 , 4140.0 , 2040.0 , 2037.0 , 189.638 , 0.0 , 0.0 , 0.0 , 0.0 , 

105.0 , 4133.84615385 , 4131.79487179 , 4131.79487179 , 4133.33333333 , 4133.84615385 , 4130.25641026 , 4127.17948718 , 4132.30769231 , 4134.35897436 , 4138.46153846 , 4191.28205128 , 4913.84615385 , 4132.30769231 , 4140.0 , 2040.0 , 2037.0 , 189.646 , 0.0 , 0.0 , 0.0 , 0.0 , 

106.0 , 4131.79487179 , 4132.30769231 , 4135.38461538 , 4136.92307692 , 4133.84615385 , 4128.20512821 , 4128.20512821 , 4134.35897436 , 4134.87179487 , 4137.94871795 , 4191.79487179 , 4912.30769231 , 4132.82051282 , 4139.48717949 , 2041.0 , 2038.0 , 189.654 , 0.0 , 0.0 , 0.0 , 0.0 , 

107.0 , 4132.82051282 , 4133.33333333 , 4136.92307692 , 4137.94871795 , 4131.28205128 , 4130.25641026 , 4127.69230769 , 4136.41025641 , 4137.94871795 , 4138.97435897 , 4192.82051282 , 4910.25641026 , 4133.33333333 , 4139.48717949 , 2042.0 , 2036.0 , 189.666 , 0.0 , 0.0 , 0.0 , 0.0 , 

108.0 , 4135.8974359 , 4133.84615385 , 4135.8974359 , 4133.33333333 , 4130.25641026 , 4131.79487179 , 4127.69230769 , 4135.38461538 , 4136.92307692 , 4138.46153846 , 4193.84615385 , 4913.84615385 , 4134.87179487 , 4140.0 , 2042.0 , 2037.0 , 189.669 , 0.0 , 0.0 , 0.0 , 0.0 , 

109.0 , 4134.87179487 , 4133.84615385 , 4136.41025641 , 4134.35897436 , 4131.79487179 , 4130.25641026 , 4131.28205128 , 4132.82051282 , 4134.87179487 , 4137.43589744 , 4193.84615385 , 4913.84615385 , 4133.84615385 , 4137.94871795 , 2043.0 , 2039.0 , 189.678 , 0.0 , 0.0 , 0.0 , 0.0 , 

110.0 , 4135.38461538 , 4131.79487179 , 4140.0 , 4138.46153846 , 4132.82051282 , 4128.71794872 , 4130.76923077 , 4133.84615385 , 4135.8974359 , 4140.0 , 4193.33333333 , 4910.76923077 , 4133.33333333 , 4137.94871795 , 2043.0 , 2038.0 , 189.686 , 0.0 , 0.0 , 0.0 , 0.0 , 

111.0 , 4137.94871795 , 4131.28205128 , 4139.48717949 , 4138.46153846 , 4131.79487179 , 4131.79487179 , 4128.20512821 , 4139.48717949 , 4137.43589744 , 4140.51282051 , 4192.82051282 , 4911.79487179 , 4134.35897436 , 4137.94871795 , 2043.0 , 2038.0 , 189.697 , 0.0 , 0.0 , 0.0 , 0.0 , 

112.0 , 4138.46153846 , 4133.33333333 , 4135.8974359 , 4135.8974359 , 4131.28205128 , 4132.82051282 , 4128.20512821 , 4137.43589744 , 4137.43589744 , 4136.41025641 , 4193.84615385 , 4916.41025641 , 4132.30769231 , 4141.53846154 , 2043.0 , 2038.0 , 189.7 , 0.0 , 0.0 , 0.0 , 0.0 , 

113.0 , 4134.87179487 , 4132.82051282 , 4133.84615385 , 4136.92307692 , 4130.76923077 , 4131.28205128 , 4128.20512821 , 4133.84615385 , 4136.92307692 , 4137.43589744 , 4193.33333333 , 4913.84615385 , 4131.79487179 , 4141.02564103 , 2044.0 , 2039.0 , 189.709 , 0.0 , 0.0 , 0.0 , 0.0 , 

114.0 , 4136.41025641 , 4130.25641026 , 4135.8974359 , 4136.41025641 , 4131.28205128 , 4130.25641026 , 4127.17948718 , 4135.8974359 , 4135.8974359 , 4142.05128205 , 4192.82051282 , 4913.33333333 , 4132.82051282 , 4140.0 , 2045.0 , 2036.0 , 189.717 , 0.0 , 0.0 , 0.0 , 0.0 , 

115.0 , 4136.41025641 , 4131.28205128 , 4137.43589744 , 4136.92307692 , 4132.30769231 , 4131.28205128 , 4128.20512821 , 4137.94871795 , 4136.41025641 , 4142.05128205 , 4192.30769231 , 4914.35897436 , 4133.33333333 , 4137.43589744 , 2044.0 , 2036.0 , 189.728 , 0.0 , 0.0 , 0.0 , 0.0 , 

116.0 , 4136.41025641 , 4131.79487179 , 4137.94871795 , 4134.35897436 , 4131.79487179 , 4128.20512821 , 4127.17948718 , 4135.8974359 , 4136.92307692 , 4141.53846154 , 4191.79487179 , 4915.38461538 , 4133.33333333 , 4142.56410256 , 2044.0 , 2037.0 , 189.732 , 0.0 , 0.0 , 0.0 , 0.0 , 

117.0 , 4133.84615385 , 4133.33333333 , 4136.92307692 , 4134.35897436 , 4130.76923077 , 4129.23076923 , 4127.17948718 , 4135.8974359 , 4137.94871795 , 4141.02564103 , 4190.25641026 , 4912.82051282 , 4133.84615385 , 4142.56410256 , 2044.0 , 2037.0 , 189.74 , 0.0 , 0.0 , 0.0 , 0.0 , 

118.0 , 4133.84615385 , 4132.30769231 , 4136.41025641 , 4135.8974359 , 4130.25641026 , 4130.76923077 , 4126.66666667 , 4134.87179487 , 4137.43589744 , 4138.46153846 , 4191.79487179 , 4913.33333333 , 4130.76923077 , 4145.12820513 , 2045.0 , 2035.0 , 189.749 , 0.0 , 0.0 , 0.0 , 0.0 , 

119.0 , 4134.35897436 , 4129.23076923 , 4134.87179487 , 4136.92307692 , 4130.76923077 , 4129.74358974 , 4128.71794872 , 4136.41025641 , 4136.41025641 , 4137.43589744 , 4194.87179487 , 4913.84615385 , 4130.76923077 , 4144.1025641 , 2045.0 , 2035.0 , 189.76 , 0.0 , 0.0 , 0.0 , 0.0 , 

120.0 , 4137.43589744 , 4130.25641026 , 4136.92307692 , 4135.38461538 , 4130.76923077 , 4127.69230769 , 4131.28205128 , 4138.46153846 , 4136.92307692 , 4139.48717949 , 4194.35897436 , 4917.43589744 , 4134.35897436 , 4142.05128205 , 2044.0 , 2035.0 , 189.763 , 0.0 , 0.0 , 0.0 , 0.0 , 

121.0 , 4136.92307692 , 4134.87179487 , 4136.92307692 , 4136.92307692 , 4130.25641026 , 4131.28205128 , 4131.79487179 , 4134.87179487 , 4137.94871795 , 4141.02564103 , 4192.30769231 , 4917.94871795 , 4136.41025641 , 4139.48717949 , 2044.0 , 2033.0 , 189.773 , 0.0 , 0.0 , 0.0 , 0.0 , 

122.0 , 4135.8974359 , 4134.35897436 , 4134.87179487 , 4138.46153846 , 4129.74358974 , 4131.79487179 , 4125.12820513 , 4130.76923077 , 4135.38461538 , 4140.0 , 4194.35897436 , 4914.35897436 , 4136.92307692 , 4143.07692308 , 2045.0 , 2034.0 , 189.782 , 0.0 , 0.0 , 0.0 , 0.0 , 

123.0 , 4134.35897436 , 4132.30769231 , 4134.87179487 , 4135.38461538 , 4131.28205128 , 4129.23076923 , 4124.1025641 , 4135.38461538 , 4135.38461538 , 4138.46153846 , 4193.33333333 , 4912.30769231 , 4134.35897436 , 4140.0 , 2043.0 , 2035.0 , 189.791 , 0.0 , 0.0 , 0.0 , 0.0 , 

124.0 , 4134.35897436 , 4133.33333333 , 4137.94871795 , 4132.30769231 , 4131.79487179 , 4128.20512821 , 4126.66666667 , 4137.94871795 , 4138.46153846 , 4142.05128205 , 4190.25641026 , 4916.41025641 , 4133.33333333 , 4137.94871795 , 2044.0 , 2035.0 , 189.794 , 0.0 , 0.0 , 0.0 , 0.0 , 

125.0 , 4135.38461538 , 4132.30769231 , 4136.92307692 , 4133.84615385 , 4130.76923077 , 4130.76923077 , 4125.64102564 , 4136.92307692 , 4139.48717949 , 4144.61538462 , 4190.25641026 , 4915.38461538 , 4135.38461538 , 4143.58974359 , 2043.0 , 2036.0 , 189.804 , 0.0 , 0.0 , 0.0 , 0.0 , 

126.0 , 4136.41025641 , 4127.69230769 , 4134.87179487 , 4134.87179487 , 4130.25641026 , 4131.28205128 , 4125.12820513 , 4135.8974359 , 4136.41025641 , 4140.51282051 , 4192.82051282 , 4913.33333333 , 4138.46153846 , 4145.64102564 , 2043.0 , 2037.0 , 189.812 , 0.0 , 0.0 , 0.0 , 0.0 , 

127.0 , 4135.38461538 , 4125.64102564 , 4134.35897436 , 4132.82051282 , 4130.25641026 , 4127.69230769 , 4127.17948718 , 4135.38461538 , 4133.84615385 , 4138.46153846 , 4193.84615385 , 4916.92307692 , 4137.43589744 , 4143.58974359 , 2043.0 , 2038.0 , 189.823 , 0.0 , 0.0 , 0.0 , 0.0 , 

128.0 , 4133.33333333 , 4129.23076923 , 4134.35897436 , 4132.82051282 , 4130.76923077 , 4128.71794872 , 4128.20512821 , 4135.8974359 , 4136.41025641 , 4139.48717949 , 4192.30769231 , 4917.43589744 , 4136.92307692 , 4145.64102564 , 2043.0 , 2038.0 , 189.826 , 0.0 , 0.0 , 0.0 , 0.0 , 

0.0 , 4133.84615385 , 4130.25641026 , 4134.35897436 , 4133.33333333 , 4130.76923077 , 4131.79487179 , 4126.66666667 , 4135.8974359 , 4136.41025641 , 4138.97435897 , 4192.30769231 , 4913.84615385 , 4140.0 , 4151.28205128 , 2043.0 , 2038.0 , 189.836 , 0.0 , 0.0 , 0.0 , 0.0 , 

1.0 , 4134.35897436 , 4129.74358974 , 4132.82051282 , 4133.84615385 , 4130.76923077 , 4133.33333333 , 4125.64102564 , 4136.41025641 , 4136.41025641 , 4138.97435897 , 4192.30769231 , 4913.84615385 , 4144.1025641 , 4146.66666667 , 2044.0 , 2037.0 , 189.844 , 0.0 , 0.0 , 0.0 , 0.0 , 

2.0 , 4136.41025641 , 4132.82051282 , 4132.82051282 , 4132.30769231 , 4132.30769231 , 4130.25641026 , 4124.1025641 , 4137.94871795 , 4138.46153846 , 4138.46153846 , 4193.33333333 , 4915.8974359 , 4143.58974359 , 4145.64102564 , 2044.0 , 2036.0 , 189.856 , 0.0 , 0.0 , 0.0 , 0.0 , 

3.0 , 4132.82051282 , 4133.33333333 , 4133.84615385 , 4133.33333333 , 4133.33333333 , 4128.71794872 , 4127.17948718 , 4136.92307692 , 4140.0 , 4140.0 , 4193.84615385 , 4913.84615385 , 4140.0 , 4145.12820513 , 2043.0 , 2035.0 , 189.858 , 0.0 , 0.0 , 0.0 , 0.0 , 

4.0 , 4131.28205128 , 4130.25641026 , 4135.38461538 , 4133.33333333 , 4130.76923077 , 4128.71794872 , 4126.66666667 , 4133.33333333 , 4135.8974359 , 4143.58974359 , 4193.33333333 , 4914.35897436 , 4135.8974359 , 4146.15384615 , 2044.0 , 2035.0 , 189.867 , 0.0 , 0.0 , 0.0 , 0.0 , 

5.0 , 4132.30769231 , 4130.25641026 , 4135.38461538 , 4133.84615385 , 4130.76923077 , 4131.79487179 , 4125.12820513 , 4134.87179487 , 4135.8974359 , 4141.53846154 , 4192.82051282 , 4912.30769231 , 4134.87179487 , 4141.53846154 , 2042.0 , 2036.0 , 189.875 , 0.0 , 0.0 , 0.0 , 0.0 , 

6.0 , 4134.35897436 , 4129.74358974 , 4137.94871795 , 4133.33333333 , 4133.84615385 , 4131.28205128 , 4128.71794872 , 4137.94871795 , 4138.97435897 , 4137.43589744 , 4193.84615385 , 4911.79487179 , 4135.8974359 , 4144.1025641 , 2042.0 , 2035.0 , 189.886 , 0.0 , 0.0 , 0.0 , 0.0 , 

7.0 , 4132.30769231 , 4130.76923077 , 4137.94871795 , 4134.87179487 , 4132.82051282 , 4128.71794872 , 4131.28205128 , 4138.97435897 , 4137.94871795 , 4138.97435897 , 4194.35897436 , 4912.82051282 , 4136.92307692 , 4141.53846154 , 2041.0 , 2035.0 , 189.89 , 0.0 , 0.0 , 0.0 , 0.0 , 

8.0 , 4132.82051282 , 4133.33333333 , 4135.38461538 , 4136.41025641 , 4129.74358974 , 4126.66666667 , 4127.17948718 , 4133.84615385 , 4135.8974359 , 4138.97435897 , 4193.33333333 , 4913.33333333 , 4133.33333333 , 4141.02564103 , 2043.0 , 2037.0 , 189.899 , 0.0 , 0.0 , 0.0 , 0.0 , 

9.0 , 4135.8974359 , 4134.35897436 , 4134.35897436 , 4135.8974359 , 4130.25641026 , 4128.20512821 , 4129.23076923 , 4132.82051282 , 4136.41025641 , 4136.92307692 , 4192.30769231 , 4908.71794872 , 4131.28205128 , 4141.02564103 , 2042.0 , 2039.0 , 189.908 , 0.0 , 0.0 , 0.0 , 0.0 , 

10.0 , 4137.94871795 , 4131.79487179 , 4135.38461538 , 4133.33333333 , 4131.28205128 , 4130.76923077 , 4130.25641026 , 4135.38461538 , 4134.87179487 , 4138.46153846 , 4192.82051282 , 4909.23076923 , 4134.35897436 , 4142.56410256 , 2041.0 , 2038.0 , 189.919 , 0.0 , 0.0 , 0.0 , 0.0 , 

11.0 , 4135.8974359 , 4133.33333333 , 4135.8974359 , 4135.38461538 , 4132.30769231 , 4133.84615385 , 4127.69230769 , 4134.35897436 , 4133.33333333 , 4140.51282051 , 4193.84615385 , 4910.76923077 , 4133.33333333 , 4138.46153846 , 2041.0 , 2037.0 , 189.921 , 0.0 , 0.0 , 0.0 , 0.0 , 

12.0 , 4135.38461538 , 4134.35897436 , 4135.38461538 , 4137.43589744 , 4131.79487179 , 4131.79487179 , 4126.66666667 , 4130.25641026 , 4134.87179487 , 4137.43589744 , 4194.35897436 , 4911.28205128 , 4130.76923077 , 4138.97435897 , 2042.0 , 2037.0 , 189.93 , 0.0 , 0.0 , 0.0 , 0.0 , 

13.0 , 4135.8974359 , 4132.30769231 , 4136.41025641 , 4137.43589744 , 4132.30769231 , 4131.28205128 , 4130.25641026 , 4130.76923077 , 4134.35897436 , 4137.43589744 , 4193.33333333 , 4912.30769231 , 4134.35897436 , 4139.48717949 , 2042.0 , 2038.0 , 189.938 , 0.0 , 0.0 , 0.0 , 0.0 , 

14.0 , 4135.38461538 , 4133.33333333 , 4136.41025641 , 4136.92307692 , 4132.82051282 , 4132.30769231 , 4131.79487179 , 4133.84615385 , 4132.82051282 , 4139.48717949 , 4193.33333333 , 4914.87179487 , 4134.35897436 , 4140.0 , 2041.0 , 2038.0 , 189.95 , 0.0 , 0.0 , 0.0 , 0.0 , 

15.0 , 4133.33333333 , 4133.84615385 , 4136.41025641 , 4135.8974359 , 4131.28205128 , 4129.74358974 , 4131.28205128 , 4130.76923077 , 4135.8974359 , 4138.46153846 , 4192.82051282 , 4915.8974359 , 4130.25641026 , 4142.56410256 , 2042.0 , 2036.0 , 189.952 , 0.0 , 0.0 , 0.0 , 0.0 , 

16.0 , 4135.38461538 , 4133.33333333 , 4137.43589744 , 4135.38461538 , 4128.20512821 , 4128.71794872 , 4130.76923077 , 4131.79487179 , 4136.92307692 , 4136.92307692 , 4193.84615385 , 4913.84615385 , 4132.82051282 , 4142.56410256 , 2042.0 , 2037.0 , 189.962 , 0.0 , 0.0 , 0.0 , 0.0 , 

17.0 , 4140.0 , 4133.84615385 , 4136.92307692 , 4135.38461538 , 4128.71794872 , 4129.74358974 , 4129.74358974 , 4134.87179487 , 4133.84615385 , 4137.43589744 , 4193.84615385 , 4914.35897436 , 4134.87179487 , 4140.51282051 , 2042.0 , 2037.0 , 189.969 , 0.0 , 0.0 , 0.0 , 0.0 , 

18.0 , 4135.8974359 , 4134.87179487 , 4134.35897436 , 4136.92307692 , 4131.79487179 , 4130.25641026 , 4129.74358974 , 4134.35897436 , 4134.87179487 , 4142.56410256 , 4192.30769231 , 4915.38461538 , 4132.82051282 , 4141.02564103 , 2041.0 , 2037.0 , 189.981 , 0.0 , 0.0 , 0.0 , 0.0 , 

19.0 , 4132.82051282 , 4132.82051282 , 4135.38461538 , 4135.38461538 , 4131.79487179 , 4130.25641026 , 4128.71794872 , 4133.33333333 , 4135.38461538 , 4146.15384615 , 4191.28205128 , 4915.38461538 , 4131.28205128 , 4142.56410256 , 2042.0 , 2037.0 , 189.983 , 0.0 , 0.0 , 0.0 , 0.0 , 

20.0 , 4133.84615385 , 4133.84615385 , 4136.41025641 , 4135.8974359 , 4130.76923077 , 4131.79487179 , 4123.58974359 , 4137.43589744 , 4135.38461538 , 4141.53846154 , 4191.79487179 , 4911.79487179 , 4134.35897436 , 4136.41025641 , 2043.0 , 2036.0 , 189.992 , 0.0 , 0.0 , 0.0 , 0.0 , 

21.0 , 4136.41025641 , 4135.8974359 , 4135.38461538 , 4135.8974359 , 4131.28205128 , 4130.25641026 , 4120.0 , 4137.94871795 , 4136.41025641 , 4136.41025641 , 4193.84615385 , 4913.33333333 , 4135.8974359 , 4138.97435897 , 2043.0 , 2037.0 , 190.001 , 0.0 , 0.0 , 0.0 , 0.0 , 

22.0 , 4134.87179487 , 4134.35897436 , 4135.38461538 , 4135.8974359 , 4132.30769231 , 4130.25641026 , 4124.1025641 , 4133.33333333 , 4136.92307692 , 4138.46153846 , 4193.84615385 , 4914.87179487 , 4136.92307692 , 4138.97435897 , 2044.0 , 2036.0 , 190.012 , 0.0 , 0.0 , 0.0 , 0.0 , 

23.0 , 4134.87179487 , 4132.30769231 , 4136.41025641 , 4132.30769231 , 4132.30769231 , 4129.23076923 , 4125.64102564 , 4132.82051282 , 4132.30769231 , 4140.51282051 , 4191.79487179 , 4913.84615385 , 4136.41025641 , 4142.05128205 , 2043.0 , 2036.0 , 190.016 , 0.0 , 0.0 , 0.0 , 0.0 , 

24.0 , 4134.35897436 , 4132.82051282 , 4134.87179487 , 4134.35897436 , 4132.30769231 , 4128.20512821 , 4126.15384615 , 4137.94871795 , 4133.84615385 , 4138.46153846 , 4192.30769231 , 4911.28205128 , 4133.33333333 , 4143.07692308 , 2044.0 , 2033.0 , 190.025 , 0.0 , 0.0 , 0.0 , 0.0 , 

25.0 , 4136.41025641 , 4133.84615385 , 4136.92307692 , 4135.8974359 , 4131.79487179 , 4129.23076923 , 4128.71794872 , 4136.41025641 , 4134.87179487 , 4138.46153846 , 4195.38461538 , 4914.87179487 , 4133.84615385 , 4143.07692308 , 2044.0 , 2033.0 , 190.034 , 0.0 , 0.0 , 0.0 , 0.0 , 

26.0 , 4137.94871795 , 4134.35897436 , 4139.48717949 , 4137.43589744 , 4130.76923077 , 4132.30769231 , 4130.25641026 , 4132.82051282 , 4134.87179487 , 4138.97435897 , 4193.33333333 , 4914.87179487 , 4133.84615385 , 4134.87179487 , 2042.0 , 2032.0 , 190.044 , 0.0 , 0.0 , 0.0 , 0.0 , 

27.0 , 4135.8974359 , 4131.79487179 , 4137.94871795 , 4136.92307692 , 4130.76923077 , 4131.28205128 , 4127.17948718 , 4132.82051282 , 4135.38461538 , 4137.94871795 , 4189.23076923 , 4914.35897436 , 4132.30769231 , 4137.43589744 , 2043.0 , 2033.0 , 190.047 , 0.0 , 0.0 , 0.0 , 0.0 , 

28.0 , 4133.33333333 , 4130.76923077 , 4134.87179487 , 4135.8974359 , 4134.35897436 , 4130.25641026 , 4127.69230769 , 4137.94871795 , 4135.8974359 , 4137.94871795 , 4190.76923077 , 4915.8974359 , 4132.30769231 , 4143.58974359 , 2043.0 , 2034.0 , 190.056 , 0.0 , 0.0 , 0.0 , 0.0 , 

29.0 , 4134.87179487 , 4131.79487179 , 4135.8974359 , 4133.84615385 , 4134.87179487 , 4129.23076923 , 4128.71794872 , 4139.48717949 , 4135.8974359 , 4138.46153846 , 4194.87179487 , 4917.43589744 , 4133.84615385 , 4145.64102564 , 2042.0 , 2034.0 , 190.064 , 0.0 , 0.0 , 0.0 , 0.0 , 

30.0 , 4134.87179487 , 4132.30769231 , 4137.43589744 , 4137.94871795 , 4131.79487179 , 4130.25641026 , 4128.71794872 , 4136.41025641 , 4137.43589744 , 4138.46153846 , 4193.33333333 , 4911.28205128 , 4133.84615385 , 4140.51282051 , 2040.0 , 2035.0 , 190.075 , 0.0 , 0.0 , 0.0 , 0.0 , 

31.0 , 4136.41025641 , 4132.82051282 , 4135.38461538 , 4141.02564103 , 4130.25641026 , 4131.28205128 , 4127.69230769 , 4132.82051282 , 4137.94871795 , 4136.41025641 , 4190.25641026 , 4910.76923077 , 4132.82051282 , 4138.97435897 , 2038.0 , 2034.0 , 190.078 , 0.0 , 0.0 , 0.0 , 0.0 , 

32.0 , 4135.38461538 , 4135.8974359 , 4132.82051282 , 4136.92307692 , 4131.79487179 , 4131.79487179 , 4125.64102564 , 4131.79487179 , 4135.8974359 , 4136.41025641 , 4191.79487179 , 4914.35897436 , 4132.82051282 , 4138.97435897 , 2040.0 , 2034.0 , 190.088 , 0.0 , 0.0 , 0.0 , 0.0 , 

33.0 , 4134.87179487 , 4135.38461538 , 4135.38461538 , 4131.79487179 , 4131.28205128 , 4130.25641026 , 4125.12820513 , 4133.33333333 , 4135.38461538 , 4138.46153846 , 4194.35897436 , 4912.30769231 , 4132.30769231 , 4135.8974359 , 2038.0 , 2034.0 , 190.097 , 0.0 , 0.0 , 0.0 , 0.0 , 

34.0 , 4135.38461538 , 4132.30769231 , 4137.43589744 , 4134.35897436 , 4132.82051282 , 4129.74358974 , 4126.66666667 , 4134.87179487 , 4136.41025641 , 4137.43589744 , 4190.76923077 , 4909.74358974 , 4130.76923077 , 4134.35897436 , 2038.0 , 2034.0 , 190.107 , 0.0 , 0.0 , 0.0 , 0.0 , 

35.0 , 4138.46153846 , 4131.28205128 , 4135.38461538 , 4137.94871795 , 4134.35897436 , 4131.28205128 , 4128.71794872 , 4132.82051282 , 4135.38461538 , 4137.43589744 , 4189.23076923 , 4913.33333333 , 4131.79487179 , 4134.87179487 , 2038.0 , 2034.0 , 190.11 , 0.0 , 0.0 , 0.0 , 0.0 , 

36.0 , 4142.05128205 , 4131.79487179 , 4135.8974359 , 4135.8974359 , 4132.30769231 , 4131.28205128 , 4130.25641026 , 4126.15384615 , 4132.82051282 , 4138.46153846 , 4192.30769231 , 4913.33333333 , 4130.76923077 , 4132.82051282 , 2039.0 , 2036.0 , 190.119 , 0.0 , 0.0 , 0.0 , 0.0 , 

37.0 , 4141.53846154 , 4130.76923077 , 4138.46153846 , 4135.38461538 , 4131.28205128 , 4130.25641026 , 4129.23076923 , 4126.15384615 , 4131.79487179 , 4141.53846154 , 4190.76923077 , 4906.66666667 , 4124.61538462 , 4125.64102564 , 2040.0 , 2034.0 , 190.127 , 0.0 , 0.0 , 0.0 , 0.0 , 

38.0 , 4141.53846154 , 4127.69230769 , 4140.0 , 4137.94871795 , 4132.30769231 , 4128.20512821 , 4128.20512821 , 4131.28205128 , 4133.33333333 , 4141.02564103 , 4189.74358974 , 4909.23076923 , 4122.05128205 , 4127.69230769 , 2040.0 , 2035.0 , 190.138 , 0.0 , 0.0 , 0.0 , 0.0 , 

39.0 , 4137.94871795 , 4128.20512821 , 4138.46153846 , 4137.94871795 , 4133.84615385 , 4128.20512821 , 4130.76923077 , 4129.74358974 , 4132.82051282 , 4141.02564103 , 4193.33333333 , 4913.84615385 , 4128.20512821 , 4129.74358974 , 2041.0 , 2036.0 , 190.142 , 0.0 , 0.0 , 0.0 , 0.0 , 

40.0 , 4137.94871795 , 4129.74358974 , 4135.38461538 , 4135.8974359 , 4134.87179487 , 4128.71794872 , 4130.76923077 , 4127.17948718 , 4129.74358974 , 4143.07692308 , 4193.84615385 , 4914.87179487 , 4129.74358974 , 4129.74358974 , 2042.0 , 2038.0 , 190.151 , 0.0 , 0.0 , 0.0 , 0.0 , 

41.0 , 4137.43589744 , 4129.23076923 , 4136.41025641 , 4138.46153846 , 4135.38461538 , 4129.74358974 , 4130.25641026 , 4132.82051282 , 4131.28205128 , 4142.05128205 , 4190.76923077 , 4913.33333333 , 4125.12820513 , 4126.66666667 , 2043.0 , 2036.0 , 190.16 , 0.0 , 0.0 , 0.0 , 0.0 , 

42.0 , 4137.43589744 , 4126.15384615 , 4141.53846154 , 4138.97435897 , 4132.30769231 , 4128.71794872 , 4129.74358974 , 4131.79487179 , 4132.30769231 , 4140.51282051 , 4188.71794872 , 4917.43589744 , 4126.66666667 , 4134.35897436 , 2043.0 , 2036.0 , 190.171 , 0.0 , 0.0 , 0.0 , 0.0 , 

43.0 , 4134.35897436 , 4129.74358974 , 4138.46153846 , 4136.92307692 , 4131.28205128 , 4131.28205128 , 4131.28205128 , 4127.69230769 , 4132.30769231 , 4140.51282051 , 4189.74358974 , 4917.94871795 , 4131.79487179 , 4137.94871795 , 2045.0 , 2038.0 , 190.173 , 0.0 , 0.0 , 0.0 , 0.0 , 

44.0 , 4136.41025641 , 4133.33333333 , 4133.33333333 , 4134.87179487 , 4131.28205128 , 4130.76923077 , 4130.76923077 , 4130.25641026 , 4130.76923077 , 4139.48717949 , 4193.33333333 , 4916.41025641 , 4132.82051282 , 4140.51282051 , 2045.0 , 2038.0 , 190.181 , 0.0 , 0.0 , 0.0 , 0.0 , 

45.0 , 4136.92307692 , 4131.28205128 , 4136.41025641 , 4135.8974359 , 4131.28205128 , 4128.71794872 , 4128.20512821 , 4134.35897436 , 4132.30769231 , 4138.46153846 , 4192.82051282 , 4913.84615385 , 4133.84615385 , 4141.02564103 , 2047.0 , 2039.0 , 190.19 , 0.0 , 0.0 , 0.0 , 0.0 , 

46.0 , 4134.35897436 , 4130.25641026 , 4138.97435897 , 4134.87179487 , 4130.25641026 , 4128.20512821 , 4124.61538462 , 4134.35897436 , 4135.38461538 , 4140.0 , 4190.25641026 , 4915.38461538 , 4136.41025641 , 4147.69230769 , 2047.0 , 2038.0 , 190.201 , 0.0 , 0.0 , 0.0 , 0.0 , 

47.0 , 4129.23076923 , 4131.79487179 , 4134.35897436 , 4134.87179487 , 4130.25641026 , 4131.79487179 , 4127.17948718 , 4134.35897436 , 4137.43589744 , 4139.48717949 , 4192.82051282 , 4914.87179487 , 4137.43589744 , 4147.17948718 , 2048.0 , 2040.0 , 190.205 , 0.0 , 0.0 , 0.0 , 0.0 , 

48.0 , 4128.20512821 , 4130.76923077 , 4133.84615385 , 4135.8974359 , 4130.76923077 , 4130.76923077 , 4130.76923077 , 4135.38461538 , 4138.46153846 , 4135.8974359 , 4194.87179487 , 4912.30769231 , 4136.92307692 , 4151.79487179 , 2048.0 , 2038.0 , 190.213 , 0.0 , 0.0 , 0.0 , 0.0 , 

49.0 , 4129.74358974 , 4129.23076923 , 4134.87179487 , 4136.41025641 , 4131.28205128 , 4128.20512821 , 4128.71794872 , 4137.43589744 , 4138.46153846 , 4136.41025641 , 4191.28205128 , 4910.76923077 , 4136.92307692 , 4160.0 , 2047.0 , 2036.0 , 190.22 , 0.0 , 0.0 , 0.0 , 0.0 , 

50.0 , 4129.74358974 , 4128.71794872 , 4132.30769231 , 4135.8974359 , 4131.28205128 , 4128.20512821 , 4125.12820513 , 4140.0 , 4140.0 , 4137.94871795 , 4192.30769231 , 4912.82051282 , 4139.48717949 , 4158.97435897 , 2048.0 , 2034.0 , 190.232 , 0.0 , 0.0 , 0.0 , 0.0 , 

51.0 , 4127.69230769 , 4129.74358974 , 4130.76923077 , 4135.38461538 , 4132.30769231 , 4130.76923077 , 4127.69230769 , 4140.51282051 , 4139.48717949 , 4137.94871795 , 4195.38461538 , 4914.35897436 , 4142.05128205 , 4153.33333333 , 2047.0 , 2033.0 , 190.237 , 0.0 , 0.0 , 0.0 , 0.0 , 

52.0 , 4131.28205128 , 4130.76923077 , 4132.30769231 , 4136.92307692 , 4133.33333333 , 4130.25641026 , 4130.76923077 , 4139.48717949 , 4138.46153846 , 4136.41025641 , 4194.87179487 , 4914.87179487 , 4144.1025641 , 4154.35897436 , 2045.0 , 2038.0 , 190.244 , 0.0 , 0.0 , 0.0 , 0.0 , 

53.0 , 4135.38461538 , 4131.28205128 , 4130.76923077 , 4136.92307692 , 4132.82051282 , 4128.20512821 , 4127.69230769 , 4137.43589744 , 4137.94871795 , 4136.92307692 , 4192.30769231 , 4918.46153846 , 4145.64102564 , 4154.87179487 , 2045.0 , 2038.0 , 190.252 , 0.0 , 0.0 , 0.0 , 0.0 , 

54.0 , 4132.30769231 , 4133.33333333 , 4130.76923077 , 4133.84615385 , 4131.79487179 , 4127.69230769 , 4123.58974359 , 4137.43589744 , 4140.0 , 4137.94871795 , 4193.33333333 , 4921.53846154 , 4146.15384615 , 4149.74358974 , 2043.0 , 2038.0 , 190.263 , 0.0 , 0.0 , 0.0 , 0.0 , 

55.0 , 4132.30769231 , 4134.35897436 , 4133.84615385 , 4130.76923077 , 4131.28205128 , 4129.23076923 , 4122.05128205 , 4137.94871795 , 4140.51282051 , 4137.43589744 , 4195.8974359 , 4920.0 , 4143.07692308 , 4151.79487179 , 2044.0 , 2037.0 , 190.268 , 0.0 , 0.0 , 0.0 , 0.0 , 

56.0 , 4133.84615385 , 4133.84615385 , 4132.30769231 , 4133.33333333 , 4132.30769231 , 4130.76923077 , 4124.1025641 , 4134.87179487 , 4137.94871795 , 4137.94871795 , 4195.38461538 , 4915.38461538 , 4142.56410256 , 4151.79487179 , 2044.0 , 2034.0 , 190.276 , 0.0 , 0.0 , 0.0 , 0.0 , 

57.0 , 4133.84615385 , 4134.35897436 , 4129.23076923 , 4135.8974359 , 4132.82051282 , 4128.71794872 , 4126.66666667 , 4128.20512821 , 4135.8974359 , 4137.43589744 , 4192.82051282 , 4915.38461538 , 4141.02564103 , 4148.71794872 , 2044.0 , 2033.0 , 190.285 , 0.0 , 0.0 , 0.0 , 0.0 , 

58.0 , 4130.76923077 , 4134.87179487 , 4129.23076923 , 4135.38461538 , 4131.28205128 , 4127.69230769 , 4128.20512821 , 4129.74358974 , 4137.94871795 , 4137.94871795 , 4193.33333333 , 4915.38461538 , 4137.94871795 , 4143.58974359 , 2044.0 , 2033.0 , 190.295 , 0.0 , 0.0 , 0.0 , 0.0 , 

59.0 , 4130.76923077 , 4129.23076923 , 4135.8974359 , 4134.35897436 , 4130.76923077 , 4129.23076923 , 4125.64102564 , 4134.87179487 , 4138.97435897 , 4137.94871795 , 4195.38461538 , 4914.87179487 , 4136.41025641 , 4145.12820513 , 2045.0 , 2033.0 , 190.3 , 0.0 , 0.0 , 0.0 , 0.0 , 

60.0 , 4130.76923077 , 4130.25641026 , 4137.43589744 , 4135.8974359 , 4133.33333333 , 4131.28205128 , 4126.15384615 , 4135.8974359 , 4137.94871795 , 4138.97435897 , 4194.87179487 , 4912.30769231 , 4136.92307692 , 4142.56410256 , 2045.0 , 2033.0 , 190.307 , 0.0 , 0.0 , 0.0 , 0.0 , 

61.0 , 4134.87179487 , 4136.92307692 , 4136.41025641 , 4134.35897436 , 4131.28205128 , 4126.66666667 , 4128.20512821 , 4133.84615385 , 4133.84615385 , 4140.51282051 , 4194.35897436 , 4915.38461538 , 4137.43589744 , 4144.61538462 , 2042.0 , 2033.0 , 190.317 , 0.0 , 0.0 , 0.0 , 0.0 , 

62.0 , 4134.87179487 , 4135.8974359 , 4134.35897436 , 4134.87179487 , 4130.25641026 , 4126.66666667 , 4128.71794872 , 4136.92307692 , 4132.82051282 , 4141.53846154 , 4192.82051282 , 4914.35897436 , 4138.46153846 , 4143.07692308 , 2042.0 , 2031.0 , 190.327 , 0.0 , 0.0 , 0.0 , 0.0 , 

63.0 , 4133.84615385 , 4132.30769231 , 4134.87179487 , 4136.41025641 , 4132.30769231 , 4130.25641026 , 4128.20512821 , 4136.41025641 , 4134.87179487 , 4142.05128205 , 4193.33333333 , 4912.30769231 , 4135.8974359 , 4142.05128205 , 2044.0 , 2031.0 , 190.331 , 0.0 , 0.0 , 0.0 , 0.0 , 

64.0 , 4132.30769231 , 4133.84615385 , 4136.92307692 , 4140.51282051 , 4133.33333333 , 4133.33333333 , 4129.74358974 , 4131.28205128 , 4137.94871795 , 4140.51282051 , 4193.33333333 , 4911.28205128 , 4131.28205128 , 4138.97435897 , 2043.0 , 2033.0 , 190.339 , 0.0 , 0.0 , 0.0 , 0.0 , 

65.0 , 4134.35897436 , 4132.30769231 , 4137.94871795 , 4138.46153846 , 4131.79487179 , 4130.76923077 , 4128.71794872 , 4131.79487179 , 4135.8974359 , 4140.0 , 4191.79487179 , 4912.30769231 , 4132.82051282 , 4142.05128205 , 2042.0 , 2032.0 , 190.348 , 0.0 , 0.0 , 0.0 , 0.0 , 

66.0 , 4136.41025641 , 4130.25641026 , 4136.92307692 , 4133.84615385 , 4132.30769231 , 4130.25641026 , 4126.66666667 , 4137.94871795 , 4134.35897436 , 4140.51282051 , 4191.79487179 , 4911.28205128 , 4135.38461538 , 4142.56410256 , 2043.0 , 2032.0 , 190.359 , 0.0 , 0.0 , 0.0 , 0.0 , 

67.0 , 4134.87179487 , 4133.84615385 , 4135.8974359 , 4135.38461538 , 4132.82051282 , 4130.76923077 , 4127.69230769 , 4138.46153846 , 4136.41025641 , 4138.97435897 , 4193.33333333 , 4914.87179487 , 4136.41025641 , 4143.07692308 , 2044.0 , 2033.0 , 190.363 , 0.0 , 0.0 , 0.0 , 0.0 , 

68.0 , 4133.84615385 , 4136.41025641 , 4136.41025641 , 4138.46153846 , 4130.76923077 , 4128.20512821 , 4128.20512821 , 4135.38461538 , 4135.8974359 , 4137.43589744 , 4192.82051282 , 4916.92307692 , 4137.94871795 , 4140.51282051 , 2042.0 , 2033.0 , 190.37 , 0.0 , 0.0 , 0.0 , 0.0 , 

69.0 , 4135.8974359 , 4133.84615385 , 4134.87179487 , 4135.38461538 , 4128.71794872 , 4126.66666667 , 4125.12820513 , 4133.84615385 , 4134.87179487 , 4140.0 , 4192.82051282 , 4913.84615385 , 4137.94871795 , 4138.97435897 , 2043.0 , 2034.0 , 190.379 , 0.0 , 0.0 , 0.0 , 0.0 , 

70.0 , 4134.35897436 , 4132.30769231 , 4132.82051282 , 4133.84615385 , 4129.74358974 , 4130.25641026 , 4125.12820513 , 4132.82051282 , 4134.87179487 , 4138.46153846 , 4193.33333333 , 4913.84615385 , 4136.41025641 , 4143.58974359 , 2042.0 , 2034.0 , 190.39 , 0.0 , 0.0 , 0.0 , 0.0 , 

71.0 , 4133.84615385 , 4134.35897436 , 4134.35897436 , 4136.41025641 , 4132.30769231 , 4131.79487179 , 4127.17948718 , 4132.30769231 , 4135.8974359 , 4137.43589744 , 4193.84615385 , 4917.94871795 , 4136.92307692 , 4146.15384615 , 2044.0 , 2034.0 , 190.393 , 0.0 , 0.0 , 0.0 , 0.0 , 

72.0 , 4138.46153846 , 4135.8974359 , 4136.41025641 , 4133.33333333 , 4131.28205128 , 4128.20512821 , 4126.15384615 , 4132.30769231 , 4134.87179487 , 4141.02564103 , 4194.35897436 , 4916.41025641 , 4132.82051282 , 4141.53846154 , 2043.0 , 2035.0 , 190.403 , 0.0 , 0.0 , 0.0 , 0.0 , 

73.0 , 4139.48717949 , 4135.38461538 , 4134.87179487 , 4131.79487179 , 4129.74358974 , 4128.71794872 , 4127.17948718 , 4133.33333333 , 4135.8974359 , 4141.02564103 , 4192.82051282 , 4912.82051282 , 4130.25641026 , 4137.94871795 , 2043.0 , 2033.0 , 190.411 , 0.0 , 0.0 , 0.0 , 0.0 , 

74.0 , 4135.38461538 , 4133.33333333 , 4134.35897436 , 4135.38461538 , 4131.28205128 , 4130.25641026 , 4127.17948718 , 4133.33333333 , 4136.92307692 , 4137.43589744 , 4191.79487179 , 4915.38461538 , 4133.33333333 , 4139.48717949 , 2043.0 , 2030.0 , 190.422 , 0.0 , 0.0 , 0.0 , 0.0 , 

75.0 , 4134.87179487 , 4133.84615385 , 4135.8974359 , 4136.92307692 , 4131.28205128 , 4129.74358974 , 4124.1025641 , 4135.8974359 , 4137.43589744 , 4137.94871795 , 4192.82051282 , 4913.84615385 , 4136.92307692 , 4135.38461538 , 2042.0 , 2034.0 , 190.425 , 0.0 , 0.0 , 0.0 , 0.0 , 

76.0 , 4137.94871795 , 4134.87179487 , 4136.92307692 , 4135.8974359 , 4129.74358974 , 4129.23076923 , 4124.1025641 , 4134.35897436 , 4136.41025641 , 4140.0 , 4192.30769231 , 4911.79487179 , 4135.38461538 , 4135.8974359 , 2042.0 , 2036.0 , 190.434 , 0.0 , 0.0 , 0.0 , 0.0 , 

77.0 , 4134.87179487 , 4135.38461538 , 4133.84615385 , 4139.48717949 , 4132.30769231 , 4130.76923077 , 4128.20512821 , 4130.25641026 , 4135.38461538 , 4138.46153846 , 4191.28205128 , 4911.28205128 , 4133.84615385 , 4139.48717949 , 2041.0 , 2037.0 , 190.442 , 0.0 , 0.0 , 0.0 , 0.0 , 

78.0 , 4135.38461538 , 4133.33333333 , 4132.30769231 , 4136.41025641 , 4131.79487179 , 4130.25641026 , 4124.1025641 , 4132.82051282 , 4134.35897436 , 4138.46153846 , 4192.30769231 , 4914.35897436 , 4132.82051282 , 4146.66666667 , 2041.0 , 2038.0 , 190.453 , 0.0 , 0.0 , 0.0 , 0.0 , 

79.0 , 4136.92307692 , 4132.82051282 , 4135.8974359 , 4130.76923077 , 4128.20512821 , 4129.74358974 , 4122.56410256 , 4140.51282051 , 4135.8974359 , 4140.51282051 , 4192.82051282 , 4913.33333333 , 4133.84615385 , 4140.0 , 2041.0 , 2038.0 , 190.456 , 0.0 , 0.0 , 0.0 , 0.0 , 

80.0 , 4137.94871795 , 4133.33333333 , 4136.41025641 , 4133.84615385 , 4128.20512821 , 4127.69230769 , 4126.66666667 , 4135.38461538 , 4135.8974359 , 4138.97435897 , 4193.33333333 , 4912.82051282 , 4131.79487179 , 4135.38461538 , 2043.0 , 2039.0 , 190.465 , 0.0 , 0.0 , 0.0 , 0.0 , 

81.0 , 4134.35897436 , 4134.35897436 , 4130.76923077 , 4139.48717949 , 4132.30769231 , 4129.74358974 , 4129.74358974 , 4127.69230769 , 4135.8974359 , 4138.97435897 , 4192.30769231 , 4911.28205128 , 4129.74358974 , 4135.8974359 , 2042.0 , 2038.0 , 190.474 , 0.0 , 0.0 , 0.0 , 0.0 , 

82.0 , 4136.41025641 , 4131.28205128 , 4132.30769231 , 4134.35897436 , 4131.28205128 , 4128.71794872 , 4126.66666667 , 4130.25641026 , 4139.48717949 , 4140.0 , 4191.79487179 , 4914.35897436 , 4129.74358974 , 4138.97435897 , 2042.0 , 2038.0 , 190.485 , 0.0 , 0.0 , 0.0 , 0.0 , 

83.0 , 4137.94871795 , 4128.71794872 , 4138.46153846 , 4129.23076923 , 4128.20512821 , 4126.66666667 , 4127.69230769 , 4137.43589744 , 4140.51282051 , 4138.97435897 , 4191.79487179 , 4915.8974359 , 4127.69230769 , 4129.23076923 , 2043.0 , 2038.0 , 190.488 , 0.0 , 0.0 , 0.0 , 0.0 , 

84.0 , 4136.92307692 , 4125.64102564 , 4138.46153846 , 4130.25641026 , 4128.71794872 , 4127.17948718 , 4128.20512821 , 4136.41025641 , 4135.8974359 , 4138.97435897 , 4192.82051282 , 4916.41025641 , 4125.64102564 , 4130.76923077 , 2045.0 , 2039.0 , 190.497 , 0.0 , 0.0 , 0.0 , 0.0 , 

85.0 , 4134.87179487 , 4122.05128205 , 4134.87179487 , 4131.79487179 , 4131.79487179 , 4128.71794872 , 4128.71794872 , 4131.28205128 , 4133.84615385 , 4141.02564103 , 4192.30769231 , 4917.43589744 , 4128.71794872 , 4138.97435897 , 2044.0 , 2038.0 , 190.506 , 0.0 , 0.0 , 0.0 , 0.0 , 

86.0 , 4135.38461538 , 4122.56410256 , 4135.38461538 , 4130.76923077 , 4130.25641026 , 4127.17948718 , 4128.20512821 , 4130.76923077 , 4133.84615385 , 4139.48717949 , 4193.84615385 , 4920.51282051 , 4130.76923077 , 4139.48717949 , 2044.0 , 2037.0 , 190.517 , 0.0 , 0.0 , 0.0 , 0.0 , 

87.0 , 4135.38461538 , 4122.56410256 , 4135.8974359 , 4129.23076923 , 4130.25641026 , 4127.17948718 , 4124.61538462 , 4133.33333333 , 4132.82051282 , 4136.92307692 , 4193.33333333 , 4921.02564103 , 4128.71794872 , 4138.46153846 , 2043.0 , 2039.0 , 190.52 , 0.0 , 0.0 , 0.0 , 0.0 , 

88.0 , 4132.82051282 , 4122.05128205 , 4134.87179487 , 4129.23076923 , 4132.82051282 , 4126.66666667 , 4120.51282051 , 4134.35897436 , 4133.33333333 , 4137.94871795 , 4191.28205128 , 4921.53846154 , 4131.28205128 , 4145.64102564 , 2044.0 , 2038.0 , 190.529 , 0.0 , 0.0 , 0.0 , 0.0 , 

89.0 , 4131.79487179 , 4122.56410256 , 4135.38461538 , 4127.17948718 , 4132.30769231 , 4124.1025641 , 4122.05128205 , 4134.87179487 , 4135.38461538 , 4139.48717949 , 4192.82051282 , 4926.66666667 , 4132.82051282 , 4150.76923077 , 2044.0 , 2037.0 , 190.537 , 0.0 , 0.0 , 0.0 , 0.0 , 

90.0 , 4130.76923077 , 4125.64102564 , 4134.35897436 , 4127.69230769 , 4129.74358974 , 4125.12820513 , 4124.1025641 , 4137.43589744 , 4136.41025641 , 4138.97435897 , 4194.87179487 , 4926.66666667 , 4133.33333333 , 4150.25641026 , 2045.0 , 2037.0 , 190.548 , 0.0 , 0.0 , 0.0 , 0.0 , 

91.0 , 4129.74358974 , 4128.20512821 , 4131.79487179 , 4130.25641026 , 4131.28205128 , 4127.69230769 , 4123.07692308 , 4135.38461538 , 4135.8974359 , 4138.97435897 , 4193.84615385 , 4918.97435897 , 4137.43589744 , 4151.79487179 , 2045.0 , 2035.0 , 190.552 , 0.0 , 0.0 , 0.0 , 0.0 , 

92.0 , 4128.20512821 , 4127.17948718 , 4131.79487179 , 4131.28205128 , 4131.79487179 , 4128.20512821 , 4123.07692308 , 4132.30769231 , 4135.38461538 , 4138.97435897 , 4192.30769231 , 4916.41025641 , 4140.0 , 4151.28205128 , 2046.0 , 2033.0 , 190.56 , 0.0 , 0.0 , 0.0 , 0.0 , 

93.0 , 4129.74358974 , 4128.20512821 , 4133.84615385 , 4131.28205128 , 4129.23076923 , 4128.20512821 , 4123.58974359 , 4135.8974359 , 4135.38461538 , 4137.43589744 , 4194.35897436 , 4924.61538462 , 4138.97435897 , 4154.87179487 , 2046.0 , 2035.0 , 190.57 , 0.0 , 0.0 , 0.0 , 0.0 , 

94.0 , 4129.74358974 , 4130.76923077 , 4133.33333333 , 4133.33333333 , 4130.76923077 , 4130.76923077 , 4125.12820513 , 4139.48717949 , 4138.46153846 , 4137.43589744 , 4194.87179487 , 4921.53846154 , 4143.58974359 , 4153.33333333 , 2045.0 , 2035.0 , 190.581 , 0.0 , 0.0 , 0.0 , 0.0 , 

95.0 , 4129.23076923 , 4129.23076923 , 4130.76923077 , 4132.30769231 , 4132.30769231 , 4126.66666667 , 4124.61538462 , 4134.87179487 , 4134.87179487 , 4138.46153846 , 4194.35897436 , 4916.41025641 , 4147.17948718 , 4157.43589744 , 2044.0 , 2037.0 , 190.584 , 0.0 , 0.0 , 0.0 , 0.0 , 

96.0 , 4127.17948718 , 4127.17948718 , 4130.76923077 , 4131.79487179 , 4131.79487179 , 4123.07692308 , 4124.1025641 , 4134.35897436 , 4133.33333333 , 4138.46153846 , 4194.87179487 , 4918.97435897 , 4144.61538462 , 4162.05128205 , 2046.0 , 2038.0 , 190.592 , 0.0 , 0.0 , 0.0 , 0.0 , 

97.0 , 4128.20512821 , 4129.74358974 , 4132.82051282 , 4132.30769231 , 4130.76923077 , 4123.58974359 , 4121.53846154 , 4140.51282051 , 4137.94871795 , 4136.92307692 , 4196.41025641 , 4926.15384615 , 4142.56410256 , 4163.07692308 , 2044.0 , 2037.0 , 190.6 , 0.0 , 0.0 , 0.0 , 0.0 , 

98.0 , 4126.15384615 , 4131.28205128 , 4131.28205128 , 4131.28205128 , 4131.79487179 , 4127.69230769 , 4121.53846154 , 4138.97435897 , 4138.97435897 , 4136.92307692 , 4197.94871795 , 4922.56410256 , 4144.61538462 , 4150.76923077 , 2045.0 , 2038.0 , 190.611 , 0.0 , 0.0 , 0.0 , 0.0 , 

