['COUNTER', 'AF3', 'F7', 'F3', 'FC5', 'T7', 'P7', 'O1', 'O2', 'P8', 'T8', 'FC6', 'F4', 'F8', 'AF4', 'GYROX', 'GYROY', 'TIMESTAMP', 'FUNC_ID', 'FUNC_VALUE', 'MARKER', 'SYNC_SIGNAL']
121.0 , 4132.82051282 , 4133.33333333 , 4136.41025641 , 4137.43589744 , 4131.28205128 , 4130.25641026 , 4128.71794872 , 4134.87179487 , 4136.41025641 , 4141.53846154 , 4194.35897436 , 4914.87179487 , 4135.38461538 , 4137.43589744 , 2042.0 , 2037.0 , 206.039 , 0.0 , 0.0 , 0.0 , 0.0 , 

122.0 , 4132.30769231 , 4131.79487179 , 4136.92307692 , 4137.94871795 , 4131.79487179 , 4131.79487179 , 4128.20512821 , 4137.94871795 , 4135.38461538 , 4142.56410256 , 4194.35897436 , 4914.87179487 , 4135.8974359 , 4138.97435897 , 2043.0 , 2037.0 , 206.045 , 0.0 , 0.0 , 0.0 , 0.0 , 

123.0 , 4132.82051282 , 4129.74358974 , 4136.92307692 , 4136.41025641 , 4132.30769231 , 4131.79487179 , 4127.17948718 , 4137.43589744 , 4135.38461538 , 4139.48717949 , 4192.30769231 , 4912.30769231 , 4134.87179487 , 4141.02564103 , 2043.0 , 2039.0 , 206.051 , 0.0 , 0.0 , 0.0 , 0.0 , 

124.0 , 4132.82051282 , 4132.30769231 , 4135.38461538 , 4135.8974359 , 4131.79487179 , 4128.71794872 , 4128.71794872 , 4134.87179487 , 4134.87179487 , 4137.94871795 , 4193.33333333 , 4913.84615385 , 4134.87179487 , 4142.56410256 , 2041.0 , 2039.0 , 206.06 , 0.0 , 0.0 , 0.0 , 0.0 , 

125.0 , 4133.84615385 , 4132.82051282 , 4135.8974359 , 4135.8974359 , 4130.25641026 , 4127.69230769 , 4129.23076923 , 4136.92307692 , 4135.8974359 , 4139.48717949 , 4195.38461538 , 4917.43589744 , 4134.35897436 , 4145.64102564 , 2043.0 , 2038.0 , 206.073 , 0.0 , 0.0 , 0.0 , 0.0 , 

126.0 , 4136.41025641 , 4131.79487179 , 4136.92307692 , 4135.38461538 , 4130.76923077 , 4130.76923077 , 4128.20512821 , 4138.97435897 , 4137.94871795 , 4140.0 , 4192.82051282 , 4914.87179487 , 4133.84615385 , 4142.05128205 , 2042.0 , 2038.0 , 206.077 , 0.0 , 0.0 , 0.0 , 0.0 , 

127.0 , 4135.8974359 , 4130.76923077 , 4138.97435897 , 4134.87179487 , 4131.79487179 , 4129.74358974 , 4127.69230769 , 4135.38461538 , 4136.92307692 , 4137.94871795 , 4192.82051282 , 4912.82051282 , 4133.84615385 , 4140.51282051 , 2042.0 , 2038.0 , 206.083 , 0.0 , 0.0 , 0.0 , 0.0 , 

128.0 , 4132.82051282 , 4133.33333333 , 4136.41025641 , 4138.97435897 , 4131.28205128 , 4129.74358974 , 4129.74358974 , 4136.41025641 , 4135.38461538 , 4137.94871795 , 4195.38461538 , 4910.76923077 , 4134.35897436 , 4140.0 , 2043.0 , 2036.0 , 206.093 , 0.0 , 0.0 , 0.0 , 0.0 , 

0.0 , 4134.35897436 , 4134.87179487 , 4135.38461538 , 4138.46153846 , 4130.25641026 , 4130.25641026 , 4127.69230769 , 4138.46153846 , 4135.38461538 , 4140.0 , 4194.35897436 , 4910.76923077 , 4133.84615385 , 4142.56410256 , 2043.0 , 2038.0 , 206.103 , 0.0 , 0.0 , 0.0 , 0.0 , 

1.0 , 4132.82051282 , 4134.35897436 , 4136.41025641 , 4138.46153846 , 4132.30769231 , 4130.76923077 , 4126.15384615 , 4137.94871795 , 4137.43589744 , 4139.48717949 , 4191.28205128 , 4909.74358974 , 4134.35897436 , 4137.94871795 , 2043.0 , 2037.0 , 206.109 , 0.0 , 0.0 , 0.0 , 0.0 , 

2.0 , 4133.33333333 , 4130.76923077 , 4138.46153846 , 4138.46153846 , 4132.30769231 , 4128.71794872 , 4126.66666667 , 4134.87179487 , 4135.38461538 , 4137.43589744 , 4192.82051282 , 4912.82051282 , 4136.41025641 , 4138.46153846 , 2041.0 , 2037.0 , 206.115 , 0.0 , 0.0 , 0.0 , 0.0 , 

3.0 , 4135.38461538 , 4130.76923077 , 4137.94871795 , 4139.48717949 , 4131.28205128 , 4128.71794872 , 4128.71794872 , 4133.84615385 , 4134.87179487 , 4138.46153846 , 4193.84615385 , 4912.82051282 , 4134.87179487 , 4139.48717949 , 2044.0 , 2038.0 , 206.123 , 0.0 , 0.0 , 0.0 , 0.0 , 

4.0 , 4135.8974359 , 4132.30769231 , 4138.46153846 , 4136.92307692 , 4130.25641026 , 4127.69230769 , 4129.23076923 , 4134.87179487 , 4138.46153846 , 4137.94871795 , 4191.28205128 , 4913.33333333 , 4134.35897436 , 4143.58974359 , 2044.0 , 2038.0 , 206.137 , 0.0 , 0.0 , 0.0 , 0.0 , 

5.0 , 4131.79487179 , 4132.82051282 , 4136.92307692 , 4136.41025641 , 4134.35897436 , 4128.71794872 , 4129.74358974 , 4137.43589744 , 4138.46153846 , 4137.43589744 , 4192.82051282 , 4914.35897436 , 4135.38461538 , 4140.0 , 2044.0 , 2036.0 , 206.139 , 0.0 , 0.0 , 0.0 , 0.0 , 

6.0 , 4135.38461538 , 4131.28205128 , 4135.38461538 , 4135.8974359 , 4135.38461538 , 4130.25641026 , 4128.20512821 , 4136.41025641 , 4135.38461538 , 4138.97435897 , 4196.41025641 , 4917.94871795 , 4133.33333333 , 4137.94871795 , 2042.0 , 2035.0 , 206.147 , 0.0 , 0.0 , 0.0 , 0.0 , 

7.0 , 4136.92307692 , 4132.30769231 , 4136.41025641 , 4136.92307692 , 4132.30769231 , 4131.28205128 , 4128.71794872 , 4133.84615385 , 4136.92307692 , 4140.0 , 4193.33333333 , 4915.38461538 , 4131.28205128 , 4138.46153846 , 2044.0 , 2035.0 , 206.155 , 0.0 , 0.0 , 0.0 , 0.0 , 

8.0 , 4133.84615385 , 4133.33333333 , 4137.43589744 , 4138.46153846 , 4130.25641026 , 4129.23076923 , 4128.71794872 , 4134.35897436 , 4136.92307692 , 4138.46153846 , 4191.28205128 , 4911.28205128 , 4132.30769231 , 4142.56410256 , 2042.0 , 2035.0 , 206.166 , 0.0 , 0.0 , 0.0 , 0.0 , 

9.0 , 4131.28205128 , 4132.82051282 , 4135.8974359 , 4138.46153846 , 4131.79487179 , 4130.25641026 , 4129.23076923 , 4135.8974359 , 4134.87179487 , 4138.46153846 , 4194.35897436 , 4909.23076923 , 4130.76923077 , 4141.53846154 , 2042.0 , 2036.0 , 206.172 , 0.0 , 0.0 , 0.0 , 0.0 , 

10.0 , 4131.79487179 , 4132.82051282 , 4136.41025641 , 4136.41025641 , 4131.28205128 , 4133.33333333 , 4127.69230769 , 4134.87179487 , 4136.41025641 , 4140.0 , 4193.33333333 , 4912.30769231 , 4131.28205128 , 4138.97435897 , 2043.0 , 2037.0 , 206.178 , 0.0 , 0.0 , 0.0 , 0.0 , 

11.0 , 4132.82051282 , 4133.33333333 , 4136.41025641 , 4137.94871795 , 4129.74358974 , 4132.30769231 , 4127.17948718 , 4131.28205128 , 4136.92307692 , 4139.48717949 , 4190.76923077 , 4914.35897436 , 4134.35897436 , 4138.46153846 , 2043.0 , 2038.0 , 206.186 , 0.0 , 0.0 , 0.0 , 0.0 , 

12.0 , 4133.84615385 , 4132.30769231 , 4135.8974359 , 4140.0 , 4132.82051282 , 4129.23076923 , 4127.69230769 , 4131.28205128 , 4132.82051282 , 4138.46153846 , 4192.82051282 , 4911.28205128 , 4132.82051282 , 4141.02564103 , 2043.0 , 2037.0 , 206.197 , 0.0 , 0.0 , 0.0 , 0.0 , 

13.0 , 4132.82051282 , 4128.20512821 , 4134.87179487 , 4138.97435897 , 4133.84615385 , 4128.20512821 , 4128.20512821 , 4134.87179487 , 4134.87179487 , 4138.97435897 , 4194.35897436 , 4910.25641026 , 4127.69230769 , 4145.64102564 , 2043.0 , 2039.0 , 206.203 , 0.0 , 0.0 , 0.0 , 0.0 , 

14.0 , 4127.17948718 , 4126.15384615 , 4132.30769231 , 4137.43589744 , 4131.28205128 , 4130.76923077 , 4126.66666667 , 4138.46153846 , 4139.48717949 , 4139.48717949 , 4194.35897436 , 4911.79487179 , 4130.76923077 , 4146.15384615 , 2043.0 , 2037.0 , 206.21 , 0.0 , 0.0 , 0.0 , 0.0 , 

15.0 , 4125.64102564 , 4128.20512821 , 4132.30769231 , 4136.41025641 , 4130.76923077 , 4130.25641026 , 4126.15384615 , 4139.48717949 , 4136.92307692 , 4138.46153846 , 4195.38461538 , 4913.33333333 , 4133.33333333 , 4147.17948718 , 2043.0 , 2038.0 , 206.218 , 0.0 , 0.0 , 0.0 , 0.0 , 

16.0 , 4128.71794872 , 4131.28205128 , 4135.38461538 , 4138.97435897 , 4132.30769231 , 4127.17948718 , 4130.76923077 , 4138.46153846 , 4135.8974359 , 4138.46153846 , 4195.38461538 , 4912.30769231 , 4133.84615385 , 4143.07692308 , 2044.0 , 2037.0 , 206.228 , 0.0 , 0.0 , 0.0 , 0.0 , 

17.0 , 4134.87179487 , 4131.28205128 , 4138.46153846 , 4140.51282051 , 4132.82051282 , 4126.15384615 , 4129.23076923 , 4135.38461538 , 4135.8974359 , 4138.46153846 , 4194.87179487 , 4913.84615385 , 4134.87179487 , 4137.94871795 , 2042.0 , 2034.0 , 206.234 , 0.0 , 0.0 , 0.0 , 0.0 , 

18.0 , 4133.84615385 , 4132.82051282 , 4136.41025641 , 4140.0 , 4132.82051282 , 4129.23076923 , 4126.66666667 , 4135.8974359 , 4134.87179487 , 4138.97435897 , 4194.35897436 , 4911.28205128 , 4135.38461538 , 4134.35897436 , 2040.0 , 2033.0 , 206.241 , 0.0 , 0.0 , 0.0 , 0.0 , 

19.0 , 4134.35897436 , 4133.84615385 , 4135.8974359 , 4137.43589744 , 4132.30769231 , 4128.71794872 , 4127.17948718 , 4136.41025641 , 4133.84615385 , 4138.46153846 , 4192.82051282 , 4913.33333333 , 4134.35897436 , 4141.53846154 , 2041.0 , 2032.0 , 206.249 , 0.0 , 0.0 , 0.0 , 0.0 , 

20.0 , 4135.8974359 , 4134.87179487 , 4136.41025641 , 4137.94871795 , 4130.76923077 , 4127.69230769 , 4129.23076923 , 4131.79487179 , 4134.87179487 , 4137.94871795 , 4191.28205128 , 4914.87179487 , 4134.35897436 , 4142.56410256 , 2041.0 , 2032.0 , 206.26 , 0.0 , 0.0 , 0.0 , 0.0 , 

21.0 , 4135.8974359 , 4134.35897436 , 4137.43589744 , 4137.43589744 , 4130.76923077 , 4130.25641026 , 4126.66666667 , 4128.71794872 , 4134.35897436 , 4138.46153846 , 4192.82051282 , 4915.38461538 , 4133.33333333 , 4139.48717949 , 2042.0 , 2034.0 , 206.265 , 0.0 , 0.0 , 0.0 , 0.0 , 

22.0 , 4132.82051282 , 4135.8974359 , 4136.92307692 , 4138.46153846 , 4132.30769231 , 4133.33333333 , 4127.17948718 , 4134.87179487 , 4135.8974359 , 4140.0 , 4193.84615385 , 4915.38461538 , 4130.25641026 , 4135.8974359 , 2041.0 , 2034.0 , 206.273 , 0.0 , 0.0 , 0.0 , 0.0 , 

23.0 , 4135.38461538 , 4136.41025641 , 4136.92307692 , 4137.43589744 , 4131.28205128 , 4131.28205128 , 4127.69230769 , 4136.41025641 , 4137.43589744 , 4138.97435897 , 4192.82051282 , 4917.94871795 , 4129.23076923 , 4141.53846154 , 2042.0 , 2035.0 , 206.281 , 0.0 , 0.0 , 0.0 , 0.0 , 

24.0 , 4136.41025641 , 4135.38461538 , 4135.8974359 , 4135.8974359 , 4130.76923077 , 4129.74358974 , 4127.69230769 , 4131.79487179 , 4135.8974359 , 4138.97435897 , 4190.76923077 , 4914.87179487 , 4129.74358974 , 4140.0 , 2041.0 , 2036.0 , 206.295 , 0.0 , 0.0 , 0.0 , 0.0 , 

25.0 , 4136.41025641 , 4133.33333333 , 4135.38461538 , 4136.92307692 , 4132.82051282 , 4129.74358974 , 4129.23076923 , 4128.71794872 , 4133.33333333 , 4142.05128205 , 4191.28205128 , 4913.33333333 , 4129.23076923 , 4135.8974359 , 2041.0 , 2035.0 , 206.297 , 0.0 , 0.0 , 0.0 , 0.0 , 

26.0 , 4134.87179487 , 4131.79487179 , 4135.38461538 , 4141.53846154 , 4134.87179487 , 4132.82051282 , 4130.25641026 , 4128.20512821 , 4133.84615385 , 4142.56410256 , 4191.79487179 , 4912.82051282 , 4128.71794872 , 4134.35897436 , 2039.0 , 2035.0 , 206.304 , 0.0 , 0.0 , 0.0 , 0.0 , 

27.0 , 4133.84615385 , 4129.74358974 , 4136.41025641 , 4143.07692308 , 4133.33333333 , 4131.79487179 , 4127.69230769 , 4126.15384615 , 4135.38461538 , 4139.48717949 , 4191.28205128 , 4913.33333333 , 4130.25641026 , 4134.87179487 , 2040.0 , 2035.0 , 206.312 , 0.0 , 0.0 , 0.0 , 0.0 , 

28.0 , 4132.82051282 , 4129.23076923 , 4136.92307692 , 4140.0 , 4132.30769231 , 4128.71794872 , 4127.69230769 , 4129.74358974 , 4135.38461538 , 4137.94871795 , 4192.30769231 , 4912.30769231 , 4132.30769231 , 4132.30769231 , 2042.0 , 2037.0 , 206.328 , 0.0 , 0.0 , 0.0 , 0.0 , 

29.0 , 4135.8974359 , 4129.74358974 , 4137.94871795 , 4137.43589744 , 4133.84615385 , 4129.74358974 , 4130.25641026 , 4134.35897436 , 4133.84615385 , 4141.53846154 , 4191.79487179 , 4912.82051282 , 4132.30769231 , 4137.43589744 , 2042.0 , 2035.0 , 206.33 , 0.0 , 0.0 , 0.0 , 0.0 , 

30.0 , 4137.94871795 , 4131.28205128 , 4140.0 , 4135.38461538 , 4133.84615385 , 4131.28205128 , 4129.23076923 , 4130.25641026 , 4133.33333333 , 4140.51282051 , 4190.25641026 , 4916.92307692 , 4130.76923077 , 4140.0 , 2043.0 , 2036.0 , 206.336 , 0.0 , 0.0 , 0.0 , 0.0 , 

31.0 , 4135.8974359 , 4132.82051282 , 4140.51282051 , 4137.43589744 , 4131.79487179 , 4131.28205128 , 4127.17948718 , 4126.66666667 , 4132.82051282 , 4141.53846154 , 4191.79487179 , 4917.94871795 , 4130.76923077 , 4130.25641026 , 2042.0 , 2037.0 , 206.344 , 0.0 , 0.0 , 0.0 , 0.0 , 

32.0 , 4135.38461538 , 4133.33333333 , 4138.97435897 , 4140.51282051 , 4130.25641026 , 4132.30769231 , 4131.28205128 , 4127.17948718 , 4133.33333333 , 4145.64102564 , 4193.84615385 , 4915.8974359 , 4127.17948718 , 4126.15384615 , 2043.0 , 2036.0 , 206.355 , 0.0 , 0.0 , 0.0 , 0.0 , 

33.0 , 4135.38461538 , 4132.82051282 , 4136.92307692 , 4138.97435897 , 4131.28205128 , 4131.28205128 , 4132.30769231 , 4126.15384615 , 4134.87179487 , 4145.12820513 , 4188.71794872 , 4914.35897436 , 4126.15384615 , 4128.71794872 , 2043.0 , 2035.0 , 206.361 , 0.0 , 0.0 , 0.0 , 0.0 , 

34.0 , 4136.41025641 , 4133.84615385 , 4137.94871795 , 4136.41025641 , 4131.79487179 , 4128.20512821 , 4127.17948718 , 4125.64102564 , 4132.82051282 , 4141.02564103 , 4183.58974359 , 4915.38461538 , 4128.20512821 , 4131.79487179 , 2042.0 , 2036.0 , 206.366 , 0.0 , 0.0 , 0.0 , 0.0 , 

35.0 , 4133.84615385 , 4132.82051282 , 4138.46153846 , 4141.02564103 , 4130.76923077 , 4131.79487179 , 4127.17948718 , 4129.74358974 , 4132.82051282 , 4138.97435897 , 4184.61538462 , 4914.87179487 , 4130.76923077 , 4129.74358974 , 2041.0 , 2038.0 , 206.376 , 0.0 , 0.0 , 0.0 , 0.0 , 

36.0 , 4130.76923077 , 4130.25641026 , 4138.46153846 , 4141.53846154 , 4130.76923077 , 4132.30769231 , 4128.20512821 , 4129.74358974 , 4135.38461538 , 4138.46153846 , 4187.69230769 , 4916.41025641 , 4133.33333333 , 4135.8974359 , 2040.0 , 2037.0 , 206.386 , 0.0 , 0.0 , 0.0 , 0.0 , 

37.0 , 4127.69230769 , 4132.30769231 , 4136.41025641 , 4135.38461538 , 4133.33333333 , 4130.25641026 , 4127.17948718 , 4130.25641026 , 4137.43589744 , 4137.94871795 , 4190.25641026 , 4913.33333333 , 4136.41025641 , 4136.92307692 , 2040.0 , 2037.0 , 206.393 , 0.0 , 0.0 , 0.0 , 0.0 , 

38.0 , 4129.23076923 , 4132.82051282 , 4134.87179487 , 4133.33333333 , 4132.82051282 , 4130.76923077 , 4125.64102564 , 4133.33333333 , 4135.8974359 , 4137.94871795 , 4191.79487179 , 4913.84615385 , 4136.41025641 , 4136.92307692 , 2039.0 , 2037.0 , 206.399 , 0.0 , 0.0 , 0.0 , 0.0 , 

39.0 , 4129.23076923 , 4131.28205128 , 4133.84615385 , 4140.51282051 , 4131.28205128 , 4131.28205128 , 4128.20512821 , 4134.87179487 , 4136.41025641 , 4136.92307692 , 4191.79487179 , 4914.87179487 , 4135.8974359 , 4133.84615385 , 2040.0 , 2037.0 , 206.407 , 0.0 , 0.0 , 0.0 , 0.0 , 

40.0 , 4132.30769231 , 4132.30769231 , 4137.43589744 , 4139.48717949 , 4132.30769231 , 4128.71794872 , 4128.71794872 , 4133.84615385 , 4135.8974359 , 4138.97435897 , 4192.82051282 , 4916.41025641 , 4137.43589744 , 4136.92307692 , 2041.0 , 2036.0 , 206.419 , 0.0 , 0.0 , 0.0 , 0.0 , 

41.0 , 4133.84615385 , 4133.33333333 , 4140.0 , 4133.84615385 , 4132.82051282 , 4130.76923077 , 4129.23076923 , 4136.92307692 , 4136.92307692 , 4140.0 , 4194.35897436 , 4915.38461538 , 4137.94871795 , 4138.46153846 , 2039.0 , 2036.0 , 206.424 , 0.0 , 0.0 , 0.0 , 0.0 , 

42.0 , 4132.30769231 , 4129.74358974 , 4138.46153846 , 4132.30769231 , 4130.76923077 , 4130.25641026 , 4129.74358974 , 4137.94871795 , 4138.97435897 , 4137.43589744 , 4193.84615385 , 4917.94871795 , 4135.38461538 , 4141.53846154 , 2039.0 , 2037.0 , 206.43 , 0.0 , 0.0 , 0.0 , 0.0 , 

43.0 , 4130.25641026 , 4130.76923077 , 4134.87179487 , 4134.87179487 , 4132.82051282 , 4128.20512821 , 4130.76923077 , 4135.38461538 , 4138.46153846 , 4138.46153846 , 4193.33333333 , 4915.38461538 , 4131.79487179 , 4137.43589744 , 2042.0 , 2037.0 , 206.438 , 0.0 , 0.0 , 0.0 , 0.0 , 

44.0 , 4132.30769231 , 4131.79487179 , 4136.41025641 , 4132.30769231 , 4132.82051282 , 4129.23076923 , 4129.23076923 , 4134.35897436 , 4137.94871795 , 4137.43589744 , 4194.35897436 , 4914.87179487 , 4132.82051282 , 4137.43589744 , 2041.0 , 2037.0 , 206.452 , 0.0 , 0.0 , 0.0 , 0.0 , 

45.0 , 4132.30769231 , 4129.74358974 , 4139.48717949 , 4131.79487179 , 4130.76923077 , 4131.28205128 , 4127.17948718 , 4136.41025641 , 4138.97435897 , 4136.41025641 , 4193.84615385 , 4917.43589744 , 4136.41025641 , 4141.53846154 , 2042.0 , 2038.0 , 206.455 , 0.0 , 0.0 , 0.0 , 0.0 , 

46.0 , 4131.79487179 , 4131.79487179 , 4137.43589744 , 4134.87179487 , 4131.79487179 , 4129.74358974 , 4127.69230769 , 4135.8974359 , 4140.0 , 4139.48717949 , 4193.84615385 , 4916.92307692 , 4135.38461538 , 4144.61538462 , 2041.0 , 2037.0 , 206.462 , 0.0 , 0.0 , 0.0 , 0.0 , 

47.0 , 4132.30769231 , 4136.41025641 , 4134.87179487 , 4134.87179487 , 4132.82051282 , 4131.79487179 , 4129.23076923 , 4135.38461538 , 4140.51282051 , 4141.02564103 , 4193.33333333 , 4913.33333333 , 4131.79487179 , 4142.05128205 , 2040.0 , 2036.0 , 206.47 , 0.0 , 0.0 , 0.0 , 0.0 , 

48.0 , 4133.84615385 , 4135.38461538 , 4135.38461538 , 4131.28205128 , 4130.76923077 , 4132.82051282 , 4129.23076923 , 4136.41025641 , 4141.02564103 , 4137.43589744 , 4192.82051282 , 4913.84615385 , 4132.82051282 , 4142.56410256 , 2042.0 , 2037.0 , 206.481 , 0.0 , 0.0 , 0.0 , 0.0 , 

49.0 , 4133.84615385 , 4131.28205128 , 4135.8974359 , 4129.74358974 , 4129.74358974 , 4129.23076923 , 4128.71794872 , 4135.8974359 , 4140.0 , 4137.43589744 , 4192.82051282 , 4913.84615385 , 4135.38461538 , 4144.1025641 , 2042.0 , 2036.0 , 206.487 , 0.0 , 0.0 , 0.0 , 0.0 , 

50.0 , 4131.28205128 , 4132.82051282 , 4134.87179487 , 4134.35897436 , 4131.79487179 , 4128.71794872 , 4126.66666667 , 4136.41025641 , 4140.0 , 4140.0 , 4193.33333333 , 4911.28205128 , 4135.8974359 , 4141.53846154 , 2044.0 , 2036.0 , 206.493 , 0.0 , 0.0 , 0.0 , 0.0 , 

51.0 , 4130.76923077 , 4133.84615385 , 4135.38461538 , 4137.94871795 , 4133.33333333 , 4131.79487179 , 4126.66666667 , 4138.97435897 , 4140.51282051 , 4138.97435897 , 4193.33333333 , 4915.38461538 , 4135.38461538 , 4144.61538462 , 2045.0 , 2037.0 , 206.502 , 0.0 , 0.0 , 0.0 , 0.0 , 

52.0 , 4130.76923077 , 4133.33333333 , 4133.33333333 , 4135.8974359 , 4132.82051282 , 4130.25641026 , 4130.25641026 , 4138.46153846 , 4138.97435897 , 4137.94871795 , 4191.79487179 , 4915.8974359 , 4138.97435897 , 4146.15384615 , 2047.0 , 2035.0 , 206.513 , 0.0 , 0.0 , 0.0 , 0.0 , 

53.0 , 4133.33333333 , 4132.30769231 , 4133.33333333 , 4133.84615385 , 4130.76923077 , 4125.64102564 , 4129.23076923 , 4133.84615385 , 4134.87179487 , 4138.46153846 , 4192.82051282 , 4911.28205128 , 4140.0 , 4144.1025641 , 2046.0 , 2034.0 , 206.518 , 0.0 , 0.0 , 0.0 , 0.0 , 

54.0 , 4134.35897436 , 4131.79487179 , 4136.92307692 , 4137.43589744 , 4130.25641026 , 4127.69230769 , 4127.69230769 , 4133.33333333 , 4136.41025641 , 4137.94871795 , 4195.38461538 , 4909.74358974 , 4136.92307692 , 4141.02564103 , 2047.0 , 2036.0 , 206.526 , 0.0 , 0.0 , 0.0 , 0.0 , 

55.0 , 4134.35897436 , 4131.79487179 , 4137.94871795 , 4135.8974359 , 4130.76923077 , 4130.76923077 , 4127.17948718 , 4135.38461538 , 4141.02564103 , 4137.94871795 , 4194.87179487 , 4914.87179487 , 4137.94871795 , 4147.69230769 , 2046.0 , 2037.0 , 206.533 , 0.0 , 0.0 , 0.0 , 0.0 , 

56.0 , 4132.30769231 , 4130.76923077 , 4133.33333333 , 4131.79487179 , 4131.79487179 , 4130.76923077 , 4128.71794872 , 4136.92307692 , 4140.51282051 , 4137.43589744 , 4193.33333333 , 4912.82051282 , 4143.07692308 , 4148.71794872 , 2046.0 , 2037.0 , 206.545 , 0.0 , 0.0 , 0.0 , 0.0 , 

57.0 , 4133.33333333 , 4129.74358974 , 4133.33333333 , 4130.76923077 , 4131.79487179 , 4130.76923077 , 4128.20512821 , 4136.41025641 , 4137.43589744 , 4137.94871795 , 4195.38461538 , 4910.25641026 , 4144.1025641 , 4151.28205128 , 2045.0 , 2037.0 , 206.55 , 0.0 , 0.0 , 0.0 , 0.0 , 

58.0 , 4132.30769231 , 4130.76923077 , 4134.87179487 , 4132.30769231 , 4131.28205128 , 4133.33333333 , 4128.71794872 , 4136.92307692 , 4138.46153846 , 4138.97435897 , 4197.43589744 , 4911.28205128 , 4144.61538462 , 4150.25641026 , 2045.0 , 2036.0 , 206.557 , 0.0 , 0.0 , 0.0 , 0.0 , 

59.0 , 4134.35897436 , 4129.74358974 , 4135.8974359 , 4131.79487179 , 4130.76923077 , 4131.28205128 , 4126.15384615 , 4136.92307692 , 4140.0 , 4138.97435897 , 4197.94871795 , 4916.41025641 , 4145.64102564 , 4153.33333333 , 2046.0 , 2039.0 , 206.564 , 0.0 , 0.0 , 0.0 , 0.0 , 

60.0 , 4134.35897436 , 4130.76923077 , 4135.38461538 , 4131.79487179 , 4131.28205128 , 4131.28205128 , 4126.15384615 , 4137.43589744 , 4137.43589744 , 4137.94871795 , 4196.92307692 , 4913.84615385 , 4146.66666667 , 4152.30769231 , 2045.0 , 2038.0 , 206.575 , 0.0 , 0.0 , 0.0 , 0.0 , 

61.0 , 4130.76923077 , 4132.30769231 , 4135.38461538 , 4131.79487179 , 4132.30769231 , 4131.79487179 , 4127.69230769 , 4137.94871795 , 4131.79487179 , 4138.97435897 , 4197.43589744 , 4910.25641026 , 4146.15384615 , 4154.35897436 , 2045.0 , 2038.0 , 206.582 , 0.0 , 0.0 , 0.0 , 0.0 , 

62.0 , 4129.23076923 , 4130.25641026 , 4134.87179487 , 4134.35897436 , 4132.82051282 , 4131.28205128 , 4129.23076923 , 4136.92307692 , 4131.28205128 , 4138.97435897 , 4195.8974359 , 4909.74358974 , 4144.1025641 , 4149.74358974 , 2045.0 , 2036.0 , 206.587 , 0.0 , 0.0 , 0.0 , 0.0 , 

63.0 , 4132.30769231 , 4127.69230769 , 4133.33333333 , 4135.8974359 , 4133.33333333 , 4129.23076923 , 4127.17948718 , 4135.38461538 , 4132.30769231 , 4138.97435897 , 4195.8974359 , 4912.30769231 , 4141.02564103 , 4147.69230769 , 2046.0 , 2037.0 , 206.596 , 0.0 , 0.0 , 0.0 , 0.0 , 

64.0 , 4131.79487179 , 4130.25641026 , 4132.82051282 , 4134.35897436 , 4132.82051282 , 4129.74358974 , 4124.61538462 , 4137.43589744 , 4133.84615385 , 4138.97435897 , 4197.43589744 , 4913.33333333 , 4142.05128205 , 4146.15384615 , 2045.0 , 2038.0 , 206.608 , 0.0 , 0.0 , 0.0 , 0.0 , 

65.0 , 4131.79487179 , 4131.79487179 , 4134.87179487 , 4132.82051282 , 4130.76923077 , 4130.25641026 , 4125.64102564 , 4138.46153846 , 4134.35897436 , 4138.97435897 , 4197.94871795 , 4914.87179487 , 4147.17948718 , 4145.64102564 , 2043.0 , 2037.0 , 206.613 , 0.0 , 0.0 , 0.0 , 0.0 , 

66.0 , 4133.33333333 , 4129.74358974 , 4135.38461538 , 4132.82051282 , 4131.28205128 , 4131.28205128 , 4128.71794872 , 4135.8974359 , 4134.35897436 , 4138.46153846 , 4195.8974359 , 4912.82051282 , 4146.15384615 , 4146.66666667 , 2043.0 , 2035.0 , 206.62 , 0.0 , 0.0 , 0.0 , 0.0 , 

67.0 , 4135.38461538 , 4131.79487179 , 4136.41025641 , 4133.84615385 , 4133.33333333 , 4131.28205128 , 4127.69230769 , 4136.41025641 , 4135.38461538 , 4137.94871795 , 4194.35897436 , 4911.79487179 , 4142.05128205 , 4147.69230769 , 2041.0 , 2036.0 , 206.628 , 0.0 , 0.0 , 0.0 , 0.0 , 

68.0 , 4136.41025641 , 4132.30769231 , 4137.94871795 , 4133.84615385 , 4132.30769231 , 4129.74358974 , 4124.1025641 , 4136.92307692 , 4136.41025641 , 4138.97435897 , 4193.84615385 , 4914.35897436 , 4139.48717949 , 4148.71794872 , 2042.0 , 2037.0 , 206.642 , 0.0 , 0.0 , 0.0 , 0.0 , 

69.0 , 4135.38461538 , 4130.25641026 , 4135.38461538 , 4134.35897436 , 4129.74358974 , 4130.76923077 , 4125.64102564 , 4134.87179487 , 4135.8974359 , 4139.48717949 , 4193.33333333 , 4913.33333333 , 4141.53846154 , 4148.20512821 , 2043.0 , 2036.0 , 206.644 , 0.0 , 0.0 , 0.0 , 0.0 , 

70.0 , 4135.38461538 , 4131.28205128 , 4134.87179487 , 4132.82051282 , 4131.28205128 , 4131.79487179 , 4128.71794872 , 4134.87179487 , 4132.30769231 , 4138.97435897 , 4193.84615385 , 4912.30769231 , 4141.02564103 , 4151.79487179 , 2043.0 , 2037.0 , 206.652 , 0.0 , 0.0 , 0.0 , 0.0 , 

71.0 , 4135.38461538 , 4134.35897436 , 4137.94871795 , 4132.82051282 , 4132.82051282 , 4132.30769231 , 4128.20512821 , 4137.94871795 , 4135.38461538 , 4138.46153846 , 4192.82051282 , 4915.38461538 , 4140.51282051 , 4151.28205128 , 2042.0 , 2037.0 , 206.659 , 0.0 , 0.0 , 0.0 , 0.0 , 

72.0 , 4135.38461538 , 4132.30769231 , 4137.94871795 , 4132.30769231 , 4131.79487179 , 4132.82051282 , 4126.66666667 , 4134.87179487 , 4138.97435897 , 4138.97435897 , 4191.79487179 , 4917.43589744 , 4140.51282051 , 4148.71794872 , 2042.0 , 2036.0 , 206.673 , 0.0 , 0.0 , 0.0 , 0.0 , 

73.0 , 4132.30769231 , 4131.28205128 , 4134.87179487 , 4135.38461538 , 4132.30769231 , 4134.35897436 , 4127.69230769 , 4135.38461538 , 4137.94871795 , 4139.48717949 , 4193.84615385 , 4911.28205128 , 4141.02564103 , 4143.07692308 , 2041.0 , 2036.0 , 206.677 , 0.0 , 0.0 , 0.0 , 0.0 , 

74.0 , 4134.87179487 , 4131.28205128 , 4136.92307692 , 4135.38461538 , 4131.28205128 , 4131.79487179 , 4126.66666667 , 4135.38461538 , 4137.43589744 , 4138.46153846 , 4195.38461538 , 4909.74358974 , 4141.02564103 , 4146.15384615 , 2042.0 , 2037.0 , 206.683 , 0.0 , 0.0 , 0.0 , 0.0 , 

75.0 , 4135.38461538 , 4133.33333333 , 4138.46153846 , 4134.35897436 , 4130.25641026 , 4130.76923077 , 4126.15384615 , 4132.30769231 , 4138.97435897 , 4138.97435897 , 4193.84615385 , 4910.76923077 , 4138.97435897 , 4143.58974359 , 2043.0 , 2036.0 , 206.69 , 0.0 , 0.0 , 0.0 , 0.0 , 

76.0 , 4135.8974359 , 4132.82051282 , 4136.41025641 , 4132.82051282 , 4131.79487179 , 4129.23076923 , 4125.12820513 , 4131.28205128 , 4135.8974359 , 4139.48717949 , 4193.84615385 , 4914.35897436 , 4137.94871795 , 4142.56410256 , 2043.0 , 2037.0 , 206.702 , 0.0 , 0.0 , 0.0 , 0.0 , 

77.0 , 4136.41025641 , 4131.79487179 , 4134.35897436 , 4136.41025641 , 4133.33333333 , 4130.25641026 , 4127.17948718 , 4136.41025641 , 4132.30769231 , 4139.48717949 , 4195.38461538 , 4914.35897436 , 4140.0 , 4140.51282051 , 2043.0 , 2037.0 , 206.707 , 0.0 , 0.0 , 0.0 , 0.0 , 

78.0 , 4137.43589744 , 4133.84615385 , 4136.92307692 , 4136.92307692 , 4130.25641026 , 4131.28205128 , 4127.69230769 , 4134.87179487 , 4134.87179487 , 4137.94871795 , 4193.84615385 , 4912.82051282 , 4135.8974359 , 4142.56410256 , 2043.0 , 2036.0 , 206.714 , 0.0 , 0.0 , 0.0 , 0.0 , 

79.0 , 4134.35897436 , 4137.94871795 , 4137.43589744 , 4134.87179487 , 4131.28205128 , 4132.30769231 , 4127.17948718 , 4132.30769231 , 4137.43589744 , 4137.43589744 , 4191.28205128 , 4910.25641026 , 4131.79487179 , 4139.48717949 , 2043.0 , 2037.0 , 206.722 , 0.0 , 0.0 , 0.0 , 0.0 , 

80.0 , 4135.8974359 , 4134.87179487 , 4135.38461538 , 4133.33333333 , 4133.84615385 , 4130.76923077 , 4125.12820513 , 4134.35897436 , 4136.92307692 , 4138.46153846 , 4191.79487179 , 4911.28205128 , 4135.8974359 , 4143.07692308 , 2043.0 , 2037.0 , 206.734 , 0.0 , 0.0 , 0.0 , 0.0 , 

81.0 , 4136.92307692 , 4130.76923077 , 4135.8974359 , 4135.8974359 , 4132.82051282 , 4132.30769231 , 4125.64102564 , 4136.92307692 , 4136.92307692 , 4138.97435897 , 4192.82051282 , 4910.25641026 , 4137.94871795 , 4144.1025641 , 2043.0 , 2037.0 , 206.739 , 0.0 , 0.0 , 0.0 , 0.0 , 

82.0 , 4135.38461538 , 4132.82051282 , 4137.94871795 , 4136.41025641 , 4130.76923077 , 4132.82051282 , 4125.12820513 , 4135.38461538 , 4135.38461538 , 4137.94871795 , 4193.33333333 , 4910.25641026 , 4136.41025641 , 4142.56410256 , 2044.0 , 2036.0 , 206.746 , 0.0 , 0.0 , 0.0 , 0.0 , 

83.0 , 4133.33333333 , 4134.87179487 , 4137.43589744 , 4136.41025641 , 4131.79487179 , 4131.28205128 , 4128.20512821 , 4135.8974359 , 4134.87179487 , 4137.94871795 , 4193.33333333 , 4912.30769231 , 4136.41025641 , 4142.05128205 , 2043.0 , 2036.0 , 206.755 , 0.0 , 0.0 , 0.0 , 0.0 , 

84.0 , 4136.92307692 , 4133.33333333 , 4136.41025641 , 4136.92307692 , 4131.79487179 , 4132.82051282 , 4130.76923077 , 4137.94871795 , 4136.41025641 , 4140.0 , 4193.33333333 , 4913.33333333 , 4137.43589744 , 4144.61538462 , 2045.0 , 2038.0 , 206.765 , 0.0 , 0.0 , 0.0 , 0.0 , 

85.0 , 4138.97435897 , 4131.28205128 , 4135.38461538 , 4136.92307692 , 4130.76923077 , 4135.38461538 , 4130.25641026 , 4133.33333333 , 4136.41025641 , 4139.48717949 , 4192.82051282 , 4912.82051282 , 4135.8974359 , 4143.07692308 , 2043.0 , 2037.0 , 206.771 , 0.0 , 0.0 , 0.0 , 0.0 , 

86.0 , 4136.92307692 , 4132.82051282 , 4134.87179487 , 4135.38461538 , 4131.28205128 , 4132.82051282 , 4128.20512821 , 4130.25641026 , 4135.8974359 , 4137.43589744 , 4191.28205128 , 4913.33333333 , 4134.35897436 , 4138.46153846 , 2043.0 , 2036.0 , 206.779 , 0.0 , 0.0 , 0.0 , 0.0 , 

87.0 , 4135.8974359 , 4134.35897436 , 4136.92307692 , 4134.87179487 , 4130.76923077 , 4130.25641026 , 4128.71794872 , 4134.87179487 , 4137.43589744 , 4137.94871795 , 4191.28205128 , 4913.84615385 , 4134.35897436 , 4138.97435897 , 2044.0 , 2036.0 , 206.785 , 0.0 , 0.0 , 0.0 , 0.0 , 

88.0 , 4134.35897436 , 4133.33333333 , 4136.41025641 , 4135.38461538 , 4129.74358974 , 4130.76923077 , 4129.23076923 , 4135.38461538 , 4136.41025641 , 4140.0 , 4194.87179487 , 4912.30769231 , 4135.8974359 , 4138.46153846 , 2043.0 , 2036.0 , 206.797 , 0.0 , 0.0 , 0.0 , 0.0 , 

89.0 , 4136.92307692 , 4131.79487179 , 4134.35897436 , 4134.87179487 , 4130.25641026 , 4129.23076923 , 4126.66666667 , 4129.23076923 , 4133.84615385 , 4140.0 , 4194.35897436 , 4914.35897436 , 4134.87179487 , 4138.46153846 , 2043.0 , 2035.0 , 206.8 , 0.0 , 0.0 , 0.0 , 0.0 , 

90.0 , 4136.41025641 , 4132.30769231 , 4135.38461538 , 4135.38461538 , 4131.28205128 , 4129.23076923 , 4126.15384615 , 4129.74358974 , 4136.41025641 , 4138.46153846 , 4188.71794872 , 4914.35897436 , 4133.33333333 , 4137.94871795 , 2042.0 , 2036.0 , 206.809 , 0.0 , 0.0 , 0.0 , 0.0 , 

91.0 , 4136.92307692 , 4133.33333333 , 4137.43589744 , 4137.43589744 , 4131.28205128 , 4130.25641026 , 4126.15384615 , 4133.84615385 , 4136.92307692 , 4138.46153846 , 4191.28205128 , 4914.35897436 , 4130.76923077 , 4138.46153846 , 2041.0 , 2037.0 , 206.817 , 0.0 , 0.0 , 0.0 , 0.0 , 

92.0 , 4138.46153846 , 4133.84615385 , 4135.38461538 , 4137.94871795 , 4132.30769231 , 4131.28205128 , 4127.17948718 , 4136.41025641 , 4136.92307692 , 4139.48717949 , 4194.87179487 , 4911.79487179 , 4129.74358974 , 4135.38461538 , 2041.0 , 2036.0 , 206.828 , 0.0 , 0.0 , 0.0 , 0.0 , 

93.0 , 4140.51282051 , 4132.82051282 , 4136.92307692 , 4134.35897436 , 4132.30769231 , 4129.74358974 , 4127.69230769 , 4133.33333333 , 4135.38461538 , 4137.94871795 , 4191.28205128 , 4914.87179487 , 4131.79487179 , 4138.46153846 , 2041.0 , 2037.0 , 206.834 , 0.0 , 0.0 , 0.0 , 0.0 , 

94.0 , 4139.48717949 , 4130.76923077 , 4138.97435897 , 4134.35897436 , 4131.79487179 , 4130.76923077 , 4129.74358974 , 4132.30769231 , 4133.84615385 , 4136.92307692 , 4188.71794872 , 4915.8974359 , 4134.35897436 , 4138.97435897 , 2041.0 , 2037.0 , 206.841 , 0.0 , 0.0 , 0.0 , 0.0 , 

95.0 , 4139.48717949 , 4130.76923077 , 4138.46153846 , 4135.38461538 , 4130.25641026 , 4131.79487179 , 4127.69230769 , 4133.84615385 , 4133.84615385 , 4138.97435897 , 4192.30769231 , 4913.84615385 , 4130.76923077 , 4142.56410256 , 2041.0 , 2037.0 , 206.848 , 0.0 , 0.0 , 0.0 , 0.0 , 

96.0 , 4138.46153846 , 4132.82051282 , 4135.8974359 , 4134.87179487 , 4130.76923077 , 4131.79487179 , 4127.69230769 , 4133.33333333 , 4138.46153846 , 4140.0 , 4192.82051282 , 4911.28205128 , 4129.74358974 , 4140.0 , 2042.0 , 2038.0 , 206.861 , 0.0 , 0.0 , 0.0 , 0.0 , 

97.0 , 4140.0 , 4129.74358974 , 4135.8974359 , 4132.30769231 , 4130.25641026 , 4127.69230769 , 4128.71794872 , 4130.76923077 , 4136.92307692 , 4138.46153846 , 4191.79487179 , 4914.87179487 , 4132.82051282 , 4141.02564103 , 2043.0 , 2037.0 , 206.866 , 0.0 , 0.0 , 0.0 , 0.0 , 

98.0 , 4140.0 , 4127.69230769 , 4135.8974359 , 4131.79487179 , 4132.82051282 , 4126.66666667 , 4128.71794872 , 4135.8974359 , 4133.84615385 , 4137.94871795 , 4190.76923077 , 4914.87179487 , 4131.79487179 , 4141.02564103 , 2043.0 , 2040.0 , 206.872 , 0.0 , 0.0 , 0.0 , 0.0 , 

99.0 , 4137.43589744 , 4129.23076923 , 4135.8974359 , 4132.82051282 , 4132.82051282 , 4129.23076923 , 4126.66666667 , 4138.46153846 , 4134.87179487 , 4139.48717949 , 4192.30769231 , 4914.87179487 , 4131.79487179 , 4142.56410256 , 2043.0 , 2039.0 , 206.881 , 0.0 , 0.0 , 0.0 , 0.0 , 

100.0 , 4134.87179487 , 4129.74358974 , 4136.41025641 , 4133.84615385 , 4131.28205128 , 4131.79487179 , 4128.20512821 , 4134.87179487 , 4136.92307692 , 4141.02564103 , 4193.33333333 , 4913.33333333 , 4134.87179487 , 4141.53846154 , 2044.0 , 2038.0 , 206.891 , 0.0 , 0.0 , 0.0 , 0.0 , 

101.0 , 4136.41025641 , 4127.69230769 , 4135.38461538 , 4132.82051282 , 4133.33333333 , 4128.71794872 , 4129.74358974 , 4134.87179487 , 4137.43589744 , 4139.48717949 , 4191.79487179 , 4911.28205128 , 4137.94871795 , 4142.56410256 , 2044.0 , 2038.0 , 206.898 , 0.0 , 0.0 , 0.0 , 0.0 , 

102.0 , 4136.41025641 , 4130.76923077 , 4135.38461538 , 4133.33333333 , 4134.87179487 , 4127.69230769 , 4129.74358974 , 4139.48717949 , 4136.92307692 , 4137.94871795 , 4191.28205128 , 4911.79487179 , 4135.8974359 , 4140.0 , 2044.0 , 2037.0 , 206.903 , 0.0 , 0.0 , 0.0 , 0.0 , 

103.0 , 4137.43589744 , 4131.79487179 , 4137.43589744 , 4133.33333333 , 4130.25641026 , 4131.28205128 , 4127.69230769 , 4138.97435897 , 4134.87179487 , 4139.48717949 , 4194.35897436 , 4913.84615385 , 4134.87179487 , 4139.48717949 , 2045.0 , 2038.0 , 206.912 , 0.0 , 0.0 , 0.0 , 0.0 , 

104.0 , 4139.48717949 , 4129.23076923 , 4139.48717949 , 4129.74358974 , 4130.25641026 , 4132.30769231 , 4128.20512821 , 4135.8974359 , 4132.82051282 , 4140.0 , 4194.35897436 , 4911.28205128 , 4135.8974359 , 4144.61538462 , 2046.0 , 2036.0 , 206.924 , 0.0 , 0.0 , 0.0 , 0.0 , 

105.0 , 4137.94871795 , 4132.30769231 , 4138.46153846 , 4129.23076923 , 4133.84615385 , 4133.33333333 , 4130.25641026 , 4134.87179487 , 4134.87179487 , 4139.48717949 , 4190.25641026 , 4909.74358974 , 4137.43589744 , 4145.12820513 , 2047.0 , 2037.0 , 206.929 , 0.0 , 0.0 , 0.0 , 0.0 , 

106.0 , 4136.41025641 , 4133.84615385 , 4138.97435897 , 4132.30769231 , 4132.30769231 , 4132.82051282 , 4129.74358974 , 4135.38461538 , 4134.87179487 , 4138.97435897 , 4190.25641026 , 4913.84615385 , 4137.43589744 , 4144.61538462 , 2047.0 , 2036.0 , 206.935 , 0.0 , 0.0 , 0.0 , 0.0 , 

107.0 , 4135.38461538 , 4131.28205128 , 4142.05128205 , 4133.84615385 , 4130.76923077 , 4130.25641026 , 4128.71794872 , 4137.94871795 , 4135.8974359 , 4137.94871795 , 4192.30769231 , 4915.38461538 , 4137.94871795 , 4145.64102564 , 2047.0 , 2037.0 , 206.944 , 0.0 , 0.0 , 0.0 , 0.0 , 

108.0 , 4135.38461538 , 4129.74358974 , 4139.48717949 , 4132.30769231 , 4131.28205128 , 4130.25641026 , 4129.23076923 , 4136.41025641 , 4136.92307692 , 4136.92307692 , 4193.33333333 , 4915.38461538 , 4140.51282051 , 4147.17948718 , 2048.0 , 2038.0 , 206.954 , 0.0 , 0.0 , 0.0 , 0.0 , 

109.0 , 4134.87179487 , 4135.38461538 , 4133.84615385 , 4132.82051282 , 4130.76923077 , 4134.35897436 , 4131.28205128 , 4133.84615385 , 4137.43589744 , 4137.43589744 , 4193.84615385 , 4914.35897436 , 4141.53846154 , 4143.58974359 , 2047.0 , 2038.0 , 206.96 , 0.0 , 0.0 , 0.0 , 0.0 , 

110.0 , 4137.43589744 , 4136.41025641 , 4134.35897436 , 4133.84615385 , 4131.28205128 , 4132.30769231 , 4128.71794872 , 4134.35897436 , 4136.41025641 , 4139.48717949 , 4192.82051282 , 4913.84615385 , 4140.51282051 , 4145.64102564 , 2047.0 , 2036.0 , 206.969 , 0.0 , 0.0 , 0.0 , 0.0 , 

111.0 , 4136.41025641 , 4133.84615385 , 4136.41025641 , 4133.84615385 , 4131.79487179 , 4131.28205128 , 4127.17948718 , 4135.8974359 , 4135.38461538 , 4140.0 , 4191.79487179 , 4912.30769231 , 4141.02564103 , 4146.15384615 , 2047.0 , 2037.0 , 206.973 , 0.0 , 0.0 , 0.0 , 0.0 , 

112.0 , 4134.87179487 , 4135.38461538 , 4134.35897436 , 4131.79487179 , 4129.74358974 , 4132.82051282 , 4127.69230769 , 4133.33333333 , 4135.38461538 , 4137.43589744 , 4192.82051282 , 4916.41025641 , 4138.97435897 , 4148.20512821 , 2047.0 , 2036.0 , 206.984 , 0.0 , 0.0 , 0.0 , 0.0 , 

113.0 , 4132.30769231 , 4134.87179487 , 4132.82051282 , 4135.38461538 , 4130.25641026 , 4131.79487179 , 4129.23076923 , 4133.84615385 , 4138.46153846 , 4137.43589744 , 4190.76923077 , 4915.8974359 , 4137.43589744 , 4143.58974359 , 2045.0 , 2037.0 , 206.991 , 0.0 , 0.0 , 0.0 , 0.0 , 

114.0 , 4133.33333333 , 4130.25641026 , 4135.38461538 , 4136.41025641 , 4130.76923077 , 4129.23076923 , 4127.17948718 , 4134.35897436 , 4137.43589744 , 4141.53846154 , 4189.74358974 , 4912.82051282 , 4139.48717949 , 4144.61538462 , 2045.0 , 2036.0 , 207.0 , 0.0 , 0.0 , 0.0 , 0.0 , 

115.0 , 4132.82051282 , 4130.76923077 , 4136.41025641 , 4133.33333333 , 4131.28205128 , 4132.82051282 , 4126.15384615 , 4134.87179487 , 4134.87179487 , 4141.53846154 , 4192.82051282 , 4912.30769231 , 4140.0 , 4145.12820513 , 2046.0 , 2035.0 , 207.006 , 0.0 , 0.0 , 0.0 , 0.0 , 

116.0 , 4135.8974359 , 4132.30769231 , 4135.8974359 , 4131.28205128 , 4132.82051282 , 4131.28205128 , 4126.15384615 , 4135.8974359 , 4136.41025641 , 4137.94871795 , 4194.87179487 , 4914.87179487 , 4138.97435897 , 4147.17948718 , 2044.0 , 2035.0 , 207.018 , 0.0 , 0.0 , 0.0 , 0.0 , 

117.0 , 4137.94871795 , 4129.74358974 , 4134.87179487 , 4132.82051282 , 4133.84615385 , 4130.25641026 , 4128.71794872 , 4135.38461538 , 4137.94871795 , 4138.97435897 , 4193.84615385 , 4913.84615385 , 4138.46153846 , 4145.64102564 , 2044.0 , 2036.0 , 207.023 , 0.0 , 0.0 , 0.0 , 0.0 , 

118.0 , 4139.48717949 , 4130.25641026 , 4136.41025641 , 4130.25641026 , 4130.76923077 , 4132.30769231 , 4127.69230769 , 4133.84615385 , 4134.35897436 , 4140.51282051 , 4193.33333333 , 4913.84615385 , 4137.94871795 , 4144.61538462 , 2045.0 , 2035.0 , 207.029 , 0.0 , 0.0 , 0.0 , 0.0 , 

119.0 , 4135.8974359 , 4133.33333333 , 4134.87179487 , 4128.71794872 , 4130.25641026 , 4131.28205128 , 4123.58974359 , 4136.41025641 , 4135.8974359 , 4138.97435897 , 4191.79487179 , 4912.30769231 , 4136.41025641 , 4143.07692308 , 2044.0 , 2037.0 , 207.037 , 0.0 , 0.0 , 0.0 , 0.0 , 

120.0 , 4134.35897436 , 4131.28205128 , 4131.28205128 , 4131.79487179 , 4133.33333333 , 4127.69230769 , 4123.07692308 , 4136.92307692 , 4140.51282051 , 4138.46153846 , 4191.28205128 , 4912.30769231 , 4137.43589744 , 4146.15384615 , 2043.0 , 2037.0 , 207.05 , 0.0 , 0.0 , 0.0 , 0.0 , 

121.0 , 4135.38461538 , 4132.30769231 , 4131.79487179 , 4133.84615385 , 4132.82051282 , 4128.20512821 , 4128.20512821 , 4134.35897436 , 4138.97435897 , 4139.48717949 , 4193.33333333 , 4915.8974359 , 4135.8974359 , 4145.64102564 , 2041.0 , 2034.0 , 207.053 , 0.0 , 0.0 , 0.0 , 0.0 , 

122.0 , 4135.38461538 , 4133.84615385 , 4136.92307692 , 4132.82051282 , 4129.23076923 , 4130.76923077 , 4128.20512821 , 4135.38461538 , 4135.8974359 , 4138.97435897 , 4193.33333333 , 4917.94871795 , 4135.38461538 , 4144.1025641 , 2044.0 , 2035.0 , 207.061 , 0.0 , 0.0 , 0.0 , 0.0 , 

123.0 , 4135.38461538 , 4132.30769231 , 4140.0 , 4132.82051282 , 4130.25641026 , 4130.25641026 , 4124.61538462 , 4136.92307692 , 4138.46153846 , 4137.43589744 , 4192.82051282 , 4915.8974359 , 4137.43589744 , 4145.12820513 , 2044.0 , 2033.0 , 207.069 , 0.0 , 0.0 , 0.0 , 0.0 , 

124.0 , 4135.8974359 , 4132.30769231 , 4137.94871795 , 4134.87179487 , 4132.30769231 , 4129.74358974 , 4126.15384615 , 4137.94871795 , 4139.48717949 , 4141.02564103 , 4193.84615385 , 4912.30769231 , 4142.05128205 , 4142.56410256 , 2043.0 , 2035.0 , 207.081 , 0.0 , 0.0 , 0.0 , 0.0 , 

125.0 , 4135.8974359 , 4133.33333333 , 4137.43589744 , 4134.87179487 , 4131.79487179 , 4128.20512821 , 4130.25641026 , 4136.41025641 , 4134.87179487 , 4144.1025641 , 4193.84615385 , 4914.35897436 , 4140.51282051 , 4142.56410256 , 2042.0 , 2034.0 , 207.086 , 0.0 , 0.0 , 0.0 , 0.0 , 

126.0 , 4131.28205128 , 4133.84615385 , 4137.43589744 , 4133.33333333 , 4132.82051282 , 4129.74358974 , 4129.74358974 , 4134.35897436 , 4133.33333333 , 4140.51282051 , 4194.35897436 , 4916.41025641 , 4136.41025641 , 4143.58974359 , 2044.0 , 2036.0 , 207.092 , 0.0 , 0.0 , 0.0 , 0.0 , 

127.0 , 4131.79487179 , 4131.28205128 , 4135.38461538 , 4131.28205128 , 4132.82051282 , 4129.74358974 , 4125.64102564 , 4135.38461538 , 4135.8974359 , 4136.92307692 , 4195.8974359 , 4916.92307692 , 4136.41025641 , 4144.61538462 , 2045.0 , 2036.0 , 207.101 , 0.0 , 0.0 , 0.0 , 0.0 , 

128.0 , 4133.84615385 , 4131.79487179 , 4131.28205128 , 4133.33333333 , 4131.79487179 , 4129.23076923 , 4125.64102564 , 4139.48717949 , 4136.92307692 , 4138.97435897 , 4194.87179487 , 4913.84615385 , 4140.0 , 4140.0 , 2044.0 , 2035.0 , 207.112 , 0.0 , 0.0 , 0.0 , 0.0 , 

0.0 , 4133.84615385 , 4136.92307692 , 4133.33333333 , 4132.82051282 , 4130.25641026 , 4130.76923077 , 4128.20512821 , 4137.94871795 , 4134.87179487 , 4138.46153846 , 4193.33333333 , 4914.87179487 , 4138.97435897 , 4142.56410256 , 2045.0 , 2036.0 , 207.116 , 0.0 , 0.0 , 0.0 , 0.0 , 

1.0 , 4130.76923077 , 4136.41025641 , 4134.35897436 , 4131.79487179 , 4130.76923077 , 4131.79487179 , 4128.71794872 , 4134.87179487 , 4135.38461538 , 4137.43589744 , 4193.84615385 , 4914.87179487 , 4136.41025641 , 4140.51282051 , 2046.0 , 2037.0 , 207.124 , 0.0 , 0.0 , 0.0 , 0.0 , 

2.0 , 4133.84615385 , 4128.71794872 , 4133.33333333 , 4133.84615385 , 4131.28205128 , 4129.23076923 , 4123.58974359 , 4134.87179487 , 4136.41025641 , 4140.0 , 4193.33333333 , 4914.35897436 , 4134.87179487 , 4142.05128205 , 2046.0 , 2037.0 , 207.133 , 0.0 , 0.0 , 0.0 , 0.0 , 

3.0 , 4133.84615385 , 4129.74358974 , 4134.35897436 , 4137.43589744 , 4131.79487179 , 4132.30769231 , 4123.07692308 , 4136.92307692 , 4137.94871795 , 4139.48717949 , 4192.30769231 , 4911.79487179 , 4134.87179487 , 4140.51282051 , 2045.0 , 2037.0 , 207.144 , 0.0 , 0.0 , 0.0 , 0.0 , 

4.0 , 4133.33333333 , 4135.38461538 , 4137.94871795 , 4131.79487179 , 4131.79487179 , 4133.33333333 , 4123.58974359 , 4136.41025641 , 4138.46153846 , 4136.41025641 , 4195.38461538 , 4912.82051282 , 4136.41025641 , 4144.1025641 , 2045.0 , 2038.0 , 207.149 , 0.0 , 0.0 , 0.0 , 0.0 , 

5.0 , 4134.35897436 , 4135.38461538 , 4136.92307692 , 4128.20512821 , 4132.30769231 , 4129.74358974 , 4125.64102564 , 4135.8974359 , 4138.97435897 , 4137.43589744 , 4194.35897436 , 4912.82051282 , 4136.92307692 , 4144.61538462 , 2045.0 , 2037.0 , 207.154 , 0.0 , 0.0 , 0.0 , 0.0 , 

6.0 , 4135.8974359 , 4132.30769231 , 4134.35897436 , 4132.82051282 , 4132.30769231 , 4127.69230769 , 4127.17948718 , 4135.8974359 , 4136.92307692 , 4139.48717949 , 4193.33333333 , 4915.8974359 , 4136.41025641 , 4144.61538462 , 2046.0 , 2039.0 , 207.163 , 0.0 , 0.0 , 0.0 , 0.0 , 

7.0 , 4132.82051282 , 4131.79487179 , 4134.35897436 , 4135.38461538 , 4132.30769231 , 4131.28205128 , 4129.23076923 , 4134.35897436 , 4135.8974359 , 4138.97435897 , 4193.33333333 , 4917.43589744 , 4136.92307692 , 4143.58974359 , 2045.0 , 2038.0 , 207.177 , 0.0 , 0.0 , 0.0 , 0.0 , 

8.0 , 4133.84615385 , 4130.76923077 , 4135.8974359 , 4131.28205128 , 4132.30769231 , 4131.28205128 , 4127.69230769 , 4133.84615385 , 4137.43589744 , 4135.8974359 , 4193.33333333 , 4915.8974359 , 4138.97435897 , 4145.64102564 , 2044.0 , 2038.0 , 207.181 , 0.0 , 0.0 , 0.0 , 0.0 , 

9.0 , 4133.33333333 , 4131.28205128 , 4135.38461538 , 4132.82051282 , 4129.74358974 , 4132.82051282 , 4128.20512821 , 4136.92307692 , 4138.46153846 , 4136.41025641 , 4193.33333333 , 4914.35897436 , 4136.92307692 , 4141.53846154 , 2044.0 , 2039.0 , 207.187 , 0.0 , 0.0 , 0.0 , 0.0 , 

10.0 , 4129.23076923 , 4132.30769231 , 4135.38461538 , 4137.43589744 , 4130.76923077 , 4132.82051282 , 4129.74358974 , 4137.43589744 , 4136.41025641 , 4138.46153846 , 4194.87179487 , 4915.38461538 , 4134.87179487 , 4140.51282051 , 2044.0 , 2039.0 , 207.196 , 0.0 , 0.0 , 0.0 , 0.0 , 

11.0 , 4130.76923077 , 4131.28205128 , 4135.8974359 , 4136.92307692 , 4134.35897436 , 4129.23076923 , 4127.17948718 , 4133.33333333 , 4135.38461538 , 4138.46153846 , 4193.84615385 , 4914.35897436 , 4134.35897436 , 4143.07692308 , 2043.0 , 2037.0 , 207.208 , 0.0 , 0.0 , 0.0 , 0.0 , 

12.0 , 4131.28205128 , 4129.74358974 , 4133.84615385 , 4133.33333333 , 4132.82051282 , 4129.74358974 , 4126.66666667 , 4134.35897436 , 4136.41025641 , 4138.46153846 , 4191.28205128 , 4914.87179487 , 4137.43589744 , 4140.0 , 2042.0 , 2037.0 , 207.213 , 0.0 , 0.0 , 0.0 , 0.0 , 

13.0 , 4130.25641026 , 4129.74358974 , 4133.33333333 , 4131.79487179 , 4130.25641026 , 4133.33333333 , 4129.74358974 , 4136.92307692 , 4135.38461538 , 4139.48717949 , 4193.33333333 , 4917.43589744 , 4137.43589744 , 4138.46153846 , 2043.0 , 2036.0 , 207.217 , 0.0 , 0.0 , 0.0 , 0.0 , 

14.0 , 4134.35897436 , 4131.28205128 , 4135.38461538 , 4133.33333333 , 4132.30769231 , 4131.28205128 , 4129.74358974 , 4136.41025641 , 4136.41025641 , 4139.48717949 , 4195.8974359 , 4916.41025641 , 4136.92307692 , 4141.02564103 , 2043.0 , 2037.0 , 207.227 , 0.0 , 0.0 , 0.0 , 0.0 , 

15.0 , 4137.94871795 , 4130.76923077 , 4135.38461538 , 4132.82051282 , 4132.82051282 , 4126.66666667 , 4127.17948718 , 4136.41025641 , 4138.97435897 , 4139.48717949 , 4194.35897436 , 4913.84615385 , 4136.92307692 , 4142.56410256 , 2044.0 , 2037.0 , 207.239 , 0.0 , 0.0 , 0.0 , 0.0 , 

16.0 , 4133.84615385 , 4129.74358974 , 4134.35897436 , 4132.30769231 , 4132.30769231 , 4129.23076923 , 4128.71794872 , 4140.0 , 4139.48717949 , 4140.51282051 , 4193.84615385 , 4910.76923077 , 4138.46153846 , 4138.46153846 , 2043.0 , 2038.0 , 207.243 , 0.0 , 0.0 , 0.0 , 0.0 , 

17.0 , 4133.84615385 , 4128.71794872 , 4136.41025641 , 4131.79487179 , 4132.30769231 , 4129.74358974 , 4128.71794872 , 4139.48717949 , 4135.38461538 , 4139.48717949 , 4195.38461538 , 4913.84615385 , 4137.43589744 , 4139.48717949 , 2043.0 , 2037.0 , 207.25 , 0.0 , 0.0 , 0.0 , 0.0 , 

18.0 , 4133.33333333 , 4130.76923077 , 4135.8974359 , 4133.33333333 , 4131.79487179 , 4128.20512821 , 4129.23076923 , 4136.41025641 , 4134.87179487 , 4139.48717949 , 4194.35897436 , 4914.35897436 , 4136.41025641 , 4138.97435897 , 2043.0 , 2036.0 , 207.259 , 0.0 , 0.0 , 0.0 , 0.0 , 

19.0 , 4134.35897436 , 4131.79487179 , 4134.87179487 , 4132.82051282 , 4130.76923077 , 4128.71794872 , 4129.23076923 , 4136.41025641 , 4136.92307692 , 4138.97435897 , 4192.82051282 , 4913.33333333 , 4135.8974359 , 4143.58974359 , 2045.0 , 2035.0 , 207.271 , 0.0 , 0.0 , 0.0 , 0.0 , 

20.0 , 4134.87179487 , 4131.28205128 , 4135.8974359 , 4132.30769231 , 4131.28205128 , 4131.28205128 , 4128.71794872 , 4138.46153846 , 4138.97435897 , 4138.46153846 , 4193.84615385 , 4912.82051282 , 4135.38461538 , 4142.56410256 , 2045.0 , 2036.0 , 207.277 , 0.0 , 0.0 , 0.0 , 0.0 , 

21.0 , 4133.84615385 , 4129.74358974 , 4137.43589744 , 4132.82051282 , 4131.79487179 , 4131.79487179 , 4127.17948718 , 4135.38461538 , 4138.46153846 , 4141.53846154 , 4192.82051282 , 4915.8974359 , 4133.84615385 , 4142.56410256 , 2044.0 , 2036.0 , 207.282 , 0.0 , 0.0 , 0.0 , 0.0 , 

22.0 , 4130.76923077 , 4132.30769231 , 4135.38461538 , 4134.87179487 , 4131.28205128 , 4130.76923077 , 4129.23076923 , 4136.92307692 , 4137.43589744 , 4142.05128205 , 4190.25641026 , 4914.35897436 , 4133.84615385 , 4141.02564103 , 2045.0 , 2034.0 , 207.289 , 0.0 , 0.0 , 0.0 , 0.0 , 

23.0 , 4132.30769231 , 4134.87179487 , 4135.38461538 , 4133.84615385 , 4129.74358974 , 4128.20512821 , 4128.20512821 , 4139.48717949 , 4135.8974359 , 4138.97435897 , 4191.79487179 , 4916.41025641 , 4136.41025641 , 4143.07692308 , 2045.0 , 2036.0 , 207.302 , 0.0 , 0.0 , 0.0 , 0.0 , 

24.0 , 4132.30769231 , 4131.28205128 , 4134.87179487 , 4132.30769231 , 4130.76923077 , 4130.76923077 , 4125.64102564 , 4136.92307692 , 4137.43589744 , 4139.48717949 , 4194.87179487 , 4915.38461538 , 4137.43589744 , 4142.05128205 , 2044.0 , 2036.0 , 207.306 , 0.0 , 0.0 , 0.0 , 0.0 , 

25.0 , 4132.82051282 , 4128.20512821 , 4134.35897436 , 4132.82051282 , 4132.30769231 , 4133.84615385 , 4126.66666667 , 4135.38461538 , 4138.46153846 , 4140.51282051 , 4194.87179487 , 4912.82051282 , 4136.92307692 , 4142.05128205 , 2044.0 , 2035.0 , 207.313 , 0.0 , 0.0 , 0.0 , 0.0 , 

26.0 , 4131.28205128 , 4131.28205128 , 4136.92307692 , 4133.84615385 , 4132.30769231 , 4131.28205128 , 4131.28205128 , 4140.0 , 4138.97435897 , 4138.46153846 , 4191.79487179 , 4913.33333333 , 4136.92307692 , 4139.48717949 , 2044.0 , 2034.0 , 207.321 , 0.0 , 0.0 , 0.0 , 0.0 , 

27.0 , 4133.33333333 , 4131.28205128 , 4138.46153846 , 4133.33333333 , 4130.25641026 , 4127.17948718 , 4129.23076923 , 4139.48717949 , 4136.92307692 , 4139.48717949 , 4194.35897436 , 4916.41025641 , 4136.92307692 , 4141.53846154 , 2044.0 , 2033.0 , 207.332 , 0.0 , 0.0 , 0.0 , 0.0 , 

28.0 , 4136.92307692 , 4128.71794872 , 4135.38461538 , 4135.8974359 , 4130.25641026 , 4130.25641026 , 4126.15384615 , 4133.33333333 , 4134.35897436 , 4140.51282051 , 4197.43589744 , 4913.84615385 , 4136.41025641 , 4143.58974359 , 2043.0 , 2033.0 , 207.338 , 0.0 , 0.0 , 0.0 , 0.0 , 

29.0 , 4136.92307692 , 4133.33333333 , 4134.87179487 , 4135.8974359 , 4132.82051282 , 4131.28205128 , 4127.17948718 , 4132.82051282 , 4136.92307692 , 4137.94871795 , 4194.87179487 , 4911.28205128 , 4137.94871795 , 4142.05128205 , 2044.0 , 2033.0 , 207.345 , 0.0 , 0.0 , 0.0 , 0.0 , 

30.0 , 4136.41025641 , 4135.8974359 , 4139.48717949 , 4132.30769231 , 4132.82051282 , 4127.69230769 , 4128.71794872 , 4136.92307692 , 4139.48717949 , 4139.48717949 , 4193.33333333 , 4913.33333333 , 4136.41025641 , 4141.53846154 , 2043.0 , 2033.0 , 207.352 , 0.0 , 0.0 , 0.0 , 0.0 , 

31.0 , 4135.38461538 , 4132.82051282 , 4138.97435897 , 4131.28205128 , 4132.30769231 , 4129.74358974 , 4126.66666667 , 4135.8974359 , 4137.43589744 , 4143.07692308 , 4194.87179487 , 4914.35897436 , 4135.8974359 , 4143.58974359 , 2043.0 , 2034.0 , 207.363 , 0.0 , 0.0 , 0.0 , 0.0 , 

32.0 , 4133.33333333 , 4131.28205128 , 4135.38461538 , 4132.82051282 , 4132.82051282 , 4133.33333333 , 4126.15384615 , 4132.82051282 , 4136.41025641 , 4141.53846154 , 4194.35897436 , 4912.82051282 , 4136.41025641 , 4143.58974359 , 2044.0 , 2036.0 , 207.369 , 0.0 , 0.0 , 0.0 , 0.0 , 

33.0 , 4132.30769231 , 4131.79487179 , 4134.87179487 , 4134.87179487 , 4132.30769231 , 4132.30769231 , 4128.20512821 , 4136.41025641 , 4138.46153846 , 4139.48717949 , 4192.82051282 , 4911.28205128 , 4135.8974359 , 4140.0 , 2043.0 , 2035.0 , 207.377 , 0.0 , 0.0 , 0.0 , 0.0 , 

34.0 , 4134.87179487 , 4131.79487179 , 4135.38461538 , 4133.33333333 , 4131.79487179 , 4130.25641026 , 4128.71794872 , 4139.48717949 , 4135.8974359 , 4142.05128205 , 4192.30769231 , 4914.87179487 , 4136.41025641 , 4143.58974359 , 2043.0 , 2036.0 , 207.384 , 0.0 , 0.0 , 0.0 , 0.0 , 

35.0 , 4133.84615385 , 4130.25641026 , 4135.8974359 , 4132.82051282 , 4131.28205128 , 4130.76923077 , 4129.74358974 , 4135.38461538 , 4137.43589744 , 4143.07692308 , 4192.82051282 , 4914.87179487 , 4138.46153846 , 4142.56410256 , 2044.0 , 2036.0 , 207.395 , 0.0 , 0.0 , 0.0 , 0.0 , 

36.0 , 4133.33333333 , 4127.69230769 , 4135.8974359 , 4131.79487179 , 4130.76923077 , 4129.74358974 , 4127.69230769 , 4131.79487179 , 4140.0 , 4138.97435897 , 4192.82051282 , 4913.84615385 , 4136.41025641 , 4141.53846154 , 2044.0 , 2036.0 , 207.401 , 0.0 , 0.0 , 0.0 , 0.0 , 

37.0 , 4132.30769231 , 4130.76923077 , 4134.87179487 , 4133.84615385 , 4131.79487179 , 4132.82051282 , 4127.17948718 , 4136.41025641 , 4137.43589744 , 4136.92307692 , 4191.79487179 , 4914.87179487 , 4136.92307692 , 4138.97435897 , 2045.0 , 2036.0 , 207.408 , 0.0 , 0.0 , 0.0 , 0.0 , 

38.0 , 4132.30769231 , 4133.33333333 , 4135.8974359 , 4133.84615385 , 4131.28205128 , 4132.30769231 , 4127.69230769 , 4137.94871795 , 4132.82051282 , 4138.97435897 , 4192.30769231 , 4916.41025641 , 4138.46153846 , 4139.48717949 , 2045.0 , 2036.0 , 207.415 , 0.0 , 0.0 , 0.0 , 0.0 , 

39.0 , 4131.28205128 , 4132.30769231 , 4135.8974359 , 4132.30769231 , 4132.30769231 , 4130.76923077 , 4128.20512821 , 4135.8974359 , 4135.38461538 , 4140.0 , 4194.35897436 , 4912.82051282 , 4136.92307692 , 4134.87179487 , 2044.0 , 2035.0 , 207.428 , 0.0 , 0.0 , 0.0 , 0.0 , 

40.0 , 4134.35897436 , 4129.74358974 , 4135.38461538 , 4131.79487179 , 4133.33333333 , 4132.82051282 , 4127.17948718 , 4135.38461538 , 4138.97435897 , 4137.43589744 , 4193.84615385 , 4913.84615385 , 4136.41025641 , 4136.92307692 , 2045.0 , 2036.0 , 207.432 , 0.0 , 0.0 , 0.0 , 0.0 , 

41.0 , 4133.84615385 , 4129.74358974 , 4137.43589744 , 4137.43589744 , 4133.33333333 , 4134.87179487 , 4129.23076923 , 4136.92307692 , 4136.92307692 , 4137.43589744 , 4190.25641026 , 4916.41025641 , 4137.43589744 , 4138.46153846 , 2044.0 , 2038.0 , 207.439 , 0.0 , 0.0 , 0.0 , 0.0 , 

42.0 , 4133.84615385 , 4129.74358974 , 4138.97435897 , 4137.94871795 , 4131.28205128 , 4130.76923077 , 4130.25641026 , 4135.38461538 , 4134.35897436 , 4138.97435897 , 4191.79487179 , 4918.46153846 , 4134.87179487 , 4143.07692308 , 2043.0 , 2039.0 , 207.447 , 0.0 , 0.0 , 0.0 , 0.0 , 

43.0 , 4132.82051282 , 4131.79487179 , 4138.46153846 , 4131.28205128 , 4131.79487179 , 4128.71794872 , 4130.25641026 , 4135.8974359 , 4136.92307692 , 4140.0 , 4193.84615385 , 4915.38461538 , 4134.87179487 , 4144.1025641 , 2044.0 , 2038.0 , 207.461 , 0.0 , 0.0 , 0.0 , 0.0 , 

44.0 , 4134.35897436 , 4132.30769231 , 4138.97435897 , 4130.25641026 , 4132.82051282 , 4128.20512821 , 4129.74358974 , 4137.94871795 , 4137.94871795 , 4138.97435897 , 4192.30769231 , 4915.38461538 , 4138.46153846 , 4144.1025641 , 2044.0 , 2039.0 , 207.464 , 0.0 , 0.0 , 0.0 , 0.0 , 

45.0 , 4134.87179487 , 4133.33333333 , 4136.41025641 , 4138.46153846 , 4132.30769231 , 4130.25641026 , 4128.71794872 , 4137.94871795 , 4135.38461538 , 4138.46153846 , 4191.79487179 , 4915.8974359 , 4140.0 , 4140.51282051 , 2042.0 , 2040.0 , 207.471 , 0.0 , 0.0 , 0.0 , 0.0 , 

46.0 , 4135.8974359 , 4132.82051282 , 4134.35897436 , 4138.46153846 , 4131.28205128 , 4130.76923077 , 4128.20512821 , 4137.43589744 , 4133.84615385 , 4136.92307692 , 4193.33333333 , 4915.38461538 , 4137.43589744 , 4141.53846154 , 2044.0 , 2040.0 , 207.48 , 0.0 , 0.0 , 0.0 , 0.0 , 

47.0 , 4133.84615385 , 4130.76923077 , 4136.41025641 , 4133.84615385 , 4131.79487179 , 4128.71794872 , 4129.23076923 , 4137.94871795 , 4134.87179487 , 4136.92307692 , 4192.82051282 , 4913.84615385 , 4134.35897436 , 4142.05128205 , 2042.0 , 2040.0 , 207.491 , 0.0 , 0.0 , 0.0 , 0.0 , 

48.0 , 4132.82051282 , 4131.79487179 , 4135.8974359 , 4134.87179487 , 4134.87179487 , 4129.74358974 , 4126.66666667 , 4136.41025641 , 4136.41025641 , 4139.48717949 , 4192.30769231 , 4915.38461538 , 4135.8974359 , 4142.05128205 , 2042.0 , 2039.0 , 207.495 , 0.0 , 0.0 , 0.0 , 0.0 , 

49.0 , 4133.33333333 , 4132.82051282 , 4134.35897436 , 4136.92307692 , 4134.35897436 , 4132.82051282 , 4126.66666667 , 4134.35897436 , 4136.41025641 , 4140.0 , 4192.82051282 , 4915.8974359 , 4137.43589744 , 4141.02564103 , 2042.0 , 2039.0 , 207.501 , 0.0 , 0.0 , 0.0 , 0.0 , 

50.0 , 4132.82051282 , 4130.76923077 , 4136.41025641 , 4134.87179487 , 4131.79487179 , 4131.79487179 , 4130.25641026 , 4136.92307692 , 4136.41025641 , 4138.46153846 , 4192.30769231 , 4912.82051282 , 4134.35897436 , 4137.43589744 , 2043.0 , 2040.0 , 207.511 , 0.0 , 0.0 , 0.0 , 0.0 , 

51.0 , 4133.84615385 , 4132.30769231 , 4138.46153846 , 4132.30769231 , 4132.30769231 , 4129.74358974 , 4130.25641026 , 4138.97435897 , 4137.94871795 , 4136.92307692 , 4191.28205128 , 4913.33333333 , 4131.79487179 , 4138.97435897 , 2042.0 , 2040.0 , 207.522 , 0.0 , 0.0 , 0.0 , 0.0 , 

52.0 , 4134.35897436 , 4132.82051282 , 4136.41025641 , 4132.82051282 , 4132.30769231 , 4131.28205128 , 4128.71794872 , 4135.38461538 , 4138.97435897 , 4137.43589744 , 4190.76923077 , 4913.33333333 , 4135.38461538 , 4140.0 , 2041.0 , 2038.0 , 207.528 , 0.0 , 0.0 , 0.0 , 0.0 , 

53.0 , 4133.84615385 , 4128.71794872 , 4136.92307692 , 4134.35897436 , 4129.23076923 , 4131.79487179 , 4128.20512821 , 4132.82051282 , 4134.87179487 , 4139.48717949 , 4191.79487179 , 4912.82051282 , 4135.8974359 , 4140.0 , 2041.0 , 2038.0 , 207.533 , 0.0 , 0.0 , 0.0 , 0.0 , 

54.0 , 4132.30769231 , 4130.76923077 , 4137.94871795 , 4134.87179487 , 4130.25641026 , 4131.79487179 , 4129.23076923 , 4136.41025641 , 4135.38461538 , 4139.48717949 , 4193.33333333 , 4910.76923077 , 4134.87179487 , 4137.94871795 , 2041.0 , 2040.0 , 207.542 , 0.0 , 0.0 , 0.0 , 0.0 , 

55.0 , 4134.87179487 , 4132.82051282 , 4138.46153846 , 4132.82051282 , 4132.30769231 , 4129.23076923 , 4127.69230769 , 4134.35897436 , 4140.51282051 , 4138.97435897 , 4193.33333333 , 4914.35897436 , 4136.41025641 , 4142.56410256 , 2043.0 , 2038.0 , 207.553 , 0.0 , 0.0 , 0.0 , 0.0 , 

56.0 , 4132.82051282 , 4133.84615385 , 4136.92307692 , 4135.38461538 , 4132.30769231 , 4130.25641026 , 4129.74358974 , 4131.79487179 , 4140.0 , 4140.0 , 4192.30769231 , 4915.38461538 , 4138.46153846 , 4141.02564103 , 2043.0 , 2037.0 , 207.559 , 0.0 , 0.0 , 0.0 , 0.0 , 

57.0 , 4132.82051282 , 4135.8974359 , 4134.87179487 , 4134.35897436 , 4131.28205128 , 4131.79487179 , 4130.76923077 , 4136.92307692 , 4133.33333333 , 4139.48717949 , 4193.33333333 , 4913.33333333 , 4137.43589744 , 4142.05128205 , 2041.0 , 2037.0 , 207.565 , 0.0 , 0.0 , 0.0 , 0.0 , 

58.0 , 4133.33333333 , 4134.87179487 , 4134.35897436 , 4135.38461538 , 4132.30769231 , 4131.28205128 , 4130.25641026 , 4142.05128205 , 4133.33333333 , 4137.43589744 , 4193.84615385 , 4911.28205128 , 4137.94871795 , 4140.51282051 , 2043.0 , 2035.0 , 207.573 , 0.0 , 0.0 , 0.0 , 0.0 , 

59.0 , 4136.41025641 , 4130.76923077 , 4136.41025641 , 4136.41025641 , 4132.30769231 , 4127.69230769 , 4126.15384615 , 4137.43589744 , 4135.8974359 , 4137.94871795 , 4194.35897436 , 4915.38461538 , 4138.46153846 , 4143.07692308 , 2042.0 , 2035.0 , 207.586 , 0.0 , 0.0 , 0.0 , 0.0 , 

60.0 , 4136.41025641 , 4132.30769231 , 4135.38461538 , 4134.35897436 , 4133.33333333 , 4129.74358974 , 4128.20512821 , 4136.41025641 , 4135.8974359 , 4139.48717949 , 4193.33333333 , 4915.8974359 , 4135.8974359 , 4141.02564103 , 2040.0 , 2035.0 , 207.59 , 0.0 , 0.0 , 0.0 , 0.0 , 

61.0 , 4135.8974359 , 4131.79487179 , 4135.38461538 , 4131.28205128 , 4134.35897436 , 4132.30769231 , 4130.76923077 , 4138.46153846 , 4133.84615385 , 4137.94871795 , 4191.79487179 , 4915.38461538 , 4136.92307692 , 4141.53846154 , 2041.0 , 2036.0 , 207.6 , 0.0 , 0.0 , 0.0 , 0.0 , 

62.0 , 4135.8974359 , 4129.74358974 , 4138.46153846 , 4133.33333333 , 4133.84615385 , 4131.28205128 , 4128.20512821 , 4136.92307692 , 4133.33333333 , 4137.94871795 , 4192.30769231 , 4915.38461538 , 4140.51282051 , 4141.02564103 , 2041.0 , 2035.0 , 207.604 , 0.0 , 0.0 , 0.0 , 0.0 , 

63.0 , 4135.8974359 , 4132.30769231 , 4138.97435897 , 4133.84615385 , 4131.79487179 , 4127.17948718 , 4126.15384615 , 4135.38461538 , 4134.87179487 , 4138.97435897 , 4193.33333333 , 4915.8974359 , 4137.43589744 , 4141.02564103 , 2041.0 , 2036.0 , 207.617 , 0.0 , 0.0 , 0.0 , 0.0 , 

64.0 , 4133.33333333 , 4133.33333333 , 4135.8974359 , 4134.35897436 , 4131.28205128 , 4128.71794872 , 4128.20512821 , 4136.92307692 , 4138.46153846 , 4141.02564103 , 4192.30769231 , 4913.33333333 , 4131.79487179 , 4138.46153846 , 2040.0 , 2033.0 , 207.62 , 0.0 , 0.0 , 0.0 , 0.0 , 

65.0 , 4133.33333333 , 4129.74358974 , 4135.38461538 , 4135.8974359 , 4131.28205128 , 4130.76923077 , 4127.69230769 , 4137.43589744 , 4137.94871795 , 4140.51282051 , 4190.76923077 , 4913.84615385 , 4134.35897436 , 4138.46153846 , 2039.0 , 2033.0 , 207.629 , 0.0 , 0.0 , 0.0 , 0.0 , 

66.0 , 4135.38461538 , 4129.23076923 , 4138.46153846 , 4135.8974359 , 4131.79487179 , 4130.25641026 , 4127.17948718 , 4135.8974359 , 4133.33333333 , 4137.94871795 , 4191.28205128 , 4914.35897436 , 4137.43589744 , 4139.48717949 , 2040.0 , 2033.0 , 207.636 , 0.0 , 0.0 , 0.0 , 0.0 , 

67.0 , 4135.8974359 , 4129.23076923 , 4138.46153846 , 4133.84615385 , 4131.28205128 , 4129.23076923 , 4128.71794872 , 4133.84615385 , 4131.28205128 , 4143.07692308 , 4191.79487179 , 4913.84615385 , 4136.41025641 , 4140.51282051 , 2040.0 , 2034.0 , 207.648 , 0.0 , 0.0 , 0.0 , 0.0 , 

68.0 , 4134.35897436 , 4130.76923077 , 4136.92307692 , 4133.33333333 , 4130.25641026 , 4129.23076923 , 4129.23076923 , 4132.82051282 , 4133.33333333 , 4148.20512821 , 4192.30769231 , 4915.8974359 , 4135.38461538 , 4142.56410256 , 2041.0 , 2034.0 , 207.653 , 0.0 , 0.0 , 0.0 , 0.0 , 

69.0 , 4134.87179487 , 4133.33333333 , 4135.8974359 , 4135.38461538 , 4130.76923077 , 4129.74358974 , 4128.20512821 , 4133.33333333 , 4135.8974359 , 4142.05128205 , 4193.33333333 , 4916.92307692 , 4136.41025641 , 4143.07692308 , 2041.0 , 2034.0 , 207.66 , 0.0 , 0.0 , 0.0 , 0.0 , 

70.0 , 4136.92307692 , 4130.25641026 , 4136.92307692 , 4135.8974359 , 4131.79487179 , 4131.28205128 , 4127.17948718 , 4134.87179487 , 4134.87179487 , 4135.8974359 , 4194.87179487 , 4916.41025641 , 4135.38461538 , 4144.61538462 , 2042.0 , 2035.0 , 207.669 , 0.0 , 0.0 , 0.0 , 0.0 , 

71.0 , 4136.41025641 , 4128.71794872 , 4139.48717949 , 4134.35897436 , 4131.28205128 , 4133.84615385 , 4127.69230769 , 4135.8974359 , 4135.8974359 , 4139.48717949 , 4195.38461538 , 4914.87179487 , 4135.8974359 , 4142.05128205 , 2042.0 , 2037.0 , 207.679 , 0.0 , 0.0 , 0.0 , 0.0 , 

72.0 , 4136.92307692 , 4132.30769231 , 4138.97435897 , 4135.8974359 , 4130.76923077 , 4131.79487179 , 4130.25641026 , 4135.38461538 , 4135.8974359 , 4140.0 , 4194.35897436 , 4915.38461538 , 4136.92307692 , 4141.02564103 , 2042.0 , 2035.0 , 207.685 , 0.0 , 0.0 , 0.0 , 0.0 , 

73.0 , 4136.41025641 , 4133.84615385 , 4133.84615385 , 4140.51282051 , 4131.79487179 , 4130.25641026 , 4130.76923077 , 4134.87179487 , 4135.38461538 , 4137.43589744 , 4193.33333333 , 4912.82051282 , 4136.92307692 , 4138.97435897 , 2044.0 , 2036.0 , 207.691 , 0.0 , 0.0 , 0.0 , 0.0 , 

74.0 , 4135.8974359 , 4132.30769231 , 4133.33333333 , 4138.97435897 , 4131.28205128 , 4130.25641026 , 4126.66666667 , 4134.87179487 , 4135.38461538 , 4138.97435897 , 4193.33333333 , 4913.33333333 , 4133.84615385 , 4142.56410256 , 2042.0 , 2037.0 , 207.699 , 0.0 , 0.0 , 0.0 , 0.0 , 

75.0 , 4132.30769231 , 4132.30769231 , 4136.92307692 , 4134.87179487 , 4130.76923077 , 4132.82051282 , 4126.66666667 , 4137.43589744 , 4136.41025641 , 4139.48717949 , 4193.33333333 , 4913.84615385 , 4132.30769231 , 4141.53846154 , 2041.0 , 2037.0 , 207.71 , 0.0 , 0.0 , 0.0 , 0.0 , 

76.0 , 4133.84615385 , 4132.30769231 , 4138.97435897 , 4132.30769231 , 4130.76923077 , 4130.25641026 , 4127.17948718 , 4138.46153846 , 4134.35897436 , 4141.02564103 , 4193.84615385 , 4911.79487179 , 4133.84615385 , 4141.53846154 , 2043.0 , 2037.0 , 207.716 , 0.0 , 0.0 , 0.0 , 0.0 , 

77.0 , 4134.35897436 , 4132.30769231 , 4136.92307692 , 4133.33333333 , 4132.82051282 , 4130.76923077 , 4129.74358974 , 4138.46153846 , 4133.84615385 , 4140.51282051 , 4193.33333333 , 4909.23076923 , 4135.38461538 , 4141.53846154 , 2043.0 , 2037.0 , 207.724 , 0.0 , 0.0 , 0.0 , 0.0 , 

78.0 , 4134.35897436 , 4130.76923077 , 4136.92307692 , 4133.33333333 , 4132.30769231 , 4132.82051282 , 4132.30769231 , 4136.92307692 , 4135.38461538 , 4136.92307692 , 4192.82051282 , 4913.84615385 , 4134.35897436 , 4145.12820513 , 2043.0 , 2036.0 , 207.731 , 0.0 , 0.0 , 0.0 , 0.0 , 

79.0 , 4133.33333333 , 4129.23076923 , 4136.41025641 , 4136.41025641 , 4130.76923077 , 4132.82051282 , 4129.23076923 , 4136.41025641 , 4135.8974359 , 4136.92307692 , 4193.84615385 , 4912.82051282 , 4133.84615385 , 4139.48717949 , 2043.0 , 2037.0 , 207.74 , 0.0 , 0.0 , 0.0 , 0.0 , 

80.0 , 4133.33333333 , 4129.23076923 , 4136.41025641 , 4137.94871795 , 4130.76923077 , 4130.25641026 , 4124.1025641 , 4136.92307692 , 4137.43589744 , 4138.46153846 , 4194.87179487 , 4910.25641026 , 4133.84615385 , 4141.53846154 , 2044.0 , 2037.0 , 207.748 , 0.0 , 0.0 , 0.0 , 0.0 , 

81.0 , 4132.30769231 , 4126.66666667 , 4136.41025641 , 4136.41025641 , 4130.25641026 , 4132.82051282 , 4129.74358974 , 4138.46153846 , 4138.46153846 , 4138.97435897 , 4193.33333333 , 4912.82051282 , 4132.30769231 , 4149.23076923 , 2043.0 , 2036.0 , 207.753 , 0.0 , 0.0 , 0.0 , 0.0 , 

82.0 , 4131.28205128 , 4126.66666667 , 4134.35897436 , 4134.35897436 , 4129.74358974 , 4132.30769231 , 4130.76923077 , 4140.51282051 , 4138.46153846 , 4137.43589744 , 4194.87179487 , 4915.8974359 , 4134.35897436 , 4153.33333333 , 2043.0 , 2037.0 , 207.763 , 0.0 , 0.0 , 0.0 , 0.0 , 

83.0 , 4131.79487179 , 4131.28205128 , 4132.30769231 , 4136.92307692 , 4131.28205128 , 4132.30769231 , 4127.17948718 , 4140.0 , 4139.48717949 , 4134.87179487 , 4194.87179487 , 4910.76923077 , 4136.41025641 , 4146.66666667 , 2043.0 , 2038.0 , 207.774 , 0.0 , 0.0 , 0.0 , 0.0 , 

84.0 , 4134.87179487 , 4130.25641026 , 4135.8974359 , 4138.97435897 , 4130.76923077 , 4133.84615385 , 4129.23076923 , 4136.92307692 , 4137.43589744 , 4133.33333333 , 4191.79487179 , 4909.23076923 , 4135.38461538 , 4141.02564103 , 2044.0 , 2037.0 , 207.78 , 0.0 , 0.0 , 0.0 , 0.0 , 

85.0 , 4132.82051282 , 4127.69230769 , 4137.94871795 , 4137.94871795 , 4128.71794872 , 4131.79487179 , 4131.79487179 , 4135.8974359 , 4133.84615385 , 4136.92307692 , 4192.30769231 , 4912.82051282 , 4133.84615385 , 4141.02564103 , 2043.0 , 2036.0 , 207.786 , 0.0 , 0.0 , 0.0 , 0.0 , 

86.0 , 4130.25641026 , 4132.82051282 , 4134.87179487 , 4135.38461538 , 4131.79487179 , 4130.76923077 , 4130.25641026 , 4137.43589744 , 4135.8974359 , 4138.46153846 , 4195.38461538 , 4913.84615385 , 4136.41025641 , 4140.51282051 , 2043.0 , 2037.0 , 207.794 , 0.0 , 0.0 , 0.0 , 0.0 , 

87.0 , 4133.33333333 , 4136.41025641 , 4135.8974359 , 4132.30769231 , 4133.33333333 , 4131.28205128 , 4129.23076923 , 4134.35897436 , 4137.43589744 , 4135.38461538 , 4194.35897436 , 4912.82051282 , 4136.41025641 , 4139.48717949 , 2043.0 , 2037.0 , 207.806 , 0.0 , 0.0 , 0.0 , 0.0 , 

88.0 , 4135.38461538 , 4136.41025641 , 4138.46153846 , 4135.38461538 , 4129.74358974 , 4129.23076923 , 4127.69230769 , 4131.79487179 , 4138.46153846 , 4136.92307692 , 4191.79487179 , 4909.74358974 , 4135.8974359 , 4139.48717949 , 2043.0 , 2036.0 , 207.812 , 0.0 , 0.0 , 0.0 , 0.0 , 

89.0 , 4133.33333333 , 4134.87179487 , 4135.38461538 , 4136.92307692 , 4128.71794872 , 4129.23076923 , 4125.64102564 , 4131.79487179 , 4138.97435897 , 4141.53846154 , 4192.82051282 , 4912.82051282 , 4136.41025641 , 4143.07692308 , 2043.0 , 2037.0 , 207.817 , 0.0 , 0.0 , 0.0 , 0.0 , 

90.0 , 4133.84615385 , 4134.87179487 , 4132.82051282 , 4134.87179487 , 4130.76923077 , 4131.79487179 , 4128.20512821 , 4134.87179487 , 4135.8974359 , 4140.0 , 4193.33333333 , 4914.35897436 , 4136.92307692 , 4138.46153846 , 2042.0 , 2035.0 , 207.825 , 0.0 , 0.0 , 0.0 , 0.0 , 

91.0 , 4137.94871795 , 4134.87179487 , 4136.92307692 , 4133.33333333 , 4129.74358974 , 4129.23076923 , 4128.20512821 , 4133.84615385 , 4131.79487179 , 4135.38461538 , 4192.82051282 , 4911.28205128 , 4134.35897436 , 4138.46153846 , 2042.0 , 2034.0 , 207.838 , 0.0 , 0.0 , 0.0 , 0.0 , 

92.0 , 4135.38461538 , 4135.38461538 , 4136.41025641 , 4135.8974359 , 4130.76923077 , 4130.25641026 , 4128.20512821 , 4133.33333333 , 4133.33333333 , 4137.43589744 , 4192.82051282 , 4909.74358974 , 4134.35897436 , 4137.94871795 , 2041.0 , 2035.0 , 207.842 , 0.0 , 0.0 , 0.0 , 0.0 , 

93.0 , 4135.38461538 , 4134.35897436 , 4133.33333333 , 4134.87179487 , 4131.79487179 , 4132.82051282 , 4128.20512821 , 4133.33333333 , 4135.8974359 , 4141.02564103 , 4193.84615385 , 4915.8974359 , 4135.8974359 , 4142.05128205 , 2041.0 , 2034.0 , 207.849 , 0.0 , 0.0 , 0.0 , 0.0 , 

94.0 , 4134.35897436 , 4134.87179487 , 4136.41025641 , 4132.82051282 , 4131.79487179 , 4130.76923077 , 4128.71794872 , 4134.87179487 , 4137.43589744 , 4139.48717949 , 4192.82051282 , 4914.87179487 , 4135.38461538 , 4144.61538462 , 2041.0 , 2034.0 , 207.858 , 0.0 , 0.0 , 0.0 , 0.0 , 

95.0 , 4136.41025641 , 4134.35897436 , 4140.0 , 4133.33333333 , 4132.30769231 , 4128.71794872 , 4128.20512821 , 4136.92307692 , 4136.41025641 , 4138.46153846 , 4192.82051282 , 4913.33333333 , 4134.87179487 , 4147.17948718 , 2041.0 , 2034.0 , 207.868 , 0.0 , 0.0 , 0.0 , 0.0 , 

96.0 , 4136.92307692 , 4133.33333333 , 4134.87179487 , 4133.84615385 , 4131.28205128 , 4132.82051282 , 4127.17948718 , 4136.92307692 , 4135.8974359 , 4138.97435897 , 4192.30769231 , 4913.84615385 , 4137.43589744 , 4140.51282051 , 2042.0 , 2031.0 , 207.874 , 0.0 , 0.0 , 0.0 , 0.0 , 

97.0 , 4136.41025641 , 4132.82051282 , 4133.33333333 , 4132.82051282 , 4129.74358974 , 4132.30769231 , 4126.15384615 , 4135.38461538 , 4135.8974359 , 4137.43589744 , 4192.82051282 , 4914.87179487 , 4137.94871795 , 4141.53846154 , 2042.0 , 2030.0 , 207.88 , 0.0 , 0.0 , 0.0 , 0.0 , 

98.0 , 4135.38461538 , 4132.30769231 , 4136.41025641 , 4134.87179487 , 4132.82051282 , 4131.79487179 , 4129.74358974 , 4135.8974359 , 4136.41025641 , 4137.43589744 , 4193.84615385 , 4912.30769231 , 4135.38461538 , 4144.1025641 , 2041.0 , 2032.0 , 207.889 , 0.0 , 0.0 , 0.0 , 0.0 , 

99.0 , 4136.92307692 , 4131.79487179 , 4137.43589744 , 4136.41025641 , 4133.33333333 , 4131.28205128 , 4128.20512821 , 4135.8974359 , 4135.38461538 , 4138.46153846 , 4194.35897436 , 4913.84615385 , 4136.92307692 , 4144.61538462 , 2040.0 , 2031.0 , 207.9 , 0.0 , 0.0 , 0.0 , 0.0 , 

100.0 , 4136.92307692 , 4132.82051282 , 4136.92307692 , 4136.41025641 , 4130.76923077 , 4130.76923077 , 4125.12820513 , 4135.38461538 , 4135.38461538 , 4138.97435897 , 4193.33333333 , 4912.30769231 , 4137.43589744 , 4138.46153846 , 2042.0 , 2032.0 , 207.905 , 0.0 , 0.0 , 0.0 , 0.0 , 

101.0 , 4134.35897436 , 4131.28205128 , 4136.41025641 , 4135.38461538 , 4131.28205128 , 4129.74358974 , 4125.64102564 , 4135.8974359 , 4134.35897436 , 4140.0 , 4192.30769231 , 4913.33333333 , 4136.41025641 , 4139.48717949 , 2044.0 , 2031.0 , 207.912 , 0.0 , 0.0 , 0.0 , 0.0 , 

102.0 , 4134.87179487 , 4130.76923077 , 4135.8974359 , 4135.8974359 , 4130.76923077 , 4130.76923077 , 4129.23076923 , 4138.46153846 , 4134.87179487 , 4141.02564103 , 4191.79487179 , 4915.8974359 , 4136.41025641 , 4141.02564103 , 2043.0 , 2032.0 , 207.921 , 0.0 , 0.0 , 0.0 , 0.0 , 

103.0 , 4138.97435897 , 4130.76923077 , 4136.92307692 , 4135.38461538 , 4128.20512821 , 4129.74358974 , 4128.71794872 , 4136.41025641 , 4136.41025641 , 4140.0 , 4192.30769231 , 4913.33333333 , 4138.46153846 , 4138.97435897 , 2043.0 , 2034.0 , 207.933 , 0.0 , 0.0 , 0.0 , 0.0 , 

104.0 , 4137.94871795 , 4130.76923077 , 4137.43589744 , 4133.84615385 , 4131.79487179 , 4128.71794872 , 4126.15384615 , 4132.30769231 , 4135.38461538 , 4137.94871795 , 4193.33333333 , 4910.76923077 , 4135.38461538 , 4138.97435897 , 2044.0 , 2035.0 , 207.937 , 0.0 , 0.0 , 0.0 , 0.0 , 

105.0 , 4134.35897436 , 4131.28205128 , 4135.8974359 , 4134.87179487 , 4133.84615385 , 4131.28205128 , 4127.69230769 , 4133.33333333 , 4136.41025641 , 4138.97435897 , 4192.30769231 , 4913.84615385 , 4134.35897436 , 4141.02564103 , 2044.0 , 2035.0 , 207.942 , 0.0 , 0.0 , 0.0 , 0.0 , 

106.0 , 4134.87179487 , 4131.28205128 , 4134.87179487 , 4134.35897436 , 4131.28205128 , 4131.79487179 , 4129.23076923 , 4134.35897436 , 4138.46153846 , 4141.02564103 , 4190.76923077 , 4913.84615385 , 4135.8974359 , 4141.53846154 , 2044.0 , 2035.0 , 207.952 , 0.0 , 0.0 , 0.0 , 0.0 , 

107.0 , 4135.8974359 , 4130.25641026 , 4135.38461538 , 4132.82051282 , 4131.79487179 , 4128.71794872 , 4128.71794872 , 4131.79487179 , 4136.41025641 , 4140.51282051 , 4191.28205128 , 4909.23076923 , 4136.92307692 , 4139.48717949 , 2044.0 , 2035.0 , 207.965 , 0.0 , 0.0 , 0.0 , 0.0 , 

108.0 , 4137.43589744 , 4128.20512821 , 4135.8974359 , 4136.41025641 , 4132.82051282 , 4128.20512821 , 4125.64102564 , 4129.74358974 , 4132.82051282 , 4138.46153846 , 4193.33333333 , 4913.84615385 , 4135.38461538 , 4144.61538462 , 2045.0 , 2037.0 , 207.969 , 0.0 , 0.0 , 0.0 , 0.0 , 

109.0 , 4136.92307692 , 4129.23076923 , 4134.35897436 , 4139.48717949 , 4132.82051282 , 4131.28205128 , 4126.15384615 , 4134.35897436 , 4135.38461538 , 4138.46153846 , 4193.33333333 , 4915.8974359 , 4135.38461538 , 4142.56410256 , 2044.0 , 2038.0 , 207.975 , 0.0 , 0.0 , 0.0 , 0.0 , 

110.0 , 4140.0 , 4130.25641026 , 4134.35897436 , 4134.35897436 , 4132.82051282 , 4129.23076923 , 4127.69230769 , 4134.87179487 , 4135.38461538 , 4139.48717949 , 4191.79487179 , 4912.82051282 , 4137.43589744 , 4141.02564103 , 2044.0 , 2039.0 , 207.983 , 0.0 , 0.0 , 0.0 , 0.0 , 

111.0 , 4137.94871795 , 4131.28205128 , 4135.8974359 , 4133.84615385 , 4131.79487179 , 4129.23076923 , 4128.71794872 , 4134.35897436 , 4134.87179487 , 4138.97435897 , 4192.30769231 , 4910.76923077 , 4137.43589744 , 4140.51282051 , 2043.0 , 2038.0 , 207.994 , 0.0 , 0.0 , 0.0 , 0.0 , 

112.0 , 4137.43589744 , 4131.79487179 , 4136.92307692 , 4136.41025641 , 4130.25641026 , 4130.25641026 , 4128.20512821 , 4135.8974359 , 4136.92307692 , 4138.46153846 , 4193.33333333 , 4913.84615385 , 4133.84615385 , 4144.1025641 , 2042.0 , 2039.0 , 208.0 , 0.0 , 0.0 , 0.0 , 0.0 , 

113.0 , 4137.94871795 , 4131.28205128 , 4134.87179487 , 4135.8974359 , 4130.76923077 , 4129.23076923 , 4128.71794872 , 4135.8974359 , 4138.46153846 , 4138.46153846 , 4191.28205128 , 4913.33333333 , 4133.33333333 , 4137.94871795 , 2042.0 , 2039.0 , 208.007 , 0.0 , 0.0 , 0.0 , 0.0 , 

114.0 , 4137.94871795 , 4129.23076923 , 4134.87179487 , 4133.84615385 , 4130.76923077 , 4127.17948718 , 4127.69230769 , 4132.30769231 , 4135.38461538 , 4138.97435897 , 4191.28205128 , 4914.87179487 , 4135.38461538 , 4136.41025641 , 2043.0 , 2038.0 , 208.014 , 0.0 , 0.0 , 0.0 , 0.0 , 

115.0 , 4134.35897436 , 4130.76923077 , 4135.38461538 , 4135.38461538 , 4129.74358974 , 4130.76923077 , 4129.23076923 , 4131.28205128 , 4135.8974359 , 4139.48717949 , 4192.82051282 , 4912.82051282 , 4134.35897436 , 4137.43589744 , 2041.0 , 2038.0 , 208.027 , 0.0 , 0.0 , 0.0 , 0.0 , 

116.0 , 4136.92307692 , 4131.28205128 , 4134.87179487 , 4134.35897436 , 4129.74358974 , 4131.28205128 , 4130.76923077 , 4134.35897436 , 4137.43589744 , 4137.94871795 , 4193.84615385 , 4912.30769231 , 4133.33333333 , 4141.02564103 , 2042.0 , 2039.0 , 208.031 , 0.0 , 0.0 , 0.0 , 0.0 , 

117.0 , 4137.94871795 , 4128.20512821 , 4135.38461538 , 4133.84615385 , 4131.28205128 , 4130.25641026 , 4129.23076923 , 4137.94871795 , 4134.87179487 , 4136.92307692 , 4190.76923077 , 4912.82051282 , 4137.43589744 , 4140.51282051 , 2042.0 , 2037.0 , 208.038 , 0.0 , 0.0 , 0.0 , 0.0 , 

118.0 , 4136.41025641 , 4126.66666667 , 4136.92307692 , 4132.82051282 , 4132.30769231 , 4129.23076923 , 4126.66666667 , 4135.8974359 , 4131.79487179 , 4137.43589744 , 4191.28205128 , 4913.84615385 , 4138.97435897 , 4143.07692308 , 2041.0 , 2039.0 , 208.046 , 0.0 , 0.0 , 0.0 , 0.0 , 

119.0 , 4135.38461538 , 4128.71794872 , 4135.8974359 , 4134.35897436 , 4133.33333333 , 4128.20512821 , 4126.15384615 , 4134.87179487 , 4134.35897436 , 4137.94871795 , 4193.84615385 , 4910.76923077 , 4135.38461538 , 4141.02564103 , 2042.0 , 2038.0 , 208.244 , 0.0 , 0.0 , 0.0 , 0.0 , 

120.0 , 4138.46153846 , 4127.17948718 , 4133.84615385 , 4136.92307692 , 4132.30769231 , 4128.71794872 , 4127.69230769 , 4136.92307692 , 4136.41025641 , 4137.43589744 , 4194.35897436 , 4911.28205128 , 4133.84615385 , 4138.97435897 , 2041.0 , 2037.0 , 208.247 , 0.0 , 0.0 , 0.0 , 0.0 , 

121.0 , 4138.97435897 , 4121.53846154 , 4136.41025641 , 4135.8974359 , 4132.30769231 , 4132.82051282 , 4130.76923077 , 4137.43589744 , 4134.35897436 , 4136.92307692 , 4193.84615385 , 4914.87179487 , 4134.35897436 , 4142.56410256 , 2043.0 , 2038.0 , 208.247 , 0.0 , 0.0 , 0.0 , 0.0 , 

122.0 , 4138.46153846 , 4121.02564103 , 4137.43589744 , 4133.33333333 , 4132.30769231 , 4132.82051282 , 4130.25641026 , 4135.8974359 , 4135.38461538 , 4138.46153846 , 4194.35897436 , 4914.87179487 , 4135.8974359 , 4144.1025641 , 2041.0 , 2037.0 , 208.247 , 0.0 , 0.0 , 0.0 , 0.0 , 

123.0 , 4138.97435897 , 4121.53846154 , 4136.92307692 , 4131.79487179 , 4131.79487179 , 4128.71794872 , 4127.69230769 , 4136.92307692 , 4136.41025641 , 4140.0 , 4192.30769231 , 4913.84615385 , 4135.38461538 , 4143.07692308 , 2041.0 , 2038.0 , 208.247 , 0.0 , 0.0 , 0.0 , 0.0 , 

124.0 , 4139.48717949 , 4122.05128205 , 4139.48717949 , 4131.28205128 , 4130.25641026 , 4128.71794872 , 4129.23076923 , 4138.97435897 , 4135.8974359 , 4139.48717949 , 4190.76923077 , 4915.8974359 , 4135.8974359 , 4142.56410256 , 2042.0 , 2037.0 , 208.247 , 0.0 , 0.0 , 0.0 , 0.0 , 

125.0 , 4140.0 , 4123.58974359 , 4141.53846154 , 4131.28205128 , 4129.74358974 , 4129.74358974 , 4129.74358974 , 4136.41025641 , 4136.41025641 , 4137.94871795 , 4193.33333333 , 4917.43589744 , 4136.92307692 , 4144.61538462 , 2042.0 , 2036.0 , 208.247 , 0.0 , 0.0 , 0.0 , 0.0 , 

126.0 , 4137.94871795 , 4124.1025641 , 4139.48717949 , 4131.79487179 , 4130.76923077 , 4129.74358974 , 4128.71794872 , 4136.41025641 , 4136.92307692 , 4138.97435897 , 4195.38461538 , 4913.84615385 , 4135.8974359 , 4143.07692308 , 2043.0 , 2035.0 , 208.247 , 0.0 , 0.0 , 0.0 , 0.0 , 

127.0 , 4136.41025641 , 4124.61538462 , 4138.97435897 , 4132.30769231 , 4130.25641026 , 4130.76923077 , 4130.25641026 , 4137.94871795 , 4133.84615385 , 4139.48717949 , 4194.35897436 , 4913.84615385 , 4133.84615385 , 4143.07692308 , 2044.0 , 2036.0 , 208.247 , 0.0 , 0.0 , 0.0 , 0.0 , 

128.0 , 4133.84615385 , 4129.23076923 , 4140.0 , 4134.87179487 , 4132.82051282 , 4133.84615385 , 4132.82051282 , 4137.94871795 , 4134.87179487 , 4138.46153846 , 4192.82051282 , 4913.33333333 , 4136.41025641 , 4136.41025641 , 2045.0 , 2037.0 , 208.247 , 0.0 , 0.0 , 0.0 , 0.0 , 

0.0 , 4135.38461538 , 4132.30769231 , 4137.94871795 , 4133.84615385 , 4133.84615385 , 4131.79487179 , 4129.74358974 , 4135.38461538 , 4135.8974359 , 4138.97435897 , 4193.84615385 , 4913.33333333 , 4136.92307692 , 4139.48717949 , 2044.0 , 2035.0 , 208.247 , 0.0 , 0.0 , 0.0 , 0.0 , 

1.0 , 4134.35897436 , 4130.76923077 , 4132.82051282 , 4134.87179487 , 4131.79487179 , 4130.76923077 , 4128.20512821 , 4135.38461538 , 4136.41025641 , 4138.46153846 , 4194.35897436 , 4910.76923077 , 4134.87179487 , 4143.07692308 , 2044.0 , 2036.0 , 208.247 , 0.0 , 0.0 , 0.0 , 0.0 , 

2.0 , 4133.84615385 , 4131.79487179 , 4133.84615385 , 4136.92307692 , 4129.74358974 , 4130.76923077 , 4129.23076923 , 4135.8974359 , 4137.94871795 , 4138.97435897 , 4193.84615385 , 4912.82051282 , 4135.8974359 , 4141.53846154 , 2045.0 , 2037.0 , 208.247 , 0.0 , 0.0 , 0.0 , 0.0 , 

3.0 , 4131.79487179 , 4134.35897436 , 4139.48717949 , 4136.41025641 , 4132.30769231 , 4131.79487179 , 4131.79487179 , 4136.92307692 , 4138.97435897 , 4139.48717949 , 4192.30769231 , 4913.84615385 , 4136.41025641 , 4137.94871795 , 2044.0 , 2037.0 , 208.247 , 0.0 , 0.0 , 0.0 , 0.0 , 

4.0 , 4134.87179487 , 4130.76923077 , 4141.53846154 , 4134.87179487 , 4132.30769231 , 4131.28205128 , 4129.74358974 , 4135.8974359 , 4134.87179487 , 4138.97435897 , 4193.33333333 , 4913.33333333 , 4135.8974359 , 4144.1025641 , 2042.0 , 2037.0 , 208.247 , 0.0 , 0.0 , 0.0 , 0.0 , 

5.0 , 4136.41025641 , 4129.23076923 , 4136.41025641 , 4134.35897436 , 4130.76923077 , 4134.87179487 , 4127.69230769 , 4135.8974359 , 4133.84615385 , 4137.94871795 , 4192.82051282 , 4912.30769231 , 4136.41025641 , 4142.05128205 , 2043.0 , 2038.0 , 208.247 , 0.0 , 0.0 , 0.0 , 0.0 , 

6.0 , 4136.41025641 , 4128.71794872 , 4135.8974359 , 4131.79487179 , 4129.74358974 , 4133.33333333 , 4127.69230769 , 4136.92307692 , 4136.41025641 , 4135.8974359 , 4190.76923077 , 4915.38461538 , 4136.92307692 , 4142.56410256 , 2043.0 , 2038.0 , 208.247 , 0.0 , 0.0 , 0.0 , 0.0 , 

7.0 , 4133.84615385 , 4129.23076923 , 4136.92307692 , 4134.35897436 , 4131.79487179 , 4129.74358974 , 4131.28205128 , 4137.94871795 , 4135.38461538 , 4135.8974359 , 4191.28205128 , 4915.8974359 , 4135.38461538 , 4143.58974359 , 2043.0 , 2037.0 , 208.247 , 0.0 , 0.0 , 0.0 , 0.0 , 

8.0 , 4134.87179487 , 4131.79487179 , 4135.38461538 , 4136.92307692 , 4131.79487179 , 4131.28205128 , 4130.25641026 , 4136.41025641 , 4135.38461538 , 4140.0 , 4192.82051282 , 4914.35897436 , 4135.8974359 , 4142.05128205 , 2043.0 , 2037.0 , 208.247 , 0.0 , 0.0 , 0.0 , 0.0 , 

9.0 , 4134.35897436 , 4133.84615385 , 4133.84615385 , 4133.84615385 , 4130.25641026 , 4135.8974359 , 4127.69230769 , 4135.8974359 , 4137.43589744 , 4142.56410256 , 4191.79487179 , 4912.82051282 , 4135.38461538 , 4141.02564103 , 2043.0 , 2037.0 , 208.247 , 0.0 , 0.0 , 0.0 , 0.0 , 

10.0 , 4130.76923077 , 4130.76923077 , 4134.87179487 , 4134.87179487 , 4130.25641026 , 4132.82051282 , 4128.71794872 , 4135.8974359 , 4137.94871795 , 4140.0 , 4191.79487179 , 4915.38461538 , 4135.8974359 , 4143.07692308 , 2041.0 , 2036.0 , 208.247 , 0.0 , 0.0 , 0.0 , 0.0 , 

11.0 , 4130.25641026 , 4130.25641026 , 4135.8974359 , 4137.43589744 , 4131.79487179 , 4128.20512821 , 4131.28205128 , 4135.8974359 , 4136.92307692 , 4137.94871795 , 4193.84615385 , 4915.38461538 , 4135.8974359 , 4139.48717949 , 2043.0 , 2038.0 , 208.247 , 0.0 , 0.0 , 0.0 , 0.0 , 

12.0 , 4131.79487179 , 4132.30769231 , 4135.38461538 , 4135.8974359 , 4131.28205128 , 4129.23076923 , 4131.28205128 , 4138.97435897 , 4133.84615385 , 4140.0 , 4192.82051282 , 4912.30769231 , 4135.38461538 , 4137.94871795 , 2044.0 , 2036.0 , 208.247 , 0.0 , 0.0 , 0.0 , 0.0 , 

13.0 , 4133.33333333 , 4130.25641026 , 4135.38461538 , 4134.87179487 , 4131.79487179 , 4130.76923077 , 4130.25641026 , 4137.43589744 , 4131.79487179 , 4139.48717949 , 4190.76923077 , 4911.79487179 , 4135.38461538 , 4142.05128205 , 2043.0 , 2037.0 , 208.247 , 0.0 , 0.0 , 0.0 , 0.0 , 

14.0 , 4135.8974359 , 4128.71794872 , 4136.41025641 , 4135.8974359 , 4133.33333333 , 4132.30769231 , 4130.25641026 , 4132.30769231 , 4133.84615385 , 4138.97435897 , 4192.82051282 , 4913.33333333 , 4137.43589744 , 4142.56410256 , 2040.0 , 2036.0 , 208.247 , 0.0 , 0.0 , 0.0 , 0.0 , 

15.0 , 4137.43589744 , 4130.76923077 , 4137.94871795 , 4132.30769231 , 4131.79487179 , 4132.30769231 , 4127.69230769 , 4130.76923077 , 4133.33333333 , 4138.97435897 , 4193.33333333 , 4913.84615385 , 4136.92307692 , 4142.05128205 , 2040.0 , 2037.0 , 208.263 , 0.0 , 0.0 , 0.0 , 0.0 , 

16.0 , 4135.38461538 , 4131.28205128 , 4135.38461538 , 4132.30769231 , 4129.23076923 , 4130.76923077 , 4126.66666667 , 4137.43589744 , 4133.33333333 , 4138.97435897 , 4193.84615385 , 4912.30769231 , 4135.8974359 , 4140.0 , 2042.0 , 2037.0 , 208.268 , 0.0 , 0.0 , 0.0 , 0.0 , 

17.0 , 4135.38461538 , 4130.25641026 , 4134.87179487 , 4132.82051282 , 4130.25641026 , 4129.74358974 , 4128.71794872 , 4137.94871795 , 4135.8974359 , 4138.97435897 , 4195.38461538 , 4914.35897436 , 4134.35897436 , 4142.56410256 , 2042.0 , 2035.0 , 208.269 , 0.0 , 0.0 , 0.0 , 0.0 , 

18.0 , 4132.82051282 , 4129.74358974 , 4136.41025641 , 4132.82051282 , 4132.30769231 , 4131.79487179 , 4130.76923077 , 4132.30769231 , 4140.0 , 4138.97435897 , 4194.87179487 , 4914.35897436 , 4136.41025641 , 4140.51282051 , 2042.0 , 2036.0 , 208.274 , 0.0 , 0.0 , 0.0 , 0.0 , 

19.0 , 4132.82051282 , 4129.74358974 , 4136.92307692 , 4132.82051282 , 4130.25641026 , 4131.79487179 , 4127.17948718 , 4129.23076923 , 4137.94871795 , 4138.97435897 , 4192.82051282 , 4915.38461538 , 4136.92307692 , 4140.0 , 2041.0 , 2035.0 , 208.286 , 0.0 , 0.0 , 0.0 , 0.0 , 

20.0 , 4134.87179487 , 4131.28205128 , 4134.87179487 , 4137.43589744 , 4129.74358974 , 4131.79487179 , 4126.66666667 , 4134.35897436 , 4135.38461538 , 4138.46153846 , 4191.79487179 , 4912.82051282 , 4135.38461538 , 4140.51282051 , 2042.0 , 2037.0 , 208.29 , 0.0 , 0.0 , 0.0 , 0.0 , 

21.0 , 4135.38461538 , 4131.79487179 , 4137.43589744 , 4135.8974359 , 4130.76923077 , 4129.74358974 , 4128.20512821 , 4137.94871795 , 4136.41025641 , 4138.97435897 , 4193.84615385 , 4914.87179487 , 4134.87179487 , 4145.64102564 , 2041.0 , 2035.0 , 208.298 , 0.0 , 0.0 , 0.0 , 0.0 , 

22.0 , 4130.76923077 , 4130.76923077 , 4136.41025641 , 4133.84615385 , 4130.25641026 , 4131.79487179 , 4130.76923077 , 4135.8974359 , 4138.46153846 , 4139.48717949 , 4193.84615385 , 4916.41025641 , 4135.38461538 , 4142.05128205 , 2043.0 , 2036.0 , 208.306 , 0.0 , 0.0 , 0.0 , 0.0 , 

23.0 , 4135.38461538 , 4129.74358974 , 4133.84615385 , 4136.41025641 , 4130.25641026 , 4134.35897436 , 4129.74358974 , 4131.28205128 , 4137.94871795 , 4138.97435897 , 4192.82051282 , 4914.35897436 , 4136.41025641 , 4142.56410256 , 2043.0 , 2036.0 , 208.319 , 0.0 , 0.0 , 0.0 , 0.0 , 

24.0 , 4136.92307692 , 4130.76923077 , 4134.87179487 , 4138.46153846 , 4132.30769231 , 4134.87179487 , 4129.23076923 , 4130.76923077 , 4138.97435897 , 4138.46153846 , 4193.84615385 , 4910.25641026 , 4138.46153846 , 4140.0 , 2042.0 , 2036.0 , 208.323 , 0.0 , 0.0 , 0.0 , 0.0 , 

25.0 , 4133.33333333 , 4130.76923077 , 4136.92307692 , 4135.38461538 , 4129.74358974 , 4132.30769231 , 4128.71794872 , 4132.82051282 , 4141.02564103 , 4138.46153846 , 4194.87179487 , 4911.79487179 , 4140.51282051 , 4138.46153846 , 2043.0 , 2037.0 , 208.33 , 0.0 , 0.0 , 0.0 , 0.0 , 

26.0 , 4133.84615385 , 4131.79487179 , 4135.38461538 , 4134.87179487 , 4129.23076923 , 4131.79487179 , 4129.23076923 , 4137.43589744 , 4138.46153846 , 4139.48717949 , 4194.35897436 , 4911.28205128 , 4140.0 , 4138.46153846 , 2043.0 , 2036.0 , 208.338 , 0.0 , 0.0 , 0.0 , 0.0 , 

27.0 , 4136.41025641 , 4131.79487179 , 4135.8974359 , 4134.87179487 , 4132.30769231 , 4130.76923077 , 4128.20512821 , 4138.97435897 , 4134.87179487 , 4138.46153846 , 4193.84615385 , 4910.76923077 , 4137.94871795 , 4142.05128205 , 2042.0 , 2035.0 , 208.35 , 0.0 , 0.0 , 0.0 , 0.0 , 

28.0 , 4133.84615385 , 4131.28205128 , 4137.43589744 , 4134.35897436 , 4131.28205128 , 4128.20512821 , 4129.74358974 , 4136.41025641 , 4135.38461538 , 4137.94871795 , 4193.33333333 , 4912.30769231 , 4135.38461538 , 4140.0 , 2042.0 , 2035.0 , 208.355 , 0.0 , 0.0 , 0.0 , 0.0 , 

29.0 , 4132.30769231 , 4130.25641026 , 4135.38461538 , 4134.35897436 , 4129.23076923 , 4128.20512821 , 4130.76923077 , 4135.38461538 , 4136.41025641 , 4138.97435897 , 4192.30769231 , 4914.35897436 , 4135.8974359 , 4141.02564103 , 2042.0 , 2034.0 , 208.361 , 0.0 , 0.0 , 0.0 , 0.0 , 

30.0 , 4133.33333333 , 4128.71794872 , 4134.35897436 , 4133.33333333 , 4132.30769231 , 4129.74358974 , 4128.20512821 , 4135.38461538 , 4136.92307692 , 4138.97435897 , 4192.82051282 , 4912.82051282 , 4135.38461538 , 4143.58974359 , 2041.0 , 2033.0 , 208.369 , 0.0 , 0.0 , 0.0 , 0.0 , 

31.0 , 4134.87179487 , 4130.76923077 , 4137.43589744 , 4132.82051282 , 4132.30769231 , 4131.79487179 , 4130.25641026 , 4133.84615385 , 4136.41025641 , 4137.43589744 , 4194.35897436 , 4911.28205128 , 4136.41025641 , 4142.05128205 , 2042.0 , 2034.0 , 208.382 , 0.0 , 0.0 , 0.0 , 0.0 , 

32.0 , 4137.43589744 , 4133.33333333 , 4137.43589744 , 4136.41025641 , 4129.23076923 , 4133.33333333 , 4132.82051282 , 4133.84615385 , 4135.8974359 , 4136.41025641 , 4192.82051282 , 4913.33333333 , 4137.43589744 , 4141.53846154 , 2042.0 , 2034.0 , 208.386 , 0.0 , 0.0 , 0.0 , 0.0 , 

33.0 , 4135.38461538 , 4133.33333333 , 4134.35897436 , 4137.43589744 , 4130.76923077 , 4133.33333333 , 4129.23076923 , 4136.41025641 , 4137.43589744 , 4137.94871795 , 4191.79487179 , 4912.82051282 , 4138.46153846 , 4139.48717949 , 2041.0 , 2033.0 , 208.393 , 0.0 , 0.0 , 0.0 , 0.0 , 

34.0 , 4135.38461538 , 4131.79487179 , 4135.8974359 , 4135.38461538 , 4132.30769231 , 4130.76923077 , 4125.64102564 , 4135.8974359 , 4137.43589744 , 4138.46153846 , 4193.33333333 , 4911.28205128 , 4137.43589744 , 4143.58974359 , 2042.0 , 2032.0 , 208.402 , 0.0 , 0.0 , 0.0 , 0.0 , 

35.0 , 4136.41025641 , 4130.76923077 , 4137.94871795 , 4135.8974359 , 4132.82051282 , 4130.25641026 , 4128.71794872 , 4135.8974359 , 4137.43589744 , 4138.46153846 , 4194.35897436 , 4910.76923077 , 4136.92307692 , 4144.1025641 , 2043.0 , 2031.0 , 208.414 , 0.0 , 0.0 , 0.0 , 0.0 , 

36.0 , 4133.84615385 , 4128.71794872 , 4135.38461538 , 4135.38461538 , 4133.33333333 , 4131.28205128 , 4128.20512821 , 4136.92307692 , 4137.43589744 , 4141.02564103 , 4194.35897436 , 4913.84615385 , 4136.41025641 , 4141.53846154 , 2043.0 , 2032.0 , 208.418 , 0.0 , 0.0 , 0.0 , 0.0 , 

37.0 , 4131.79487179 , 4131.28205128 , 4131.79487179 , 4136.92307692 , 4133.33333333 , 4132.30769231 , 4125.12820513 , 4136.41025641 , 4136.92307692 , 4141.02564103 , 4194.35897436 , 4909.74358974 , 4137.43589744 , 4139.48717949 , 2043.0 , 2032.0 , 208.423 , 0.0 , 0.0 , 0.0 , 0.0 , 

38.0 , 4138.97435897 , 4131.79487179 , 4134.35897436 , 4136.92307692 , 4131.79487179 , 4131.28205128 , 4125.64102564 , 4136.41025641 , 4136.41025641 , 4138.46153846 , 4192.82051282 , 4908.71794872 , 4136.92307692 , 4144.61538462 , 2043.0 , 2034.0 , 208.433 , 0.0 , 0.0 , 0.0 , 0.0 , 

39.0 , 4137.94871795 , 4126.66666667 , 4138.97435897 , 4136.41025641 , 4131.28205128 , 4133.33333333 , 4128.20512821 , 4138.46153846 , 4137.94871795 , 4138.46153846 , 4191.28205128 , 4911.79487179 , 4136.92307692 , 4141.02564103 , 2043.0 , 2033.0 , 208.446 , 0.0 , 0.0 , 0.0 , 0.0 , 

40.0 , 4132.82051282 , 4127.69230769 , 4139.48717949 , 4133.84615385 , 4131.28205128 , 4132.82051282 , 4128.20512821 , 4133.33333333 , 4136.92307692 , 4138.97435897 , 4193.33333333 , 4915.8974359 , 4138.97435897 , 4141.53846154 , 2044.0 , 2033.0 , 208.45 , 0.0 , 0.0 , 0.0 , 0.0 , 

41.0 , 4132.30769231 , 4132.82051282 , 4137.43589744 , 4136.92307692 , 4130.25641026 , 4131.28205128 , 4128.71794872 , 4129.23076923 , 4136.92307692 , 4137.94871795 , 4193.33333333 , 4913.33333333 , 4137.94871795 , 4141.02564103 , 2043.0 , 2033.0 , 208.455 , 0.0 , 0.0 , 0.0 , 0.0 , 

42.0 , 4135.38461538 , 4129.74358974 , 4136.92307692 , 4138.46153846 , 4130.25641026 , 4128.71794872 , 4127.17948718 , 4131.28205128 , 4136.92307692 , 4137.43589744 , 4193.84615385 , 4912.30769231 , 4134.35897436 , 4140.51282051 , 2043.0 , 2036.0 , 208.466 , 0.0 , 0.0 , 0.0 , 0.0 , 

43.0 , 4131.79487179 , 4129.23076923 , 4134.87179487 , 4134.87179487 , 4131.79487179 , 4129.74358974 , 4127.17948718 , 4134.35897436 , 4136.92307692 , 4137.94871795 , 4193.33333333 , 4912.30769231 , 4135.38461538 , 4140.0 , 2044.0 , 2036.0 , 208.479 , 0.0 , 0.0 , 0.0 , 0.0 , 

44.0 , 4132.30769231 , 4133.33333333 , 4134.35897436 , 4133.33333333 , 4131.79487179 , 4130.25641026 , 4128.71794872 , 4135.38461538 , 4136.41025641 , 4137.43589744 , 4192.82051282 , 4913.84615385 , 4137.94871795 , 4145.12820513 , 2044.0 , 2037.0 , 208.482 , 0.0 , 0.0 , 0.0 , 0.0 , 

45.0 , 4134.35897436 , 4133.33333333 , 4134.87179487 , 4136.92307692 , 4131.28205128 , 4131.28205128 , 4127.69230769 , 4133.84615385 , 4136.92307692 , 4137.43589744 , 4192.30769231 , 4914.35897436 , 4134.87179487 , 4142.56410256 , 2044.0 , 2037.0 , 208.487 , 0.0 , 0.0 , 0.0 , 0.0 , 

46.0 , 4133.84615385 , 4129.74358974 , 4135.38461538 , 4137.43589744 , 4130.76923077 , 4129.74358974 , 4126.15384615 , 4132.82051282 , 4134.87179487 , 4137.43589744 , 4192.82051282 , 4914.35897436 , 4134.35897436 , 4141.53846154 , 2044.0 , 2037.0 , 208.496 , 0.0 , 0.0 , 0.0 , 0.0 , 

47.0 , 4134.87179487 , 4128.71794872 , 4135.8974359 , 4135.8974359 , 4131.28205128 , 4128.20512821 , 4128.71794872 , 4134.35897436 , 4134.35897436 , 4138.97435897 , 4193.33333333 , 4915.8974359 , 4136.92307692 , 4142.05128205 , 2043.0 , 2038.0 , 208.506 , 0.0 , 0.0 , 0.0 , 0.0 , 

48.0 , 4136.92307692 , 4130.76923077 , 4135.38461538 , 4137.43589744 , 4131.79487179 , 4129.74358974 , 4129.23076923 , 4135.8974359 , 4137.94871795 , 4139.48717949 , 4193.84615385 , 4916.92307692 , 4136.92307692 , 4139.48717949 , 2045.0 , 2036.0 , 208.512 , 0.0 , 0.0 , 0.0 , 0.0 , 

49.0 , 4133.33333333 , 4130.76923077 , 4136.41025641 , 4137.94871795 , 4133.33333333 , 4130.76923077 , 4127.69230769 , 4135.8974359 , 4139.48717949 , 4137.43589744 , 4192.82051282 , 4914.35897436 , 4134.87179487 , 4138.97435897 , 2045.0 , 2037.0 , 208.519 , 0.0 , 0.0 , 0.0 , 0.0 , 

50.0 , 4131.28205128 , 4130.76923077 , 4138.46153846 , 4134.87179487 , 4133.33333333 , 4131.28205128 , 4127.17948718 , 4137.94871795 , 4137.94871795 , 4139.48717949 , 4191.28205128 , 4910.76923077 , 4134.87179487 , 4139.48717949 , 2043.0 , 2037.0 , 208.528 , 0.0 , 0.0 , 0.0 , 0.0 , 

51.0 , 4135.38461538 , 4131.28205128 , 4138.97435897 , 4134.35897436 , 4131.28205128 , 4133.84615385 , 4126.66666667 , 4138.97435897 , 4136.92307692 , 4142.05128205 , 4192.30769231 , 4912.30769231 , 4135.38461538 , 4140.0 , 2044.0 , 2037.0 , 208.538 , 0.0 , 0.0 , 0.0 , 0.0 , 

52.0 , 4134.87179487 , 4132.30769231 , 4135.8974359 , 4135.8974359 , 4131.79487179 , 4133.84615385 , 4126.15384615 , 4136.41025641 , 4140.0 , 4139.48717949 , 4193.33333333 , 4913.33333333 , 4136.41025641 , 4140.51282051 , 2044.0 , 2037.0 , 208.545 , 0.0 , 0.0 , 0.0 , 0.0 , 

53.0 , 4133.33333333 , 4131.79487179 , 4136.92307692 , 4135.8974359 , 4133.33333333 , 4127.69230769 , 4126.66666667 , 4133.84615385 , 4140.51282051 , 4135.8974359 , 4192.82051282 , 4914.87179487 , 4136.92307692 , 4144.61538462 , 2045.0 , 2036.0 , 208.55 , 0.0 , 0.0 , 0.0 , 0.0 , 

54.0 , 4133.33333333 , 4132.82051282 , 4139.48717949 , 4137.43589744 , 4132.30769231 , 4129.74358974 , 4129.23076923 , 4134.87179487 , 4137.94871795 , 4136.92307692 , 4193.84615385 , 4913.33333333 , 4137.43589744 , 4140.0 , 2043.0 , 2035.0 , 208.558 , 0.0 , 0.0 , 0.0 , 0.0 , 

55.0 , 4136.41025641 , 4133.33333333 , 4137.94871795 , 4136.41025641 , 4128.71794872 , 4135.38461538 , 4128.71794872 , 4133.84615385 , 4135.38461538 , 4139.48717949 , 4195.8974359 , 4912.30769231 , 4135.8974359 , 4140.0 , 2044.0 , 2035.0 , 208.569 , 0.0 , 0.0 , 0.0 , 0.0 , 

56.0 , 4134.87179487 , 4133.33333333 , 4134.35897436 , 4134.87179487 , 4130.25641026 , 4134.35897436 , 4127.17948718 , 4135.8974359 , 4138.97435897 , 4138.97435897 , 4193.84615385 , 4912.30769231 , 4134.87179487 , 4143.58974359 , 2044.0 , 2035.0 , 208.575 , 0.0 , 0.0 , 0.0 , 0.0 , 

57.0 , 4134.35897436 , 4132.30769231 , 4136.41025641 , 4134.35897436 , 4134.87179487 , 4130.25641026 , 4126.15384615 , 4135.38461538 , 4138.46153846 , 4139.48717949 , 4191.28205128 , 4914.87179487 , 4134.87179487 , 4146.66666667 , 2044.0 , 2034.0 , 208.582 , 0.0 , 0.0 , 0.0 , 0.0 , 

58.0 , 4133.84615385 , 4132.30769231 , 4137.94871795 , 4136.41025641 , 4134.35897436 , 4131.79487179 , 4129.74358974 , 4134.35897436 , 4134.87179487 , 4140.0 , 4192.30769231 , 4913.33333333 , 4136.92307692 , 4141.02564103 , 2045.0 , 2034.0 , 208.59 , 0.0 , 0.0 , 0.0 , 0.0 , 

59.0 , 4135.38461538 , 4131.28205128 , 4136.92307692 , 4134.87179487 , 4130.25641026 , 4131.28205128 , 4126.15384615 , 4133.33333333 , 4136.92307692 , 4140.0 , 4193.84615385 , 4915.38461538 , 4136.41025641 , 4143.07692308 , 2044.0 , 2034.0 , 208.602 , 0.0 , 0.0 , 0.0 , 0.0 , 

60.0 , 4134.35897436 , 4131.28205128 , 4137.43589744 , 4134.87179487 , 4131.79487179 , 4130.76923077 , 4124.1025641 , 4135.38461538 , 4140.0 , 4139.48717949 , 4191.79487179 , 4916.92307692 , 4134.87179487 , 4140.0 , 2043.0 , 2033.0 , 208.606 , 0.0 , 0.0 , 0.0 , 0.0 , 

61.0 , 4134.35897436 , 4132.82051282 , 4140.0 , 4135.8974359 , 4133.84615385 , 4131.79487179 , 4127.69230769 , 4134.87179487 , 4137.94871795 , 4138.97435897 , 4191.79487179 , 4917.43589744 , 4135.8974359 , 4138.97435897 , 2043.0 , 2034.0 , 208.613 , 0.0 , 0.0 , 0.0 , 0.0 , 

62.0 , 4133.33333333 , 4134.87179487 , 4136.41025641 , 4134.87179487 , 4131.79487179 , 4132.30769231 , 4130.25641026 , 4134.87179487 , 4138.46153846 , 4138.97435897 , 4193.33333333 , 4917.43589744 , 4137.43589744 , 4139.48717949 , 2043.0 , 2035.0 , 208.622 , 0.0 , 0.0 , 0.0 , 0.0 , 

63.0 , 4133.33333333 , 4133.33333333 , 4132.30769231 , 4133.84615385 , 4130.76923077 , 4131.28205128 , 4127.17948718 , 4136.41025641 , 4138.46153846 , 4139.48717949 , 4193.33333333 , 4917.43589744 , 4137.43589744 , 4140.51282051 , 2044.0 , 2035.0 , 208.634 , 0.0 , 0.0 , 0.0 , 0.0 , 

64.0 , 4132.82051282 , 4130.25641026 , 4134.87179487 , 4136.41025641 , 4133.84615385 , 4129.74358974 , 4126.66666667 , 4134.35897436 , 4137.94871795 , 4138.97435897 , 4191.79487179 , 4911.28205128 , 4136.92307692 , 4137.94871795 , 2043.0 , 2035.0 , 208.637 , 0.0 , 0.0 , 0.0 , 0.0 , 

65.0 , 4134.87179487 , 4129.74358974 , 4139.48717949 , 4135.38461538 , 4133.84615385 , 4128.20512821 , 4127.17948718 , 4133.33333333 , 4138.97435897 , 4137.43589744 , 4191.79487179 , 4909.23076923 , 4136.41025641 , 4139.48717949 , 2044.0 , 2035.0 , 208.645 , 0.0 , 0.0 , 0.0 , 0.0 , 

66.0 , 4136.92307692 , 4130.76923077 , 4136.92307692 , 4132.82051282 , 4132.82051282 , 4130.25641026 , 4127.17948718 , 4134.87179487 , 4137.94871795 , 4137.94871795 , 4193.33333333 , 4913.33333333 , 4134.87179487 , 4140.51282051 , 2045.0 , 2035.0 , 208.653 , 0.0 , 0.0 , 0.0 , 0.0 , 

67.0 , 4135.8974359 , 4130.76923077 , 4133.33333333 , 4134.87179487 , 4132.82051282 , 4132.82051282 , 4127.69230769 , 4133.84615385 , 4135.8974359 , 4141.02564103 , 4192.30769231 , 4915.38461538 , 4135.8974359 , 4140.51282051 , 2043.0 , 2035.0 , 208.666 , 0.0 , 0.0 , 0.0 , 0.0 , 

68.0 , 4134.87179487 , 4129.74358974 , 4136.41025641 , 4135.8974359 , 4133.84615385 , 4130.76923077 , 4127.69230769 , 4132.82051282 , 4136.92307692 , 4141.02564103 , 4191.28205128 , 4914.35897436 , 4137.43589744 , 4143.07692308 , 2042.0 , 2035.0 , 208.67 , 0.0 , 0.0 , 0.0 , 0.0 , 

69.0 , 4134.87179487 , 4131.28205128 , 4137.94871795 , 4134.87179487 , 4132.30769231 , 4129.23076923 , 4128.20512821 , 4135.8974359 , 4138.46153846 , 4143.07692308 , 4193.33333333 , 4913.33333333 , 4136.92307692 , 4142.56410256 , 2044.0 , 2035.0 , 208.676 , 0.0 , 0.0 , 0.0 , 0.0 , 

70.0 , 4135.8974359 , 4134.35897436 , 4135.8974359 , 4134.35897436 , 4130.76923077 , 4130.25641026 , 4127.69230769 , 4135.8974359 , 4136.41025641 , 4144.61538462 , 4194.35897436 , 4916.41025641 , 4133.33333333 , 4144.61538462 , 2043.0 , 2036.0 , 208.684 , 0.0 , 0.0 , 0.0 , 0.0 , 

71.0 , 4134.35897436 , 4134.35897436 , 4136.41025641 , 4134.87179487 , 4133.84615385 , 4131.28205128 , 4127.17948718 , 4132.82051282 , 4135.38461538 , 4141.53846154 , 4193.33333333 , 4914.87179487 , 4133.33333333 , 4148.20512821 , 2042.0 , 2037.0 , 208.695 , 0.0 , 0.0 , 0.0 , 0.0 , 

72.0 , 4136.92307692 , 4130.25641026 , 4138.46153846 , 4133.84615385 , 4134.87179487 , 4130.25641026 , 4127.69230769 , 4134.35897436 , 4135.38461538 , 4140.51282051 , 4193.84615385 , 4914.87179487 , 4134.87179487 , 4146.15384615 , 2043.0 , 2037.0 , 208.701 , 0.0 , 0.0 , 0.0 , 0.0 , 

73.0 , 4137.43589744 , 4131.79487179 , 4136.41025641 , 4134.87179487 , 4131.79487179 , 4130.25641026 , 4128.71794872 , 4136.92307692 , 4138.97435897 , 4142.05128205 , 4193.33333333 , 4914.87179487 , 4135.38461538 , 4137.94871795 , 2040.0 , 2036.0 , 208.708 , 0.0 , 0.0 , 0.0 , 0.0 , 

74.0 , 4136.92307692 , 4134.87179487 , 4136.92307692 , 4135.38461538 , 4130.25641026 , 4129.74358974 , 4128.20512821 , 4134.35897436 , 4140.0 , 4140.0 , 4192.30769231 , 4915.8974359 , 4134.87179487 , 4140.51282051 , 2040.0 , 2039.0 , 208.716 , 0.0 , 0.0 , 0.0 , 0.0 , 

75.0 , 4133.84615385 , 4132.82051282 , 4136.41025641 , 4135.38461538 , 4130.76923077 , 4132.30769231 , 4130.25641026 , 4134.35897436 , 4138.46153846 , 4138.46153846 , 4192.30769231 , 4913.84615385 , 4135.38461538 , 4139.48717949 , 2041.0 , 2039.0 , 208.728 , 0.0 , 0.0 , 0.0 , 0.0 , 

76.0 , 4133.84615385 , 4129.74358974 , 4134.35897436 , 4135.38461538 , 4129.74358974 , 4130.76923077 , 4128.20512821 , 4135.38461538 , 4134.87179487 , 4140.51282051 , 4192.82051282 , 4916.41025641 , 4134.35897436 , 4140.0 , 2042.0 , 2038.0 , 208.733 , 0.0 , 0.0 , 0.0 , 0.0 , 

77.0 , 4132.82051282 , 4131.79487179 , 4134.87179487 , 4136.41025641 , 4130.25641026 , 4130.25641026 , 4126.15384615 , 4137.43589744 , 4134.87179487 , 4141.02564103 , 4191.79487179 , 4914.87179487 , 4135.38461538 , 4140.0 , 2043.0 , 2038.0 , 208.738 , 0.0 , 0.0 , 0.0 , 0.0 , 

78.0 , 4135.38461538 , 4132.30769231 , 4135.8974359 , 4134.87179487 , 4132.30769231 , 4131.79487179 , 4125.64102564 , 4137.94871795 , 4137.43589744 , 4139.48717949 , 4192.82051282 , 4913.33333333 , 4137.43589744 , 4144.61538462 , 2043.0 , 2038.0 , 208.748 , 0.0 , 0.0 , 0.0 , 0.0 , 

79.0 , 4136.41025641 , 4131.79487179 , 4135.8974359 , 4135.38461538 , 4133.33333333 , 4131.79487179 , 4127.17948718 , 4138.46153846 , 4140.0 , 4138.46153846 , 4192.30769231 , 4914.87179487 , 4137.43589744 , 4140.0 , 2045.0 , 2039.0 , 208.758 , 0.0 , 0.0 , 0.0 , 0.0 , 

80.0 , 4135.8974359 , 4132.30769231 , 4135.8974359 , 4134.87179487 , 4132.30769231 , 4128.20512821 , 4127.17948718 , 4135.8974359 , 4137.43589744 , 4138.46153846 , 4192.30769231 , 4915.38461538 , 4135.38461538 , 4141.02564103 , 2045.0 , 2039.0 , 208.764 , 0.0 , 0.0 , 0.0 , 0.0 , 

81.0 , 4132.82051282 , 4132.82051282 , 4136.41025641 , 4134.35897436 , 4131.28205128 , 4128.71794872 , 4129.23076923 , 4135.38461538 , 4135.38461538 , 4142.05128205 , 4193.33333333 , 4912.30769231 , 4134.35897436 , 4143.58974359 , 2045.0 , 2036.0 , 208.771 , 0.0 , 0.0 , 0.0 , 0.0 , 

82.0 , 4135.8974359 , 4131.79487179 , 4137.94871795 , 4134.87179487 , 4131.28205128 , 4128.20512821 , 4129.23076923 , 4137.94871795 , 4138.97435897 , 4142.56410256 , 4193.84615385 , 4913.84615385 , 4134.35897436 , 4144.61538462 , 2045.0 , 2037.0 , 208.78 , 0.0 , 0.0 , 0.0 , 0.0 , 

83.0 , 4137.94871795 , 4132.30769231 , 4138.46153846 , 4136.41025641 , 4132.30769231 , 4130.25641026 , 4128.20512821 , 4137.94871795 , 4139.48717949 , 4139.48717949 , 4192.82051282 , 4912.82051282 , 4134.35897436 , 4141.53846154 , 2046.0 , 2037.0 , 208.791 , 0.0 , 0.0 , 0.0 , 0.0 , 

84.0 , 4131.28205128 , 4133.33333333 , 4137.94871795 , 4135.8974359 , 4130.76923077 , 4132.30769231 , 4128.20512821 , 4134.87179487 , 4134.35897436 , 4137.94871795 , 4191.28205128 , 4910.76923077 , 4135.38461538 , 4140.0 , 2045.0 , 2036.0 , 208.797 , 0.0 , 0.0 , 0.0 , 0.0 , 

85.0 , 4129.74358974 , 4131.79487179 , 4136.41025641 , 4134.87179487 , 4130.76923077 , 4130.25641026 , 4129.23076923 , 4135.38461538 , 4134.87179487 , 4139.48717949 , 4192.82051282 , 4912.30769231 , 4135.8974359 , 4141.53846154 , 2045.0 , 2037.0 , 208.801 , 0.0 , 0.0 , 0.0 , 0.0 , 

86.0 , 4135.8974359 , 4131.28205128 , 4136.41025641 , 4138.97435897 , 4131.79487179 , 4128.71794872 , 4130.25641026 , 4137.94871795 , 4137.94871795 , 4138.46153846 , 4194.35897436 , 4912.30769231 , 4135.8974359 , 4143.07692308 , 2045.0 , 2037.0 , 208.81 , 0.0 , 0.0 , 0.0 , 0.0 , 

87.0 , 4136.41025641 , 4132.82051282 , 4137.94871795 , 4138.97435897 , 4130.76923077 , 4130.25641026 , 4129.74358974 , 4137.43589744 , 4136.41025641 , 4136.92307692 , 4192.82051282 , 4913.84615385 , 4134.87179487 , 4144.61538462 , 2045.0 , 2036.0 , 208.821 , 0.0 , 0.0 , 0.0 , 0.0 , 

88.0 , 4131.79487179 , 4131.79487179 , 4136.92307692 , 4135.8974359 , 4129.74358974 , 4130.25641026 , 4126.66666667 , 4136.92307692 , 4133.84615385 , 4136.92307692 , 4191.28205128 , 4916.92307692 , 4136.41025641 , 4143.58974359 , 2045.0 , 2036.0 , 208.828 , 0.0 , 0.0 , 0.0 , 0.0 , 

89.0 , 4134.35897436 , 4130.25641026 , 4135.38461538 , 4133.84615385 , 4130.25641026 , 4129.74358974 , 4125.12820513 , 4136.92307692 , 4134.35897436 , 4138.46153846 , 4193.33333333 , 4916.92307692 , 4137.43589744 , 4142.05128205 , 2045.0 , 2035.0 , 208.834 , 0.0 , 0.0 , 0.0 , 0.0 , 

90.0 , 4135.38461538 , 4130.25641026 , 4135.8974359 , 4136.92307692 , 4131.28205128 , 4133.84615385 , 4129.74358974 , 4136.92307692 , 4135.8974359 , 4137.94871795 , 4193.84615385 , 4911.28205128 , 4137.94871795 , 4137.43589744 , 2045.0 , 2037.0 , 208.842 , 0.0 , 0.0 , 0.0 , 0.0 , 

91.0 , 4133.84615385 , 4131.79487179 , 4138.46153846 , 4136.41025641 , 4131.28205128 , 4134.87179487 , 4129.23076923 , 4136.92307692 , 4137.94871795 , 4136.92307692 , 4192.30769231 , 4912.82051282 , 4137.43589744 , 4141.02564103 , 2045.0 , 2036.0 , 208.852 , 0.0 , 0.0 , 0.0 , 0.0 , 

92.0 , 4133.84615385 , 4132.82051282 , 4136.41025641 , 4133.84615385 , 4132.30769231 , 4132.30769231 , 4128.20512821 , 4138.46153846 , 4137.94871795 , 4138.46153846 , 4192.30769231 , 4914.35897436 , 4137.43589744 , 4143.07692308 , 2045.0 , 2035.0 , 208.859 , 0.0 , 0.0 , 0.0 , 0.0 , 

93.0 , 4134.87179487 , 4129.74358974 , 4134.35897436 , 4133.33333333 , 4132.30769231 , 4130.25641026 , 4127.69230769 , 4136.92307692 , 4135.38461538 , 4139.48717949 , 4192.30769231 , 4913.84615385 , 4136.92307692 , 4144.61538462 , 2046.0 , 2037.0 , 208.865 , 0.0 , 0.0 , 0.0 , 0.0 , 

94.0 , 4134.35897436 , 4130.25641026 , 4134.87179487 , 4134.87179487 , 4132.30769231 , 4134.35897436 , 4128.20512821 , 4137.94871795 , 4136.41025641 , 4138.97435897 , 4191.79487179 , 4910.76923077 , 4137.43589744 , 4138.97435897 , 2045.0 , 2037.0 , 208.873 , 0.0 , 0.0 , 0.0 , 0.0 , 

95.0 , 4135.38461538 , 4134.35897436 , 4136.92307692 , 4134.35897436 , 4130.76923077 , 4133.33333333 , 4128.71794872 , 4137.43589744 , 4135.38461538 , 4136.92307692 , 4193.84615385 , 4913.84615385 , 4137.43589744 , 4143.58974359 , 2042.0 , 2037.0 , 208.885 , 0.0 , 0.0 , 0.0 , 0.0 , 

96.0 , 4131.79487179 , 4134.87179487 , 4136.92307692 , 4137.43589744 , 4131.28205128 , 4128.71794872 , 4131.28205128 , 4134.35897436 , 4135.38461538 , 4137.43589744 , 4194.35897436 , 4916.41025641 , 4135.8974359 , 4147.17948718 , 2043.0 , 2037.0 , 208.89 , 0.0 , 0.0 , 0.0 , 0.0 , 

97.0 , 4132.82051282 , 4131.28205128 , 4135.8974359 , 4137.94871795 , 4132.82051282 , 4129.23076923 , 4129.23076923 , 4133.33333333 , 4139.48717949 , 4137.43589744 , 4192.82051282 , 4916.41025641 , 4133.84615385 , 4146.66666667 , 2043.0 , 2038.0 , 208.897 , 0.0 , 0.0 , 0.0 , 0.0 , 

98.0 , 4136.92307692 , 4131.79487179 , 4137.43589744 , 4133.33333333 , 4131.28205128 , 4132.82051282 , 4127.69230769 , 4136.92307692 , 4140.51282051 , 4135.8974359 , 4192.30769231 , 4913.33333333 , 4135.38461538 , 4141.53846154 , 2044.0 , 2038.0 , 208.906 , 0.0 , 0.0 , 0.0 , 0.0 , 

99.0 , 4135.8974359 , 4131.79487179 , 4138.97435897 , 4130.25641026 , 4129.23076923 , 4131.79487179 , 4127.17948718 , 4137.43589744 , 4134.35897436 , 4138.46153846 , 4195.38461538 , 4915.8974359 , 4135.8974359 , 4143.07692308 , 2043.0 , 2036.0 , 208.917 , 0.0 , 0.0 , 0.0 , 0.0 , 

100.0 , 4131.79487179 , 4131.28205128 , 4136.41025641 , 4135.38461538 , 4131.79487179 , 4132.30769231 , 4126.66666667 , 4136.41025641 , 4131.79487179 , 4142.56410256 , 4194.87179487 , 4915.38461538 , 4130.76923077 , 4139.48717949 , 2043.0 , 2037.0 , 208.922 , 0.0 , 0.0 , 0.0 , 0.0 , 

101.0 , 4133.33333333 , 4134.35897436 , 4133.33333333 , 4135.38461538 , 4132.30769231 , 4132.30769231 , 4127.17948718 , 4137.94871795 , 4136.41025641 , 4140.51282051 , 4193.84615385 , 4912.82051282 , 4133.33333333 , 4137.43589744 , 2043.0 , 2037.0 , 208.929 , 0.0 , 0.0 , 0.0 , 0.0 , 

102.0 , 4135.38461538 , 4135.8974359 , 4134.35897436 , 4133.33333333 , 4130.76923077 , 4131.79487179 , 4128.20512821 , 4138.97435897 , 4137.94871795 , 4137.43589744 , 4193.84615385 , 4911.28205128 , 4139.48717949 , 4138.46153846 , 2043.0 , 2037.0 , 208.936 , 0.0 , 0.0 , 0.0 , 0.0 , 

103.0 , 4133.84615385 , 4131.79487179 , 4135.8974359 , 4135.8974359 , 4131.79487179 , 4133.33333333 , 4126.66666667 , 4136.92307692 , 4133.84615385 , 4138.46153846 , 4193.33333333 , 4914.35897436 , 4138.46153846 , 4140.0 , 2043.0 , 2037.0 , 208.948 , 0.0 , 0.0 , 0.0 , 0.0 , 

104.0 , 4132.30769231 , 4128.71794872 , 4135.8974359 , 4137.43589744 , 4132.30769231 , 4132.82051282 , 4128.20512821 , 4135.38461538 , 4132.82051282 , 4140.0 , 4192.82051282 , 4916.41025641 , 4134.87179487 , 4143.07692308 , 2042.0 , 2036.0 , 208.953 , 0.0 , 0.0 , 0.0 , 0.0 , 

105.0 , 4133.84615385 , 4131.79487179 , 4134.35897436 , 4135.8974359 , 4130.76923077 , 4129.74358974 , 4129.74358974 , 4137.43589744 , 4136.41025641 , 4137.94871795 , 4192.82051282 , 4913.84615385 , 4137.43589744 , 4145.12820513 , 2041.0 , 2035.0 , 208.96 , 0.0 , 0.0 , 0.0 , 0.0 , 

106.0 , 4136.92307692 , 4134.35897436 , 4135.38461538 , 4134.35897436 , 4131.28205128 , 4130.25641026 , 4127.69230769 , 4137.94871795 , 4136.41025641 , 4136.92307692 , 4193.33333333 , 4911.79487179 , 4137.94871795 , 4142.56410256 , 2042.0 , 2034.0 , 208.968 , 0.0 , 0.0 , 0.0 , 0.0 , 

107.0 , 4134.35897436 , 4131.79487179 , 4135.38461538 , 4135.8974359 , 4131.28205128 , 4134.35897436 , 4128.20512821 , 4135.8974359 , 4134.35897436 , 4139.48717949 , 4193.33333333 , 4909.74358974 , 4136.92307692 , 4141.02564103 , 2043.0 , 2035.0 , 208.978 , 0.0 , 0.0 , 0.0 , 0.0 , 

108.0 , 4133.84615385 , 4127.17948718 , 4135.38461538 , 4137.43589744 , 4129.23076923 , 4132.82051282 , 4128.71794872 , 4132.82051282 , 4135.8974359 , 4140.51282051 , 4193.84615385 , 4914.35897436 , 4134.87179487 , 4146.66666667 , 2043.0 , 2036.0 , 208.985 , 0.0 , 0.0 , 0.0 , 0.0 , 

109.0 , 4133.84615385 , 4131.79487179 , 4136.92307692 , 4136.92307692 , 4131.79487179 , 4129.74358974 , 4127.69230769 , 4132.82051282 , 4137.94871795 , 4138.46153846 , 4192.82051282 , 4915.8974359 , 4133.33333333 , 4141.53846154 , 2043.0 , 2036.0 , 208.992 , 0.0 , 0.0 , 0.0 , 0.0 , 

110.0 , 4136.41025641 , 4136.41025641 , 4137.43589744 , 4132.82051282 , 4132.82051282 , 4129.23076923 , 4126.66666667 , 4132.82051282 , 4135.38461538 , 4138.46153846 , 4192.30769231 , 4914.87179487 , 4135.38461538 , 4140.51282051 , 2043.0 , 2036.0 , 208.999 , 0.0 , 0.0 , 0.0 , 0.0 , 

111.0 , 4134.87179487 , 4134.87179487 , 4134.35897436 , 4133.84615385 , 4130.76923077 , 4131.79487179 , 4129.23076923 , 4132.82051282 , 4135.8974359 , 4139.48717949 , 4193.84615385 , 4913.84615385 , 4136.41025641 , 4142.56410256 , 2042.0 , 2036.0 , 209.011 , 0.0 , 0.0 , 0.0 , 0.0 , 

112.0 , 4132.82051282 , 4131.28205128 , 4134.35897436 , 4138.46153846 , 4131.79487179 , 4131.28205128 , 4130.25641026 , 4131.28205128 , 4137.43589744 , 4138.97435897 , 4193.33333333 , 4916.92307692 , 4134.35897436 , 4145.12820513 , 2042.0 , 2034.0 , 209.016 , 0.0 , 0.0 , 0.0 , 0.0 , 

113.0 , 4128.20512821 , 4133.33333333 , 4135.8974359 , 4141.02564103 , 4132.82051282 , 4130.76923077 , 4130.25641026 , 4131.79487179 , 4136.92307692 , 4140.51282051 , 4192.82051282 , 4912.82051282 , 4135.38461538 , 4137.94871795 , 2041.0 , 2037.0 , 209.023 , 0.0 , 0.0 , 0.0 , 0.0 , 

114.0 , 4128.71794872 , 4132.82051282 , 4135.8974359 , 4138.46153846 , 4128.20512821 , 4130.25641026 , 4129.74358974 , 4132.30769231 , 4132.82051282 , 4138.97435897 , 4194.35897436 , 4908.71794872 , 4135.8974359 , 4140.51282051 , 2040.0 , 2038.0 , 209.031 , 0.0 , 0.0 , 0.0 , 0.0 , 

115.0 , 4130.25641026 , 4132.30769231 , 4133.84615385 , 4135.8974359 , 4127.69230769 , 4128.71794872 , 4127.69230769 , 4135.8974359 , 4133.84615385 , 4136.92307692 , 4192.30769231 , 4910.25641026 , 4135.8974359 , 4144.61538462 , 2041.0 , 2037.0 , 209.042 , 0.0 , 0.0 , 0.0 , 0.0 , 

116.0 , 4133.84615385 , 4131.79487179 , 4134.87179487 , 4135.38461538 , 4130.76923077 , 4127.17948718 , 4123.07692308 , 4136.41025641 , 4136.41025641 , 4140.0 , 4190.76923077 , 4914.87179487 , 4135.38461538 , 4145.12820513 , 2041.0 , 2035.0 , 209.048 , 0.0 , 0.0 , 0.0 , 0.0 , 

117.0 , 4133.84615385 , 4128.71794872 , 4135.8974359 , 4136.41025641 , 4131.28205128 , 4130.25641026 , 4124.61538462 , 4135.38461538 , 4135.8974359 , 4141.53846154 , 4191.28205128 , 4912.30769231 , 4133.33333333 , 4138.46153846 , 2041.0 , 2039.0 , 209.055 , 0.0 , 0.0 , 0.0 , 0.0 , 

118.0 , 4133.33333333 , 4129.23076923 , 4136.92307692 , 4133.84615385 , 4130.25641026 , 4130.25641026 , 4125.12820513 , 4136.41025641 , 4135.38461538 , 4137.43589744 , 4192.30769231 , 4910.76923077 , 4134.35897436 , 4141.53846154 , 2042.0 , 2039.0 , 209.063 , 0.0 , 0.0 , 0.0 , 0.0 , 

119.0 , 4133.33333333 , 4133.84615385 , 4135.8974359 , 4132.82051282 , 4130.25641026 , 4130.25641026 , 4123.07692308 , 4138.46153846 , 4138.46153846 , 4134.87179487 , 4192.82051282 , 4912.82051282 , 4136.92307692 , 4145.12820513 , 2042.0 , 2038.0 , 209.076 , 0.0 , 0.0 , 0.0 , 0.0 , 

120.0 , 4134.87179487 , 4132.30769231 , 4134.87179487 , 4134.87179487 , 4127.69230769 , 4130.76923077 , 4125.12820513 , 4136.92307692 , 4138.46153846 , 4140.0 , 4194.35897436 , 4913.33333333 , 4135.8974359 , 4143.58974359 , 2042.0 , 2036.0 , 209.081 , 0.0 , 0.0 , 0.0 , 0.0 , 

121.0 , 4135.8974359 , 4129.74358974 , 4135.38461538 , 4135.38461538 , 4128.20512821 , 4131.28205128 , 4129.74358974 , 4134.35897436 , 4135.38461538 , 4143.07692308 , 4194.35897436 , 4912.30769231 , 4134.87179487 , 4143.58974359 , 2044.0 , 2036.0 , 209.086 , 0.0 , 0.0 , 0.0 , 0.0 , 

122.0 , 4134.87179487 , 4132.30769231 , 4136.41025641 , 4136.41025641 , 4131.79487179 , 4130.25641026 , 4129.23076923 , 4135.38461538 , 4135.8974359 , 4138.97435897 , 4195.38461538 , 4913.84615385 , 4136.41025641 , 4145.64102564 , 2043.0 , 2036.0 , 209.094 , 0.0 , 0.0 , 0.0 , 0.0 , 

123.0 , 4132.82051282 , 4133.84615385 , 4135.8974359 , 4136.92307692 , 4131.79487179 , 4130.25641026 , 4128.20512821 , 4137.43589744 , 4136.41025641 , 4135.8974359 , 4195.8974359 , 4914.35897436 , 4134.87179487 , 4143.07692308 , 2043.0 , 2036.0 , 209.105 , 0.0 , 0.0 , 0.0 , 0.0 , 

124.0 , 4131.79487179 , 4133.84615385 , 4133.33333333 , 4134.87179487 , 4130.25641026 , 4131.28205128 , 4128.71794872 , 4137.43589744 , 4136.92307692 , 4138.97435897 , 4193.84615385 , 4911.28205128 , 4135.38461538 , 4139.48717949 , 2043.0 , 2035.0 , 209.111 , 0.0 , 0.0 , 0.0 , 0.0 , 

125.0 , 4132.82051282 , 4134.35897436 , 4133.84615385 , 4135.8974359 , 4131.28205128 , 4129.74358974 , 4126.15384615 , 4133.84615385 , 4138.97435897 , 4140.0 , 4193.33333333 , 4913.33333333 , 4135.38461538 , 4143.58974359 , 2043.0 , 2034.0 , 209.118 , 0.0 , 0.0 , 0.0 , 0.0 , 

126.0 , 4131.79487179 , 4135.38461538 , 4134.35897436 , 4141.02564103 , 4132.30769231 , 4129.23076923 , 4128.71794872 , 4132.82051282 , 4138.97435897 , 4137.94871795 , 4194.87179487 , 4915.8974359 , 4134.35897436 , 4142.56410256 , 2044.0 , 2035.0 , 209.125 , 0.0 , 0.0 , 0.0 , 0.0 , 

127.0 , 4134.87179487 , 4134.35897436 , 4134.35897436 , 4138.46153846 , 4132.82051282 , 4129.74358974 , 4128.71794872 , 4132.82051282 , 4136.41025641 , 4136.92307692 , 4193.84615385 , 4914.35897436 , 4133.33333333 , 4141.53846154 , 2043.0 , 2036.0 , 209.138 , 0.0 , 0.0 , 0.0 , 0.0 , 

128.0 , 4134.35897436 , 4133.84615385 , 4136.92307692 , 4133.84615385 , 4133.33333333 , 4130.25641026 , 4125.64102564 , 4135.8974359 , 4136.92307692 , 4138.46153846 , 4191.79487179 , 4912.30769231 , 4135.38461538 , 4141.02564103 , 2043.0 , 2036.0 , 209.141 , 0.0 , 0.0 , 0.0 , 0.0 , 

0.0 , 4132.82051282 , 4133.84615385 , 4138.97435897 , 4134.35897436 , 4130.25641026 , 4128.71794872 , 4127.17948718 , 4135.8974359 , 4134.87179487 , 4139.48717949 , 4192.30769231 , 4914.87179487 , 4135.38461538 , 4142.56410256 , 2043.0 , 2035.0 , 209.149 , 0.0 , 0.0 , 0.0 , 0.0 , 

1.0 , 4132.82051282 , 4134.35897436 , 4137.43589744 , 4137.94871795 , 4128.20512821 , 4130.76923077 , 4130.25641026 , 4133.33333333 , 4134.35897436 , 4138.97435897 , 4192.30769231 , 4911.79487179 , 4133.33333333 , 4138.97435897 , 2043.0 , 2035.0 , 209.157 , 0.0 , 0.0 , 0.0 , 0.0 , 

2.0 , 4136.41025641 , 4133.33333333 , 4135.38461538 , 4135.8974359 , 4130.25641026 , 4131.28205128 , 4124.1025641 , 4132.82051282 , 4139.48717949 , 4137.94871795 , 4193.84615385 , 4909.74358974 , 4133.84615385 , 4139.48717949 , 2043.0 , 2036.0 , 209.169 , 0.0 , 0.0 , 0.0 , 0.0 , 

3.0 , 4134.87179487 , 4131.28205128 , 4133.33333333 , 4134.87179487 , 4132.30769231 , 4130.25641026 , 4124.61538462 , 4135.38461538 , 4141.02564103 , 4137.94871795 , 4194.87179487 , 4910.76923077 , 4136.92307692 , 4138.97435897 , 2043.0 , 2037.0 , 209.174 , 0.0 , 0.0 , 0.0 , 0.0 , 

4.0 , 4134.87179487 , 4130.76923077 , 4134.35897436 , 4137.43589744 , 4130.76923077 , 4128.71794872 , 4129.23076923 , 4133.84615385 , 4134.87179487 , 4138.97435897 , 4193.84615385 , 4915.38461538 , 4135.38461538 , 4142.56410256 , 2042.0 , 2036.0 , 209.181 , 0.0 , 0.0 , 0.0 , 0.0 , 

5.0 , 4134.87179487 , 4131.79487179 , 4136.41025641 , 4136.92307692 , 4131.79487179 , 4131.28205128 , 4128.71794872 , 4133.84615385 , 4133.84615385 , 4137.43589744 , 4191.79487179 , 4913.84615385 , 4134.35897436 , 4142.05128205 , 2043.0 , 2037.0 , 209.19 , 0.0 , 0.0 , 0.0 , 0.0 , 

6.0 , 4135.8974359 , 4129.74358974 , 4136.41025641 , 4132.82051282 , 4131.79487179 , 4132.30769231 , 4128.71794872 , 4136.92307692 , 4139.48717949 , 4135.8974359 , 4194.35897436 , 4913.33333333 , 4135.8974359 , 4144.61538462 , 2042.0 , 2037.0 , 209.201 , 0.0 , 0.0 , 0.0 , 0.0 , 

7.0 , 4134.35897436 , 4129.74358974 , 4135.38461538 , 4135.38461538 , 4130.76923077 , 4130.76923077 , 4131.28205128 , 4135.8974359 , 4139.48717949 , 4137.43589744 , 4194.87179487 , 4913.84615385 , 4135.38461538 , 4145.64102564 , 2041.0 , 2037.0 , 209.206 , 0.0 , 0.0 , 0.0 , 0.0 , 

8.0 , 4135.8974359 , 4131.79487179 , 4136.92307692 , 4139.48717949 , 4130.25641026 , 4130.76923077 , 4128.20512821 , 4130.25641026 , 4136.92307692 , 4138.97435897 , 4193.33333333 , 4914.35897436 , 4133.33333333 , 4145.12820513 , 2042.0 , 2039.0 , 209.211 , 0.0 , 0.0 , 0.0 , 0.0 , 

9.0 , 4135.8974359 , 4133.84615385 , 4137.94871795 , 4137.43589744 , 4130.25641026 , 4132.30769231 , 4127.69230769 , 4130.76923077 , 4138.97435897 , 4137.94871795 , 4191.28205128 , 4912.82051282 , 4131.28205128 , 4140.0 , 2044.0 , 2038.0 , 209.221 , 0.0 , 0.0 , 0.0 , 0.0 , 

10.0 , 4131.28205128 , 4134.35897436 , 4136.41025641 , 4135.8974359 , 4129.74358974 , 4132.30769231 , 4128.71794872 , 4135.38461538 , 4138.97435897 , 4137.94871795 , 4191.79487179 , 4912.82051282 , 4133.33333333 , 4141.02564103 , 2043.0 , 2038.0 , 209.233 , 0.0 , 0.0 , 0.0 , 0.0 , 

11.0 , 4129.74358974 , 4134.87179487 , 4135.38461538 , 4138.97435897 , 4130.76923077 , 4131.28205128 , 4127.69230769 , 4134.35897436 , 4135.8974359 , 4138.46153846 , 4192.30769231 , 4912.82051282 , 4135.8974359 , 4141.53846154 , 2043.0 , 2038.0 , 209.237 , 0.0 , 0.0 , 0.0 , 0.0 , 

12.0 , 4134.35897436 , 4134.87179487 , 4134.87179487 , 4138.46153846 , 4131.28205128 , 4130.25641026 , 4128.20512821 , 4132.30769231 , 4136.41025641 , 4137.94871795 , 4191.79487179 , 4910.76923077 , 4135.8974359 , 4137.43589744 , 2044.0 , 2039.0 , 209.244 , 0.0 , 0.0 , 0.0 , 0.0 , 

13.0 , 4135.8974359 , 4132.30769231 , 4135.38461538 , 4136.41025641 , 4131.28205128 , 4129.23076923 , 4129.74358974 , 4135.8974359 , 4138.46153846 , 4136.92307692 , 4193.84615385 , 4911.79487179 , 4134.35897436 , 4139.48717949 , 2044.0 , 2038.0 , 209.252 , 0.0 , 0.0 , 0.0 , 0.0 , 

14.0 , 4132.82051282 , 4131.28205128 , 4136.92307692 , 4135.8974359 , 4132.82051282 , 4129.74358974 , 4128.20512821 , 4136.92307692 , 4137.43589744 , 4138.97435897 , 4195.38461538 , 4912.30769231 , 4137.43589744 , 4141.53846154 , 2043.0 , 2037.0 , 209.265 , 0.0 , 0.0 , 0.0 , 0.0 , 

15.0 , 4135.8974359 , 4131.79487179 , 4138.97435897 , 4134.35897436 , 4132.82051282 , 4128.71794872 , 4125.12820513 , 4133.84615385 , 4136.41025641 , 4140.0 , 4192.30769231 , 4913.33333333 , 4136.41025641 , 4143.07692308 , 2043.0 , 2037.0 , 209.269 , 0.0 , 0.0 , 0.0 , 0.0 , 

16.0 , 4137.94871795 , 4132.30769231 , 4137.94871795 , 4134.87179487 , 4132.30769231 , 4128.20512821 , 4123.58974359 , 4136.41025641 , 4137.43589744 , 4138.97435897 , 4190.76923077 , 4912.30769231 , 4134.35897436 , 4142.05128205 , 2042.0 , 2036.0 , 209.275 , 0.0 , 0.0 , 0.0 , 0.0 , 

17.0 , 4135.38461538 , 4131.28205128 , 4136.41025641 , 4136.41025641 , 4131.28205128 , 4130.25641026 , 4123.58974359 , 4135.38461538 , 4135.8974359 , 4136.92307692 , 4193.84615385 , 4912.82051282 , 4133.84615385 , 4144.1025641 , 2042.0 , 2037.0 , 209.283 , 0.0 , 0.0 , 0.0 , 0.0 , 

18.0 , 4130.76923077 , 4132.30769231 , 4135.8974359 , 4136.41025641 , 4131.28205128 , 4131.79487179 , 4127.69230769 , 4132.82051282 , 4137.43589744 , 4136.92307692 , 4194.87179487 , 4912.30769231 , 4133.84615385 , 4144.1025641 , 2042.0 , 2036.0 , 209.296 , 0.0 , 0.0 , 0.0 , 0.0 , 

19.0 , 4132.30769231 , 4132.82051282 , 4136.92307692 , 4134.35897436 , 4131.28205128 , 4129.74358974 , 4128.20512821 , 4134.87179487 , 4138.46153846 , 4138.97435897 , 4193.33333333 , 4914.87179487 , 4133.84615385 , 4146.66666667 , 2041.0 , 2037.0 , 209.3 , 0.0 , 0.0 , 0.0 , 0.0 , 

20.0 , 4133.33333333 , 4132.30769231 , 4135.38461538 , 4135.8974359 , 4132.82051282 , 4131.28205128 , 4128.71794872 , 4137.94871795 , 4137.43589744 , 4140.0 , 4192.82051282 , 4913.33333333 , 4134.87179487 , 4141.53846154 , 2043.0 , 2036.0 , 209.307 , 0.0 , 0.0 , 0.0 , 0.0 , 

21.0 , 4134.35897436 , 4132.30769231 , 4136.41025641 , 4134.35897436 , 4132.30769231 , 4130.25641026 , 4126.15384615 , 4135.38461538 , 4134.87179487 , 4138.46153846 , 4191.79487179 , 4912.30769231 , 4134.87179487 , 4143.58974359 , 2042.0 , 2035.0 , 209.315 , 0.0 , 0.0 , 0.0 , 0.0 , 

22.0 , 4135.8974359 , 4130.76923077 , 4138.97435897 , 4134.87179487 , 4131.79487179 , 4129.23076923 , 4126.15384615 , 4135.38461538 , 4135.8974359 , 4137.94871795 , 4189.74358974 , 4912.30769231 , 4135.38461538 , 4145.64102564 , 2043.0 , 2035.0 , 209.33 , 0.0 , 0.0 , 0.0 , 0.0 , 

23.0 , 4136.92307692 , 4129.23076923 , 4136.92307692 , 4136.92307692 , 4130.76923077 , 4128.71794872 , 4125.64102564 , 4136.41025641 , 4136.41025641 , 4139.48717949 , 4191.28205128 , 4913.84615385 , 4134.87179487 , 4144.1025641 , 2042.0 , 2036.0 , 209.332 , 0.0 , 0.0 , 0.0 , 0.0 , 

24.0 , 4132.82051282 , 4132.30769231 , 4132.30769231 , 4137.43589744 , 4130.76923077 , 4129.23076923 , 4125.64102564 , 4137.43589744 , 4135.8974359 , 4138.97435897 , 4193.33333333 , 4912.82051282 , 4133.33333333 , 4136.41025641 , 2043.0 , 2037.0 , 209.338 , 0.0 , 0.0 , 0.0 , 0.0 , 

25.0 , 4132.30769231 , 4132.30769231 , 4134.87179487 , 4135.38461538 , 4128.71794872 , 4129.23076923 , 4126.66666667 , 4134.35897436 , 4136.41025641 , 4137.43589744 , 4192.82051282 , 4914.35897436 , 4134.35897436 , 4138.97435897 , 2044.0 , 2036.0 , 209.346 , 0.0 , 0.0 , 0.0 , 0.0 , 

26.0 , 4134.87179487 , 4129.74358974 , 4139.48717949 , 4133.33333333 , 4129.23076923 , 4132.30769231 , 4127.69230769 , 4132.30769231 , 4137.94871795 , 4138.46153846 , 4191.28205128 , 4912.30769231 , 4135.38461538 , 4140.0 , 2044.0 , 2037.0 , 209.359 , 0.0 , 0.0 , 0.0 , 0.0 , 

27.0 , 4137.94871795 , 4129.74358974 , 4138.46153846 , 4131.79487179 , 4130.25641026 , 4132.82051282 , 4125.64102564 , 4133.33333333 , 4136.41025641 , 4141.53846154 , 4191.79487179 , 4911.79487179 , 4134.35897436 , 4138.46153846 , 2043.0 , 2037.0 , 209.363 , 0.0 , 0.0 , 0.0 , 0.0 , 

