['COUNTER', 'AF3', 'F7', 'F3', 'FC5', 'T7', 'P7', 'O1', 'O2', 'P8', 'T8', 'FC6', 'F4', 'F8', 'AF4', 'GYROX', 'GYROY', 'TIMESTAMP', 'FUNC_ID', 'FUNC_VALUE', 'MARKER', 'SYNC_SIGNAL']
127.0 , 4134.87179487 , 4128.20512821 , 4132.82051282 , 4137.43589744 , 4131.79487179 , 4128.20512821 , 4124.1025641 , 4132.82051282 , 4137.43589744 , 4137.94871795 , 4190.25641026 , 4912.30769231 , 4138.46153846 , 4142.56410256 , 2043.0 , 2036.0 , 147.128 , 0.0 , 0.0 , 0.0 , 0.0 , 

128.0 , 4131.79487179 , 4131.79487179 , 4134.35897436 , 4138.97435897 , 4133.33333333 , 4129.23076923 , 4126.15384615 , 4133.33333333 , 4136.92307692 , 4137.94871795 , 4191.79487179 , 4912.82051282 , 4138.46153846 , 4139.48717949 , 2045.0 , 2036.0 , 147.131 , 0.0 , 0.0 , 0.0 , 0.0 , 

0.0 , 4133.84615385 , 4134.35897436 , 4134.87179487 , 4133.84615385 , 4135.38461538 , 4131.28205128 , 4126.66666667 , 4131.79487179 , 4136.92307692 , 4140.0 , 4194.87179487 , 4912.82051282 , 4135.8974359 , 4141.53846154 , 2046.0 , 2036.0 , 147.14 , 0.0 , 0.0 , 0.0 , 0.0 , 

1.0 , 4132.82051282 , 4131.79487179 , 4134.35897436 , 4133.33333333 , 4134.35897436 , 4130.76923077 , 4125.64102564 , 4132.82051282 , 4138.46153846 , 4140.51282051 , 4190.76923077 , 4910.25641026 , 4136.41025641 , 4141.53846154 , 2044.0 , 2036.0 , 147.148 , 0.0 , 0.0 , 0.0 , 0.0 , 

2.0 , 4134.35897436 , 4130.76923077 , 4137.43589744 , 4132.82051282 , 4130.25641026 , 4125.64102564 , 4125.12820513 , 4132.82051282 , 4135.8974359 , 4138.97435897 , 4188.71794872 , 4912.30769231 , 4137.43589744 , 4143.58974359 , 2043.0 , 2036.0 , 147.16 , 0.0 , 0.0 , 0.0 , 0.0 , 

3.0 , 4133.84615385 , 4133.84615385 , 4136.92307692 , 4134.35897436 , 4132.30769231 , 4127.17948718 , 4126.15384615 , 4134.87179487 , 4136.41025641 , 4140.0 , 4191.79487179 , 4911.79487179 , 4135.8974359 , 4140.0 , 2043.0 , 2036.0 , 147.163 , 0.0 , 0.0 , 0.0 , 0.0 , 

4.0 , 4131.79487179 , 4129.74358974 , 4135.38461538 , 4133.84615385 , 4134.87179487 , 4129.74358974 , 4124.61538462 , 4132.82051282 , 4140.0 , 4140.0 , 4192.82051282 , 4913.84615385 , 4134.87179487 , 4144.61538462 , 2042.0 , 2037.0 , 147.266 , 0.0 , 0.0 , 0.0 , 0.0 , 

5.0 , 4128.20512821 , 4128.71794872 , 4135.38461538 , 4135.8974359 , 4133.33333333 , 4131.28205128 , 4129.23076923 , 4130.76923077 , 4138.46153846 , 4138.97435897 , 4191.28205128 , 4915.38461538 , 4135.8974359 , 4144.61538462 , 2043.0 , 2037.0 , 147.269 , 0.0 , 0.0 , 0.0 , 0.0 , 

6.0 , 4131.79487179 , 4134.35897436 , 4135.38461538 , 4138.97435897 , 4132.82051282 , 4131.79487179 , 4131.79487179 , 4131.79487179 , 4134.87179487 , 4138.97435897 , 4192.82051282 , 4913.84615385 , 4136.41025641 , 4142.05128205 , 2041.0 , 2037.0 , 147.269 , 0.0 , 0.0 , 0.0 , 0.0 , 

7.0 , 4132.82051282 , 4132.82051282 , 4133.84615385 , 4139.48717949 , 4134.87179487 , 4133.84615385 , 4128.71794872 , 4133.33333333 , 4136.41025641 , 4138.46153846 , 4193.33333333 , 4909.74358974 , 4134.87179487 , 4136.92307692 , 2043.0 , 2039.0 , 147.269 , 0.0 , 0.0 , 0.0 , 0.0 , 

8.0 , 4132.82051282 , 4128.20512821 , 4134.87179487 , 4135.38461538 , 4131.28205128 , 4131.28205128 , 4126.15384615 , 4132.30769231 , 4137.43589744 , 4138.46153846 , 4190.76923077 , 4911.28205128 , 4135.38461538 , 4136.41025641 , 2042.0 , 2039.0 , 147.269 , 0.0 , 0.0 , 0.0 , 0.0 , 

9.0 , 4133.33333333 , 4130.76923077 , 4135.8974359 , 4133.84615385 , 4129.23076923 , 4128.71794872 , 4127.69230769 , 4131.28205128 , 4134.87179487 , 4140.0 , 4189.74358974 , 4912.30769231 , 4134.87179487 , 4138.46153846 , 2042.0 , 2039.0 , 147.269 , 0.0 , 0.0 , 0.0 , 0.0 , 

10.0 , 4133.33333333 , 4131.79487179 , 4134.87179487 , 4134.87179487 , 4131.28205128 , 4128.20512821 , 4129.23076923 , 4132.82051282 , 4135.8974359 , 4138.46153846 , 4191.28205128 , 4912.30769231 , 4136.41025641 , 4138.97435897 , 2043.0 , 2038.0 , 147.269 , 0.0 , 0.0 , 0.0 , 0.0 , 

11.0 , 4134.35897436 , 4128.71794872 , 4134.87179487 , 4135.8974359 , 4131.28205128 , 4127.17948718 , 4126.66666667 , 4133.33333333 , 4138.46153846 , 4137.43589744 , 4192.82051282 , 4914.87179487 , 4136.92307692 , 4138.46153846 , 2043.0 , 2038.0 , 147.269 , 0.0 , 0.0 , 0.0 , 0.0 , 

12.0 , 4132.82051282 , 4131.79487179 , 4135.38461538 , 4134.35897436 , 4130.25641026 , 4130.25641026 , 4125.12820513 , 4133.33333333 , 4140.0 , 4140.51282051 , 4191.79487179 , 4913.84615385 , 4134.87179487 , 4137.43589744 , 2042.0 , 2038.0 , 147.269 , 0.0 , 0.0 , 0.0 , 0.0 , 

13.0 , 4132.30769231 , 4134.87179487 , 4135.8974359 , 4131.79487179 , 4131.28205128 , 4133.84615385 , 4125.64102564 , 4133.84615385 , 4137.43589744 , 4141.53846154 , 4192.30769231 , 4912.30769231 , 4134.35897436 , 4143.07692308 , 2042.0 , 2037.0 , 147.269 , 0.0 , 0.0 , 0.0 , 0.0 , 

14.0 , 4131.28205128 , 4132.30769231 , 4135.38461538 , 4134.35897436 , 4131.28205128 , 4130.76923077 , 4126.15384615 , 4135.38461538 , 4136.92307692 , 4137.94871795 , 4193.33333333 , 4911.28205128 , 4137.94871795 , 4142.56410256 , 2042.0 , 2037.0 , 147.269 , 0.0 , 0.0 , 0.0 , 0.0 , 

15.0 , 4133.84615385 , 4130.25641026 , 4136.92307692 , 4134.87179487 , 4130.76923077 , 4127.69230769 , 4124.1025641 , 4135.8974359 , 4135.8974359 , 4136.92307692 , 4192.30769231 , 4913.33333333 , 4135.8974359 , 4143.07692308 , 2040.0 , 2035.0 , 147.269 , 0.0 , 0.0 , 0.0 , 0.0 , 

16.0 , 4134.35897436 , 4131.28205128 , 4135.8974359 , 4132.82051282 , 4131.28205128 , 4132.30769231 , 4127.17948718 , 4137.94871795 , 4134.35897436 , 4138.46153846 , 4189.74358974 , 4911.79487179 , 4134.87179487 , 4140.0 , 2041.0 , 2035.0 , 147.269 , 0.0 , 0.0 , 0.0 , 0.0 , 

17.0 , 4134.35897436 , 4128.71794872 , 4135.8974359 , 4134.87179487 , 4130.25641026 , 4131.28205128 , 4127.69230769 , 4137.94871795 , 4134.87179487 , 4138.97435897 , 4191.28205128 , 4912.30769231 , 4136.92307692 , 4141.53846154 , 2043.0 , 2034.0 , 147.279 , 0.0 , 0.0 , 0.0 , 0.0 , 

18.0 , 4128.20512821 , 4128.20512821 , 4135.38461538 , 4138.97435897 , 4133.33333333 , 4129.74358974 , 4125.12820513 , 4135.8974359 , 4136.41025641 , 4139.48717949 , 4192.30769231 , 4911.79487179 , 4136.41025641 , 4138.46153846 , 2043.0 , 2033.0 , 147.282 , 0.0 , 0.0 , 0.0 , 0.0 , 

19.0 , 4128.20512821 , 4128.71794872 , 4136.41025641 , 4134.87179487 , 4134.87179487 , 4128.71794872 , 4126.66666667 , 4131.79487179 , 4135.38461538 , 4138.97435897 , 4191.28205128 , 4913.33333333 , 4133.33333333 , 4142.05128205 , 2043.0 , 2035.0 , 147.289 , 0.0 , 0.0 , 0.0 , 0.0 , 

20.0 , 4129.74358974 , 4129.74358974 , 4133.33333333 , 4134.35897436 , 4131.79487179 , 4128.20512821 , 4130.76923077 , 4133.33333333 , 4137.94871795 , 4137.94871795 , 4190.25641026 , 4912.30769231 , 4135.8974359 , 4138.46153846 , 2043.0 , 2033.0 , 147.297 , 0.0 , 0.0 , 0.0 , 0.0 , 

21.0 , 4131.79487179 , 4131.28205128 , 4132.30769231 , 4136.41025641 , 4128.20512821 , 4127.69230769 , 4127.17948718 , 4133.84615385 , 4138.97435897 , 4138.97435897 , 4192.30769231 , 4912.30769231 , 4135.8974359 , 4139.48717949 , 2042.0 , 2033.0 , 147.309 , 0.0 , 0.0 , 0.0 , 0.0 , 

22.0 , 4130.25641026 , 4133.84615385 , 4133.84615385 , 4135.38461538 , 4130.76923077 , 4129.23076923 , 4126.15384615 , 4132.30769231 , 4139.48717949 , 4138.97435897 , 4193.33333333 , 4909.23076923 , 4134.35897436 , 4140.51282051 , 2042.0 , 2033.0 , 147.313 , 0.0 , 0.0 , 0.0 , 0.0 , 

23.0 , 4132.82051282 , 4131.79487179 , 4136.41025641 , 4129.23076923 , 4133.84615385 , 4128.20512821 , 4127.17948718 , 4131.79487179 , 4138.97435897 , 4138.46153846 , 4193.33333333 , 4911.79487179 , 4134.87179487 , 4141.02564103 , 2044.0 , 2034.0 , 147.321 , 0.0 , 0.0 , 0.0 , 0.0 , 

24.0 , 4132.82051282 , 4129.23076923 , 4137.43589744 , 4129.23076923 , 4133.33333333 , 4129.23076923 , 4126.66666667 , 4134.87179487 , 4136.41025641 , 4140.0 , 4192.82051282 , 4912.82051282 , 4135.8974359 , 4136.92307692 , 2043.0 , 2033.0 , 147.329 , 0.0 , 0.0 , 0.0 , 0.0 , 

25.0 , 4130.76923077 , 4130.25641026 , 4136.41025641 , 4134.87179487 , 4129.74358974 , 4128.71794872 , 4126.15384615 , 4134.35897436 , 4133.84615385 , 4139.48717949 , 4192.82051282 , 4908.71794872 , 4136.92307692 , 4142.56410256 , 2043.0 , 2034.0 , 147.341 , 0.0 , 0.0 , 0.0 , 0.0 , 

26.0 , 4130.76923077 , 4133.84615385 , 4133.33333333 , 4135.8974359 , 4129.23076923 , 4126.66666667 , 4128.71794872 , 4134.35897436 , 4134.35897436 , 4136.92307692 , 4192.30769231 , 4907.69230769 , 4136.92307692 , 4142.56410256 , 2043.0 , 2033.0 , 147.344 , 0.0 , 0.0 , 0.0 , 0.0 , 

27.0 , 4133.84615385 , 4134.35897436 , 4133.33333333 , 4133.84615385 , 4129.23076923 , 4127.17948718 , 4127.17948718 , 4135.8974359 , 4136.92307692 , 4136.92307692 , 4192.30769231 , 4914.87179487 , 4137.43589744 , 4140.0 , 2042.0 , 2035.0 , 147.352 , 0.0 , 0.0 , 0.0 , 0.0 , 

28.0 , 4135.8974359 , 4133.33333333 , 4135.8974359 , 4134.87179487 , 4129.74358974 , 4129.23076923 , 4127.17948718 , 4132.82051282 , 4134.87179487 , 4138.97435897 , 4191.79487179 , 4918.97435897 , 4135.38461538 , 4144.1025641 , 2042.0 , 2035.0 , 147.36 , 0.0 , 0.0 , 0.0 , 0.0 , 

29.0 , 4134.87179487 , 4133.33333333 , 4134.87179487 , 4134.35897436 , 4132.82051282 , 4129.23076923 , 4127.69230769 , 4130.76923077 , 4132.82051282 , 4138.97435897 , 4191.79487179 , 4914.35897436 , 4136.41025641 , 4145.12820513 , 2041.0 , 2033.0 , 147.371 , 0.0 , 0.0 , 0.0 , 0.0 , 

30.0 , 4131.79487179 , 4132.82051282 , 4131.79487179 , 4131.79487179 , 4133.33333333 , 4128.71794872 , 4125.64102564 , 4133.33333333 , 4132.30769231 , 4137.94871795 , 4191.28205128 , 4911.28205128 , 4135.8974359 , 4141.53846154 , 2041.0 , 2035.0 , 147.376 , 0.0 , 0.0 , 0.0 , 0.0 , 

31.0 , 4129.23076923 , 4130.76923077 , 4133.33333333 , 4135.8974359 , 4132.82051282 , 4131.28205128 , 4127.17948718 , 4134.35897436 , 4134.35897436 , 4137.43589744 , 4192.30769231 , 4914.35897436 , 4135.8974359 , 4141.02564103 , 2043.0 , 2034.0 , 147.384 , 0.0 , 0.0 , 0.0 , 0.0 , 

32.0 , 4130.76923077 , 4128.20512821 , 4137.94871795 , 4135.38461538 , 4133.33333333 , 4131.79487179 , 4127.69230769 , 4131.28205128 , 4133.33333333 , 4137.43589744 , 4194.35897436 , 4917.43589744 , 4138.46153846 , 4144.61538462 , 2042.0 , 2035.0 , 147.392 , 0.0 , 0.0 , 0.0 , 0.0 , 

33.0 , 4130.76923077 , 4130.76923077 , 4136.92307692 , 4132.30769231 , 4134.87179487 , 4128.20512821 , 4124.61538462 , 4132.82051282 , 4133.33333333 , 4137.94871795 , 4192.82051282 , 4911.28205128 , 4137.94871795 , 4139.48717949 , 2041.0 , 2035.0 , 147.403 , 0.0 , 0.0 , 0.0 , 0.0 , 

34.0 , 4132.30769231 , 4133.84615385 , 4133.33333333 , 4132.82051282 , 4134.87179487 , 4125.12820513 , 4123.07692308 , 4134.87179487 , 4135.8974359 , 4137.94871795 , 4191.79487179 , 4911.28205128 , 4134.87179487 , 4141.02564103 , 2041.0 , 2036.0 , 147.407 , 0.0 , 0.0 , 0.0 , 0.0 , 

35.0 , 4131.79487179 , 4132.82051282 , 4131.79487179 , 4137.43589744 , 4133.84615385 , 4128.71794872 , 4128.71794872 , 4134.87179487 , 4137.43589744 , 4140.0 , 4192.30769231 , 4916.41025641 , 4136.41025641 , 4140.0 , 2042.0 , 2038.0 , 147.416 , 0.0 , 0.0 , 0.0 , 0.0 , 

36.0 , 4133.84615385 , 4129.74358974 , 4133.84615385 , 4136.41025641 , 4130.76923077 , 4127.69230769 , 4126.66666667 , 4133.84615385 , 4135.38461538 , 4140.51282051 , 4191.79487179 , 4916.41025641 , 4137.94871795 , 4140.0 , 2044.0 , 2036.0 , 147.424 , 0.0 , 0.0 , 0.0 , 0.0 , 

37.0 , 4130.76923077 , 4131.79487179 , 4134.35897436 , 4136.92307692 , 4131.28205128 , 4127.69230769 , 4124.1025641 , 4133.84615385 , 4136.92307692 , 4140.0 , 4191.28205128 , 4908.71794872 , 4135.8974359 , 4135.38461538 , 2044.0 , 2035.0 , 147.435 , 0.0 , 0.0 , 0.0 , 0.0 , 

38.0 , 4132.82051282 , 4132.82051282 , 4133.33333333 , 4136.41025641 , 4132.82051282 , 4131.28205128 , 4126.15384615 , 4131.28205128 , 4136.92307692 , 4139.48717949 , 4191.79487179 , 4910.76923077 , 4135.8974359 , 4141.53846154 , 2043.0 , 2035.0 , 147.439 , 0.0 , 0.0 , 0.0 , 0.0 , 

39.0 , 4132.82051282 , 4134.35897436 , 4134.35897436 , 4136.92307692 , 4132.82051282 , 4131.79487179 , 4128.20512821 , 4134.87179487 , 4133.84615385 , 4139.48717949 , 4191.28205128 , 4912.82051282 , 4136.92307692 , 4142.56410256 , 2043.0 , 2036.0 , 147.449 , 0.0 , 0.0 , 0.0 , 0.0 , 

40.0 , 4134.35897436 , 4132.82051282 , 4137.43589744 , 4136.41025641 , 4131.79487179 , 4126.15384615 , 4125.12820513 , 4136.92307692 , 4132.30769231 , 4137.94871795 , 4192.30769231 , 4913.33333333 , 4135.8974359 , 4143.58974359 , 2044.0 , 2036.0 , 147.454 , 0.0 , 0.0 , 0.0 , 0.0 , 

41.0 , 4132.82051282 , 4130.76923077 , 4136.92307692 , 4138.97435897 , 4130.76923077 , 4129.74358974 , 4124.1025641 , 4132.82051282 , 4136.92307692 , 4137.43589744 , 4193.84615385 , 4911.28205128 , 4137.43589744 , 4140.51282051 , 2044.0 , 2036.0 , 147.466 , 0.0 , 0.0 , 0.0 , 0.0 , 

42.0 , 4133.33333333 , 4130.25641026 , 4136.92307692 , 4138.46153846 , 4132.82051282 , 4133.84615385 , 4124.1025641 , 4128.71794872 , 4138.97435897 , 4139.48717949 , 4193.84615385 , 4912.30769231 , 4138.97435897 , 4143.07692308 , 2043.0 , 2036.0 , 147.469 , 0.0 , 0.0 , 0.0 , 0.0 , 

43.0 , 4133.84615385 , 4131.79487179 , 4136.92307692 , 4135.38461538 , 4135.8974359 , 4131.79487179 , 4125.64102564 , 4132.82051282 , 4134.87179487 , 4138.97435897 , 4193.33333333 , 4909.74358974 , 4137.43589744 , 4142.05128205 , 2044.0 , 2037.0 , 147.479 , 0.0 , 0.0 , 0.0 , 0.0 , 

44.0 , 4131.28205128 , 4132.82051282 , 4134.87179487 , 4136.41025641 , 4132.82051282 , 4128.71794872 , 4125.12820513 , 4134.35897436 , 4132.30769231 , 4138.46153846 , 4192.82051282 , 4910.76923077 , 4136.92307692 , 4140.0 , 2043.0 , 2035.0 , 147.487 , 0.0 , 0.0 , 0.0 , 0.0 , 

45.0 , 4126.15384615 , 4132.30769231 , 4132.82051282 , 4139.48717949 , 4131.79487179 , 4129.23076923 , 4123.07692308 , 4131.28205128 , 4132.82051282 , 4141.02564103 , 4191.79487179 , 4913.84615385 , 4135.8974359 , 4137.94871795 , 2045.0 , 2037.0 , 147.498 , 0.0 , 0.0 , 0.0 , 0.0 , 

46.0 , 4126.66666667 , 4130.76923077 , 4135.38461538 , 4137.43589744 , 4132.82051282 , 4129.23076923 , 4122.56410256 , 4131.28205128 , 4133.84615385 , 4141.53846154 , 4192.30769231 , 4911.79487179 , 4135.38461538 , 4138.46153846 , 2045.0 , 2037.0 , 147.501 , 0.0 , 0.0 , 0.0 , 0.0 , 

47.0 , 4129.74358974 , 4130.76923077 , 4136.41025641 , 4133.84615385 , 4132.30769231 , 4129.74358974 , 4125.12820513 , 4133.84615385 , 4134.87179487 , 4139.48717949 , 4192.30769231 , 4907.69230769 , 4136.41025641 , 4137.94871795 , 2045.0 , 2038.0 , 147.51 , 0.0 , 0.0 , 0.0 , 0.0 , 

48.0 , 4131.28205128 , 4131.79487179 , 4136.41025641 , 4136.41025641 , 4131.79487179 , 4129.74358974 , 4124.61538462 , 4135.38461538 , 4138.46153846 , 4138.97435897 , 4193.33333333 , 4910.76923077 , 4137.94871795 , 4135.38461538 , 2044.0 , 2037.0 , 147.517 , 0.0 , 0.0 , 0.0 , 0.0 , 

49.0 , 4133.33333333 , 4129.74358974 , 4136.92307692 , 4137.43589744 , 4131.28205128 , 4128.71794872 , 4124.1025641 , 4134.87179487 , 4137.94871795 , 4137.43589744 , 4192.30769231 , 4915.38461538 , 4135.8974359 , 4139.48717949 , 2044.0 , 2038.0 , 147.531 , 0.0 , 0.0 , 0.0 , 0.0 , 

50.0 , 4132.82051282 , 4128.20512821 , 4133.84615385 , 4134.87179487 , 4130.76923077 , 4128.71794872 , 4128.20512821 , 4134.35897436 , 4134.35897436 , 4136.92307692 , 4191.28205128 , 4911.79487179 , 4135.8974359 , 4141.53846154 , 2044.0 , 2037.0 , 147.533 , 0.0 , 0.0 , 0.0 , 0.0 , 

51.0 , 4133.84615385 , 4130.76923077 , 4133.33333333 , 4133.33333333 , 4132.30769231 , 4127.69230769 , 4128.71794872 , 4133.33333333 , 4133.33333333 , 4138.97435897 , 4190.76923077 , 4911.79487179 , 4135.8974359 , 4143.07692308 , 2044.0 , 2036.0 , 147.543 , 0.0 , 0.0 , 0.0 , 0.0 , 

52.0 , 4132.82051282 , 4131.79487179 , 4136.41025641 , 4134.35897436 , 4134.35897436 , 4129.23076923 , 4126.15384615 , 4132.82051282 , 4136.92307692 , 4138.46153846 , 4189.74358974 , 4911.79487179 , 4134.35897436 , 4142.05128205 , 2043.0 , 2036.0 , 147.549 , 0.0 , 0.0 , 0.0 , 0.0 , 

53.0 , 4133.33333333 , 4130.25641026 , 4139.48717949 , 4133.33333333 , 4132.30769231 , 4129.23076923 , 4122.56410256 , 4132.30769231 , 4136.92307692 , 4135.8974359 , 4191.79487179 , 4913.33333333 , 4132.82051282 , 4145.64102564 , 2044.0 , 2035.0 , 147.56 , 0.0 , 0.0 , 0.0 , 0.0 , 

54.0 , 4130.76923077 , 4129.74358974 , 4136.92307692 , 4137.43589744 , 4131.79487179 , 4130.76923077 , 4125.64102564 , 4133.33333333 , 4137.43589744 , 4137.43589744 , 4192.30769231 , 4912.30769231 , 4136.41025641 , 4140.0 , 2043.0 , 2035.0 , 147.565 , 0.0 , 0.0 , 0.0 , 0.0 , 

55.0 , 4132.82051282 , 4128.71794872 , 4137.43589744 , 4139.48717949 , 4132.82051282 , 4130.25641026 , 4126.15384615 , 4132.30769231 , 4137.43589744 , 4139.48717949 , 4191.28205128 , 4914.87179487 , 4137.94871795 , 4140.51282051 , 2041.0 , 2035.0 , 147.572 , 0.0 , 0.0 , 0.0 , 0.0 , 

56.0 , 4130.25641026 , 4131.79487179 , 4135.38461538 , 4137.43589744 , 4132.82051282 , 4131.79487179 , 4126.15384615 , 4133.84615385 , 4134.87179487 , 4140.0 , 4190.76923077 , 4913.33333333 , 4135.8974359 , 4139.48717949 , 2041.0 , 2035.0 , 147.579 , 0.0 , 0.0 , 0.0 , 0.0 , 

57.0 , 4129.74358974 , 4134.87179487 , 4133.33333333 , 4133.33333333 , 4129.23076923 , 4130.25641026 , 4124.61538462 , 4133.33333333 , 4133.33333333 , 4138.46153846 , 4191.28205128 , 4912.82051282 , 4134.87179487 , 4142.56410256 , 2040.0 , 2035.0 , 147.592 , 0.0 , 0.0 , 0.0 , 0.0 , 

58.0 , 4130.76923077 , 4131.28205128 , 4134.87179487 , 4134.35897436 , 4128.20512821 , 4130.25641026 , 4126.15384615 , 4131.79487179 , 4136.41025641 , 4138.97435897 , 4190.76923077 , 4911.28205128 , 4133.84615385 , 4140.0 , 2041.0 , 2035.0 , 147.596 , 0.0 , 0.0 , 0.0 , 0.0 , 

59.0 , 4133.84615385 , 4125.12820513 , 4136.41025641 , 4135.38461538 , 4131.79487179 , 4130.76923077 , 4124.61538462 , 4132.30769231 , 4137.43589744 , 4141.02564103 , 4191.79487179 , 4913.84615385 , 4132.30769231 , 4141.53846154 , 2039.0 , 2035.0 , 147.603 , 0.0 , 0.0 , 0.0 , 0.0 , 

60.0 , 4131.28205128 , 4129.74358974 , 4133.84615385 , 4136.41025641 , 4134.35897436 , 4133.33333333 , 4125.64102564 , 4134.87179487 , 4136.41025641 , 4140.0 , 4192.82051282 , 4912.82051282 , 4133.33333333 , 4138.97435897 , 2041.0 , 2034.0 , 147.613 , 0.0 , 0.0 , 0.0 , 0.0 , 

61.0 , 4131.79487179 , 4133.33333333 , 4133.84615385 , 4134.87179487 , 4132.82051282 , 4131.28205128 , 4128.71794872 , 4132.82051282 , 4133.84615385 , 4138.97435897 , 4191.79487179 , 4911.28205128 , 4134.35897436 , 4142.05128205 , 2042.0 , 2035.0 , 147.624 , 0.0 , 0.0 , 0.0 , 0.0 , 

62.0 , 4133.33333333 , 4130.76923077 , 4135.38461538 , 4133.33333333 , 4131.28205128 , 4128.20512821 , 4129.23076923 , 4131.28205128 , 4134.35897436 , 4138.97435897 , 4191.28205128 , 4910.76923077 , 4133.84615385 , 4140.51282051 , 2042.0 , 2035.0 , 147.628 , 0.0 , 0.0 , 0.0 , 0.0 , 

63.0 , 4134.35897436 , 4131.28205128 , 4134.87179487 , 4133.84615385 , 4130.76923077 , 4128.71794872 , 4127.69230769 , 4132.82051282 , 4137.94871795 , 4138.46153846 , 4191.79487179 , 4911.28205128 , 4136.92307692 , 4137.94871795 , 2041.0 , 2033.0 , 147.637 , 0.0 , 0.0 , 0.0 , 0.0 , 

64.0 , 4134.35897436 , 4131.28205128 , 4135.38461538 , 4135.38461538 , 4130.25641026 , 4130.25641026 , 4126.15384615 , 4133.84615385 , 4137.94871795 , 4136.92307692 , 4191.79487179 , 4910.76923077 , 4137.94871795 , 4141.02564103 , 2042.0 , 2033.0 , 147.645 , 0.0 , 0.0 , 0.0 , 0.0 , 

65.0 , 4135.8974359 , 4129.23076923 , 4136.41025641 , 4134.87179487 , 4130.25641026 , 4128.71794872 , 4125.12820513 , 4132.30769231 , 4133.84615385 , 4138.97435897 , 4191.79487179 , 4911.79487179 , 4136.92307692 , 4145.12820513 , 2043.0 , 2034.0 , 147.656 , 0.0 , 0.0 , 0.0 , 0.0 , 

66.0 , 4134.87179487 , 4130.25641026 , 4136.41025641 , 4134.35897436 , 4130.25641026 , 4129.74358974 , 4127.69230769 , 4132.82051282 , 4133.84615385 , 4140.0 , 4191.28205128 , 4914.35897436 , 4135.38461538 , 4143.58974359 , 2042.0 , 2034.0 , 147.659 , 0.0 , 0.0 , 0.0 , 0.0 , 

67.0 , 4131.79487179 , 4131.28205128 , 4137.94871795 , 4133.84615385 , 4132.30769231 , 4129.74358974 , 4129.23076923 , 4135.38461538 , 4137.94871795 , 4138.97435897 , 4191.79487179 , 4914.87179487 , 4136.41025641 , 4140.51282051 , 2043.0 , 2033.0 , 147.667 , 0.0 , 0.0 , 0.0 , 0.0 , 

68.0 , 4134.35897436 , 4128.71794872 , 4138.46153846 , 4133.84615385 , 4132.30769231 , 4127.69230769 , 4125.64102564 , 4132.82051282 , 4135.8974359 , 4140.0 , 4191.79487179 , 4915.8974359 , 4135.8974359 , 4144.1025641 , 2043.0 , 2036.0 , 147.676 , 0.0 , 0.0 , 0.0 , 0.0 , 

69.0 , 4136.92307692 , 4129.23076923 , 4133.33333333 , 4137.43589744 , 4129.23076923 , 4128.20512821 , 4125.64102564 , 4131.28205128 , 4134.35897436 , 4138.97435897 , 4191.28205128 , 4911.28205128 , 4135.38461538 , 4141.53846154 , 2043.0 , 2035.0 , 147.689 , 0.0 , 0.0 , 0.0 , 0.0 , 

70.0 , 4136.41025641 , 4130.25641026 , 4132.82051282 , 4136.41025641 , 4129.74358974 , 4127.69230769 , 4127.69230769 , 4134.35897436 , 4134.35897436 , 4136.41025641 , 4190.25641026 , 4910.76923077 , 4136.41025641 , 4142.56410256 , 2043.0 , 2036.0 , 147.691 , 0.0 , 0.0 , 0.0 , 0.0 , 

71.0 , 4131.28205128 , 4131.28205128 , 4135.38461538 , 4135.38461538 , 4133.84615385 , 4127.69230769 , 4127.69230769 , 4136.92307692 , 4135.38461538 , 4135.8974359 , 4189.74358974 , 4911.79487179 , 4138.46153846 , 4143.07692308 , 2045.0 , 2035.0 , 147.7 , 0.0 , 0.0 , 0.0 , 0.0 , 

72.0 , 4132.82051282 , 4128.20512821 , 4135.38461538 , 4135.38461538 , 4133.84615385 , 4129.23076923 , 4125.64102564 , 4132.82051282 , 4134.35897436 , 4136.92307692 , 4193.33333333 , 4913.33333333 , 4136.41025641 , 4145.64102564 , 2045.0 , 2035.0 , 147.708 , 0.0 , 0.0 , 0.0 , 0.0 , 

73.0 , 4131.79487179 , 4127.69230769 , 4132.82051282 , 4137.94871795 , 4131.79487179 , 4131.79487179 , 4128.71794872 , 4133.33333333 , 4133.33333333 , 4136.92307692 , 4194.35897436 , 4911.28205128 , 4134.35897436 , 4136.92307692 , 2046.0 , 2037.0 , 147.719 , 0.0 , 0.0 , 0.0 , 0.0 , 

74.0 , 4133.33333333 , 4132.30769231 , 4134.87179487 , 4136.41025641 , 4130.25641026 , 4128.20512821 , 4128.20512821 , 4135.8974359 , 4132.82051282 , 4136.92307692 , 4191.79487179 , 4914.35897436 , 4135.38461538 , 4136.41025641 , 2045.0 , 2035.0 , 147.722 , 0.0 , 0.0 , 0.0 , 0.0 , 

75.0 , 4132.82051282 , 4133.84615385 , 4136.41025641 , 4134.35897436 , 4130.76923077 , 4127.17948718 , 4127.69230769 , 4134.87179487 , 4134.87179487 , 4137.94871795 , 4191.28205128 , 4911.79487179 , 4134.87179487 , 4138.97435897 , 2046.0 , 2036.0 , 147.73 , 0.0 , 0.0 , 0.0 , 0.0 , 

76.0 , 4135.38461538 , 4128.20512821 , 4137.94871795 , 4132.30769231 , 4132.30769231 , 4127.17948718 , 4127.69230769 , 4132.30769231 , 4137.43589744 , 4138.97435897 , 4193.33333333 , 4910.25641026 , 4132.30769231 , 4143.07692308 , 2044.0 , 2035.0 , 147.738 , 0.0 , 0.0 , 0.0 , 0.0 , 

77.0 , 4135.38461538 , 4131.28205128 , 4136.41025641 , 4134.35897436 , 4130.76923077 , 4128.20512821 , 4128.71794872 , 4134.35897436 , 4136.41025641 , 4138.46153846 , 4192.30769231 , 4912.30769231 , 4134.35897436 , 4138.46153846 , 2043.0 , 2035.0 , 147.75 , 0.0 , 0.0 , 0.0 , 0.0 , 

78.0 , 4134.87179487 , 4136.92307692 , 4136.41025641 , 4133.84615385 , 4129.23076923 , 4128.20512821 , 4127.69230769 , 4133.84615385 , 4132.82051282 , 4137.94871795 , 4190.76923077 , 4916.41025641 , 4137.43589744 , 4143.58974359 , 2043.0 , 2036.0 , 147.754 , 0.0 , 0.0 , 0.0 , 0.0 , 

79.0 , 4129.74358974 , 4134.35897436 , 4139.48717949 , 4133.33333333 , 4130.25641026 , 4130.25641026 , 4128.20512821 , 4131.79487179 , 4134.87179487 , 4138.46153846 , 4190.76923077 , 4913.33333333 , 4137.43589744 , 4146.15384615 , 2043.0 , 2036.0 , 147.763 , 0.0 , 0.0 , 0.0 , 0.0 , 

80.0 , 4129.74358974 , 4128.71794872 , 4138.97435897 , 4134.87179487 , 4129.23076923 , 4128.71794872 , 4126.66666667 , 4133.33333333 , 4138.46153846 , 4139.48717949 , 4190.76923077 , 4914.87179487 , 4137.43589744 , 4144.1025641 , 2043.0 , 2037.0 , 147.77 , 0.0 , 0.0 , 0.0 , 0.0 , 

81.0 , 4133.84615385 , 4129.23076923 , 4134.35897436 , 4136.41025641 , 4129.74358974 , 4127.69230769 , 4126.15384615 , 4134.35897436 , 4134.87179487 , 4140.0 , 4190.25641026 , 4917.94871795 , 4136.92307692 , 4140.51282051 , 2042.0 , 2036.0 , 147.782 , 0.0 , 0.0 , 0.0 , 0.0 , 

82.0 , 4133.33333333 , 4131.28205128 , 4133.84615385 , 4135.8974359 , 4131.28205128 , 4129.23076923 , 4128.20512821 , 4133.84615385 , 4132.30769231 , 4138.97435897 , 4191.79487179 , 4915.38461538 , 4137.43589744 , 4141.53846154 , 2043.0 , 2036.0 , 147.785 , 0.0 , 0.0 , 0.0 , 0.0 , 

83.0 , 4130.76923077 , 4131.28205128 , 4134.87179487 , 4136.92307692 , 4131.79487179 , 4131.28205128 , 4129.74358974 , 4133.33333333 , 4136.41025641 , 4137.43589744 , 4193.33333333 , 4911.28205128 , 4136.92307692 , 4142.56410256 , 2043.0 , 2037.0 , 147.794 , 0.0 , 0.0 , 0.0 , 0.0 , 

84.0 , 4131.79487179 , 4129.74358974 , 4130.76923077 , 4136.92307692 , 4131.79487179 , 4129.23076923 , 4126.66666667 , 4132.82051282 , 4136.41025641 , 4140.0 , 4193.33333333 , 4913.33333333 , 4135.8974359 , 4141.53846154 , 2044.0 , 2038.0 , 147.801 , 0.0 , 0.0 , 0.0 , 0.0 , 

85.0 , 4133.33333333 , 4129.23076923 , 4131.28205128 , 4132.82051282 , 4133.84615385 , 4124.61538462 , 4126.15384615 , 4131.79487179 , 4133.33333333 , 4142.56410256 , 4192.30769231 , 4915.38461538 , 4132.82051282 , 4141.02564103 , 2043.0 , 2038.0 , 147.813 , 0.0 , 0.0 , 0.0 , 0.0 , 

86.0 , 4132.82051282 , 4131.79487179 , 4135.38461538 , 4130.76923077 , 4131.28205128 , 4126.15384615 , 4129.74358974 , 4133.33333333 , 4135.38461538 , 4139.48717949 , 4192.82051282 , 4912.82051282 , 4134.35897436 , 4138.97435897 , 2043.0 , 2037.0 , 147.817 , 0.0 , 0.0 , 0.0 , 0.0 , 

87.0 , 4134.87179487 , 4132.30769231 , 4135.8974359 , 4132.82051282 , 4129.23076923 , 4129.74358974 , 4128.20512821 , 4133.84615385 , 4137.94871795 , 4136.41025641 , 4192.82051282 , 4913.84615385 , 4135.38461538 , 4142.56410256 , 2043.0 , 2037.0 , 147.826 , 0.0 , 0.0 , 0.0 , 0.0 , 

88.0 , 4133.33333333 , 4130.25641026 , 4134.35897436 , 4135.38461538 , 4132.30769231 , 4129.74358974 , 4128.20512821 , 4135.38461538 , 4137.94871795 , 4138.97435897 , 4191.79487179 , 4913.84615385 , 4135.38461538 , 4140.0 , 2043.0 , 2038.0 , 147.833 , 0.0 , 0.0 , 0.0 , 0.0 , 

89.0 , 4134.87179487 , 4133.84615385 , 4137.43589744 , 4134.87179487 , 4132.30769231 , 4127.17948718 , 4128.20512821 , 4134.35897436 , 4136.92307692 , 4140.51282051 , 4192.30769231 , 4913.84615385 , 4134.35897436 , 4139.48717949 , 2043.0 , 2035.0 , 147.844 , 0.0 , 0.0 , 0.0 , 0.0 , 

90.0 , 4135.38461538 , 4138.46153846 , 4136.92307692 , 4133.33333333 , 4132.30769231 , 4126.15384615 , 4128.20512821 , 4133.84615385 , 4138.46153846 , 4137.94871795 , 4192.30769231 , 4911.28205128 , 4134.87179487 , 4137.94871795 , 2044.0 , 2034.0 , 147.848 , 0.0 , 0.0 , 0.0 , 0.0 , 

91.0 , 4135.8974359 , 4131.79487179 , 4134.87179487 , 4129.23076923 , 4134.35897436 , 4125.64102564 , 4126.15384615 , 4134.87179487 , 4136.41025641 , 4138.97435897 , 4193.84615385 , 4913.33333333 , 4135.8974359 , 4142.56410256 , 2042.0 , 2035.0 , 147.857 , 0.0 , 0.0 , 0.0 , 0.0 , 

92.0 , 4132.30769231 , 4127.17948718 , 4135.38461538 , 4130.76923077 , 4134.87179487 , 4130.76923077 , 4128.20512821 , 4137.43589744 , 4134.87179487 , 4140.51282051 , 4193.33333333 , 4914.35897436 , 4137.43589744 , 4138.46153846 , 2044.0 , 2034.0 , 147.864 , 0.0 , 0.0 , 0.0 , 0.0 , 

93.0 , 4132.82051282 , 4130.25641026 , 4138.46153846 , 4134.35897436 , 4131.79487179 , 4128.71794872 , 4128.71794872 , 4134.35897436 , 4135.38461538 , 4136.92307692 , 4190.76923077 , 4915.38461538 , 4136.41025641 , 4140.51282051 , 2043.0 , 2036.0 , 147.876 , 0.0 , 0.0 , 0.0 , 0.0 , 

94.0 , 4129.74358974 , 4131.79487179 , 4135.8974359 , 4136.41025641 , 4130.25641026 , 4127.17948718 , 4130.25641026 , 4133.33333333 , 4136.41025641 , 4136.41025641 , 4189.23076923 , 4912.30769231 , 4135.8974359 , 4139.48717949 , 2043.0 , 2034.0 , 147.88 , 0.0 , 0.0 , 0.0 , 0.0 , 

95.0 , 4132.82051282 , 4130.25641026 , 4136.92307692 , 4132.30769231 , 4130.25641026 , 4130.25641026 , 4129.23076923 , 4134.87179487 , 4133.33333333 , 4139.48717949 , 4192.82051282 , 4914.35897436 , 4136.41025641 , 4140.51282051 , 2044.0 , 2035.0 , 147.889 , 0.0 , 0.0 , 0.0 , 0.0 , 

96.0 , 4134.87179487 , 4132.30769231 , 4139.48717949 , 4131.28205128 , 4130.25641026 , 4132.30769231 , 4130.25641026 , 4135.8974359 , 4133.33333333 , 4139.48717949 , 4192.82051282 , 4914.87179487 , 4135.8974359 , 4140.0 , 2043.0 , 2033.0 , 147.896 , 0.0 , 0.0 , 0.0 , 0.0 , 

97.0 , 4133.33333333 , 4131.79487179 , 4138.46153846 , 4134.35897436 , 4131.79487179 , 4127.69230769 , 4128.71794872 , 4132.30769231 , 4134.35897436 , 4136.92307692 , 4191.79487179 , 4915.38461538 , 4135.38461538 , 4144.1025641 , 2043.0 , 2036.0 , 147.907 , 0.0 , 0.0 , 0.0 , 0.0 , 

98.0 , 4131.79487179 , 4130.76923077 , 4133.84615385 , 4137.94871795 , 4132.82051282 , 4127.17948718 , 4127.69230769 , 4130.76923077 , 4130.25641026 , 4138.97435897 , 4192.30769231 , 4915.8974359 , 4134.35897436 , 4140.51282051 , 2044.0 , 2033.0 , 147.912 , 0.0 , 0.0 , 0.0 , 0.0 , 

99.0 , 4135.38461538 , 4131.28205128 , 4132.30769231 , 4135.38461538 , 4132.82051282 , 4129.23076923 , 4126.66666667 , 4131.79487179 , 4129.23076923 , 4140.0 , 4192.82051282 , 4914.87179487 , 4133.84615385 , 4139.48717949 , 2044.0 , 2035.0 , 147.92 , 0.0 , 0.0 , 0.0 , 0.0 , 

100.0 , 4136.41025641 , 4130.76923077 , 4134.35897436 , 4132.30769231 , 4133.84615385 , 4130.25641026 , 4128.20512821 , 4131.28205128 , 4134.87179487 , 4138.46153846 , 4192.82051282 , 4910.76923077 , 4134.35897436 , 4138.46153846 , 2043.0 , 2036.0 , 147.927 , 0.0 , 0.0 , 0.0 , 0.0 , 

101.0 , 4134.87179487 , 4128.20512821 , 4135.8974359 , 4135.38461538 , 4131.79487179 , 4128.71794872 , 4128.20512821 , 4131.79487179 , 4138.97435897 , 4138.46153846 , 4192.30769231 , 4911.28205128 , 4136.41025641 , 4135.8974359 , 2044.0 , 2035.0 , 147.94 , 0.0 , 0.0 , 0.0 , 0.0 , 

102.0 , 4135.8974359 , 4129.74358974 , 4134.87179487 , 4135.8974359 , 4129.74358974 , 4126.66666667 , 4126.15384615 , 4134.35897436 , 4136.41025641 , 4139.48717949 , 4191.79487179 , 4915.8974359 , 4135.38461538 , 4136.92307692 , 2043.0 , 2037.0 , 147.943 , 0.0 , 0.0 , 0.0 , 0.0 , 

103.0 , 4136.92307692 , 4134.87179487 , 4134.35897436 , 4133.33333333 , 4130.25641026 , 4130.25641026 , 4124.61538462 , 4136.41025641 , 4133.33333333 , 4138.46153846 , 4192.30769231 , 4913.33333333 , 4134.87179487 , 4139.48717949 , 2042.0 , 2039.0 , 147.952 , 0.0 , 0.0 , 0.0 , 0.0 , 

104.0 , 4136.92307692 , 4134.87179487 , 4135.8974359 , 4134.87179487 , 4131.28205128 , 4132.82051282 , 4126.66666667 , 4132.82051282 , 4135.8974359 , 4138.46153846 , 4192.30769231 , 4910.76923077 , 4135.8974359 , 4142.05128205 , 2043.0 , 2038.0 , 147.96 , 0.0 , 0.0 , 0.0 , 0.0 , 

105.0 , 4133.84615385 , 4133.33333333 , 4135.8974359 , 4135.38461538 , 4133.84615385 , 4129.74358974 , 4129.23076923 , 4132.30769231 , 4138.97435897 , 4139.48717949 , 4190.25641026 , 4912.82051282 , 4138.46153846 , 4138.97435897 , 2044.0 , 2037.0 , 147.97 , 0.0 , 0.0 , 0.0 , 0.0 , 

106.0 , 4133.84615385 , 4130.76923077 , 4135.38461538 , 4131.28205128 , 4133.84615385 , 4128.71794872 , 4127.17948718 , 4133.33333333 , 4135.38461538 , 4138.46153846 , 4190.76923077 , 4914.35897436 , 4136.92307692 , 4142.05128205 , 2045.0 , 2036.0 , 147.975 , 0.0 , 0.0 , 0.0 , 0.0 , 

107.0 , 4131.28205128 , 4130.76923077 , 4133.84615385 , 4131.79487179 , 4131.79487179 , 4131.28205128 , 4126.15384615 , 4132.82051282 , 4131.28205128 , 4137.94871795 , 4193.84615385 , 4911.28205128 , 4136.41025641 , 4143.07692308 , 2044.0 , 2035.0 , 147.983 , 0.0 , 0.0 , 0.0 , 0.0 , 

108.0 , 4130.25641026 , 4130.25641026 , 4134.87179487 , 4131.28205128 , 4133.84615385 , 4130.25641026 , 4128.20512821 , 4131.28205128 , 4132.82051282 , 4138.46153846 , 4193.84615385 , 4915.38461538 , 4133.84615385 , 4145.64102564 , 2042.0 , 2034.0 , 147.991 , 0.0 , 0.0 , 0.0 , 0.0 , 

109.0 , 4129.74358974 , 4133.84615385 , 4134.87179487 , 4132.30769231 , 4135.8974359 , 4129.74358974 , 4130.25641026 , 4132.30769231 , 4137.94871795 , 4138.97435897 , 4193.33333333 , 4915.8974359 , 4130.76923077 , 4138.97435897 , 2044.0 , 2036.0 , 148.003 , 0.0 , 0.0 , 0.0 , 0.0 , 

110.0 , 4130.76923077 , 4135.38461538 , 4137.43589744 , 4133.84615385 , 4132.30769231 , 4128.71794872 , 4128.71794872 , 4131.79487179 , 4136.41025641 , 4140.0 , 4192.82051282 , 4912.30769231 , 4132.30769231 , 4139.48717949 , 2043.0 , 2037.0 , 148.006 , 0.0 , 0.0 , 0.0 , 0.0 , 

111.0 , 4127.69230769 , 4133.33333333 , 4136.41025641 , 4135.8974359 , 4130.76923077 , 4129.74358974 , 4127.69230769 , 4131.79487179 , 4133.84615385 , 4138.97435897 , 4190.25641026 , 4909.74358974 , 4136.41025641 , 4139.48717949 , 2042.0 , 2037.0 , 148.015 , 0.0 , 0.0 , 0.0 , 0.0 , 

112.0 , 4133.33333333 , 4131.28205128 , 4134.35897436 , 4134.35897436 , 4132.82051282 , 4128.20512821 , 4125.12820513 , 4132.30769231 , 4133.84615385 , 4138.46153846 , 4191.79487179 , 4913.84615385 , 4134.87179487 , 4144.1025641 , 2043.0 , 2035.0 , 148.023 , 0.0 , 0.0 , 0.0 , 0.0 , 

113.0 , 4136.41025641 , 4133.84615385 , 4131.79487179 , 4135.38461538 , 4133.33333333 , 4127.69230769 , 4127.69230769 , 4134.87179487 , 4135.38461538 , 4140.51282051 , 4193.84615385 , 4912.30769231 , 4131.79487179 , 4142.05128205 , 2043.0 , 2035.0 , 148.033 , 0.0 , 0.0 , 0.0 , 0.0 , 

114.0 , 4135.38461538 , 4133.33333333 , 4134.35897436 , 4134.35897436 , 4131.28205128 , 4130.25641026 , 4128.20512821 , 4134.35897436 , 4133.84615385 , 4140.0 , 4191.79487179 , 4912.82051282 , 4134.35897436 , 4143.07692308 , 2043.0 , 2036.0 , 148.037 , 0.0 , 0.0 , 0.0 , 0.0 , 

115.0 , 4132.30769231 , 4131.79487179 , 4135.8974359 , 4133.33333333 , 4129.23076923 , 4133.33333333 , 4127.17948718 , 4134.35897436 , 4134.87179487 , 4138.46153846 , 4189.23076923 , 4912.30769231 , 4134.87179487 , 4142.56410256 , 2042.0 , 2036.0 , 148.046 , 0.0 , 0.0 , 0.0 , 0.0 , 

116.0 , 4134.87179487 , 4132.82051282 , 4134.87179487 , 4135.38461538 , 4128.71794872 , 4127.69230769 , 4127.17948718 , 4134.35897436 , 4136.92307692 , 4137.94871795 , 4190.76923077 , 4911.28205128 , 4133.33333333 , 4146.66666667 , 2042.0 , 2038.0 , 148.053 , 0.0 , 0.0 , 0.0 , 0.0 , 

117.0 , 4135.38461538 , 4134.35897436 , 4133.84615385 , 4136.92307692 , 4133.33333333 , 4128.20512821 , 4128.20512821 , 4135.8974359 , 4136.41025641 , 4137.94871795 , 4193.33333333 , 4910.76923077 , 4132.30769231 , 4144.1025641 , 2042.0 , 2037.0 , 148.065 , 0.0 , 0.0 , 0.0 , 0.0 , 

118.0 , 4134.35897436 , 4133.84615385 , 4135.38461538 , 4134.35897436 , 4134.35897436 , 4132.82051282 , 4126.66666667 , 4137.43589744 , 4136.41025641 , 4137.94871795 , 4192.82051282 , 4913.33333333 , 4133.33333333 , 4141.53846154 , 2042.0 , 2037.0 , 148.069 , 0.0 , 0.0 , 0.0 , 0.0 , 

119.0 , 4131.28205128 , 4134.35897436 , 4135.8974359 , 4131.28205128 , 4131.79487179 , 4131.28205128 , 4126.15384615 , 4134.35897436 , 4137.43589744 , 4138.97435897 , 4191.28205128 , 4914.87179487 , 4133.33333333 , 4140.51282051 , 2042.0 , 2035.0 , 148.077 , 0.0 , 0.0 , 0.0 , 0.0 , 

120.0 , 4132.30769231 , 4134.35897436 , 4135.38461538 , 4130.76923077 , 4132.30769231 , 4128.20512821 , 4128.71794872 , 4132.82051282 , 4135.8974359 , 4138.97435897 , 4192.30769231 , 4913.33333333 , 4135.38461538 , 4143.07692308 , 2041.0 , 2036.0 , 148.085 , 0.0 , 0.0 , 0.0 , 0.0 , 

121.0 , 4135.38461538 , 4131.28205128 , 4137.94871795 , 4134.35897436 , 4134.35897436 , 4129.74358974 , 4130.76923077 , 4136.92307692 , 4133.33333333 , 4138.46153846 , 4193.33333333 , 4911.79487179 , 4136.92307692 , 4143.07692308 , 2043.0 , 2038.0 , 148.097 , 0.0 , 0.0 , 0.0 , 0.0 , 

122.0 , 4133.33333333 , 4129.23076923 , 4138.46153846 , 4137.43589744 , 4133.33333333 , 4130.25641026 , 4129.23076923 , 4136.41025641 , 4133.84615385 , 4138.97435897 , 4193.33333333 , 4911.79487179 , 4134.87179487 , 4141.02564103 , 2043.0 , 2037.0 , 148.1 , 0.0 , 0.0 , 0.0 , 0.0 , 

123.0 , 4131.79487179 , 4129.23076923 , 4133.84615385 , 4135.38461538 , 4131.28205128 , 4129.23076923 , 4125.64102564 , 4130.76923077 , 4134.35897436 , 4140.51282051 , 4193.33333333 , 4913.84615385 , 4129.74358974 , 4147.69230769 , 2043.0 , 2036.0 , 148.109 , 0.0 , 0.0 , 0.0 , 0.0 , 

124.0 , 4131.28205128 , 4127.17948718 , 4130.76923077 , 4134.35897436 , 4130.76923077 , 4130.25641026 , 4125.12820513 , 4134.87179487 , 4136.92307692 , 4138.46153846 , 4193.33333333 , 4912.30769231 , 4132.30769231 , 4149.74358974 , 2044.0 , 2034.0 , 148.117 , 0.0 , 0.0 , 0.0 , 0.0 , 

125.0 , 4133.33333333 , 4124.61538462 , 4133.84615385 , 4136.92307692 , 4130.76923077 , 4127.17948718 , 4126.15384615 , 4140.0 , 4135.38461538 , 4135.38461538 , 4191.79487179 , 4914.35897436 , 4135.8974359 , 4149.23076923 , 2044.0 , 2035.0 , 148.129 , 0.0 , 0.0 , 0.0 , 0.0 , 

126.0 , 4130.76923077 , 4127.17948718 , 4133.33333333 , 4137.43589744 , 4132.82051282 , 4127.17948718 , 4128.71794872 , 4134.87179487 , 4132.30769231 , 4137.94871795 , 4190.76923077 , 4911.28205128 , 4134.87179487 , 4140.51282051 , 2046.0 , 2033.0 , 148.131 , 0.0 , 0.0 , 0.0 , 0.0 , 

127.0 , 4132.30769231 , 4129.23076923 , 4131.79487179 , 4133.33333333 , 4132.30769231 , 4129.23076923 , 4128.20512821 , 4130.25641026 , 4133.84615385 , 4140.0 , 4193.84615385 , 4907.69230769 , 4131.28205128 , 4138.97435897 , 2045.0 , 2033.0 , 148.14 , 0.0 , 0.0 , 0.0 , 0.0 , 

128.0 , 4133.33333333 , 4128.71794872 , 4134.87179487 , 4134.87179487 , 4131.28205128 , 4129.23076923 , 4129.23076923 , 4137.94871795 , 4137.94871795 , 4138.97435897 , 4194.87179487 , 4906.66666667 , 4134.35897436 , 4137.94871795 , 2045.0 , 2034.0 , 148.149 , 0.0 , 0.0 , 0.0 , 0.0 , 

0.0 , 4134.87179487 , 4129.74358974 , 4136.92307692 , 4134.87179487 , 4130.25641026 , 4126.66666667 , 4127.69230769 , 4139.48717949 , 4133.84615385 , 4138.46153846 , 4193.33333333 , 4912.30769231 , 4136.92307692 , 4142.05128205 , 2043.0 , 2034.0 , 148.159 , 0.0 , 0.0 , 0.0 , 0.0 , 

1.0 , 4131.79487179 , 4134.87179487 , 4132.30769231 , 4134.35897436 , 4130.25641026 , 4130.25641026 , 4125.64102564 , 4132.82051282 , 4131.28205128 , 4138.97435897 , 4191.79487179 , 4911.79487179 , 4136.41025641 , 4137.94871795 , 2045.0 , 2034.0 , 148.165 , 0.0 , 0.0 , 0.0 , 0.0 , 

2.0 , 4133.33333333 , 4136.41025641 , 4132.82051282 , 4136.41025641 , 4129.23076923 , 4129.74358974 , 4123.58974359 , 4129.74358974 , 4133.84615385 , 4140.0 , 4192.30769231 , 4912.82051282 , 4135.38461538 , 4140.0 , 2045.0 , 2035.0 , 148.172 , 0.0 , 0.0 , 0.0 , 0.0 , 

3.0 , 4134.87179487 , 4135.38461538 , 4136.92307692 , 4137.43589744 , 4131.79487179 , 4128.71794872 , 4127.17948718 , 4131.28205128 , 4133.33333333 , 4140.51282051 , 4193.33333333 , 4911.79487179 , 4136.41025641 , 4138.97435897 , 2044.0 , 2036.0 , 148.179 , 0.0 , 0.0 , 0.0 , 0.0 , 

4.0 , 4134.87179487 , 4134.35897436 , 4138.46153846 , 4134.35897436 , 4133.33333333 , 4127.69230769 , 4128.71794872 , 4130.25641026 , 4131.79487179 , 4139.48717949 , 4194.87179487 , 4911.28205128 , 4138.46153846 , 4141.53846154 , 2043.0 , 2034.0 , 148.195 , 0.0 , 0.0 , 0.0 , 0.0 , 

5.0 , 4131.28205128 , 4134.35897436 , 4137.43589744 , 4134.87179487 , 4131.79487179 , 4130.25641026 , 4126.66666667 , 4130.25641026 , 4133.33333333 , 4139.48717949 , 4192.30769231 , 4910.76923077 , 4138.46153846 , 4143.07692308 , 2042.0 , 2035.0 , 148.197 , 0.0 , 0.0 , 0.0 , 0.0 , 

6.0 , 4133.33333333 , 4134.35897436 , 4133.33333333 , 4132.82051282 , 4129.23076923 , 4131.28205128 , 4125.64102564 , 4129.23076923 , 4132.30769231 , 4138.46153846 , 4189.74358974 , 4911.79487179 , 4138.46153846 , 4144.61538462 , 2042.0 , 2038.0 , 148.203 , 0.0 , 0.0 , 0.0 , 0.0 , 

7.0 , 4134.35897436 , 4136.41025641 , 4130.25641026 , 4131.79487179 , 4130.25641026 , 4130.25641026 , 4128.20512821 , 4130.25641026 , 4131.79487179 , 4136.41025641 , 4191.28205128 , 4911.28205128 , 4136.41025641 , 4140.0 , 2042.0 , 2037.0 , 148.211 , 0.0 , 0.0 , 0.0 , 0.0 , 

8.0 , 4134.35897436 , 4135.8974359 , 4136.41025641 , 4133.84615385 , 4132.30769231 , 4127.17948718 , 4128.20512821 , 4133.33333333 , 4134.87179487 , 4137.43589744 , 4191.79487179 , 4912.30769231 , 4133.33333333 , 4141.02564103 , 2043.0 , 2035.0 , 148.223 , 0.0 , 0.0 , 0.0 , 0.0 , 

9.0 , 4133.84615385 , 4132.30769231 , 4138.97435897 , 4134.35897436 , 4132.82051282 , 4128.20512821 , 4127.17948718 , 4130.76923077 , 4131.79487179 , 4138.97435897 , 4191.79487179 , 4913.84615385 , 4132.82051282 , 4140.0 , 2041.0 , 2037.0 , 148.227 , 0.0 , 0.0 , 0.0 , 0.0 , 

10.0 , 4134.87179487 , 4131.28205128 , 4134.87179487 , 4129.74358974 , 4131.79487179 , 4130.76923077 , 4129.23076923 , 4129.74358974 , 4129.74358974 , 4137.94871795 , 4192.30769231 , 4913.84615385 , 4135.8974359 , 4134.87179487 , 2041.0 , 2037.0 , 148.236 , 0.0 , 0.0 , 0.0 , 0.0 , 

11.0 , 4134.87179487 , 4132.30769231 , 4133.84615385 , 4128.71794872 , 4132.30769231 , 4130.25641026 , 4128.71794872 , 4133.84615385 , 4133.84615385 , 4139.48717949 , 4192.82051282 , 4914.35897436 , 4136.92307692 , 4136.41025641 , 2042.0 , 2037.0 , 148.242 , 0.0 , 0.0 , 0.0 , 0.0 , 

12.0 , 4134.87179487 , 4130.25641026 , 4136.41025641 , 4133.33333333 , 4132.30769231 , 4127.69230769 , 4126.15384615 , 4134.35897436 , 4135.38461538 , 4138.97435897 , 4193.84615385 , 4914.35897436 , 4134.35897436 , 4137.43589744 , 2041.0 , 2038.0 , 148.255 , 0.0 , 0.0 , 0.0 , 0.0 , 

13.0 , 4137.94871795 , 4127.69230769 , 4137.94871795 , 4133.33333333 , 4132.82051282 , 4126.15384615 , 4124.1025641 , 4132.30769231 , 4132.30769231 , 4135.38461538 , 4192.82051282 , 4913.33333333 , 4131.79487179 , 4138.46153846 , 2041.0 , 2038.0 , 148.258 , 0.0 , 0.0 , 0.0 , 0.0 , 

14.0 , 4134.87179487 , 4130.25641026 , 4136.92307692 , 4132.30769231 , 4133.33333333 , 4129.74358974 , 4126.15384615 , 4134.35897436 , 4134.35897436 , 4137.94871795 , 4190.76923077 , 4910.25641026 , 4134.87179487 , 4137.43589744 , 2042.0 , 2040.0 , 148.267 , 0.0 , 0.0 , 0.0 , 0.0 , 

15.0 , 4134.35897436 , 4132.30769231 , 4136.41025641 , 4133.33333333 , 4131.79487179 , 4129.74358974 , 4125.64102564 , 4133.84615385 , 4138.97435897 , 4141.02564103 , 4193.33333333 , 4911.79487179 , 4135.38461538 , 4138.46153846 , 2044.0 , 2040.0 , 148.275 , 0.0 , 0.0 , 0.0 , 0.0 , 

16.0 , 4132.82051282 , 4134.87179487 , 4135.8974359 , 4135.38461538 , 4131.79487179 , 4127.69230769 , 4125.64102564 , 4133.33333333 , 4140.51282051 , 4138.46153846 , 4194.35897436 , 4912.30769231 , 4132.82051282 , 4134.87179487 , 2042.0 , 2038.0 , 148.287 , 0.0 , 0.0 , 0.0 , 0.0 , 

17.0 , 4132.82051282 , 4134.87179487 , 4135.38461538 , 4133.33333333 , 4133.33333333 , 4129.23076923 , 4126.15384615 , 4132.30769231 , 4135.38461538 , 4136.92307692 , 4191.79487179 , 4914.87179487 , 4131.28205128 , 4141.53846154 , 2042.0 , 2038.0 , 148.29 , 0.0 , 0.0 , 0.0 , 0.0 , 

18.0 , 4131.79487179 , 4133.84615385 , 4134.35897436 , 4132.82051282 , 4134.35897436 , 4132.82051282 , 4128.71794872 , 4132.82051282 , 4130.76923077 , 4139.48717949 , 4192.30769231 , 4913.33333333 , 4133.33333333 , 4141.53846154 , 2044.0 , 2037.0 , 148.298 , 0.0 , 0.0 , 0.0 , 0.0 , 

19.0 , 4135.38461538 , 4130.76923077 , 4136.41025641 , 4132.82051282 , 4132.30769231 , 4128.20512821 , 4128.20512821 , 4134.35897436 , 4130.25641026 , 4139.48717949 , 4193.33333333 , 4912.30769231 , 4132.30769231 , 4142.56410256 , 2043.0 , 2037.0 , 148.305 , 0.0 , 0.0 , 0.0 , 0.0 , 

20.0 , 4132.30769231 , 4131.28205128 , 4136.92307692 , 4133.33333333 , 4131.28205128 , 4127.69230769 , 4128.20512821 , 4136.41025641 , 4133.84615385 , 4138.46153846 , 4191.79487179 , 4910.76923077 , 4129.23076923 , 4139.48717949 , 2043.0 , 2036.0 , 148.317 , 0.0 , 0.0 , 0.0 , 0.0 , 

21.0 , 4131.28205128 , 4131.28205128 , 4135.38461538 , 4130.25641026 , 4132.30769231 , 4128.71794872 , 4127.69230769 , 4135.38461538 , 4134.35897436 , 4138.46153846 , 4191.79487179 , 4914.35897436 , 4129.74358974 , 4141.02564103 , 2043.0 , 2036.0 , 148.32 , 0.0 , 0.0 , 0.0 , 0.0 , 

22.0 , 4133.33333333 , 4131.79487179 , 4134.87179487 , 4131.28205128 , 4134.35897436 , 4127.69230769 , 4127.69230769 , 4133.84615385 , 4135.8974359 , 4137.43589744 , 4191.79487179 , 4909.74358974 , 4133.84615385 , 4137.94871795 , 2043.0 , 2036.0 , 148.329 , 0.0 , 0.0 , 0.0 , 0.0 , 

23.0 , 4136.41025641 , 4132.30769231 , 4137.43589744 , 4133.84615385 , 4130.76923077 , 4127.69230769 , 4125.12820513 , 4131.28205128 , 4137.43589744 , 4137.94871795 , 4192.30769231 , 4906.66666667 , 4136.92307692 , 4141.02564103 , 2043.0 , 2038.0 , 148.337 , 0.0 , 0.0 , 0.0 , 0.0 , 

24.0 , 4133.84615385 , 4130.76923077 , 4137.43589744 , 4135.38461538 , 4129.23076923 , 4129.23076923 , 4123.58974359 , 4132.30769231 , 4137.43589744 , 4139.48717949 , 4192.82051282 , 4911.79487179 , 4135.38461538 , 4139.48717949 , 2044.0 , 2038.0 , 148.349 , 0.0 , 0.0 , 0.0 , 0.0 , 

25.0 , 4135.38461538 , 4129.74358974 , 4137.43589744 , 4134.35897436 , 4131.28205128 , 4127.69230769 , 4123.58974359 , 4133.33333333 , 4136.92307692 , 4138.46153846 , 4191.79487179 , 4913.33333333 , 4135.38461538 , 4137.94871795 , 2046.0 , 2037.0 , 148.353 , 0.0 , 0.0 , 0.0 , 0.0 , 

26.0 , 4136.41025641 , 4132.30769231 , 4135.8974359 , 4136.41025641 , 4131.79487179 , 4128.20512821 , 4124.1025641 , 4132.30769231 , 4138.97435897 , 4137.94871795 , 4189.74358974 , 4908.20512821 , 4135.8974359 , 4135.8974359 , 2045.0 , 2036.0 , 148.362 , 0.0 , 0.0 , 0.0 , 0.0 , 

27.0 , 4133.84615385 , 4132.82051282 , 4135.38461538 , 4135.8974359 , 4128.71794872 , 4128.71794872 , 4125.12820513 , 4132.30769231 , 4138.97435897 , 4137.94871795 , 4190.76923077 , 4910.25641026 , 4136.41025641 , 4138.46153846 , 2045.0 , 2036.0 , 148.368 , 0.0 , 0.0 , 0.0 , 0.0 , 

28.0 , 4133.33333333 , 4133.84615385 , 4137.94871795 , 4132.30769231 , 4128.71794872 , 4130.25641026 , 4126.66666667 , 4132.82051282 , 4133.84615385 , 4138.97435897 , 4193.33333333 , 4915.38461538 , 4137.43589744 , 4142.05128205 , 2045.0 , 2036.0 , 148.381 , 0.0 , 0.0 , 0.0 , 0.0 , 

29.0 , 4133.33333333 , 4134.35897436 , 4138.46153846 , 4131.79487179 , 4133.33333333 , 4132.30769231 , 4126.15384615 , 4131.79487179 , 4133.84615385 , 4139.48717949 , 4193.33333333 , 4914.35897436 , 4136.41025641 , 4142.05128205 , 2043.0 , 2037.0 , 148.383 , 0.0 , 0.0 , 0.0 , 0.0 , 

30.0 , 4132.82051282 , 4132.30769231 , 4135.38461538 , 4132.82051282 , 4135.38461538 , 4130.25641026 , 4126.15384615 , 4132.82051282 , 4135.38461538 , 4137.94871795 , 4192.82051282 , 4911.79487179 , 4132.82051282 , 4141.02564103 , 2043.0 , 2035.0 , 148.393 , 0.0 , 0.0 , 0.0 , 0.0 , 

31.0 , 4131.79487179 , 4130.76923077 , 4134.87179487 , 4135.8974359 , 4133.33333333 , 4130.76923077 , 4130.25641026 , 4134.35897436 , 4135.38461538 , 4137.43589744 , 4191.79487179 , 4913.33333333 , 4134.87179487 , 4139.48717949 , 2043.0 , 2034.0 , 148.4 , 0.0 , 0.0 , 0.0 , 0.0 , 

32.0 , 4132.82051282 , 4131.79487179 , 4136.41025641 , 4137.43589744 , 4130.25641026 , 4132.82051282 , 4129.74358974 , 4133.33333333 , 4134.87179487 , 4139.48717949 , 4190.76923077 , 4918.46153846 , 4135.38461538 , 4143.07692308 , 2043.0 , 2035.0 , 148.412 , 0.0 , 0.0 , 0.0 , 0.0 , 

33.0 , 4129.74358974 , 4132.82051282 , 4134.87179487 , 4136.41025641 , 4133.84615385 , 4130.76923077 , 4128.20512821 , 4135.8974359 , 4135.38461538 , 4139.48717949 , 4192.30769231 , 4916.92307692 , 4134.35897436 , 4139.48717949 , 2042.0 , 2033.0 , 148.416 , 0.0 , 0.0 , 0.0 , 0.0 , 

34.0 , 4132.30769231 , 4131.28205128 , 4135.8974359 , 4131.79487179 , 4134.87179487 , 4127.69230769 , 4128.71794872 , 4135.38461538 , 4132.82051282 , 4136.92307692 , 4194.87179487 , 4914.35897436 , 4133.84615385 , 4137.94871795 , 2042.0 , 2033.0 , 148.425 , 0.0 , 0.0 , 0.0 , 0.0 , 

35.0 , 4134.87179487 , 4130.25641026 , 4135.38461538 , 4134.35897436 , 4131.28205128 , 4131.28205128 , 4131.28205128 , 4132.82051282 , 4133.33333333 , 4137.43589744 , 4191.28205128 , 4909.23076923 , 4136.92307692 , 4137.94871795 , 2042.0 , 2033.0 , 148.433 , 0.0 , 0.0 , 0.0 , 0.0 , 

36.0 , 4135.8974359 , 4128.71794872 , 4135.38461538 , 4137.43589744 , 4130.25641026 , 4130.76923077 , 4126.15384615 , 4132.30769231 , 4136.92307692 , 4139.48717949 , 4189.74358974 , 4908.20512821 , 4135.38461538 , 4143.58974359 , 2042.0 , 2033.0 , 148.445 , 0.0 , 0.0 , 0.0 , 0.0 , 

37.0 , 4131.79487179 , 4130.76923077 , 4133.33333333 , 4136.92307692 , 4133.33333333 , 4128.71794872 , 4126.66666667 , 4135.38461538 , 4138.46153846 , 4139.48717949 , 4192.30769231 , 4907.17948718 , 4131.79487179 , 4137.43589744 , 2043.0 , 2031.0 , 148.447 , 0.0 , 0.0 , 0.0 , 0.0 , 

38.0 , 4133.33333333 , 4132.30769231 , 4132.82051282 , 4133.33333333 , 4132.82051282 , 4128.20512821 , 4126.15384615 , 4132.82051282 , 4135.38461538 , 4138.97435897 , 4193.33333333 , 4912.30769231 , 4131.79487179 , 4137.43589744 , 2042.0 , 2032.0 , 148.456 , 0.0 , 0.0 , 0.0 , 0.0 , 

39.0 , 4133.84615385 , 4128.71794872 , 4133.33333333 , 4134.87179487 , 4131.79487179 , 4130.25641026 , 4125.64102564 , 4131.79487179 , 4134.87179487 , 4138.46153846 , 4192.30769231 , 4912.82051282 , 4135.8974359 , 4138.97435897 , 2043.0 , 2031.0 , 148.464 , 0.0 , 0.0 , 0.0 , 0.0 , 

40.0 , 4135.8974359 , 4126.15384615 , 4136.92307692 , 4136.41025641 , 4131.28205128 , 4128.20512821 , 4127.17948718 , 4133.33333333 , 4136.41025641 , 4137.43589744 , 4193.84615385 , 4913.33333333 , 4136.92307692 , 4143.07692308 , 2044.0 , 2032.0 , 148.475 , 0.0 , 0.0 , 0.0 , 0.0 , 

41.0 , 4133.33333333 , 4130.25641026 , 4136.92307692 , 4134.35897436 , 4129.74358974 , 4126.15384615 , 4130.25641026 , 4133.84615385 , 4138.97435897 , 4137.43589744 , 4193.33333333 , 4913.33333333 , 4132.82051282 , 4141.02564103 , 2043.0 , 2034.0 , 148.479 , 0.0 , 0.0 , 0.0 , 0.0 , 

42.0 , 4134.35897436 , 4131.28205128 , 4136.41025641 , 4131.28205128 , 4129.23076923 , 4124.61538462 , 4127.69230769 , 4133.84615385 , 4136.92307692 , 4139.48717949 , 4191.28205128 , 4913.33333333 , 4132.30769231 , 4143.07692308 , 2044.0 , 2034.0 , 148.488 , 0.0 , 0.0 , 0.0 , 0.0 , 

43.0 , 4133.84615385 , 4128.71794872 , 4137.43589744 , 4134.35897436 , 4133.33333333 , 4130.25641026 , 4126.66666667 , 4134.35897436 , 4134.87179487 , 4140.0 , 4191.79487179 , 4911.79487179 , 4135.8974359 , 4142.05128205 , 2045.0 , 2035.0 , 148.496 , 0.0 , 0.0 , 0.0 , 0.0 , 

44.0 , 4132.82051282 , 4131.79487179 , 4137.94871795 , 4137.94871795 , 4133.84615385 , 4132.30769231 , 4127.69230769 , 4134.87179487 , 4134.35897436 , 4137.94871795 , 4193.84615385 , 4912.82051282 , 4136.41025641 , 4141.53846154 , 2046.0 , 2034.0 , 148.51 , 0.0 , 0.0 , 0.0 , 0.0 , 

45.0 , 4133.33333333 , 4134.35897436 , 4136.92307692 , 4135.38461538 , 4131.28205128 , 4127.69230769 , 4125.12820513 , 4133.84615385 , 4134.87179487 , 4136.41025641 , 4193.84615385 , 4912.30769231 , 4133.84615385 , 4139.48717949 , 2046.0 , 2036.0 , 148.512 , 0.0 , 0.0 , 0.0 , 0.0 , 

46.0 , 4136.41025641 , 4131.28205128 , 4136.92307692 , 4135.38461538 , 4133.84615385 , 4125.12820513 , 4124.61538462 , 4131.79487179 , 4136.41025641 , 4138.46153846 , 4192.30769231 , 4910.76923077 , 4133.84615385 , 4139.48717949 , 2043.0 , 2035.0 , 148.517 , 0.0 , 0.0 , 0.0 , 0.0 , 

47.0 , 4135.8974359 , 4131.28205128 , 4136.41025641 , 4138.46153846 , 4135.8974359 , 4127.69230769 , 4127.17948718 , 4130.76923077 , 4137.94871795 , 4140.51282051 , 4191.79487179 , 4912.82051282 , 4135.38461538 , 4140.51282051 , 2045.0 , 2035.0 , 148.528 , 0.0 , 0.0 , 0.0 , 0.0 , 

48.0 , 4132.30769231 , 4133.33333333 , 4136.41025641 , 4137.43589744 , 4132.30769231 , 4130.25641026 , 4126.66666667 , 4131.79487179 , 4138.46153846 , 4140.0 , 4193.33333333 , 4913.33333333 , 4136.41025641 , 4138.46153846 , 2043.0 , 2036.0 , 148.538 , 0.0 , 0.0 , 0.0 , 0.0 , 

49.0 , 4134.87179487 , 4134.87179487 , 4136.92307692 , 4133.84615385 , 4130.76923077 , 4128.71794872 , 4125.64102564 , 4131.28205128 , 4138.46153846 , 4137.94871795 , 4195.38461538 , 4912.82051282 , 4134.87179487 , 4140.0 , 2043.0 , 2036.0 , 148.543 , 0.0 , 0.0 , 0.0 , 0.0 , 

50.0 , 4135.38461538 , 4134.87179487 , 4135.8974359 , 4135.38461538 , 4132.30769231 , 4128.71794872 , 4127.17948718 , 4131.28205128 , 4137.94871795 , 4137.94871795 , 4193.33333333 , 4911.79487179 , 4134.87179487 , 4140.0 , 2043.0 , 2036.0 , 148.551 , 0.0 , 0.0 , 0.0 , 0.0 , 

51.0 , 4135.8974359 , 4132.82051282 , 4138.46153846 , 4134.35897436 , 4130.76923077 , 4128.20512821 , 4127.69230769 , 4133.33333333 , 4133.84615385 , 4137.94871795 , 4190.25641026 , 4915.38461538 , 4134.87179487 , 4143.07692308 , 2042.0 , 2037.0 , 148.558 , 0.0 , 0.0 , 0.0 , 0.0 , 

52.0 , 4131.79487179 , 4129.74358974 , 4137.43589744 , 4131.79487179 , 4130.76923077 , 4127.69230769 , 4128.20512821 , 4136.41025641 , 4134.87179487 , 4138.97435897 , 4190.25641026 , 4911.28205128 , 4137.43589744 , 4141.02564103 , 2041.0 , 2039.0 , 148.57 , 0.0 , 0.0 , 0.0 , 0.0 , 

53.0 , 4130.76923077 , 4127.69230769 , 4133.33333333 , 4134.35897436 , 4131.79487179 , 4127.17948718 , 4125.12820513 , 4134.87179487 , 4137.43589744 , 4139.48717949 , 4191.79487179 , 4909.74358974 , 4136.41025641 , 4142.56410256 , 2042.0 , 2038.0 , 148.573 , 0.0 , 0.0 , 0.0 , 0.0 , 

54.0 , 4129.74358974 , 4131.28205128 , 4131.79487179 , 4139.48717949 , 4130.76923077 , 4129.23076923 , 4124.61538462 , 4133.33333333 , 4135.8974359 , 4139.48717949 , 4191.79487179 , 4911.28205128 , 4134.35897436 , 4139.48717949 , 2042.0 , 2038.0 , 148.581 , 0.0 , 0.0 , 0.0 , 0.0 , 

55.0 , 4131.28205128 , 4133.33333333 , 4136.92307692 , 4134.87179487 , 4128.20512821 , 4128.71794872 , 4125.12820513 , 4133.84615385 , 4133.84615385 , 4138.46153846 , 4191.28205128 , 4913.33333333 , 4135.38461538 , 4142.56410256 , 2042.0 , 2039.0 , 148.588 , 0.0 , 0.0 , 0.0 , 0.0 , 

56.0 , 4130.25641026 , 4131.28205128 , 4135.38461538 , 4130.76923077 , 4129.74358974 , 4126.66666667 , 4126.66666667 , 4136.41025641 , 4136.41025641 , 4138.46153846 , 4191.28205128 , 4910.25641026 , 4137.43589744 , 4140.0 , 2042.0 , 2038.0 , 148.601 , 0.0 , 0.0 , 0.0 , 0.0 , 

57.0 , 4132.82051282 , 4128.20512821 , 4134.87179487 , 4132.82051282 , 4133.33333333 , 4125.12820513 , 4125.64102564 , 4133.84615385 , 4136.41025641 , 4138.97435897 , 4193.84615385 , 4910.76923077 , 4135.8974359 , 4143.07692308 , 2043.0 , 2037.0 , 148.605 , 0.0 , 0.0 , 0.0 , 0.0 , 

58.0 , 4130.76923077 , 4132.82051282 , 4138.46153846 , 4134.35897436 , 4133.33333333 , 4129.74358974 , 4127.17948718 , 4130.25641026 , 4136.92307692 , 4138.46153846 , 4193.84615385 , 4909.74358974 , 4133.33333333 , 4142.56410256 , 2044.0 , 2038.0 , 148.613 , 0.0 , 0.0 , 0.0 , 0.0 , 

59.0 , 4131.28205128 , 4133.33333333 , 4139.48717949 , 4130.25641026 , 4129.74358974 , 4129.23076923 , 4126.15384615 , 4131.28205128 , 4137.43589744 , 4138.46153846 , 4191.28205128 , 4914.35897436 , 4130.76923077 , 4143.58974359 , 2044.0 , 2036.0 , 148.622 , 0.0 , 0.0 , 0.0 , 0.0 , 

60.0 , 4133.84615385 , 4130.25641026 , 4135.38461538 , 4130.25641026 , 4131.28205128 , 4127.17948718 , 4128.71794872 , 4134.35897436 , 4135.38461538 , 4140.0 , 4190.25641026 , 4915.8974359 , 4129.74358974 , 4139.48717949 , 2044.0 , 2036.0 , 148.633 , 0.0 , 0.0 , 0.0 , 0.0 , 

61.0 , 4135.8974359 , 4131.28205128 , 4133.84615385 , 4131.79487179 , 4133.33333333 , 4128.20512821 , 4130.25641026 , 4133.33333333 , 4134.35897436 , 4138.97435897 , 4192.82051282 , 4912.82051282 , 4132.82051282 , 4140.51282051 , 2043.0 , 2036.0 , 148.636 , 0.0 , 0.0 , 0.0 , 0.0 , 

62.0 , 4132.82051282 , 4131.28205128 , 4134.87179487 , 4133.84615385 , 4132.82051282 , 4131.28205128 , 4128.71794872 , 4131.79487179 , 4134.87179487 , 4136.92307692 , 4193.84615385 , 4909.23076923 , 4132.82051282 , 4139.48717949 , 2041.0 , 2036.0 , 148.645 , 0.0 , 0.0 , 0.0 , 0.0 , 

63.0 , 4133.33333333 , 4129.74358974 , 4135.38461538 , 4133.33333333 , 4129.23076923 , 4129.23076923 , 4127.17948718 , 4132.82051282 , 4134.87179487 , 4137.94871795 , 4193.33333333 , 4912.30769231 , 4130.76923077 , 4140.0 , 2043.0 , 2036.0 , 148.653 , 0.0 , 0.0 , 0.0 , 0.0 , 

64.0 , 4136.41025641 , 4130.76923077 , 4136.92307692 , 4133.33333333 , 4129.23076923 , 4125.64102564 , 4126.15384615 , 4134.35897436 , 4134.87179487 , 4138.97435897 , 4192.30769231 , 4912.30769231 , 4131.28205128 , 4138.97435897 , 2044.0 , 2034.0 , 148.664 , 0.0 , 0.0 , 0.0 , 0.0 , 

65.0 , 4136.41025641 , 4130.76923077 , 4137.43589744 , 4134.35897436 , 4134.35897436 , 4126.66666667 , 4125.12820513 , 4134.35897436 , 4134.87179487 , 4138.97435897 , 4191.28205128 , 4909.23076923 , 4136.41025641 , 4138.97435897 , 2045.0 , 2036.0 , 148.668 , 0.0 , 0.0 , 0.0 , 0.0 , 

66.0 , 4133.84615385 , 4128.20512821 , 4136.41025641 , 4134.35897436 , 4135.8974359 , 4127.69230769 , 4123.58974359 , 4133.33333333 , 4134.87179487 , 4139.48717949 , 4190.76923077 , 4911.28205128 , 4135.38461538 , 4140.0 , 2044.0 , 2035.0 , 148.677 , 0.0 , 0.0 , 0.0 , 0.0 , 

67.0 , 4131.79487179 , 4128.71794872 , 4134.87179487 , 4132.82051282 , 4132.30769231 , 4127.69230769 , 4125.12820513 , 4134.35897436 , 4136.92307692 , 4139.48717949 , 4192.30769231 , 4914.35897436 , 4131.28205128 , 4140.0 , 2043.0 , 2034.0 , 148.684 , 0.0 , 0.0 , 0.0 , 0.0 , 

68.0 , 4134.87179487 , 4132.82051282 , 4135.38461538 , 4132.82051282 , 4131.28205128 , 4126.66666667 , 4126.15384615 , 4133.84615385 , 4137.43589744 , 4138.46153846 , 4193.84615385 , 4913.33333333 , 4131.79487179 , 4145.12820513 , 2044.0 , 2034.0 , 148.696 , 0.0 , 0.0 , 0.0 , 0.0 , 

69.0 , 4131.79487179 , 4132.82051282 , 4137.43589744 , 4135.38461538 , 4133.33333333 , 4127.17948718 , 4127.69230769 , 4135.38461538 , 4137.43589744 , 4138.46153846 , 4192.82051282 , 4909.23076923 , 4136.41025641 , 4143.58974359 , 2043.0 , 2034.0 , 148.699 , 0.0 , 0.0 , 0.0 , 0.0 , 

70.0 , 4130.76923077 , 4128.71794872 , 4138.46153846 , 4131.79487179 , 4131.79487179 , 4130.25641026 , 4126.15384615 , 4134.87179487 , 4136.41025641 , 4138.97435897 , 4191.79487179 , 4911.79487179 , 4134.35897436 , 4144.1025641 , 2044.0 , 2034.0 , 148.708 , 0.0 , 0.0 , 0.0 , 0.0 , 

71.0 , 4130.25641026 , 4130.76923077 , 4132.82051282 , 4132.30769231 , 4131.79487179 , 4132.30769231 , 4126.66666667 , 4131.79487179 , 4136.92307692 , 4138.97435897 , 4192.82051282 , 4912.82051282 , 4131.79487179 , 4141.53846154 , 2044.0 , 2036.0 , 148.716 , 0.0 , 0.0 , 0.0 , 0.0 , 

72.0 , 4129.74358974 , 4134.87179487 , 4131.79487179 , 4135.38461538 , 4132.82051282 , 4127.17948718 , 4127.69230769 , 4129.23076923 , 4135.38461538 , 4137.94871795 , 4195.38461538 , 4914.87179487 , 4135.38461538 , 4143.58974359 , 2044.0 , 2037.0 , 148.728 , 0.0 , 0.0 , 0.0 , 0.0 , 

73.0 , 4127.69230769 , 4132.82051282 , 4134.35897436 , 4136.92307692 , 4134.35897436 , 4126.66666667 , 4125.12820513 , 4132.30769231 , 4133.84615385 , 4138.46153846 , 4193.33333333 , 4914.35897436 , 4136.92307692 , 4141.02564103 , 2042.0 , 2036.0 , 148.731 , 0.0 , 0.0 , 0.0 , 0.0 , 

74.0 , 4131.79487179 , 4127.69230769 , 4134.35897436 , 4135.8974359 , 4131.79487179 , 4128.20512821 , 4122.56410256 , 4132.82051282 , 4133.33333333 , 4139.48717949 , 4190.76923077 , 4914.35897436 , 4133.84615385 , 4143.58974359 , 2043.0 , 2038.0 , 148.74 , 0.0 , 0.0 , 0.0 , 0.0 , 

75.0 , 4131.28205128 , 4128.20512821 , 4131.79487179 , 4136.41025641 , 4132.30769231 , 4127.17948718 , 4128.71794872 , 4131.79487179 , 4134.35897436 , 4137.94871795 , 4190.76923077 , 4911.28205128 , 4135.38461538 , 4141.02564103 , 2042.0 , 2039.0 , 148.748 , 0.0 , 0.0 , 0.0 , 0.0 , 

76.0 , 4133.84615385 , 4129.74358974 , 4132.30769231 , 4132.30769231 , 4134.87179487 , 4124.61538462 , 4129.23076923 , 4131.79487179 , 4132.82051282 , 4137.94871795 , 4192.30769231 , 4913.33333333 , 4137.43589744 , 4144.1025641 , 2042.0 , 2037.0 , 148.76 , 0.0 , 0.0 , 0.0 , 0.0 , 

77.0 , 4135.8974359 , 4133.33333333 , 4133.84615385 , 4132.82051282 , 4133.84615385 , 4128.71794872 , 4127.17948718 , 4133.33333333 , 4133.84615385 , 4139.48717949 , 4192.30769231 , 4912.30769231 , 4134.35897436 , 4142.56410256 , 2043.0 , 2035.0 , 148.763 , 0.0 , 0.0 , 0.0 , 0.0 , 

78.0 , 4135.8974359 , 4135.38461538 , 4136.92307692 , 4136.92307692 , 4131.28205128 , 4128.20512821 , 4126.66666667 , 4131.28205128 , 4134.87179487 , 4137.94871795 , 4191.28205128 , 4912.30769231 , 4134.35897436 , 4144.1025641 , 2042.0 , 2036.0 , 148.772 , 0.0 , 0.0 , 0.0 , 0.0 , 

79.0 , 4133.33333333 , 4133.84615385 , 4136.92307692 , 4136.41025641 , 4133.84615385 , 4126.66666667 , 4128.71794872 , 4132.30769231 , 4135.8974359 , 4135.8974359 , 4190.76923077 , 4912.30769231 , 4136.41025641 , 4141.02564103 , 2042.0 , 2035.0 , 148.778 , 0.0 , 0.0 , 0.0 , 0.0 , 

80.0 , 4134.87179487 , 4131.28205128 , 4134.87179487 , 4135.38461538 , 4134.35897436 , 4129.23076923 , 4127.69230769 , 4134.87179487 , 4137.94871795 , 4137.43589744 , 4192.30769231 , 4913.33333333 , 4137.43589744 , 4141.02564103 , 2043.0 , 2036.0 , 148.79 , 0.0 , 0.0 , 0.0 , 0.0 , 

81.0 , 4133.84615385 , 4131.28205128 , 4135.8974359 , 4136.92307692 , 4131.28205128 , 4131.28205128 , 4125.12820513 , 4134.35897436 , 4136.92307692 , 4139.48717949 , 4191.79487179 , 4912.30769231 , 4135.38461538 , 4142.05128205 , 2042.0 , 2036.0 , 148.794 , 0.0 , 0.0 , 0.0 , 0.0 , 

82.0 , 4132.30769231 , 4131.28205128 , 4136.41025641 , 4136.41025641 , 4133.84615385 , 4128.20512821 , 4124.1025641 , 4130.25641026 , 4133.33333333 , 4138.97435897 , 4191.28205128 , 4912.82051282 , 4132.30769231 , 4142.56410256 , 2042.0 , 2036.0 , 148.802 , 0.0 , 0.0 , 0.0 , 0.0 , 

83.0 , 4131.28205128 , 4132.82051282 , 4133.84615385 , 4135.38461538 , 4136.92307692 , 4126.66666667 , 4127.17948718 , 4130.76923077 , 4133.84615385 , 4137.94871795 , 4192.30769231 , 4914.35897436 , 4131.28205128 , 4141.53846154 , 2043.0 , 2035.0 , 148.81 , 0.0 , 0.0 , 0.0 , 0.0 , 

84.0 , 4128.71794872 , 4132.30769231 , 4136.41025641 , 4136.92307692 , 4132.30769231 , 4129.23076923 , 4127.69230769 , 4134.35897436 , 4137.43589744 , 4139.48717949 , 4192.30769231 , 4912.82051282 , 4135.8974359 , 4141.53846154 , 2043.0 , 2035.0 , 148.822 , 0.0 , 0.0 , 0.0 , 0.0 , 

85.0 , 4130.76923077 , 4129.23076923 , 4140.0 , 4136.92307692 , 4130.25641026 , 4130.76923077 , 4124.1025641 , 4133.84615385 , 4135.8974359 , 4138.97435897 , 4191.79487179 , 4912.82051282 , 4137.43589744 , 4144.61538462 , 2044.0 , 2037.0 , 148.826 , 0.0 , 0.0 , 0.0 , 0.0 , 

86.0 , 4132.30769231 , 4130.25641026 , 4135.38461538 , 4136.92307692 , 4133.33333333 , 4129.74358974 , 4126.66666667 , 4132.30769231 , 4133.33333333 , 4140.51282051 , 4195.38461538 , 4911.28205128 , 4134.87179487 , 4143.07692308 , 2043.0 , 2036.0 , 148.833 , 0.0 , 0.0 , 0.0 , 0.0 , 

87.0 , 4132.82051282 , 4130.76923077 , 4132.30769231 , 4136.41025641 , 4133.33333333 , 4127.69230769 , 4126.66666667 , 4131.79487179 , 4133.33333333 , 4142.56410256 , 4195.38461538 , 4909.74358974 , 4133.84615385 , 4143.07692308 , 2043.0 , 2038.0 , 148.841 , 0.0 , 0.0 , 0.0 , 0.0 , 

88.0 , 4133.84615385 , 4129.23076923 , 4133.84615385 , 4136.92307692 , 4131.28205128 , 4129.23076923 , 4124.1025641 , 4132.82051282 , 4132.30769231 , 4140.51282051 , 4191.28205128 , 4909.74358974 , 4135.38461538 , 4138.97435897 , 2043.0 , 2037.0 , 148.853 , 0.0 , 0.0 , 0.0 , 0.0 , 

89.0 , 4136.92307692 , 4132.30769231 , 4134.87179487 , 4136.92307692 , 4132.30769231 , 4130.76923077 , 4123.58974359 , 4130.76923077 , 4132.82051282 , 4137.94871795 , 4189.23076923 , 4913.33333333 , 4132.30769231 , 4141.02564103 , 2043.0 , 2037.0 , 148.857 , 0.0 , 0.0 , 0.0 , 0.0 , 

90.0 , 4132.82051282 , 4133.84615385 , 4131.79487179 , 4136.92307692 , 4134.87179487 , 4128.20512821 , 4124.61538462 , 4130.25641026 , 4137.94871795 , 4140.51282051 , 4192.82051282 , 4909.74358974 , 4132.30769231 , 4138.46153846 , 2043.0 , 2037.0 , 148.865 , 0.0 , 0.0 , 0.0 , 0.0 , 

91.0 , 4132.30769231 , 4127.17948718 , 4135.38461538 , 4132.82051282 , 4134.35897436 , 4125.12820513 , 4123.07692308 , 4132.82051282 , 4138.46153846 , 4140.0 , 4195.38461538 , 4909.74358974 , 4136.41025641 , 4140.0 , 2042.0 , 2036.0 , 148.873 , 0.0 , 0.0 , 0.0 , 0.0 , 

92.0 , 4131.79487179 , 4126.66666667 , 4137.43589744 , 4133.84615385 , 4132.82051282 , 4129.74358974 , 4126.66666667 , 4135.38461538 , 4135.8974359 , 4136.92307692 , 4191.79487179 , 4912.82051282 , 4136.41025641 , 4138.46153846 , 2042.0 , 2036.0 , 148.885 , 0.0 , 0.0 , 0.0 , 0.0 , 

93.0 , 4134.87179487 , 4130.76923077 , 4136.92307692 , 4137.43589744 , 4130.76923077 , 4130.25641026 , 4126.15384615 , 4131.79487179 , 4134.87179487 , 4137.94871795 , 4189.23076923 , 4914.87179487 , 4134.87179487 , 4143.58974359 , 2043.0 , 2036.0 , 148.888 , 0.0 , 0.0 , 0.0 , 0.0 , 

94.0 , 4133.33333333 , 4132.82051282 , 4136.92307692 , 4138.97435897 , 4132.82051282 , 4128.71794872 , 4125.64102564 , 4129.74358974 , 4137.43589744 , 4139.48717949 , 4190.25641026 , 4910.25641026 , 4135.38461538 , 4142.05128205 , 2043.0 , 2037.0 , 148.897 , 0.0 , 0.0 , 0.0 , 0.0 , 

95.0 , 4131.28205128 , 4132.82051282 , 4138.46153846 , 4133.84615385 , 4131.28205128 , 4128.20512821 , 4127.17948718 , 4132.30769231 , 4136.92307692 , 4138.46153846 , 4193.84615385 , 4912.82051282 , 4134.87179487 , 4144.1025641 , 2044.0 , 2035.0 , 148.904 , 0.0 , 0.0 , 0.0 , 0.0 , 

96.0 , 4130.76923077 , 4134.35897436 , 4135.38461538 , 4133.33333333 , 4127.69230769 , 4129.74358974 , 4129.74358974 , 4135.8974359 , 4136.41025641 , 4137.94871795 , 4193.33333333 , 4915.38461538 , 4134.35897436 , 4142.56410256 , 2043.0 , 2038.0 , 148.917 , 0.0 , 0.0 , 0.0 , 0.0 , 

97.0 , 4134.87179487 , 4130.76923077 , 4134.35897436 , 4133.84615385 , 4128.20512821 , 4130.25641026 , 4124.1025641 , 4134.87179487 , 4136.41025641 , 4137.94871795 , 4191.79487179 , 4914.35897436 , 4134.87179487 , 4144.61538462 , 2042.0 , 2036.0 , 148.92 , 0.0 , 0.0 , 0.0 , 0.0 , 

98.0 , 4131.79487179 , 4126.15384615 , 4135.8974359 , 4134.87179487 , 4132.30769231 , 4132.82051282 , 4123.58974359 , 4133.84615385 , 4137.43589744 , 4138.46153846 , 4191.28205128 , 4910.76923077 , 4132.30769231 , 4140.51282051 , 2044.0 , 2037.0 , 148.928 , 0.0 , 0.0 , 0.0 , 0.0 , 

99.0 , 4129.23076923 , 4129.23076923 , 4135.38461538 , 4135.38461538 , 4136.92307692 , 4131.28205128 , 4129.23076923 , 4134.35897436 , 4138.46153846 , 4139.48717949 , 4193.84615385 , 4913.33333333 , 4132.30769231 , 4135.8974359 , 2044.0 , 2037.0 , 148.936 , 0.0 , 0.0 , 0.0 , 0.0 , 

100.0 , 4135.38461538 , 4134.87179487 , 4133.84615385 , 4134.87179487 , 4136.92307692 , 4129.23076923 , 4129.74358974 , 4133.84615385 , 4137.43589744 , 4138.46153846 , 4194.87179487 , 4914.87179487 , 4135.8974359 , 4135.8974359 , 2044.0 , 2037.0 , 148.947 , 0.0 , 0.0 , 0.0 , 0.0 , 

101.0 , 4136.92307692 , 4134.87179487 , 4133.84615385 , 4134.87179487 , 4131.79487179 , 4129.23076923 , 4126.15384615 , 4131.79487179 , 4137.94871795 , 4138.46153846 , 4191.79487179 , 4912.82051282 , 4136.41025641 , 4139.48717949 , 2045.0 , 2035.0 , 148.951 , 0.0 , 0.0 , 0.0 , 0.0 , 

102.0 , 4132.82051282 , 4133.33333333 , 4134.87179487 , 4133.84615385 , 4129.74358974 , 4127.69230769 , 4125.12820513 , 4131.28205128 , 4137.94871795 , 4137.94871795 , 4189.23076923 , 4912.82051282 , 4133.33333333 , 4140.0 , 2045.0 , 2036.0 , 148.961 , 0.0 , 0.0 , 0.0 , 0.0 , 

103.0 , 4134.35897436 , 4134.35897436 , 4134.35897436 , 4133.84615385 , 4131.28205128 , 4126.66666667 , 4125.64102564 , 4132.82051282 , 4136.92307692 , 4138.46153846 , 4191.28205128 , 4913.84615385 , 4135.8974359 , 4136.41025641 , 2045.0 , 2036.0 , 148.967 , 0.0 , 0.0 , 0.0 , 0.0 , 

104.0 , 4136.92307692 , 4131.79487179 , 4134.35897436 , 4136.41025641 , 4130.25641026 , 4127.17948718 , 4123.07692308 , 4132.30769231 , 4136.92307692 , 4141.53846154 , 4193.33333333 , 4914.35897436 , 4135.38461538 , 4136.92307692 , 2045.0 , 2036.0 , 148.978 , 0.0 , 0.0 , 0.0 , 0.0 , 

105.0 , 4132.82051282 , 4128.71794872 , 4133.84615385 , 4136.41025641 , 4132.30769231 , 4129.23076923 , 4123.58974359 , 4132.30769231 , 4137.43589744 , 4140.51282051 , 4192.82051282 , 4912.30769231 , 4133.33333333 , 4138.97435897 , 2045.0 , 2036.0 , 148.983 , 0.0 , 0.0 , 0.0 , 0.0 , 

106.0 , 4133.33333333 , 4130.25641026 , 4134.35897436 , 4129.23076923 , 4135.8974359 , 4129.74358974 , 4126.15384615 , 4131.79487179 , 4135.8974359 , 4136.41025641 , 4192.30769231 , 4913.84615385 , 4134.87179487 , 4145.12820513 , 2044.0 , 2037.0 , 148.993 , 0.0 , 0.0 , 0.0 , 0.0 , 

107.0 , 4134.87179487 , 4132.82051282 , 4135.8974359 , 4132.82051282 , 4134.35897436 , 4130.25641026 , 4129.74358974 , 4133.84615385 , 4136.41025641 , 4138.46153846 , 4190.76923077 , 4913.84615385 , 4135.38461538 , 4142.05128205 , 2045.0 , 2037.0 , 148.999 , 0.0 , 0.0 , 0.0 , 0.0 , 

108.0 , 4134.87179487 , 4130.25641026 , 4138.46153846 , 4139.48717949 , 4131.28205128 , 4129.23076923 , 4129.23076923 , 4133.84615385 , 4136.92307692 , 4141.02564103 , 4191.28205128 , 4913.84615385 , 4129.74358974 , 4142.56410256 , 2043.0 , 2035.0 , 149.011 , 0.0 , 0.0 , 0.0 , 0.0 , 

109.0 , 4131.28205128 , 4128.20512821 , 4135.8974359 , 4137.43589744 , 4131.79487179 , 4130.25641026 , 4127.17948718 , 4133.33333333 , 4135.38461538 , 4138.97435897 , 4192.30769231 , 4910.76923077 , 4129.74358974 , 4141.02564103 , 2042.0 , 2036.0 , 149.014 , 0.0 , 0.0 , 0.0 , 0.0 , 

110.0 , 4133.84615385 , 4130.25641026 , 4134.87179487 , 4134.35897436 , 4132.30769231 , 4130.76923077 , 4124.61538462 , 4132.82051282 , 4134.87179487 , 4138.46153846 , 4193.33333333 , 4913.84615385 , 4133.33333333 , 4143.07692308 , 2043.0 , 2037.0 , 149.024 , 0.0 , 0.0 , 0.0 , 0.0 , 

111.0 , 4134.35897436 , 4135.8974359 , 4136.41025641 , 4136.92307692 , 4131.28205128 , 4131.79487179 , 4125.12820513 , 4133.84615385 , 4138.97435897 , 4140.51282051 , 4192.30769231 , 4914.35897436 , 4134.35897436 , 4140.51282051 , 2042.0 , 2036.0 , 149.03 , 0.0 , 0.0 , 0.0 , 0.0 , 

112.0 , 4135.38461538 , 4133.33333333 , 4136.92307692 , 4134.87179487 , 4131.79487179 , 4129.23076923 , 4125.12820513 , 4131.28205128 , 4137.94871795 , 4141.02564103 , 4192.82051282 , 4914.35897436 , 4133.84615385 , 4144.61538462 , 2042.0 , 2036.0 , 149.043 , 0.0 , 0.0 , 0.0 , 0.0 , 

113.0 , 4131.79487179 , 4128.71794872 , 4133.33333333 , 4134.87179487 , 4132.82051282 , 4127.17948718 , 4127.17948718 , 4132.82051282 , 4135.38461538 , 4141.02564103 , 4192.82051282 , 4910.76923077 , 4134.35897436 , 4142.56410256 , 2042.0 , 2037.0 , 149.046 , 0.0 , 0.0 , 0.0 , 0.0 , 

114.0 , 4132.82051282 , 4131.28205128 , 4133.33333333 , 4135.38461538 , 4129.23076923 , 4126.66666667 , 4125.12820513 , 4134.35897436 , 4136.41025641 , 4138.46153846 , 4191.79487179 , 4913.33333333 , 4134.35897436 , 4143.58974359 , 2042.0 , 2037.0 , 149.055 , 0.0 , 0.0 , 0.0 , 0.0 , 

115.0 , 4133.84615385 , 4133.84615385 , 4134.87179487 , 4133.84615385 , 4129.74358974 , 4129.74358974 , 4123.58974359 , 4133.84615385 , 4138.46153846 , 4136.92307692 , 4190.76923077 , 4912.82051282 , 4134.87179487 , 4139.48717949 , 2041.0 , 2039.0 , 149.062 , 0.0 , 0.0 , 0.0 , 0.0 , 

116.0 , 4134.35897436 , 4130.25641026 , 4137.43589744 , 4134.87179487 , 4132.82051282 , 4129.23076923 , 4123.07692308 , 4133.33333333 , 4137.94871795 , 4138.46153846 , 4191.79487179 , 4912.30769231 , 4135.38461538 , 4138.46153846 , 2042.0 , 2038.0 , 149.074 , 0.0 , 0.0 , 0.0 , 0.0 , 

117.0 , 4133.33333333 , 4128.20512821 , 4136.41025641 , 4138.46153846 , 4132.82051282 , 4128.20512821 , 4124.61538462 , 4131.79487179 , 4137.94871795 , 4139.48717949 , 4192.30769231 , 4911.79487179 , 4135.8974359 , 4139.48717949 , 2041.0 , 2037.0 , 149.078 , 0.0 , 0.0 , 0.0 , 0.0 , 

118.0 , 4135.8974359 , 4129.23076923 , 4134.35897436 , 4134.87179487 , 4133.33333333 , 4128.71794872 , 4125.12820513 , 4130.25641026 , 4137.43589744 , 4140.51282051 , 4192.30769231 , 4911.79487179 , 4136.41025641 , 4140.51282051 , 2043.0 , 2038.0 , 149.086 , 0.0 , 0.0 , 0.0 , 0.0 , 

119.0 , 4133.33333333 , 4131.28205128 , 4134.87179487 , 4132.82051282 , 4134.35897436 , 4129.74358974 , 4127.17948718 , 4131.79487179 , 4135.38461538 , 4141.53846154 , 4191.79487179 , 4911.28205128 , 4133.33333333 , 4140.0 , 2043.0 , 2037.0 , 149.094 , 0.0 , 0.0 , 0.0 , 0.0 , 

120.0 , 4130.25641026 , 4132.30769231 , 4135.8974359 , 4137.43589744 , 4132.30769231 , 4130.25641026 , 4128.71794872 , 4132.82051282 , 4135.38461538 , 4139.48717949 , 4191.28205128 , 4913.33333333 , 4133.33333333 , 4142.56410256 , 2043.0 , 2037.0 , 149.105 , 0.0 , 0.0 , 0.0 , 0.0 , 

121.0 , 4133.84615385 , 4130.76923077 , 4136.41025641 , 4137.43589744 , 4130.76923077 , 4132.30769231 , 4128.20512821 , 4133.84615385 , 4135.8974359 , 4137.94871795 , 4189.74358974 , 4913.84615385 , 4134.87179487 , 4143.58974359 , 2043.0 , 2038.0 , 149.109 , 0.0 , 0.0 , 0.0 , 0.0 , 

122.0 , 4135.8974359 , 4130.25641026 , 4134.35897436 , 4134.35897436 , 4130.76923077 , 4132.82051282 , 4127.69230769 , 4136.41025641 , 4136.41025641 , 4138.97435897 , 4190.25641026 , 4912.82051282 , 4134.87179487 , 4141.53846154 , 2044.0 , 2036.0 , 149.117 , 0.0 , 0.0 , 0.0 , 0.0 , 

123.0 , 4132.82051282 , 4130.76923077 , 4134.87179487 , 4134.87179487 , 4128.71794872 , 4130.76923077 , 4127.17948718 , 4135.38461538 , 4134.87179487 , 4138.97435897 , 4192.30769231 , 4914.35897436 , 4134.87179487 , 4143.07692308 , 2044.0 , 2036.0 , 149.126 , 0.0 , 0.0 , 0.0 , 0.0 , 

124.0 , 4129.74358974 , 4131.28205128 , 4133.84615385 , 4137.43589744 , 4130.25641026 , 4129.74358974 , 4125.64102564 , 4132.82051282 , 4136.41025641 , 4138.97435897 , 4192.30769231 , 4914.35897436 , 4136.92307692 , 4140.51282051 , 2043.0 , 2035.0 , 149.137 , 0.0 , 0.0 , 0.0 , 0.0 , 

125.0 , 4132.30769231 , 4131.79487179 , 4132.82051282 , 4136.41025641 , 4132.30769231 , 4127.17948718 , 4124.61538462 , 4130.76923077 , 4137.94871795 , 4141.02564103 , 4190.76923077 , 4914.87179487 , 4134.87179487 , 4140.51282051 , 2044.0 , 2036.0 , 149.141 , 0.0 , 0.0 , 0.0 , 0.0 , 

126.0 , 4133.33333333 , 4132.82051282 , 4134.35897436 , 4135.38461538 , 4131.28205128 , 4127.69230769 , 4127.17948718 , 4132.30769231 , 4137.43589744 , 4140.0 , 4189.74358974 , 4913.84615385 , 4135.38461538 , 4133.84615385 , 2045.0 , 2035.0 , 149.15 , 0.0 , 0.0 , 0.0 , 0.0 , 

127.0 , 4134.87179487 , 4131.28205128 , 4137.43589744 , 4132.82051282 , 4130.25641026 , 4127.69230769 , 4124.61538462 , 4133.33333333 , 4136.41025641 , 4137.43589744 , 4191.28205128 , 4914.35897436 , 4137.43589744 , 4136.92307692 , 2043.0 , 2036.0 , 149.157 , 0.0 , 0.0 , 0.0 , 0.0 , 

128.0 , 4133.33333333 , 4133.84615385 , 4134.87179487 , 4134.35897436 , 4131.28205128 , 4128.20512821 , 4122.56410256 , 4133.84615385 , 4137.43589744 , 4137.43589744 , 4191.28205128 , 4912.82051282 , 4135.8974359 , 4139.48717949 , 2045.0 , 2036.0 , 149.169 , 0.0 , 0.0 , 0.0 , 0.0 , 

0.0 , 4134.87179487 , 4136.41025641 , 4134.35897436 , 4134.87179487 , 4130.25641026 , 4126.66666667 , 4124.1025641 , 4131.79487179 , 4136.92307692 , 4138.46153846 , 4192.30769231 , 4914.35897436 , 4132.82051282 , 4143.07692308 , 2044.0 , 2036.0 , 149.172 , 0.0 , 0.0 , 0.0 , 0.0 , 

1.0 , 4133.33333333 , 4133.33333333 , 4137.94871795 , 4137.43589744 , 4130.25641026 , 4127.17948718 , 4127.69230769 , 4134.87179487 , 4138.97435897 , 4138.46153846 , 4191.28205128 , 4912.30769231 , 4132.30769231 , 4137.94871795 , 2042.0 , 2036.0 , 149.181 , 0.0 , 0.0 , 0.0 , 0.0 , 

2.0 , 4135.38461538 , 4127.69230769 , 4139.48717949 , 4138.46153846 , 4131.79487179 , 4126.15384615 , 4123.58974359 , 4134.35897436 , 4139.48717949 , 4137.94871795 , 4190.25641026 , 4912.82051282 , 4132.30769231 , 4141.53846154 , 2043.0 , 2036.0 , 149.189 , 0.0 , 0.0 , 0.0 , 0.0 , 

3.0 , 4134.87179487 , 4129.23076923 , 4135.8974359 , 4138.46153846 , 4132.82051282 , 4127.69230769 , 4123.58974359 , 4132.82051282 , 4137.94871795 , 4137.94871795 , 4191.28205128 , 4912.82051282 , 4132.30769231 , 4139.48717949 , 2042.0 , 2035.0 , 149.2 , 0.0 , 0.0 , 0.0 , 0.0 , 

4.0 , 4136.41025641 , 4129.74358974 , 4136.41025641 , 4135.38461538 , 4131.28205128 , 4128.20512821 , 4126.15384615 , 4132.82051282 , 4135.8974359 , 4138.97435897 , 4195.38461538 , 4914.35897436 , 4134.35897436 , 4141.02564103 , 2044.0 , 2036.0 , 149.203 , 0.0 , 0.0 , 0.0 , 0.0 , 

5.0 , 4135.38461538 , 4128.71794872 , 4137.94871795 , 4135.38461538 , 4131.28205128 , 4129.74358974 , 4126.66666667 , 4133.84615385 , 4136.41025641 , 4140.0 , 4195.8974359 , 4912.30769231 , 4135.38461538 , 4142.05128205 , 2042.0 , 2035.0 , 149.213 , 0.0 , 0.0 , 0.0 , 0.0 , 

6.0 , 4134.35897436 , 4129.74358974 , 4137.94871795 , 4134.87179487 , 4131.28205128 , 4131.79487179 , 4128.20512821 , 4132.30769231 , 4136.41025641 , 4138.97435897 , 4193.33333333 , 4911.79487179 , 4135.8974359 , 4143.58974359 , 2042.0 , 2035.0 , 149.22 , 0.0 , 0.0 , 0.0 , 0.0 , 

7.0 , 4133.33333333 , 4131.79487179 , 4134.35897436 , 4133.84615385 , 4131.28205128 , 4133.33333333 , 4131.79487179 , 4132.82051282 , 4137.94871795 , 4138.97435897 , 4192.82051282 , 4913.33333333 , 4136.92307692 , 4141.53846154 , 2042.0 , 2033.0 , 149.232 , 0.0 , 0.0 , 0.0 , 0.0 , 

8.0 , 4134.35897436 , 4129.74358974 , 4133.33333333 , 4136.92307692 , 4132.30769231 , 4129.23076923 , 4127.17948718 , 4134.87179487 , 4137.94871795 , 4139.48717949 , 4193.84615385 , 4915.38461538 , 4135.8974359 , 4139.48717949 , 2043.0 , 2033.0 , 149.235 , 0.0 , 0.0 , 0.0 , 0.0 , 

9.0 , 4134.35897436 , 4129.74358974 , 4134.87179487 , 4137.94871795 , 4133.33333333 , 4126.15384615 , 4124.61538462 , 4133.33333333 , 4134.87179487 , 4138.97435897 , 4192.30769231 , 4913.84615385 , 4133.33333333 , 4137.94871795 , 2042.0 , 2034.0 , 149.244 , 0.0 , 0.0 , 0.0 , 0.0 , 

10.0 , 4133.84615385 , 4132.82051282 , 4137.94871795 , 4137.43589744 , 4133.84615385 , 4128.71794872 , 4128.20512821 , 4131.79487179 , 4136.92307692 , 4137.94871795 , 4192.30769231 , 4911.28205128 , 4135.38461538 , 4140.0 , 2041.0 , 2035.0 , 149.251 , 0.0 , 0.0 , 0.0 , 0.0 , 

11.0 , 4136.41025641 , 4133.33333333 , 4138.46153846 , 4137.43589744 , 4134.87179487 , 4130.25641026 , 4127.17948718 , 4132.30769231 , 4138.97435897 , 4136.92307692 , 4194.87179487 , 4913.33333333 , 4136.92307692 , 4141.53846154 , 2042.0 , 2033.0 , 149.263 , 0.0 , 0.0 , 0.0 , 0.0 , 

12.0 , 4136.92307692 , 4132.30769231 , 4134.87179487 , 4135.8974359 , 4131.79487179 , 4126.66666667 , 4124.1025641 , 4133.33333333 , 4135.8974359 , 4137.43589744 , 4193.33333333 , 4914.87179487 , 4136.92307692 , 4137.94871795 , 2042.0 , 2034.0 , 149.267 , 0.0 , 0.0 , 0.0 , 0.0 , 

13.0 , 4136.92307692 , 4130.76923077 , 4136.41025641 , 4133.33333333 , 4127.69230769 , 4124.61538462 , 4124.1025641 , 4132.30769231 , 4132.30769231 , 4138.46153846 , 4190.25641026 , 4913.84615385 , 4136.92307692 , 4141.02564103 , 2043.0 , 2035.0 , 149.277 , 0.0 , 0.0 , 0.0 , 0.0 , 

14.0 , 4134.87179487 , 4132.30769231 , 4137.94871795 , 4133.84615385 , 4131.79487179 , 4131.79487179 , 4126.66666667 , 4133.33333333 , 4135.38461538 , 4138.46153846 , 4192.30769231 , 4910.25641026 , 4136.41025641 , 4141.53846154 , 2043.0 , 2036.0 , 149.284 , 0.0 , 0.0 , 0.0 , 0.0 , 

15.0 , 4135.38461538 , 4132.82051282 , 4135.8974359 , 4132.30769231 , 4133.84615385 , 4133.84615385 , 4123.58974359 , 4133.33333333 , 4137.94871795 , 4137.94871795 , 4193.33333333 , 4912.30769231 , 4134.35897436 , 4143.07692308 , 2044.0 , 2034.0 , 149.295 , 0.0 , 0.0 , 0.0 , 0.0 , 

16.0 , 4133.84615385 , 4134.35897436 , 4133.84615385 , 4134.87179487 , 4130.76923077 , 4131.79487179 , 4123.07692308 , 4134.35897436 , 4138.46153846 , 4138.97435897 , 4189.74358974 , 4911.79487179 , 4136.41025641 , 4142.05128205 , 2043.0 , 2035.0 , 149.298 , 0.0 , 0.0 , 0.0 , 0.0 , 

17.0 , 4134.87179487 , 4132.82051282 , 4136.92307692 , 4137.94871795 , 4130.25641026 , 4129.74358974 , 4123.58974359 , 4133.84615385 , 4137.43589744 , 4138.46153846 , 4189.74358974 , 4910.76923077 , 4136.41025641 , 4144.61538462 , 2043.0 , 2034.0 , 149.306 , 0.0 , 0.0 , 0.0 , 0.0 , 

18.0 , 4131.79487179 , 4129.23076923 , 4137.94871795 , 4137.94871795 , 4132.82051282 , 4129.74358974 , 4125.64102564 , 4131.28205128 , 4135.8974359 , 4136.92307692 , 4193.84615385 , 4909.74358974 , 4134.87179487 , 4137.94871795 , 2045.0 , 2037.0 , 149.314 , 0.0 , 0.0 , 0.0 , 0.0 , 

19.0 , 4134.35897436 , 4129.23076923 , 4136.92307692 , 4134.35897436 , 4131.28205128 , 4129.23076923 , 4124.61538462 , 4131.28205128 , 4133.84615385 , 4138.46153846 , 4195.38461538 , 4913.84615385 , 4135.38461538 , 4141.53846154 , 2044.0 , 2035.0 , 149.326 , 0.0 , 0.0 , 0.0 , 0.0 , 

20.0 , 4136.41025641 , 4135.38461538 , 4135.8974359 , 4135.38461538 , 4130.25641026 , 4129.74358974 , 4126.66666667 , 4138.97435897 , 4135.8974359 , 4140.51282051 , 4193.33333333 , 4911.79487179 , 4135.8974359 , 4144.1025641 , 2045.0 , 2036.0 , 149.33 , 0.0 , 0.0 , 0.0 , 0.0 , 

21.0 , 4136.92307692 , 4135.8974359 , 4136.92307692 , 4134.87179487 , 4130.76923077 , 4128.20512821 , 4127.17948718 , 4137.94871795 , 4137.43589744 , 4137.94871795 , 4193.33333333 , 4913.33333333 , 4134.87179487 , 4143.07692308 , 2045.0 , 2038.0 , 149.338 , 0.0 , 0.0 , 0.0 , 0.0 , 

22.0 , 4132.30769231 , 4131.79487179 , 4135.38461538 , 4134.35897436 , 4130.76923077 , 4129.74358974 , 4126.15384615 , 4132.30769231 , 4136.92307692 , 4136.41025641 , 4193.33333333 , 4915.38461538 , 4136.41025641 , 4136.92307692 , 2045.0 , 2037.0 , 149.346 , 0.0 , 0.0 , 0.0 , 0.0 , 

23.0 , 4134.87179487 , 4131.79487179 , 4136.92307692 , 4132.30769231 , 4131.28205128 , 4130.76923077 , 4124.1025641 , 4130.25641026 , 4135.38461538 , 4137.94871795 , 4192.30769231 , 4915.38461538 , 4136.41025641 , 4140.51282051 , 2042.0 , 2039.0 , 149.359 , 0.0 , 0.0 , 0.0 , 0.0 , 

24.0 , 4133.33333333 , 4132.82051282 , 4136.41025641 , 4133.33333333 , 4132.30769231 , 4128.71794872 , 4125.12820513 , 4131.79487179 , 4134.87179487 , 4138.46153846 , 4190.25641026 , 4911.28205128 , 4132.30769231 , 4141.02564103 , 2042.0 , 2040.0 , 149.362 , 0.0 , 0.0 , 0.0 , 0.0 , 

25.0 , 4129.74358974 , 4130.25641026 , 4134.35897436 , 4135.38461538 , 4131.79487179 , 4128.20512821 , 4127.69230769 , 4132.30769231 , 4133.84615385 , 4136.92307692 , 4191.28205128 , 4911.28205128 , 4134.35897436 , 4141.53846154 , 2041.0 , 2041.0 , 149.371 , 0.0 , 0.0 , 0.0 , 0.0 , 

26.0 , 4132.30769231 , 4131.28205128 , 4133.33333333 , 4134.87179487 , 4131.28205128 , 4131.28205128 , 4128.20512821 , 4132.30769231 , 4132.82051282 , 4136.41025641 , 4191.79487179 , 4913.33333333 , 4137.43589744 , 4140.0 , 2040.0 , 2039.0 , 149.378 , 0.0 , 0.0 , 0.0 , 0.0 , 

27.0 , 4136.92307692 , 4133.84615385 , 4134.35897436 , 4136.41025641 , 4133.33333333 , 4130.76923077 , 4124.61538462 , 4132.82051282 , 4132.82051282 , 4137.94871795 , 4189.74358974 , 4912.82051282 , 4133.33333333 , 4141.02564103 , 2042.0 , 2041.0 , 149.389 , 0.0 , 0.0 , 0.0 , 0.0 , 

28.0 , 4133.84615385 , 4132.30769231 , 4134.35897436 , 4136.92307692 , 4135.38461538 , 4129.23076923 , 4125.12820513 , 4133.33333333 , 4131.28205128 , 4138.97435897 , 4189.74358974 , 4911.28205128 , 4129.23076923 , 4143.58974359 , 2042.0 , 2039.0 , 149.393 , 0.0 , 0.0 , 0.0 , 0.0 , 

29.0 , 4131.79487179 , 4131.79487179 , 4135.38461538 , 4134.87179487 , 4132.82051282 , 4128.71794872 , 4128.20512821 , 4133.84615385 , 4133.84615385 , 4138.97435897 , 4191.28205128 , 4913.84615385 , 4134.35897436 , 4143.58974359 , 2042.0 , 2038.0 , 149.402 , 0.0 , 0.0 , 0.0 , 0.0 , 

30.0 , 4136.41025641 , 4134.87179487 , 4136.41025641 , 4133.84615385 , 4130.25641026 , 4128.71794872 , 4126.15384615 , 4134.35897436 , 4136.92307692 , 4137.94871795 , 4193.84615385 , 4917.43589744 , 4136.92307692 , 4143.58974359 , 2041.0 , 2038.0 , 149.41 , 0.0 , 0.0 , 0.0 , 0.0 , 

31.0 , 4134.35897436 , 4136.41025641 , 4135.38461538 , 4135.8974359 , 4132.82051282 , 4132.30769231 , 4124.61538462 , 4137.43589744 , 4135.8974359 , 4138.97435897 , 4194.87179487 , 4914.87179487 , 4133.84615385 , 4142.56410256 , 2042.0 , 2038.0 , 149.42 , 0.0 , 0.0 , 0.0 , 0.0 , 

32.0 , 4131.28205128 , 4133.84615385 , 4135.8974359 , 4133.33333333 , 4131.79487179 , 4132.82051282 , 4125.12820513 , 4137.43589744 , 4130.76923077 , 4138.97435897 , 4193.33333333 , 4916.41025641 , 4134.87179487 , 4144.1025641 , 2043.0 , 2037.0 , 149.425 , 0.0 , 0.0 , 0.0 , 0.0 , 

33.0 , 4133.84615385 , 4132.82051282 , 4135.38461538 , 4132.82051282 , 4132.30769231 , 4131.28205128 , 4127.69230769 , 4133.84615385 , 4133.33333333 , 4137.94871795 , 4191.79487179 , 4915.38461538 , 4138.46153846 , 4140.51282051 , 2042.0 , 2037.0 , 149.433 , 0.0 , 0.0 , 0.0 , 0.0 , 

34.0 , 4137.94871795 , 4130.25641026 , 4135.38461538 , 4132.30769231 , 4134.87179487 , 4131.28205128 , 4129.23076923 , 4131.28205128 , 4136.92307692 , 4138.46153846 , 4192.82051282 , 4911.79487179 , 4135.38461538 , 4142.56410256 , 2041.0 , 2036.0 , 149.441 , 0.0 , 0.0 , 0.0 , 0.0 , 

35.0 , 4131.79487179 , 4128.20512821 , 4135.38461538 , 4133.84615385 , 4133.33333333 , 4131.28205128 , 4131.28205128 , 4132.82051282 , 4134.87179487 , 4139.48717949 , 4193.33333333 , 4909.74358974 , 4134.35897436 , 4142.05128205 , 2043.0 , 2037.0 , 149.452 , 0.0 , 0.0 , 0.0 , 0.0 , 

36.0 , 4133.33333333 , 4128.71794872 , 4136.41025641 , 4134.35897436 , 4129.74358974 , 4127.17948718 , 4127.17948718 , 4132.82051282 , 4134.35897436 , 4138.46153846 , 4191.79487179 , 4914.87179487 , 4136.41025641 , 4144.1025641 , 2043.0 , 2036.0 , 149.456 , 0.0 , 0.0 , 0.0 , 0.0 , 

37.0 , 4136.41025641 , 4129.23076923 , 4132.30769231 , 4135.8974359 , 4132.82051282 , 4126.66666667 , 4125.12820513 , 4133.84615385 , 4139.48717949 , 4137.43589744 , 4191.28205128 , 4913.33333333 , 4134.87179487 , 4140.0 , 2042.0 , 2036.0 , 149.465 , 0.0 , 0.0 , 0.0 , 0.0 , 

38.0 , 4135.8974359 , 4126.66666667 , 4130.76923077 , 4134.35897436 , 4133.84615385 , 4127.17948718 , 4126.66666667 , 4132.30769231 , 4138.46153846 , 4138.97435897 , 4192.30769231 , 4913.33333333 , 4131.79487179 , 4142.05128205 , 2043.0 , 2036.0 , 149.473 , 0.0 , 0.0 , 0.0 , 0.0 , 

39.0 , 4133.33333333 , 4128.20512821 , 4132.82051282 , 4134.35897436 , 4131.28205128 , 4125.12820513 , 4128.71794872 , 4132.30769231 , 4132.82051282 , 4139.48717949 , 4191.79487179 , 4913.84615385 , 4134.87179487 , 4138.46153846 , 2043.0 , 2036.0 , 149.485 , 0.0 , 0.0 , 0.0 , 0.0 , 

40.0 , 4136.92307692 , 4130.25641026 , 4136.92307692 , 4133.84615385 , 4131.28205128 , 4121.53846154 , 4127.69230769 , 4132.82051282 , 4131.28205128 , 4136.92307692 , 4192.30769231 , 4914.87179487 , 4136.92307692 , 4140.0 , 2043.0 , 2034.0 , 149.488 , 0.0 , 0.0 , 0.0 , 0.0 , 

41.0 , 4136.41025641 , 4130.25641026 , 4134.87179487 , 4133.33333333 , 4133.33333333 , 4125.12820513 , 4127.69230769 , 4133.33333333 , 4136.41025641 , 4136.41025641 , 4192.82051282 , 4912.82051282 , 4133.84615385 , 4142.05128205 , 2044.0 , 2036.0 , 149.496 , 0.0 , 0.0 , 0.0 , 0.0 , 

42.0 , 4134.35897436 , 4130.25641026 , 4133.33333333 , 4133.84615385 , 4132.30769231 , 4127.17948718 , 4127.17948718 , 4133.33333333 , 4136.92307692 , 4137.94871795 , 4191.28205128 , 4913.33333333 , 4134.35897436 , 4145.12820513 , 2045.0 , 2035.0 , 149.504 , 0.0 , 0.0 , 0.0 , 0.0 , 

43.0 , 4132.82051282 , 4131.79487179 , 4134.35897436 , 4135.38461538 , 4131.79487179 , 4128.20512821 , 4129.74358974 , 4132.82051282 , 4133.84615385 , 4139.48717949 , 4190.76923077 , 4913.33333333 , 4135.8974359 , 4141.02564103 , 2043.0 , 2035.0 , 149.515 , 0.0 , 0.0 , 0.0 , 0.0 , 

44.0 , 4133.33333333 , 4132.30769231 , 4135.38461538 , 4134.35897436 , 4132.30769231 , 4131.28205128 , 4129.23076923 , 4132.82051282 , 4134.87179487 , 4139.48717949 , 4194.35897436 , 4913.84615385 , 4135.8974359 , 4141.02564103 , 2043.0 , 2036.0 , 149.518 , 0.0 , 0.0 , 0.0 , 0.0 , 

45.0 , 4132.82051282 , 4129.23076923 , 4134.35897436 , 4134.35897436 , 4133.33333333 , 4133.33333333 , 4126.15384615 , 4134.35897436 , 4138.46153846 , 4138.97435897 , 4193.84615385 , 4912.82051282 , 4134.87179487 , 4144.1025641 , 2043.0 , 2035.0 , 149.527 , 0.0 , 0.0 , 0.0 , 0.0 , 

46.0 , 4133.33333333 , 4127.69230769 , 4134.35897436 , 4133.84615385 , 4134.35897436 , 4131.79487179 , 4128.20512821 , 4134.35897436 , 4138.97435897 , 4140.51282051 , 4190.25641026 , 4912.30769231 , 4135.38461538 , 4143.07692308 , 2044.0 , 2036.0 , 149.536 , 0.0 , 0.0 , 0.0 , 0.0 , 

47.0 , 4135.8974359 , 4130.25641026 , 4135.38461538 , 4132.30769231 , 4132.82051282 , 4131.28205128 , 4129.23076923 , 4133.33333333 , 4136.41025641 , 4140.51282051 , 4190.76923077 , 4915.38461538 , 4135.38461538 , 4141.53846154 , 2042.0 , 2036.0 , 149.547 , 0.0 , 0.0 , 0.0 , 0.0 , 

48.0 , 4134.87179487 , 4131.79487179 , 4135.8974359 , 4133.84615385 , 4132.82051282 , 4131.79487179 , 4126.15384615 , 4133.33333333 , 4136.41025641 , 4137.43589744 , 4193.84615385 , 4915.38461538 , 4137.43589744 , 4139.48717949 , 2042.0 , 2036.0 , 149.549 , 0.0 , 0.0 , 0.0 , 0.0 , 

49.0 , 4133.84615385 , 4130.25641026 , 4134.87179487 , 4135.38461538 , 4134.35897436 , 4128.71794872 , 4126.15384615 , 4133.84615385 , 4136.92307692 , 4135.8974359 , 4193.33333333 , 4913.33333333 , 4136.41025641 , 4141.53846154 , 2042.0 , 2036.0 , 149.558 , 0.0 , 0.0 , 0.0 , 0.0 , 

50.0 , 4133.33333333 , 4131.28205128 , 4131.79487179 , 4134.87179487 , 4132.30769231 , 4128.20512821 , 4128.20512821 , 4134.87179487 , 4138.46153846 , 4138.46153846 , 4192.30769231 , 4911.79487179 , 4133.33333333 , 4143.07692308 , 2041.0 , 2036.0 , 149.566 , 0.0 , 0.0 , 0.0 , 0.0 , 

51.0 , 4134.35897436 , 4133.33333333 , 4133.84615385 , 4133.84615385 , 4131.28205128 , 4127.17948718 , 4126.66666667 , 4132.30769231 , 4138.97435897 , 4140.51282051 , 4192.30769231 , 4913.84615385 , 4133.84615385 , 4143.58974359 , 2042.0 , 2035.0 , 149.578 , 0.0 , 0.0 , 0.0 , 0.0 , 

52.0 , 4133.84615385 , 4133.33333333 , 4136.92307692 , 4134.87179487 , 4131.79487179 , 4127.17948718 , 4128.71794872 , 4134.87179487 , 4138.97435897 , 4140.51282051 , 4192.82051282 , 4911.79487179 , 4137.43589744 , 4137.94871795 , 2043.0 , 2035.0 , 149.582 , 0.0 , 0.0 , 0.0 , 0.0 , 

53.0 , 4135.8974359 , 4131.28205128 , 4135.8974359 , 4131.28205128 , 4129.23076923 , 4127.69230769 , 4128.20512821 , 4136.41025641 , 4135.38461538 , 4139.48717949 , 4192.30769231 , 4912.30769231 , 4136.41025641 , 4140.51282051 , 2042.0 , 2035.0 , 149.59 , 0.0 , 0.0 , 0.0 , 0.0 , 

54.0 , 4132.82051282 , 4131.28205128 , 4133.84615385 , 4132.82051282 , 4130.25641026 , 4129.74358974 , 4126.66666667 , 4132.82051282 , 4135.8974359 , 4138.97435897 , 4191.79487179 , 4910.25641026 , 4136.41025641 , 4138.97435897 , 2042.0 , 2036.0 , 149.598 , 0.0 , 0.0 , 0.0 , 0.0 , 

55.0 , 4133.33333333 , 4131.28205128 , 4138.97435897 , 4135.8974359 , 4130.76923077 , 4129.74358974 , 4126.15384615 , 4130.25641026 , 4136.92307692 , 4140.51282051 , 4194.87179487 , 4912.82051282 , 4135.38461538 , 4143.07692308 , 2043.0 , 2035.0 , 149.61 , 0.0 , 0.0 , 0.0 , 0.0 , 

56.0 , 4133.84615385 , 4132.30769231 , 4138.46153846 , 4135.38461538 , 4130.76923077 , 4130.76923077 , 4129.74358974 , 4135.38461538 , 4136.92307692 , 4141.02564103 , 4195.38461538 , 4913.84615385 , 4131.79487179 , 4143.07692308 , 2043.0 , 2035.0 , 149.614 , 0.0 , 0.0 , 0.0 , 0.0 , 

57.0 , 4133.84615385 , 4133.33333333 , 4132.30769231 , 4132.82051282 , 4133.33333333 , 4127.17948718 , 4129.74358974 , 4133.84615385 , 4135.8974359 , 4138.97435897 , 4192.82051282 , 4914.35897436 , 4131.28205128 , 4146.66666667 , 2043.0 , 2034.0 , 149.623 , 0.0 , 0.0 , 0.0 , 0.0 , 

58.0 , 4132.82051282 , 4131.79487179 , 4130.25641026 , 4135.38461538 , 4135.38461538 , 4128.20512821 , 4130.25641026 , 4131.28205128 , 4136.41025641 , 4138.97435897 , 4191.79487179 , 4911.28205128 , 4135.38461538 , 4144.61538462 , 2043.0 , 2037.0 , 149.629 , 0.0 , 0.0 , 0.0 , 0.0 , 

59.0 , 4133.84615385 , 4126.66666667 , 4138.46153846 , 4135.38461538 , 4130.76923077 , 4130.25641026 , 4127.17948718 , 4133.33333333 , 4135.8974359 , 4138.97435897 , 4193.84615385 , 4913.33333333 , 4137.43589744 , 4145.12820513 , 2043.0 , 2037.0 , 149.641 , 0.0 , 0.0 , 0.0 , 0.0 , 

60.0 , 4129.74358974 , 4129.23076923 , 4139.48717949 , 4133.33333333 , 4131.28205128 , 4131.28205128 , 4126.66666667 , 4135.38461538 , 4136.92307692 , 4137.94871795 , 4192.30769231 , 4914.35897436 , 4134.35897436 , 4140.0 , 2043.0 , 2038.0 , 149.645 , 0.0 , 0.0 , 0.0 , 0.0 , 

61.0 , 4131.79487179 , 4132.82051282 , 4133.33333333 , 4133.84615385 , 4133.33333333 , 4128.71794872 , 4128.20512821 , 4133.84615385 , 4136.92307692 , 4138.97435897 , 4191.79487179 , 4914.87179487 , 4133.84615385 , 4138.97435897 , 2043.0 , 2037.0 , 149.654 , 0.0 , 0.0 , 0.0 , 0.0 , 

62.0 , 4136.41025641 , 4131.28205128 , 4132.82051282 , 4135.8974359 , 4131.79487179 , 4128.20512821 , 4127.69230769 , 4133.33333333 , 4135.8974359 , 4139.48717949 , 4192.30769231 , 4910.76923077 , 4135.8974359 , 4137.43589744 , 2041.0 , 2036.0 , 149.661 , 0.0 , 0.0 , 0.0 , 0.0 , 

63.0 , 4135.8974359 , 4130.25641026 , 4135.8974359 , 4136.41025641 , 4131.79487179 , 4128.71794872 , 4125.12820513 , 4134.35897436 , 4136.92307692 , 4137.94871795 , 4190.25641026 , 4910.25641026 , 4137.43589744 , 4135.8974359 , 2042.0 , 2037.0 , 149.672 , 0.0 , 0.0 , 0.0 , 0.0 , 

64.0 , 4132.82051282 , 4131.28205128 , 4134.87179487 , 4138.46153846 , 4133.33333333 , 4128.71794872 , 4126.15384615 , 4132.82051282 , 4136.41025641 , 4138.46153846 , 4189.74358974 , 4913.33333333 , 4136.92307692 , 4137.94871795 , 2043.0 , 2036.0 , 149.676 , 0.0 , 0.0 , 0.0 , 0.0 , 

65.0 , 4134.35897436 , 4130.76923077 , 4131.79487179 , 4138.46153846 , 4131.28205128 , 4128.20512821 , 4127.17948718 , 4130.25641026 , 4135.8974359 , 4140.51282051 , 4192.30769231 , 4913.33333333 , 4138.46153846 , 4143.58974359 , 2042.0 , 2037.0 , 149.685 , 0.0 , 0.0 , 0.0 , 0.0 , 

66.0 , 4135.38461538 , 4130.76923077 , 4132.82051282 , 4134.35897436 , 4128.71794872 , 4128.71794872 , 4125.12820513 , 4130.76923077 , 4135.8974359 , 4139.48717949 , 4193.33333333 , 4913.84615385 , 4136.92307692 , 4146.15384615 , 2042.0 , 2037.0 , 149.693 , 0.0 , 0.0 , 0.0 , 0.0 , 

67.0 , 4134.35897436 , 4131.79487179 , 4135.38461538 , 4136.41025641 , 4129.23076923 , 4128.71794872 , 4126.66666667 , 4134.35897436 , 4135.8974359 , 4135.8974359 , 4191.28205128 , 4913.84615385 , 4132.30769231 , 4142.56410256 , 2042.0 , 2036.0 , 149.705 , 0.0 , 0.0 , 0.0 , 0.0 , 

68.0 , 4137.94871795 , 4130.76923077 , 4136.92307692 , 4138.46153846 , 4129.74358974 , 4128.71794872 , 4125.12820513 , 4134.35897436 , 4132.82051282 , 4135.8974359 , 4192.82051282 , 4911.79487179 , 4132.30769231 , 4142.56410256 , 2042.0 , 2036.0 , 149.708 , 0.0 , 0.0 , 0.0 , 0.0 , 

69.0 , 4135.8974359 , 4131.28205128 , 4134.87179487 , 4136.92307692 , 4130.25641026 , 4130.25641026 , 4123.58974359 , 4134.87179487 , 4133.33333333 , 4138.46153846 , 4194.35897436 , 4911.79487179 , 4137.94871795 , 4140.51282051 , 2042.0 , 2036.0 , 149.717 , 0.0 , 0.0 , 0.0 , 0.0 , 

70.0 , 4132.30769231 , 4128.71794872 , 4136.41025641 , 4134.87179487 , 4131.79487179 , 4129.23076923 , 4124.61538462 , 4136.41025641 , 4133.84615385 , 4136.92307692 , 4193.33333333 , 4917.43589744 , 4136.92307692 , 4140.51282051 , 2042.0 , 2034.0 , 149.725 , 0.0 , 0.0 , 0.0 , 0.0 , 

71.0 , 4133.33333333 , 4126.66666667 , 4135.8974359 , 4138.46153846 , 4132.30769231 , 4129.23076923 , 4127.69230769 , 4136.92307692 , 4131.79487179 , 4135.8974359 , 4191.28205128 , 4914.87179487 , 4134.87179487 , 4139.48717949 , 2042.0 , 2035.0 , 149.735 , 0.0 , 0.0 , 0.0 , 0.0 , 

72.0 , 4138.46153846 , 4128.20512821 , 4133.84615385 , 4137.43589744 , 4130.76923077 , 4130.76923077 , 4124.61538462 , 4132.82051282 , 4130.76923077 , 4137.94871795 , 4191.28205128 , 4914.87179487 , 4136.41025641 , 4146.15384615 , 2043.0 , 2034.0 , 149.74 , 0.0 , 0.0 , 0.0 , 0.0 , 

73.0 , 4134.87179487 , 4131.79487179 , 4133.33333333 , 4135.8974359 , 4133.33333333 , 4132.30769231 , 4124.61538462 , 4132.30769231 , 4135.38461538 , 4138.97435897 , 4191.79487179 , 4914.35897436 , 4138.46153846 , 4141.53846154 , 2044.0 , 2035.0 , 149.748 , 0.0 , 0.0 , 0.0 , 0.0 , 

74.0 , 4134.35897436 , 4133.33333333 , 4134.87179487 , 4136.41025641 , 4134.87179487 , 4128.71794872 , 4125.64102564 , 4132.30769231 , 4136.92307692 , 4137.94871795 , 4192.30769231 , 4914.35897436 , 4138.46153846 , 4139.48717949 , 2041.0 , 2034.0 , 149.755 , 0.0 , 0.0 , 0.0 , 0.0 , 

75.0 , 4131.28205128 , 4133.84615385 , 4136.41025641 , 4138.46153846 , 4130.76923077 , 4126.66666667 , 4126.15384615 , 4135.38461538 , 4136.92307692 , 4137.94871795 , 4192.30769231 , 4912.30769231 , 4138.46153846 , 4136.92307692 , 2042.0 , 2034.0 , 149.768 , 0.0 , 0.0 , 0.0 , 0.0 , 

76.0 , 4133.84615385 , 4131.79487179 , 4136.92307692 , 4137.94871795 , 4128.20512821 , 4126.66666667 , 4125.12820513 , 4136.41025641 , 4137.43589744 , 4136.41025641 , 4192.30769231 , 4914.87179487 , 4136.41025641 , 4140.51282051 , 2043.0 , 2034.0 , 149.771 , 0.0 , 0.0 , 0.0 , 0.0 , 

77.0 , 4135.8974359 , 4130.76923077 , 4133.84615385 , 4137.94871795 , 4132.30769231 , 4128.71794872 , 4126.66666667 , 4135.38461538 , 4135.8974359 , 4137.43589744 , 4192.30769231 , 4912.30769231 , 4134.87179487 , 4140.0 , 2043.0 , 2035.0 , 149.781 , 0.0 , 0.0 , 0.0 , 0.0 , 

78.0 , 4136.41025641 , 4131.79487179 , 4135.8974359 , 4135.8974359 , 4131.28205128 , 4127.17948718 , 4124.1025641 , 4131.28205128 , 4130.76923077 , 4138.97435897 , 4192.82051282 , 4911.79487179 , 4136.41025641 , 4145.64102564 , 2042.0 , 2035.0 , 149.787 , 0.0 , 0.0 , 0.0 , 0.0 , 

79.0 , 4134.35897436 , 4132.30769231 , 4138.97435897 , 4136.41025641 , 4128.71794872 , 4128.20512821 , 4125.12820513 , 4131.28205128 , 4131.79487179 , 4137.43589744 , 4192.30769231 , 4911.79487179 , 4136.92307692 , 4144.1025641 , 2041.0 , 2036.0 , 149.799 , 0.0 , 0.0 , 0.0 , 0.0 , 

80.0 , 4136.41025641 , 4129.74358974 , 4136.41025641 , 4136.92307692 , 4131.79487179 , 4130.25641026 , 4127.17948718 , 4131.79487179 , 4135.38461538 , 4136.92307692 , 4192.30769231 , 4911.28205128 , 4135.8974359 , 4142.56410256 , 2042.0 , 2036.0 , 149.803 , 0.0 , 0.0 , 0.0 , 0.0 , 

81.0 , 4134.35897436 , 4129.23076923 , 4133.33333333 , 4135.38461538 , 4134.87179487 , 4130.25641026 , 4127.17948718 , 4132.82051282 , 4136.41025641 , 4138.97435897 , 4192.30769231 , 4910.25641026 , 4134.87179487 , 4141.53846154 , 2041.0 , 2035.0 , 149.811 , 0.0 , 0.0 , 0.0 , 0.0 , 

82.0 , 4132.82051282 , 4131.28205128 , 4136.92307692 , 4134.87179487 , 4133.33333333 , 4130.25641026 , 4127.17948718 , 4133.84615385 , 4136.92307692 , 4138.46153846 , 4192.30769231 , 4912.82051282 , 4135.38461538 , 4142.05128205 , 2042.0 , 2036.0 , 149.818 , 0.0 , 0.0 , 0.0 , 0.0 , 

83.0 , 4134.87179487 , 4133.33333333 , 4137.94871795 , 4137.43589744 , 4132.30769231 , 4132.30769231 , 4127.69230769 , 4133.33333333 , 4136.92307692 , 4136.92307692 , 4191.79487179 , 4914.35897436 , 4134.87179487 , 4143.07692308 , 2043.0 , 2036.0 , 149.83 , 0.0 , 0.0 , 0.0 , 0.0 , 

84.0 , 4134.87179487 , 4133.84615385 , 4135.38461538 , 4136.41025641 , 4133.84615385 , 4130.76923077 , 4123.58974359 , 4134.87179487 , 4136.41025641 , 4136.92307692 , 4193.33333333 , 4912.82051282 , 4137.94871795 , 4143.07692308 , 2043.0 , 2036.0 , 149.834 , 0.0 , 0.0 , 0.0 , 0.0 , 

85.0 , 4135.38461538 , 4135.38461538 , 4134.87179487 , 4133.33333333 , 4133.84615385 , 4129.74358974 , 4122.56410256 , 4135.8974359 , 4136.41025641 , 4137.94871795 , 4194.87179487 , 4914.87179487 , 4136.41025641 , 4143.58974359 , 2042.0 , 2036.0 , 149.842 , 0.0 , 0.0 , 0.0 , 0.0 , 

86.0 , 4133.84615385 , 4135.38461538 , 4135.38461538 , 4136.41025641 , 4134.35897436 , 4131.28205128 , 4128.20512821 , 4133.84615385 , 4138.97435897 , 4137.94871795 , 4193.84615385 , 4915.38461538 , 4131.28205128 , 4143.07692308 , 2043.0 , 2036.0 , 149.85 , 0.0 , 0.0 , 0.0 , 0.0 , 

87.0 , 4133.84615385 , 4131.79487179 , 4135.8974359 , 4137.43589744 , 4132.82051282 , 4128.71794872 , 4127.17948718 , 4132.30769231 , 4136.92307692 , 4137.43589744 , 4192.30769231 , 4915.8974359 , 4130.25641026 , 4143.58974359 , 2044.0 , 2037.0 , 149.862 , 0.0 , 0.0 , 0.0 , 0.0 , 

88.0 , 4133.33333333 , 4133.84615385 , 4133.33333333 , 4138.97435897 , 4131.79487179 , 4127.69230769 , 4124.61538462 , 4135.38461538 , 4134.87179487 , 4136.92307692 , 4190.76923077 , 4914.87179487 , 4135.8974359 , 4138.46153846 , 2042.0 , 2037.0 , 149.866 , 0.0 , 0.0 , 0.0 , 0.0 , 

89.0 , 4135.8974359 , 4133.84615385 , 4133.33333333 , 4138.97435897 , 4129.74358974 , 4128.71794872 , 4125.12820513 , 4134.35897436 , 4136.92307692 , 4137.43589744 , 4192.82051282 , 4913.33333333 , 4136.92307692 , 4140.51282051 , 2042.0 , 2036.0 , 149.875 , 0.0 , 0.0 , 0.0 , 0.0 , 

90.0 , 4134.35897436 , 4129.23076923 , 4133.33333333 , 4137.43589744 , 4128.71794872 , 4128.20512821 , 4127.17948718 , 4135.8974359 , 4138.97435897 , 4137.43589744 , 4193.33333333 , 4908.71794872 , 4135.8974359 , 4138.46153846 , 2042.0 , 2036.0 , 149.883 , 0.0 , 0.0 , 0.0 , 0.0 , 

91.0 , 4135.8974359 , 4128.20512821 , 4133.84615385 , 4134.87179487 , 4131.28205128 , 4127.17948718 , 4125.64102564 , 4137.94871795 , 4136.92307692 , 4136.92307692 , 4191.28205128 , 4911.28205128 , 4136.92307692 , 4139.48717949 , 2043.0 , 2038.0 , 149.894 , 0.0 , 0.0 , 0.0 , 0.0 , 

92.0 , 4134.35897436 , 4131.79487179 , 4132.30769231 , 4137.94871795 , 4133.33333333 , 4127.69230769 , 4126.15384615 , 4135.8974359 , 4137.43589744 , 4137.43589744 , 4190.25641026 , 4910.76923077 , 4136.41025641 , 4136.41025641 , 2042.0 , 2036.0 , 149.898 , 0.0 , 0.0 , 0.0 , 0.0 , 

93.0 , 4135.8974359 , 4128.71794872 , 4135.38461538 , 4136.92307692 , 4130.76923077 , 4126.66666667 , 4127.17948718 , 4132.30769231 , 4137.94871795 , 4135.8974359 , 4192.30769231 , 4911.28205128 , 4135.38461538 , 4140.51282051 , 2044.0 , 2035.0 , 149.905 , 0.0 , 0.0 , 0.0 , 0.0 , 

94.0 , 4134.35897436 , 4128.20512821 , 4139.48717949 , 4135.38461538 , 4130.76923077 , 4129.23076923 , 4128.20512821 , 4135.38461538 , 4137.94871795 , 4135.8974359 , 4193.33333333 , 4911.79487179 , 4137.43589744 , 4140.51282051 , 2045.0 , 2037.0 , 149.914 , 0.0 , 0.0 , 0.0 , 0.0 , 

95.0 , 4135.8974359 , 4133.84615385 , 4139.48717949 , 4135.38461538 , 4132.30769231 , 4129.23076923 , 4127.69230769 , 4135.38461538 , 4136.92307692 , 4138.46153846 , 4191.28205128 , 4915.38461538 , 4138.97435897 , 4144.1025641 , 2044.0 , 2036.0 , 149.924 , 0.0 , 0.0 , 0.0 , 0.0 , 

96.0 , 4135.8974359 , 4135.8974359 , 4135.8974359 , 4135.8974359 , 4131.28205128 , 4129.74358974 , 4128.71794872 , 4132.30769231 , 4137.43589744 , 4138.46153846 , 4191.28205128 , 4912.82051282 , 4136.92307692 , 4140.0 , 2042.0 , 2036.0 , 149.928 , 0.0 , 0.0 , 0.0 , 0.0 , 

97.0 , 4133.84615385 , 4132.30769231 , 4136.41025641 , 4136.41025641 , 4131.28205128 , 4130.76923077 , 4126.15384615 , 4133.84615385 , 4135.38461538 , 4138.97435897 , 4193.84615385 , 4913.33333333 , 4132.82051282 , 4142.56410256 , 2043.0 , 2037.0 , 149.938 , 0.0 , 0.0 , 0.0 , 0.0 , 

98.0 , 4128.71794872 , 4131.28205128 , 4136.41025641 , 4140.0 , 4133.84615385 , 4131.28205128 , 4127.17948718 , 4135.38461538 , 4133.84615385 , 4139.48717949 , 4194.35897436 , 4914.87179487 , 4133.33333333 , 4143.07692308 , 2045.0 , 2036.0 , 149.945 , 0.0 , 0.0 , 0.0 , 0.0 , 

99.0 , 4132.82051282 , 4132.82051282 , 4132.82051282 , 4141.02564103 , 4131.79487179 , 4128.20512821 , 4127.69230769 , 4132.82051282 , 4136.41025641 , 4137.94871795 , 4192.82051282 , 4915.8974359 , 4135.8974359 , 4141.02564103 , 2045.0 , 2036.0 , 149.956 , 0.0 , 0.0 , 0.0 , 0.0 , 

100.0 , 4135.38461538 , 4134.87179487 , 4132.30769231 , 4139.48717949 , 4129.74358974 , 4129.74358974 , 4128.71794872 , 4133.84615385 , 4138.46153846 , 4136.41025641 , 4192.82051282 , 4912.30769231 , 4135.38461538 , 4137.94871795 , 2044.0 , 2037.0 , 149.96 , 0.0 , 0.0 , 0.0 , 0.0 , 

101.0 , 4133.33333333 , 4131.28205128 , 4135.38461538 , 4136.92307692 , 4133.84615385 , 4130.76923077 , 4129.23076923 , 4134.87179487 , 4135.8974359 , 4137.94871795 , 4193.33333333 , 4912.82051282 , 4135.38461538 , 4139.48717949 , 2045.0 , 2038.0 , 149.969 , 0.0 , 0.0 , 0.0 , 0.0 , 

102.0 , 4132.82051282 , 4129.74358974 , 4133.84615385 , 4135.38461538 , 4135.38461538 , 4127.17948718 , 4128.71794872 , 4131.28205128 , 4135.8974359 , 4138.97435897 , 4192.82051282 , 4914.87179487 , 4135.38461538 , 4140.51282051 , 2044.0 , 2038.0 , 149.977 , 0.0 , 0.0 , 0.0 , 0.0 , 

103.0 , 4135.38461538 , 4133.33333333 , 4130.76923077 , 4136.92307692 , 4131.79487179 , 4126.66666667 , 4128.20512821 , 4131.28205128 , 4139.48717949 , 4138.46153846 , 4192.82051282 , 4910.76923077 , 4136.41025641 , 4138.46153846 , 2043.0 , 2037.0 , 149.989 , 0.0 , 0.0 , 0.0 , 0.0 , 

104.0 , 4135.38461538 , 4133.84615385 , 4133.84615385 , 4138.97435897 , 4130.25641026 , 4128.71794872 , 4128.71794872 , 4133.84615385 , 4135.8974359 , 4138.46153846 , 4191.79487179 , 4911.28205128 , 4136.41025641 , 4141.02564103 , 2043.0 , 2037.0 , 149.991 , 0.0 , 0.0 , 0.0 , 0.0 , 

105.0 , 4131.79487179 , 4130.76923077 , 4135.8974359 , 4138.46153846 , 4131.28205128 , 4129.74358974 , 4129.23076923 , 4133.84615385 , 4134.35897436 , 4137.94871795 , 4190.25641026 , 4913.33333333 , 4136.92307692 , 4140.0 , 2043.0 , 2035.0 , 150.0 , 0.0 , 0.0 , 0.0 , 0.0 , 

106.0 , 4134.35897436 , 4131.28205128 , 4134.35897436 , 4132.82051282 , 4130.25641026 , 4129.23076923 , 4124.1025641 , 4132.82051282 , 4136.92307692 , 4138.97435897 , 4191.28205128 , 4911.28205128 , 4137.43589744 , 4142.56410256 , 2042.0 , 2035.0 , 150.008 , 0.0 , 0.0 , 0.0 , 0.0 , 

107.0 , 4134.87179487 , 4133.84615385 , 4132.82051282 , 4131.79487179 , 4131.79487179 , 4131.28205128 , 4124.1025641 , 4136.41025641 , 4134.87179487 , 4139.48717949 , 4192.82051282 , 4907.69230769 , 4137.43589744 , 4141.02564103 , 2041.0 , 2035.0 , 150.02 , 0.0 , 0.0 , 0.0 , 0.0 , 

108.0 , 4135.8974359 , 4131.79487179 , 4136.92307692 , 4135.38461538 , 4134.87179487 , 4129.23076923 , 4129.74358974 , 4134.87179487 , 4131.79487179 , 4137.94871795 , 4193.84615385 , 4911.28205128 , 4135.38461538 , 4143.07692308 , 2041.0 , 2035.0 , 150.023 , 0.0 , 0.0 , 0.0 , 0.0 , 

109.0 , 4133.84615385 , 4135.38461538 , 4136.92307692 , 4137.94871795 , 4133.84615385 , 4128.20512821 , 4132.30769231 , 4134.35897436 , 4137.43589744 , 4138.97435897 , 4195.38461538 , 4914.35897436 , 4135.38461538 , 4140.51282051 , 2040.0 , 2035.0 , 150.031 , 0.0 , 0.0 , 0.0 , 0.0 , 

110.0 , 4134.87179487 , 4136.41025641 , 4134.35897436 , 4133.33333333 , 4131.28205128 , 4128.71794872 , 4128.20512821 , 4132.82051282 , 4137.43589744 , 4140.51282051 , 4195.38461538 , 4914.87179487 , 4135.8974359 , 4143.07692308 , 2041.0 , 2035.0 , 150.04 , 0.0 , 0.0 , 0.0 , 0.0 , 

111.0 , 4131.79487179 , 4132.82051282 , 4132.30769231 , 4134.35897436 , 4132.82051282 , 4130.76923077 , 4127.69230769 , 4130.76923077 , 4134.35897436 , 4138.97435897 , 4193.84615385 , 4909.23076923 , 4134.35897436 , 4139.48717949 , 2040.0 , 2036.0 , 150.052 , 0.0 , 0.0 , 0.0 , 0.0 , 

112.0 , 4134.35897436 , 4130.76923077 , 4132.82051282 , 4137.43589744 , 4131.28205128 , 4129.74358974 , 4127.17948718 , 4130.25641026 , 4134.87179487 , 4137.43589744 , 4194.35897436 , 4911.28205128 , 4134.35897436 , 4142.56410256 , 2040.0 , 2037.0 , 150.055 , 0.0 , 0.0 , 0.0 , 0.0 , 

113.0 , 4134.87179487 , 4131.79487179 , 4132.30769231 , 4138.46153846 , 4130.76923077 , 4130.25641026 , 4125.12820513 , 4133.84615385 , 4135.38461538 , 4138.46153846 , 4193.84615385 , 4915.38461538 , 4135.8974359 , 4142.05128205 , 2041.0 , 2035.0 , 150.063 , 0.0 , 0.0 , 0.0 , 0.0 , 

114.0 , 4133.33333333 , 4131.28205128 , 4133.84615385 , 4135.8974359 , 4132.82051282 , 4128.71794872 , 4124.1025641 , 4133.84615385 , 4134.87179487 , 4138.97435897 , 4192.30769231 , 4916.41025641 , 4136.92307692 , 4143.58974359 , 2041.0 , 2034.0 , 150.071 , 0.0 , 0.0 , 0.0 , 0.0 , 

115.0 , 4131.79487179 , 4131.28205128 , 4133.84615385 , 4134.35897436 , 4133.33333333 , 4127.69230769 , 4125.64102564 , 4133.84615385 , 4136.41025641 , 4138.46153846 , 4192.30769231 , 4910.25641026 , 4135.8974359 , 4139.48717949 , 2041.0 , 2034.0 , 150.083 , 0.0 , 0.0 , 0.0 , 0.0 , 

116.0 , 4134.87179487 , 4130.76923077 , 4134.87179487 , 4133.84615385 , 4130.76923077 , 4128.71794872 , 4124.1025641 , 4134.35897436 , 4133.33333333 , 4138.46153846 , 4193.84615385 , 4911.79487179 , 4136.92307692 , 4140.51282051 , 2041.0 , 2035.0 , 150.085 , 0.0 , 0.0 , 0.0 , 0.0 , 

117.0 , 4133.33333333 , 4129.23076923 , 4136.41025641 , 4133.33333333 , 4132.30769231 , 4130.25641026 , 4125.64102564 , 4134.35897436 , 4134.35897436 , 4138.97435897 , 4192.82051282 , 4911.79487179 , 4136.92307692 , 4140.51282051 , 2042.0 , 2033.0 , 150.094 , 0.0 , 0.0 , 0.0 , 0.0 , 

118.0 , 4130.76923077 , 4130.76923077 , 4137.43589744 , 4132.82051282 , 4133.84615385 , 4127.69230769 , 4127.69230769 , 4133.84615385 , 4140.0 , 4138.97435897 , 4192.82051282 , 4910.76923077 , 4135.38461538 , 4141.53846154 , 2043.0 , 2034.0 , 150.102 , 0.0 , 0.0 , 0.0 , 0.0 , 

119.0 , 4131.79487179 , 4133.33333333 , 4135.8974359 , 4133.33333333 , 4133.33333333 , 4128.20512821 , 4128.71794872 , 4135.38461538 , 4137.94871795 , 4138.97435897 , 4195.38461538 , 4911.28205128 , 4134.87179487 , 4140.51282051 , 2043.0 , 2033.0 , 150.114 , 0.0 , 0.0 , 0.0 , 0.0 , 

120.0 , 4133.84615385 , 4132.82051282 , 4135.8974359 , 4133.84615385 , 4132.82051282 , 4131.79487179 , 4126.66666667 , 4136.41025641 , 4133.33333333 , 4139.48717949 , 4195.38461538 , 4914.35897436 , 4137.94871795 , 4138.97435897 , 2043.0 , 2036.0 , 150.117 , 0.0 , 0.0 , 0.0 , 0.0 , 

121.0 , 4133.84615385 , 4131.79487179 , 4136.92307692 , 4133.84615385 , 4130.76923077 , 4131.28205128 , 4124.1025641 , 4133.33333333 , 4134.35897436 , 4139.48717949 , 4192.30769231 , 4914.87179487 , 4137.94871795 , 4140.51282051 , 2043.0 , 2036.0 , 150.127 , 0.0 , 0.0 , 0.0 , 0.0 , 

122.0 , 4132.82051282 , 4131.79487179 , 4135.8974359 , 4136.41025641 , 4129.23076923 , 4130.25641026 , 4125.12820513 , 4133.84615385 , 4133.84615385 , 4136.41025641 , 4192.82051282 , 4913.84615385 , 4137.43589744 , 4141.02564103 , 2045.0 , 2036.0 , 150.135 , 0.0 , 0.0 , 0.0 , 0.0 , 

123.0 , 4133.84615385 , 4131.79487179 , 4133.33333333 , 4136.41025641 , 4130.76923077 , 4131.28205128 , 4126.66666667 , 4135.38461538 , 4132.82051282 , 4135.8974359 , 4193.33333333 , 4918.46153846 , 4138.46153846 , 4143.58974359 , 2045.0 , 2036.0 , 150.147 , 0.0 , 0.0 , 0.0 , 0.0 , 

124.0 , 4133.33333333 , 4130.25641026 , 4130.76923077 , 4134.87179487 , 4132.82051282 , 4129.74358974 , 4126.66666667 , 4134.35897436 , 4137.43589744 , 4137.43589744 , 4192.30769231 , 4915.8974359 , 4137.94871795 , 4141.02564103 , 2045.0 , 2037.0 , 150.149 , 0.0 , 0.0 , 0.0 , 0.0 , 

125.0 , 4134.35897436 , 4130.25641026 , 4133.84615385 , 4134.87179487 , 4131.79487179 , 4128.20512821 , 4125.12820513 , 4130.76923077 , 4137.43589744 , 4137.43589744 , 4192.30769231 , 4913.84615385 , 4135.38461538 , 4142.05128205 , 2045.0 , 2036.0 , 150.158 , 0.0 , 0.0 , 0.0 , 0.0 , 

126.0 , 4131.79487179 , 4131.79487179 , 4133.84615385 , 4135.8974359 , 4131.79487179 , 4130.76923077 , 4128.20512821 , 4133.84615385 , 4134.87179487 , 4137.43589744 , 4191.79487179 , 4913.33333333 , 4136.41025641 , 4139.48717949 , 2044.0 , 2036.0 , 150.166 , 0.0 , 0.0 , 0.0 , 0.0 , 

127.0 , 4132.30769231 , 4129.23076923 , 4133.84615385 , 4133.33333333 , 4132.30769231 , 4128.20512821 , 4129.23076923 , 4134.35897436 , 4135.38461538 , 4137.94871795 , 4192.30769231 , 4912.82051282 , 4138.46153846 , 4141.02564103 , 2044.0 , 2036.0 , 150.177 , 0.0 , 0.0 , 0.0 , 0.0 , 

128.0 , 4133.84615385 , 4128.71794872 , 4134.87179487 , 4133.33333333 , 4132.30769231 , 4127.17948718 , 4131.28205128 , 4132.30769231 , 4136.92307692 , 4137.94871795 , 4193.84615385 , 4908.20512821 , 4137.94871795 , 4136.41025641 , 2045.0 , 2036.0 , 150.181 , 0.0 , 0.0 , 0.0 , 0.0 , 

0.0 , 4137.43589744 , 4129.23076923 , 4134.87179487 , 4132.30769231 , 4131.28205128 , 4129.23076923 , 4127.17948718 , 4131.79487179 , 4133.84615385 , 4138.46153846 , 4193.84615385 , 4912.82051282 , 4133.84615385 , 4137.43589744 , 2044.0 , 2036.0 , 150.19 , 0.0 , 0.0 , 0.0 , 0.0 , 

1.0 , 4133.33333333 , 4130.25641026 , 4132.82051282 , 4134.35897436 , 4130.25641026 , 4131.28205128 , 4125.12820513 , 4134.35897436 , 4134.87179487 , 4138.97435897 , 4192.30769231 , 4913.33333333 , 4131.79487179 , 4137.94871795 , 2041.0 , 2036.0 , 150.197 , 0.0 , 0.0 , 0.0 , 0.0 , 

2.0 , 4134.35897436 , 4131.79487179 , 4134.87179487 , 4135.8974359 , 4129.74358974 , 4128.20512821 , 4125.64102564 , 4133.84615385 , 4135.38461538 , 4137.94871795 , 4194.35897436 , 4909.74358974 , 4134.87179487 , 4142.05128205 , 2042.0 , 2038.0 , 150.209 , 0.0 , 0.0 , 0.0 , 0.0 , 

3.0 , 4135.38461538 , 4134.35897436 , 4134.35897436 , 4136.92307692 , 4132.30769231 , 4129.74358974 , 4127.69230769 , 4133.84615385 , 4134.35897436 , 4138.46153846 , 4194.87179487 , 4910.25641026 , 4137.43589744 , 4138.46153846 , 2043.0 , 2038.0 , 150.213 , 0.0 , 0.0 , 0.0 , 0.0 , 

4.0 , 4134.35897436 , 4133.84615385 , 4135.38461538 , 4135.38461538 , 4132.30769231 , 4128.20512821 , 4126.66666667 , 4132.82051282 , 4131.79487179 , 4138.46153846 , 4193.33333333 , 4916.92307692 , 4135.38461538 , 4142.56410256 , 2042.0 , 2039.0 , 150.221 , 0.0 , 0.0 , 0.0 , 0.0 , 

5.0 , 4130.76923077 , 4132.82051282 , 4138.97435897 , 4135.38461538 , 4131.28205128 , 4128.71794872 , 4127.69230769 , 4133.33333333 , 4133.33333333 , 4136.92307692 , 4192.82051282 , 4915.8974359 , 4135.38461538 , 4144.1025641 , 2039.0 , 2038.0 , 150.229 , 0.0 , 0.0 , 0.0 , 0.0 , 

6.0 , 4133.33333333 , 4130.76923077 , 4136.92307692 , 4137.43589744 , 4131.28205128 , 4131.79487179 , 4127.17948718 , 4133.33333333 , 4133.84615385 , 4137.94871795 , 4194.35897436 , 4911.79487179 , 4136.92307692 , 4143.07692308 , 2040.0 , 2037.0 , 150.241 , 0.0 , 0.0 , 0.0 , 0.0 , 

7.0 , 4133.84615385 , 4129.74358974 , 4132.30769231 , 4137.43589744 , 4131.79487179 , 4132.82051282 , 4126.66666667 , 4134.35897436 , 4134.87179487 , 4139.48717949 , 4193.33333333 , 4911.79487179 , 4135.8974359 , 4139.48717949 , 2040.0 , 2037.0 , 150.244 , 0.0 , 0.0 , 0.0 , 0.0 , 

8.0 , 4132.82051282 , 4129.74358974 , 4135.38461538 , 4131.79487179 , 4131.79487179 , 4129.74358974 , 4128.20512821 , 4133.33333333 , 4135.8974359 , 4138.97435897 , 4191.28205128 , 4917.43589744 , 4137.43589744 , 4141.02564103 , 2040.0 , 2036.0 , 150.253 , 0.0 , 0.0 , 0.0 , 0.0 , 

9.0 , 4131.79487179 , 4129.74358974 , 4136.92307692 , 4129.74358974 , 4132.82051282 , 4130.25641026 , 4129.74358974 , 4134.35897436 , 4135.38461538 , 4137.94871795 , 4190.76923077 , 4918.46153846 , 4137.94871795 , 4143.58974359 , 2041.0 , 2037.0 , 150.261 , 0.0 , 0.0 , 0.0 , 0.0 , 

10.0 , 4132.30769231 , 4128.71794872 , 4133.33333333 , 4135.38461538 , 4132.30769231 , 4131.28205128 , 4129.23076923 , 4137.43589744 , 4136.41025641 , 4137.94871795 , 4192.30769231 , 4913.84615385 , 4137.43589744 , 4142.05128205 , 2041.0 , 2036.0 , 150.272 , 0.0 , 0.0 , 0.0 , 0.0 , 

11.0 , 4133.84615385 , 4129.74358974 , 4135.38461538 , 4135.8974359 , 4131.28205128 , 4130.25641026 , 4127.69230769 , 4135.38461538 , 4134.87179487 , 4139.48717949 , 4194.35897436 , 4913.33333333 , 4135.38461538 , 4140.0 , 2041.0 , 2036.0 , 150.276 , 0.0 , 0.0 , 0.0 , 0.0 , 

12.0 , 4134.35897436 , 4133.84615385 , 4136.92307692 , 4129.74358974 , 4131.28205128 , 4129.74358974 , 4127.69230769 , 4132.82051282 , 4133.33333333 , 4138.46153846 , 4194.87179487 , 4914.87179487 , 4136.41025641 , 4139.48717949 , 2040.0 , 2036.0 , 150.283 , 0.0 , 0.0 , 0.0 , 0.0 , 

13.0 , 4134.87179487 , 4132.30769231 , 4136.41025641 , 4130.76923077 , 4131.79487179 , 4128.71794872 , 4127.17948718 , 4133.33333333 , 4134.87179487 , 4137.43589744 , 4193.33333333 , 4915.8974359 , 4136.41025641 , 4143.58974359 , 2042.0 , 2036.0 , 150.291 , 0.0 , 0.0 , 0.0 , 0.0 , 

14.0 , 4132.30769231 , 4128.71794872 , 4138.46153846 , 4135.8974359 , 4132.30769231 , 4130.25641026 , 4126.66666667 , 4136.41025641 , 4136.92307692 , 4138.46153846 , 4191.79487179 , 4910.76923077 , 4137.94871795 , 4141.02564103 , 2042.0 , 2036.0 , 150.304 , 0.0 , 0.0 , 0.0 , 0.0 , 

15.0 , 4130.76923077 , 4130.76923077 , 4140.0 , 4134.35897436 , 4130.25641026 , 4132.30769231 , 4126.15384615 , 4134.35897436 , 4137.94871795 , 4137.94871795 , 4192.82051282 , 4910.76923077 , 4138.46153846 , 4142.56410256 , 2043.0 , 2037.0 , 150.307 , 0.0 , 0.0 , 0.0 , 0.0 , 

16.0 , 4130.76923077 , 4131.79487179 , 4134.87179487 , 4133.84615385 , 4128.71794872 , 4132.30769231 , 4129.23076923 , 4132.82051282 , 4139.48717949 , 4136.92307692 , 4193.33333333 , 4910.76923077 , 4136.41025641 , 4139.48717949 , 2044.0 , 2034.0 , 150.315 , 0.0 , 0.0 , 0.0 , 0.0 , 

17.0 , 4134.87179487 , 4124.1025641 , 4133.84615385 , 4133.33333333 , 4131.28205128 , 4130.25641026 , 4130.25641026 , 4134.35897436 , 4137.43589744 , 4138.46153846 , 4192.82051282 , 4913.33333333 , 4135.38461538 , 4145.12820513 , 2046.0 , 2034.0 , 150.323 , 0.0 , 0.0 , 0.0 , 0.0 , 

18.0 , 4129.23076923 , 4122.05128205 , 4136.41025641 , 4134.35897436 , 4133.33333333 , 4132.82051282 , 4129.74358974 , 4140.0 , 4136.41025641 , 4138.97435897 , 4192.30769231 , 4913.33333333 , 4136.41025641 , 4152.30769231 , 2046.0 , 2035.0 , 150.335 , 0.0 , 0.0 , 0.0 , 0.0 , 

19.0 , 4127.69230769 , 4125.12820513 , 4136.92307692 , 4134.87179487 , 4129.23076923 , 4130.76923077 , 4125.64102564 , 4140.0 , 4139.48717949 , 4137.94871795 , 4193.84615385 , 4912.30769231 , 4136.92307692 , 4157.94871795 , 2045.0 , 2034.0 , 150.339 , 0.0 , 0.0 , 0.0 , 0.0 , 

20.0 , 4128.20512821 , 4124.61538462 , 4132.82051282 , 4135.8974359 , 4129.23076923 , 4129.23076923 , 4125.12820513 , 4135.38461538 , 4142.05128205 , 4136.92307692 , 4193.84615385 , 4909.74358974 , 4136.92307692 , 4146.15384615 , 2046.0 , 2036.0 , 150.347 , 0.0 , 0.0 , 0.0 , 0.0 , 

21.0 , 4129.23076923 , 4123.07692308 , 4130.76923077 , 4133.84615385 , 4131.79487179 , 4131.79487179 , 4127.17948718 , 4133.84615385 , 4137.43589744 , 4137.94871795 , 4194.87179487 , 4915.8974359 , 4135.8974359 , 4142.56410256 , 2045.0 , 2035.0 , 150.354 , 0.0 , 0.0 , 0.0 , 0.0 , 

22.0 , 4129.74358974 , 4129.74358974 , 4132.82051282 , 4136.41025641 , 4132.30769231 , 4135.38461538 , 4129.74358974 , 4135.8974359 , 4135.8974359 , 4138.46153846 , 4194.35897436 , 4917.94871795 , 4135.8974359 , 4137.43589744 , 2044.0 , 2034.0 , 150.366 , 0.0 , 0.0 , 0.0 , 0.0 , 

23.0 , 4135.8974359 , 4134.87179487 , 4135.8974359 , 4136.41025641 , 4131.79487179 , 4130.25641026 , 4127.69230769 , 4134.87179487 , 4137.43589744 , 4137.43589744 , 4192.82051282 , 4914.87179487 , 4138.97435897 , 4133.84615385 , 2044.0 , 2034.0 , 150.369 , 0.0 , 0.0 , 0.0 , 0.0 , 

24.0 , 4133.33333333 , 4135.38461538 , 4133.84615385 , 4132.82051282 , 4132.30769231 , 4126.66666667 , 4127.17948718 , 4133.33333333 , 4135.38461538 , 4136.41025641 , 4192.82051282 , 4912.30769231 , 4139.48717949 , 4131.28205128 , 2044.0 , 2035.0 , 150.379 , 0.0 , 0.0 , 0.0 , 0.0 , 

25.0 , 4129.23076923 , 4136.41025641 , 4132.82051282 , 4132.30769231 , 4131.79487179 , 4128.20512821 , 4127.69230769 , 4131.28205128 , 4131.79487179 , 4136.92307692 , 4193.33333333 , 4914.87179487 , 4137.43589744 , 4136.41025641 , 2044.0 , 2034.0 , 150.387 , 0.0 , 0.0 , 0.0 , 0.0 , 

26.0 , 4130.25641026 , 4135.38461538 , 4135.8974359 , 4135.38461538 , 4131.28205128 , 4129.74358974 , 4126.15384615 , 4130.76923077 , 4136.41025641 , 4138.46153846 , 4190.76923077 , 4913.33333333 , 4135.8974359 , 4138.97435897 , 2043.0 , 2035.0 , 150.398 , 0.0 , 0.0 , 0.0 , 0.0 , 

27.0 , 4133.84615385 , 4131.79487179 , 4136.92307692 , 4134.87179487 , 4130.25641026 , 4127.17948718 , 4126.66666667 , 4130.76923077 , 4140.51282051 , 4137.94871795 , 4191.28205128 , 4911.28205128 , 4135.8974359 , 4138.46153846 , 2045.0 , 2037.0 , 150.402 , 0.0 , 0.0 , 0.0 , 0.0 , 

28.0 , 4134.35897436 , 4132.30769231 , 4134.87179487 , 4131.79487179 , 4130.76923077 , 4126.66666667 , 4128.20512821 , 4133.33333333 , 4135.8974359 , 4137.43589744 , 4193.84615385 , 4911.79487179 , 4135.38461538 , 4136.92307692 , 2043.0 , 2038.0 , 150.411 , 0.0 , 0.0 , 0.0 , 0.0 , 

29.0 , 4135.38461538 , 4133.33333333 , 4135.38461538 , 4134.87179487 , 4132.82051282 , 4130.76923077 , 4126.15384615 , 4136.41025641 , 4133.84615385 , 4138.46153846 , 4194.87179487 , 4911.79487179 , 4135.8974359 , 4137.94871795 , 2044.0 , 2038.0 , 150.417 , 0.0 , 0.0 , 0.0 , 0.0 , 

30.0 , 4137.43589744 , 4132.82051282 , 4135.8974359 , 4138.46153846 , 4131.28205128 , 4132.30769231 , 4126.15384615 , 4135.38461538 , 4136.92307692 , 4138.97435897 , 4193.84615385 , 4913.84615385 , 4133.84615385 , 4143.58974359 , 2043.0 , 2035.0 , 150.429 , 0.0 , 0.0 , 0.0 , 0.0 , 

31.0 , 4134.87179487 , 4132.82051282 , 4134.35897436 , 4138.97435897 , 4130.76923077 , 4132.30769231 , 4128.20512821 , 4132.82051282 , 4138.46153846 , 4140.51282051 , 4192.30769231 , 4913.33333333 , 4133.84615385 , 4142.56410256 , 2043.0 , 2034.0 , 150.433 , 0.0 , 0.0 , 0.0 , 0.0 , 

32.0 , 4134.35897436 , 4131.79487179 , 4133.84615385 , 4136.92307692 , 4133.33333333 , 4129.74358974 , 4125.64102564 , 4131.79487179 , 4136.41025641 , 4141.53846154 , 4191.28205128 , 4913.33333333 , 4136.41025641 , 4143.07692308 , 2043.0 , 2035.0 , 150.442 , 0.0 , 0.0 , 0.0 , 0.0 , 

