['COUNTER', 'AF3', 'F7', 'F3', 'FC5', 'T7', 'P7', 'O1', 'O2', 'P8', 'T8', 'FC6', 'F4', 'F8', 'AF4', 'GYROX', 'GYROY', 'TIMESTAMP', 'FUNC_ID', 'FUNC_VALUE', 'MARKER', 'SYNC_SIGNAL']
115.0 , 4141.53846154 , 4152.30769231 , 4105.64102564 , 4153.33333333 , 4131.28205128 , 4132.30769231 , 4126.66666667 , 4128.71794872 , 4130.76923077 , 4137.43589744 , 4191.28205128 , 4903.58974359 , 4142.56410256 , 4144.1025641 , 2046.0 , 2035.0 , 91.12 , 0.0 , 0.0 , 0.0 , 0.0 , 

116.0 , 4141.53846154 , 4153.33333333 , 4106.66666667 , 4155.38461538 , 4130.76923077 , 4134.35897436 , 4125.12820513 , 4130.76923077 , 4127.69230769 , 4136.41025641 , 4191.79487179 , 4903.58974359 , 4145.64102564 , 4148.71794872 , 2047.0 , 2037.0 , 91.127 , 0.0 , 0.0 , 0.0 , 0.0 , 

117.0 , 4142.56410256 , 4153.33333333 , 4103.58974359 , 4159.48717949 , 4130.25641026 , 4135.38461538 , 4126.15384615 , 4127.17948718 , 4125.64102564 , 4136.92307692 , 4192.30769231 , 4901.02564103 , 4145.64102564 , 4146.66666667 , 2047.0 , 2037.0 , 91.135 , 0.0 , 0.0 , 0.0 , 0.0 , 

118.0 , 4146.66666667 , 4151.79487179 , 4100.0 , 4164.1025641 , 4128.71794872 , 4132.30769231 , 4129.23076923 , 4124.61538462 , 4130.25641026 , 4136.92307692 , 4195.38461538 , 4898.97435897 , 4147.17948718 , 4145.12820513 , 2047.0 , 2038.0 , 91.143 , 0.0 , 0.0 , 0.0 , 0.0 , 

119.0 , 4150.76923077 , 4150.76923077 , 4099.48717949 , 4162.56410256 , 4129.74358974 , 4132.82051282 , 4127.69230769 , 4127.17948718 , 4130.25641026 , 4136.92307692 , 4197.94871795 , 4900.0 , 4149.23076923 , 4147.17948718 , 2047.0 , 2037.0 , 91.152 , 0.0 , 0.0 , 0.0 , 0.0 , 

120.0 , 4152.30769231 , 4151.28205128 , 4104.1025641 , 4157.43589744 , 4132.30769231 , 4137.43589744 , 4124.61538462 , 4129.23076923 , 4124.61538462 , 4136.92307692 , 4197.94871795 , 4900.0 , 4149.74358974 , 4149.74358974 , 2045.0 , 2037.0 , 91.158 , 0.0 , 0.0 , 0.0 , 0.0 , 

121.0 , 4150.25641026 , 4151.79487179 , 4106.66666667 , 4156.92307692 , 4130.76923077 , 4138.46153846 , 4127.17948718 , 4127.69230769 , 4124.61538462 , 4136.92307692 , 4196.92307692 , 4898.97435897 , 4148.20512821 , 4148.71794872 , 2045.0 , 2037.0 , 91.167 , 0.0 , 0.0 , 0.0 , 0.0 , 

122.0 , 4149.74358974 , 4149.74358974 , 4105.12820513 , 4156.92307692 , 4130.25641026 , 4135.8974359 , 4132.30769231 , 4127.17948718 , 4129.23076923 , 4136.92307692 , 4195.38461538 , 4903.58974359 , 4146.66666667 , 4152.82051282 , 2045.0 , 2038.0 , 91.173 , 0.0 , 0.0 , 0.0 , 0.0 , 

123.0 , 4147.69230769 , 4145.64102564 , 4108.20512821 , 4151.28205128 , 4131.79487179 , 4133.84615385 , 4130.76923077 , 4127.17948718 , 4130.25641026 , 4137.43589744 , 4192.82051282 , 4908.20512821 , 4144.61538462 , 4155.38461538 , 2044.0 , 2038.0 , 91.182 , 0.0 , 0.0 , 0.0 , 0.0 , 

124.0 , 4142.56410256 , 4144.1025641 , 4111.28205128 , 4149.23076923 , 4129.23076923 , 4132.82051282 , 4126.15384615 , 4126.66666667 , 4128.71794872 , 4136.41025641 , 4192.30769231 , 4908.20512821 , 4144.61538462 , 4149.74358974 , 2044.0 , 2039.0 , 91.19 , 0.0 , 0.0 , 0.0 , 0.0 , 

125.0 , 4142.05128205 , 4142.05128205 , 4115.38461538 , 4149.23076923 , 4128.20512821 , 4129.74358974 , 4122.56410256 , 4127.69230769 , 4131.28205128 , 4135.38461538 , 4193.84615385 , 4908.71794872 , 4143.07692308 , 4151.28205128 , 2044.0 , 2039.0 , 91.198 , 0.0 , 0.0 , 0.0 , 0.0 , 

126.0 , 4141.02564103 , 4140.0 , 4123.07692308 , 4146.15384615 , 4131.79487179 , 4129.74358974 , 4123.58974359 , 4129.74358974 , 4134.35897436 , 4136.41025641 , 4191.79487179 , 4908.71794872 , 4144.61538462 , 4151.28205128 , 2044.0 , 2038.0 , 91.205 , 0.0 , 0.0 , 0.0 , 0.0 , 

127.0 , 4140.51282051 , 4139.48717949 , 4128.20512821 , 4144.1025641 , 4131.28205128 , 4128.20512821 , 4125.12820513 , 4127.69230769 , 4132.82051282 , 4137.43589744 , 4191.28205128 , 4911.28205128 , 4144.61538462 , 4147.17948718 , 2043.0 , 2038.0 , 91.215 , 0.0 , 0.0 , 0.0 , 0.0 , 

128.0 , 4138.97435897 , 4140.51282051 , 4121.53846154 , 4147.17948718 , 4130.76923077 , 4125.64102564 , 4126.66666667 , 4127.17948718 , 4129.74358974 , 4136.92307692 , 4192.30769231 , 4909.23076923 , 4143.07692308 , 4142.56410256 , 2043.0 , 2038.0 , 91.221 , 0.0 , 0.0 , 0.0 , 0.0 , 

0.0 , 4140.0 , 4140.0 , 4123.07692308 , 4143.07692308 , 4132.82051282 , 4125.12820513 , 4126.66666667 , 4130.25641026 , 4130.76923077 , 4135.8974359 , 4192.30769231 , 4905.64102564 , 4140.0 , 4149.74358974 , 2043.0 , 2037.0 , 91.23 , 0.0 , 0.0 , 0.0 , 0.0 , 

1.0 , 4139.48717949 , 4137.94871795 , 4132.30769231 , 4137.94871795 , 4130.76923077 , 4129.23076923 , 4128.20512821 , 4132.82051282 , 4135.8974359 , 4136.41025641 , 4191.28205128 , 4905.64102564 , 4137.43589744 , 4144.61538462 , 2043.0 , 2038.0 , 91.238 , 0.0 , 0.0 , 0.0 , 0.0 , 

2.0 , 4142.56410256 , 4136.41025641 , 4134.35897436 , 4137.94871795 , 4128.71794872 , 4128.20512821 , 4129.23076923 , 4129.74358974 , 4135.38461538 , 4136.92307692 , 4192.82051282 , 4910.25641026 , 4135.38461538 , 4142.56410256 , 2044.0 , 2037.0 , 91.247 , 0.0 , 0.0 , 0.0 , 0.0 , 

3.0 , 4141.02564103 , 4135.8974359 , 4132.30769231 , 4137.43589744 , 4132.30769231 , 4125.12820513 , 4129.74358974 , 4128.71794872 , 4133.33333333 , 4136.92307692 , 4193.33333333 , 4907.17948718 , 4135.38461538 , 4144.1025641 , 2043.0 , 2037.0 , 91.251 , 0.0 , 0.0 , 0.0 , 0.0 , 

4.0 , 4140.51282051 , 4134.87179487 , 4133.33333333 , 4133.84615385 , 4131.28205128 , 4125.64102564 , 4129.23076923 , 4129.23076923 , 4131.28205128 , 4137.43589744 , 4193.33333333 , 4907.69230769 , 4133.84615385 , 4143.58974359 , 2043.0 , 2037.0 , 91.261 , 0.0 , 0.0 , 0.0 , 0.0 , 

5.0 , 4137.94871795 , 4134.87179487 , 4133.84615385 , 4134.35897436 , 4128.71794872 , 4129.23076923 , 4130.76923077 , 4130.25641026 , 4131.79487179 , 4137.43589744 , 4192.82051282 , 4909.74358974 , 4129.74358974 , 4138.97435897 , 2045.0 , 2037.0 , 91.268 , 0.0 , 0.0 , 0.0 , 0.0 , 

6.0 , 4135.38461538 , 4133.33333333 , 4134.35897436 , 4134.35897436 , 4129.74358974 , 4129.23076923 , 4128.20512821 , 4129.74358974 , 4136.92307692 , 4137.94871795 , 4192.82051282 , 4910.25641026 , 4127.69230769 , 4143.07692308 , 2044.0 , 2037.0 , 91.277 , 0.0 , 0.0 , 0.0 , 0.0 , 

7.0 , 4134.87179487 , 4131.28205128 , 4132.82051282 , 4135.38461538 , 4131.28205128 , 4131.28205128 , 4130.25641026 , 4129.74358974 , 4137.43589744 , 4137.94871795 , 4192.82051282 , 4911.28205128 , 4128.71794872 , 4143.07692308 , 2044.0 , 2033.0 , 91.284 , 0.0 , 0.0 , 0.0 , 0.0 , 

8.0 , 4136.92307692 , 4133.33333333 , 4134.35897436 , 4134.35897436 , 4132.82051282 , 4132.30769231 , 4134.87179487 , 4130.76923077 , 4132.30769231 , 4137.43589744 , 4192.30769231 , 4912.82051282 , 4129.74358974 , 4140.0 , 2043.0 , 2035.0 , 91.293 , 0.0 , 0.0 , 0.0 , 0.0 , 

9.0 , 4136.41025641 , 4136.92307692 , 4135.8974359 , 4133.84615385 , 4131.28205128 , 4132.82051282 , 4133.33333333 , 4131.79487179 , 4131.28205128 , 4136.41025641 , 4192.82051282 , 4909.23076923 , 4126.15384615 , 4140.0 , 2043.0 , 2034.0 , 91.301 , 0.0 , 0.0 , 0.0 , 0.0 , 

10.0 , 4136.92307692 , 4133.33333333 , 4136.41025641 , 4135.8974359 , 4127.17948718 , 4131.28205128 , 4127.69230769 , 4131.28205128 , 4135.38461538 , 4137.94871795 , 4194.35897436 , 4911.79487179 , 4125.64102564 , 4141.53846154 , 2041.0 , 2036.0 , 91.31 , 0.0 , 0.0 , 0.0 , 0.0 , 

11.0 , 4135.8974359 , 4130.25641026 , 4136.41025641 , 4137.94871795 , 4129.23076923 , 4129.23076923 , 4127.17948718 , 4132.30769231 , 4135.8974359 , 4139.48717949 , 4193.84615385 , 4915.8974359 , 4126.66666667 , 4141.02564103 , 2043.0 , 2034.0 , 91.316 , 0.0 , 0.0 , 0.0 , 0.0 , 

12.0 , 4130.25641026 , 4132.30769231 , 4133.33333333 , 4135.8974359 , 4131.79487179 , 4128.20512821 , 4130.25641026 , 4135.38461538 , 4135.38461538 , 4137.94871795 , 4191.79487179 , 4912.30769231 , 4126.15384615 , 4139.48717949 , 2041.0 , 2035.0 , 91.323 , 0.0 , 0.0 , 0.0 , 0.0 , 

13.0 , 4130.25641026 , 4134.35897436 , 4132.82051282 , 4133.33333333 , 4129.23076923 , 4126.66666667 , 4129.74358974 , 4133.33333333 , 4136.41025641 , 4136.41025641 , 4192.30769231 , 4912.82051282 , 4125.64102564 , 4137.94871795 , 2041.0 , 2035.0 , 91.331 , 0.0 , 0.0 , 0.0 , 0.0 , 

14.0 , 4130.76923077 , 4133.33333333 , 4132.30769231 , 4133.84615385 , 4128.71794872 , 4125.64102564 , 4126.66666667 , 4131.28205128 , 4138.97435897 , 4136.92307692 , 4192.82051282 , 4914.35897436 , 4130.25641026 , 4137.94871795 , 2040.0 , 2035.0 , 91.34 , 0.0 , 0.0 , 0.0 , 0.0 , 

15.0 , 4129.23076923 , 4128.71794872 , 4131.79487179 , 4132.82051282 , 4128.71794872 , 4124.1025641 , 4121.02564103 , 4131.28205128 , 4136.92307692 , 4137.94871795 , 4191.79487179 , 4913.33333333 , 4131.28205128 , 4140.51282051 , 2039.0 , 2034.0 , 91.347 , 0.0 , 0.0 , 0.0 , 0.0 , 

16.0 , 4127.17948718 , 4127.69230769 , 4129.74358974 , 4135.8974359 , 4128.20512821 , 4125.64102564 , 4120.51282051 , 4131.28205128 , 4135.38461538 , 4138.46153846 , 4191.28205128 , 4912.82051282 , 4129.74358974 , 4133.84615385 , 2039.0 , 2035.0 , 91.355 , 0.0 , 0.0 , 0.0 , 0.0 , 

17.0 , 4127.69230769 , 4128.71794872 , 4131.28205128 , 4137.94871795 , 4128.71794872 , 4123.07692308 , 4120.51282051 , 4133.33333333 , 4136.92307692 , 4137.94871795 , 4191.28205128 , 4916.41025641 , 4128.71794872 , 4135.38461538 , 2040.0 , 2036.0 , 91.364 , 0.0 , 0.0 , 0.0 , 0.0 , 

18.0 , 4125.12820513 , 4129.74358974 , 4131.79487179 , 4134.87179487 , 4129.74358974 , 4118.46153846 , 4117.43589744 , 4138.46153846 , 4138.97435897 , 4137.94871795 , 4191.79487179 , 4913.84615385 , 4130.25641026 , 4136.92307692 , 2038.0 , 2035.0 , 91.373 , 0.0 , 0.0 , 0.0 , 0.0 , 

19.0 , 4126.15384615 , 4127.17948718 , 4132.30769231 , 4130.76923077 , 4130.25641026 , 4115.38461538 , 4113.33333333 , 4137.43589744 , 4137.43589744 , 4138.46153846 , 4192.82051282 , 4913.84615385 , 4130.76923077 , 4137.94871795 , 2036.0 , 2034.0 , 91.378 , 0.0 , 0.0 , 0.0 , 0.0 , 

20.0 , 4124.1025641 , 4123.58974359 , 4132.30769231 , 4133.33333333 , 4131.79487179 , 4118.97435897 , 4114.87179487 , 4136.92307692 , 4138.97435897 , 4138.46153846 , 4193.33333333 , 4915.38461538 , 4126.15384615 , 4133.84615385 , 2037.0 , 2033.0 , 91.387 , 0.0 , 0.0 , 0.0 , 0.0 , 

21.0 , 4123.58974359 , 4121.02564103 , 4137.43589744 , 4133.33333333 , 4129.23076923 , 4116.92307692 , 4111.79487179 , 4140.51282051 , 4142.56410256 , 4138.46153846 , 4194.87179487 , 4918.46153846 , 4124.61538462 , 4135.38461538 , 2038.0 , 2032.0 , 91.395 , 0.0 , 0.0 , 0.0 , 0.0 , 

22.0 , 4120.51282051 , 4121.53846154 , 4143.58974359 , 4128.20512821 , 4128.20512821 , 4112.82051282 , 4110.25641026 , 4144.61538462 , 4143.58974359 , 4138.46153846 , 4193.84615385 , 4918.46153846 , 4127.17948718 , 4132.30769231 , 2037.0 , 2031.0 , 91.405 , 0.0 , 0.0 , 0.0 , 0.0 , 

23.0 , 4114.87179487 , 4116.41025641 , 4146.66666667 , 4123.07692308 , 4131.79487179 , 4116.92307692 , 4117.43589744 , 4144.1025641 , 4143.58974359 , 4136.92307692 , 4192.82051282 , 4919.48717949 , 4124.1025641 , 4132.82051282 , 2038.0 , 2032.0 , 91.411 , 0.0 , 0.0 , 0.0 , 0.0 , 

24.0 , 4110.25641026 , 4108.71794872 , 4150.76923077 , 4120.51282051 , 4134.35897436 , 4126.15384615 , 4124.61538462 , 4143.07692308 , 4145.12820513 , 4139.48717949 , 4191.28205128 , 4922.05128205 , 4117.43589744 , 4131.79487179 , 2039.0 , 2034.0 , 91.419 , 0.0 , 0.0 , 0.0 , 0.0 , 

25.0 , 4111.79487179 , 4106.15384615 , 4155.38461538 , 4116.92307692 , 4130.76923077 , 4124.1025641 , 4121.02564103 , 4143.58974359 , 4143.58974359 , 4145.12820513 , 4186.15384615 , 4927.17948718 , 4115.8974359 , 4129.23076923 , 2040.0 , 2036.0 , 91.426 , 0.0 , 0.0 , 0.0 , 0.0 , 

26.0 , 4110.76923077 , 4104.61538462 , 4154.35897436 , 4117.94871795 , 4128.20512821 , 4121.53846154 , 4118.97435897 , 4142.56410256 , 4138.97435897 , 4144.1025641 , 4179.48717949 , 4926.66666667 , 4114.87179487 , 4124.61538462 , 2041.0 , 2036.0 , 91.436 , 0.0 , 0.0 , 0.0 , 0.0 , 

27.0 , 4111.28205128 , 4103.07692308 , 4155.8974359 , 4120.0 , 4131.79487179 , 4128.20512821 , 4124.61538462 , 4137.94871795 , 4138.97435897 , 4142.56410256 , 4178.97435897 , 4928.20512821 , 4114.87179487 , 4126.66666667 , 2040.0 , 2036.0 , 91.441 , 0.0 , 0.0 , 0.0 , 0.0 , 

28.0 , 4114.87179487 , 4106.66666667 , 4155.8974359 , 4117.43589744 , 4134.35897436 , 4131.79487179 , 4131.79487179 , 4134.87179487 , 4141.53846154 , 4142.05128205 , 4182.56410256 , 4929.23076923 , 4116.92307692 , 4131.79487179 , 2041.0 , 2037.0 , 91.45 , 0.0 , 0.0 , 0.0 , 0.0 , 

29.0 , 4118.46153846 , 4110.25641026 , 4147.69230769 , 4118.97435897 , 4131.28205128 , 4129.23076923 , 4131.28205128 , 4135.8974359 , 4138.97435897 , 4142.56410256 , 4182.05128205 , 4922.56410256 , 4117.43589744 , 4131.79487179 , 2041.0 , 2037.0 , 91.457 , 0.0 , 0.0 , 0.0 , 0.0 , 

30.0 , 4124.1025641 , 4114.35897436 , 4144.1025641 , 4123.58974359 , 4130.76923077 , 4130.76923077 , 4129.23076923 , 4134.87179487 , 4135.38461538 , 4142.56410256 , 4185.12820513 , 4917.43589744 , 4122.56410256 , 4133.33333333 , 2042.0 , 2038.0 , 91.468 , 0.0 , 0.0 , 0.0 , 0.0 , 

31.0 , 4126.15384615 , 4120.0 , 4146.66666667 , 4124.61538462 , 4132.82051282 , 4132.30769231 , 4133.33333333 , 4134.35897436 , 4137.94871795 , 4140.51282051 , 4187.69230769 , 4918.46153846 , 4129.23076923 , 4134.35897436 , 2044.0 , 2036.0 , 91.473 , 0.0 , 0.0 , 0.0 , 0.0 , 

32.0 , 4128.20512821 , 4126.15384615 , 4145.12820513 , 4123.58974359 , 4130.76923077 , 4130.76923077 , 4133.84615385 , 4134.87179487 , 4140.0 , 4138.46153846 , 4186.15384615 , 4917.43589744 , 4128.71794872 , 4135.38461538 , 2043.0 , 2036.0 , 91.481 , 0.0 , 0.0 , 0.0 , 0.0 , 

33.0 , 4131.79487179 , 4130.25641026 , 4139.48717949 , 4126.66666667 , 4131.28205128 , 4129.74358974 , 4130.76923077 , 4132.30769231 , 4137.94871795 , 4138.97435897 , 4187.17948718 , 4913.84615385 , 4127.69230769 , 4132.82051282 , 2043.0 , 2034.0 , 91.489 , 0.0 , 0.0 , 0.0 , 0.0 , 

34.0 , 4136.41025641 , 4130.76923077 , 4136.92307692 , 4128.20512821 , 4130.76923077 , 4129.23076923 , 4130.25641026 , 4129.74358974 , 4137.43589744 , 4138.46153846 , 4191.79487179 , 4916.92307692 , 4128.71794872 , 4135.38461538 , 2043.0 , 2036.0 , 91.499 , 0.0 , 0.0 , 0.0 , 0.0 , 

35.0 , 4133.84615385 , 4129.23076923 , 4133.84615385 , 4130.25641026 , 4130.76923077 , 4130.76923077 , 4132.82051282 , 4132.30769231 , 4138.97435897 , 4136.92307692 , 4192.30769231 , 4912.82051282 , 4131.79487179 , 4135.8974359 , 2043.0 , 2037.0 , 91.504 , 0.0 , 0.0 , 0.0 , 0.0 , 

36.0 , 4132.82051282 , 4128.71794872 , 4137.43589744 , 4130.76923077 , 4133.33333333 , 4130.76923077 , 4130.76923077 , 4131.28205128 , 4135.8974359 , 4140.51282051 , 4189.74358974 , 4908.20512821 , 4133.33333333 , 4140.0 , 2042.0 , 2036.0 , 91.513 , 0.0 , 0.0 , 0.0 , 0.0 , 

37.0 , 4133.84615385 , 4132.30769231 , 4137.94871795 , 4131.28205128 , 4132.82051282 , 4131.28205128 , 4130.25641026 , 4130.76923077 , 4136.41025641 , 4141.53846154 , 4190.76923077 , 4910.25641026 , 4134.35897436 , 4140.51282051 , 2043.0 , 2035.0 , 91.52 , 0.0 , 0.0 , 0.0 , 0.0 , 

38.0 , 4138.97435897 , 4133.33333333 , 4132.82051282 , 4132.82051282 , 4125.64102564 , 4130.25641026 , 4127.17948718 , 4132.30769231 , 4137.43589744 , 4137.94871795 , 4192.30769231 , 4914.35897436 , 4134.35897436 , 4144.1025641 , 2044.0 , 2036.0 , 91.53 , 0.0 , 0.0 , 0.0 , 0.0 , 

39.0 , 4138.97435897 , 4133.33333333 , 4131.79487179 , 4136.41025641 , 4127.69230769 , 4134.87179487 , 4127.17948718 , 4133.84615385 , 4136.41025641 , 4137.43589744 , 4190.76923077 , 4913.33333333 , 4134.35897436 , 4141.53846154 , 2045.0 , 2035.0 , 91.536 , 0.0 , 0.0 , 0.0 , 0.0 , 

40.0 , 4135.8974359 , 4132.82051282 , 4136.41025641 , 4133.33333333 , 4132.30769231 , 4136.92307692 , 4127.69230769 , 4130.76923077 , 4136.92307692 , 4137.94871795 , 4190.25641026 , 4914.87179487 , 4133.33333333 , 4141.53846154 , 2046.0 , 2037.0 , 91.544 , 0.0 , 0.0 , 0.0 , 0.0 , 

41.0 , 4133.84615385 , 4133.84615385 , 4134.35897436 , 4130.25641026 , 4128.71794872 , 4135.8974359 , 4128.20512821 , 4130.76923077 , 4137.94871795 , 4137.94871795 , 4192.82051282 , 4912.30769231 , 4131.79487179 , 4137.43589744 , 2046.0 , 2038.0 , 91.552 , 0.0 , 0.0 , 0.0 , 0.0 , 

42.0 , 4136.92307692 , 4133.84615385 , 4132.82051282 , 4131.28205128 , 4127.69230769 , 4133.33333333 , 4128.71794872 , 4132.30769231 , 4134.35897436 , 4137.43589744 , 4192.82051282 , 4910.25641026 , 4133.33333333 , 4140.0 , 2048.0 , 2035.0 , 91.561 , 0.0 , 0.0 , 0.0 , 0.0 , 

43.0 , 4138.97435897 , 4134.87179487 , 4134.35897436 , 4132.82051282 , 4133.33333333 , 4133.84615385 , 4129.74358974 , 4132.30769231 , 4133.33333333 , 4138.46153846 , 4190.76923077 , 4909.23076923 , 4134.87179487 , 4142.05128205 , 2047.0 , 2036.0 , 91.567 , 0.0 , 0.0 , 0.0 , 0.0 , 

44.0 , 4137.43589744 , 4138.46153846 , 4133.84615385 , 4131.28205128 , 4131.79487179 , 4132.82051282 , 4128.20512821 , 4130.76923077 , 4136.41025641 , 4138.97435897 , 4191.28205128 , 4907.69230769 , 4135.8974359 , 4142.05128205 , 2048.0 , 2037.0 , 91.575 , 0.0 , 0.0 , 0.0 , 0.0 , 

45.0 , 4132.30769231 , 4137.43589744 , 4131.28205128 , 4135.38461538 , 4127.17948718 , 4131.79487179 , 4130.76923077 , 4131.28205128 , 4136.92307692 , 4138.46153846 , 4192.30769231 , 4905.64102564 , 4136.41025641 , 4141.02564103 , 2048.0 , 2036.0 , 91.583 , 0.0 , 0.0 , 0.0 , 0.0 , 

46.0 , 4135.38461538 , 4137.43589744 , 4127.69230769 , 4139.48717949 , 4128.20512821 , 4133.84615385 , 4133.84615385 , 4131.79487179 , 4136.41025641 , 4136.92307692 , 4192.82051282 , 4908.20512821 , 4137.43589744 , 4143.58974359 , 2047.0 , 2036.0 , 91.592 , 0.0 , 0.0 , 0.0 , 0.0 , 

47.0 , 4142.05128205 , 4138.97435897 , 4126.15384615 , 4137.43589744 , 4129.74358974 , 4134.35897436 , 4131.79487179 , 4131.28205128 , 4136.92307692 , 4135.8974359 , 4194.35897436 , 4908.71794872 , 4137.43589744 , 4144.1025641 , 2047.0 , 2036.0 , 91.599 , 0.0 , 0.0 , 0.0 , 0.0 , 

48.0 , 4141.53846154 , 4140.0 , 4126.15384615 , 4138.97435897 , 4129.74358974 , 4131.79487179 , 4129.74358974 , 4132.30769231 , 4133.33333333 , 4136.92307692 , 4194.87179487 , 4903.58974359 , 4138.46153846 , 4142.56410256 , 2047.0 , 2038.0 , 91.608 , 0.0 , 0.0 , 0.0 , 0.0 , 

49.0 , 4138.97435897 , 4142.56410256 , 4123.07692308 , 4141.02564103 , 4130.76923077 , 4130.76923077 , 4129.74358974 , 4131.79487179 , 4128.71794872 , 4137.94871795 , 4194.35897436 , 4903.58974359 , 4141.53846154 , 4147.17948718 , 2046.0 , 2035.0 , 91.616 , 0.0 , 0.0 , 0.0 , 0.0 , 

50.0 , 4142.05128205 , 4146.15384615 , 4116.41025641 , 4141.53846154 , 4131.28205128 , 4133.33333333 , 4129.74358974 , 4128.71794872 , 4130.76923077 , 4137.94871795 , 4193.33333333 , 4904.61538462 , 4145.12820513 , 4149.23076923 , 2044.0 , 2034.0 , 91.626 , 0.0 , 0.0 , 0.0 , 0.0 , 

51.0 , 4145.12820513 , 4144.1025641 , 4115.38461538 , 4142.05128205 , 4130.25641026 , 4134.87179487 , 4130.25641026 , 4127.17948718 , 4131.28205128 , 4137.43589744 , 4193.84615385 , 4904.1025641 , 4145.64102564 , 4149.23076923 , 2046.0 , 2036.0 , 91.631 , 0.0 , 0.0 , 0.0 , 0.0 , 

52.0 , 4143.07692308 , 4141.53846154 , 4117.43589744 , 4146.66666667 , 4130.76923077 , 4131.79487179 , 4129.23076923 , 4130.25641026 , 4129.74358974 , 4137.94871795 , 4194.87179487 , 4901.53846154 , 4147.69230769 , 4145.64102564 , 2047.0 , 2036.0 , 91.638 , 0.0 , 0.0 , 0.0 , 0.0 , 

53.0 , 4145.12820513 , 4140.51282051 , 4122.05128205 , 4143.58974359 , 4129.23076923 , 4126.66666667 , 4123.07692308 , 4129.74358974 , 4131.28205128 , 4137.94871795 , 4194.87179487 , 4902.56410256 , 4149.23076923 , 4147.69230769 , 2046.0 , 2037.0 , 91.647 , 0.0 , 0.0 , 0.0 , 0.0 , 

54.0 , 4143.07692308 , 4137.43589744 , 4125.64102564 , 4140.51282051 , 4129.74358974 , 4126.66666667 , 4121.53846154 , 4126.15384615 , 4134.35897436 , 4137.94871795 , 4193.33333333 , 4903.07692308 , 4151.28205128 , 4145.64102564 , 2044.0 , 2035.0 , 91.657 , 0.0 , 0.0 , 0.0 , 0.0 , 

55.0 , 4143.07692308 , 4135.38461538 , 4126.66666667 , 4142.56410256 , 4130.76923077 , 4127.17948718 , 4124.61538462 , 4124.1025641 , 4131.79487179 , 4137.94871795 , 4194.35897436 , 4906.66666667 , 4151.79487179 , 4148.20512821 , 2045.0 , 2038.0 , 91.662 , 0.0 , 0.0 , 0.0 , 0.0 , 

56.0 , 4142.05128205 , 4138.97435897 , 4125.64102564 , 4142.05128205 , 4131.28205128 , 4129.74358974 , 4126.66666667 , 4125.64102564 , 4130.25641026 , 4136.92307692 , 4194.35897436 , 4907.69230769 , 4151.28205128 , 4148.71794872 , 2044.0 , 2040.0 , 91.67 , 0.0 , 0.0 , 0.0 , 0.0 , 

57.0 , 4142.56410256 , 4138.46153846 , 4129.23076923 , 4138.46153846 , 4129.74358974 , 4129.74358974 , 4125.64102564 , 4124.1025641 , 4131.79487179 , 4136.92307692 , 4192.82051282 , 4908.71794872 , 4146.66666667 , 4152.82051282 , 2044.0 , 2039.0 , 91.678 , 0.0 , 0.0 , 0.0 , 0.0 , 

58.0 , 4140.0 , 4135.8974359 , 4130.25641026 , 4141.53846154 , 4129.23076923 , 4129.23076923 , 4126.66666667 , 4124.1025641 , 4132.82051282 , 4136.92307692 , 4192.30769231 , 4907.69230769 , 4142.05128205 , 4148.71794872 , 2046.0 , 2038.0 , 91.688 , 0.0 , 0.0 , 0.0 , 0.0 , 

59.0 , 4141.53846154 , 4135.8974359 , 4130.25641026 , 4141.02564103 , 4128.71794872 , 4127.17948718 , 4125.12820513 , 4127.69230769 , 4131.79487179 , 4137.43589744 , 4194.35897436 , 4908.71794872 , 4142.05128205 , 4146.66666667 , 2044.0 , 2037.0 , 91.694 , 0.0 , 0.0 , 0.0 , 0.0 , 

60.0 , 4140.51282051 , 4137.43589744 , 4130.25641026 , 4136.92307692 , 4130.76923077 , 4129.74358974 , 4125.64102564 , 4131.28205128 , 4131.28205128 , 4138.46153846 , 4193.84615385 , 4908.20512821 , 4143.07692308 , 4145.64102564 , 2045.0 , 2037.0 , 91.702 , 0.0 , 0.0 , 0.0 , 0.0 , 

61.0 , 4140.51282051 , 4135.8974359 , 4128.20512821 , 4137.94871795 , 4129.74358974 , 4130.76923077 , 4127.69230769 , 4128.20512821 , 4132.30769231 , 4139.48717949 , 4193.33333333 , 4907.69230769 , 4143.07692308 , 4149.23076923 , 2045.0 , 2038.0 , 91.71 , 0.0 , 0.0 , 0.0 , 0.0 , 

62.0 , 4140.51282051 , 4135.38461538 , 4127.69230769 , 4139.48717949 , 4128.20512821 , 4130.76923077 , 4128.20512821 , 4127.69230769 , 4134.35897436 , 4139.48717949 , 4193.84615385 , 4906.66666667 , 4140.0 , 4148.20512821 , 2045.0 , 2039.0 , 91.719 , 0.0 , 0.0 , 0.0 , 0.0 , 

63.0 , 4138.97435897 , 4135.38461538 , 4131.28205128 , 4134.87179487 , 4131.28205128 , 4127.69230769 , 4126.66666667 , 4132.30769231 , 4134.35897436 , 4137.43589744 , 4193.84615385 , 4906.66666667 , 4138.97435897 , 4145.64102564 , 2044.0 , 2037.0 , 91.726 , 0.0 , 0.0 , 0.0 , 0.0 , 

64.0 , 4138.97435897 , 4134.35897436 , 4133.33333333 , 4134.35897436 , 4133.84615385 , 4126.15384615 , 4125.64102564 , 4132.30769231 , 4134.87179487 , 4134.87179487 , 4192.82051282 , 4906.15384615 , 4138.46153846 , 4143.07692308 , 2045.0 , 2036.0 , 91.734 , 0.0 , 0.0 , 0.0 , 0.0 , 

65.0 , 4140.51282051 , 4132.82051282 , 4132.30769231 , 4135.8974359 , 4130.25641026 , 4127.69230769 , 4124.61538462 , 4128.20512821 , 4135.8974359 , 4136.92307692 , 4193.33333333 , 4905.12820513 , 4140.51282051 , 4142.05128205 , 2045.0 , 2038.0 , 91.742 , 0.0 , 0.0 , 0.0 , 0.0 , 

66.0 , 4140.0 , 4133.33333333 , 4132.82051282 , 4132.82051282 , 4127.17948718 , 4130.25641026 , 4124.61538462 , 4128.71794872 , 4135.8974359 , 4139.48717949 , 4193.33333333 , 4907.69230769 , 4138.97435897 , 4145.12820513 , 2046.0 , 2039.0 , 91.752 , 0.0 , 0.0 , 0.0 , 0.0 , 

67.0 , 4139.48717949 , 4133.33333333 , 4134.87179487 , 4134.35897436 , 4130.25641026 , 4130.25641026 , 4125.64102564 , 4135.38461538 , 4135.8974359 , 4136.92307692 , 4192.30769231 , 4909.23076923 , 4136.92307692 , 4147.17948718 , 2046.0 , 2039.0 , 91.758 , 0.0 , 0.0 , 0.0 , 0.0 , 

68.0 , 4141.53846154 , 4133.84615385 , 4137.43589744 , 4136.41025641 , 4131.28205128 , 4126.15384615 , 4124.1025641 , 4133.33333333 , 4135.38461538 , 4135.8974359 , 4193.33333333 , 4908.71794872 , 4137.94871795 , 4147.17948718 , 2046.0 , 2038.0 , 91.766 , 0.0 , 0.0 , 0.0 , 0.0 , 

69.0 , 4137.43589744 , 4134.35897436 , 4134.87179487 , 4133.84615385 , 4128.71794872 , 4124.61538462 , 4124.61538462 , 4129.74358974 , 4137.43589744 , 4138.46153846 , 4194.35897436 , 4910.76923077 , 4139.48717949 , 4143.58974359 , 2044.0 , 2037.0 , 91.772 , 0.0 , 0.0 , 0.0 , 0.0 , 

70.0 , 4134.87179487 , 4132.30769231 , 4131.79487179 , 4133.33333333 , 4128.20512821 , 4127.69230769 , 4126.15384615 , 4129.74358974 , 4136.92307692 , 4140.0 , 4193.84615385 , 4914.87179487 , 4137.43589744 , 4146.66666667 , 2044.0 , 2037.0 , 91.782 , 0.0 , 0.0 , 0.0 , 0.0 , 

71.0 , 4134.87179487 , 4130.25641026 , 4130.76923077 , 4139.48717949 , 4131.28205128 , 4129.23076923 , 4126.15384615 , 4132.30769231 , 4135.8974359 , 4139.48717949 , 4193.84615385 , 4912.82051282 , 4135.8974359 , 4144.1025641 , 2046.0 , 2037.0 , 91.788 , 0.0 , 0.0 , 0.0 , 0.0 , 

72.0 , 4135.8974359 , 4130.76923077 , 4132.30769231 , 4137.43589744 , 4131.28205128 , 4127.69230769 , 4127.17948718 , 4133.33333333 , 4136.41025641 , 4138.46153846 , 4194.35897436 , 4912.82051282 , 4136.41025641 , 4143.07692308 , 2044.0 , 2038.0 , 91.797 , 0.0 , 0.0 , 0.0 , 0.0 , 

73.0 , 4132.82051282 , 4132.30769231 , 4132.30769231 , 4134.87179487 , 4131.28205128 , 4130.25641026 , 4128.71794872 , 4134.35897436 , 4137.43589744 , 4138.46153846 , 4192.82051282 , 4913.84615385 , 4137.43589744 , 4142.05128205 , 2043.0 , 2038.0 , 91.804 , 0.0 , 0.0 , 0.0 , 0.0 , 

74.0 , 4134.87179487 , 4130.76923077 , 4133.84615385 , 4137.94871795 , 4132.82051282 , 4130.25641026 , 4126.66666667 , 4132.30769231 , 4135.38461538 , 4138.97435897 , 4192.82051282 , 4914.87179487 , 4136.41025641 , 4144.61538462 , 2043.0 , 2036.0 , 91.813 , 0.0 , 0.0 , 0.0 , 0.0 , 

75.0 , 4134.35897436 , 4130.25641026 , 4133.33333333 , 4137.43589744 , 4131.79487179 , 4127.17948718 , 4128.71794872 , 4131.79487179 , 4134.87179487 , 4138.46153846 , 4191.79487179 , 4914.35897436 , 4135.8974359 , 4141.53846154 , 2043.0 , 2037.0 , 91.82 , 0.0 , 0.0 , 0.0 , 0.0 , 

76.0 , 4133.33333333 , 4131.28205128 , 4133.84615385 , 4131.28205128 , 4128.71794872 , 4125.64102564 , 4130.76923077 , 4132.30769231 , 4135.8974359 , 4137.94871795 , 4191.79487179 , 4916.92307692 , 4135.8974359 , 4143.07692308 , 2043.0 , 2036.0 , 91.827 , 0.0 , 0.0 , 0.0 , 0.0 , 

77.0 , 4133.84615385 , 4131.79487179 , 4133.84615385 , 4131.28205128 , 4129.23076923 , 4128.20512821 , 4128.71794872 , 4133.33333333 , 4135.8974359 , 4138.46153846 , 4193.84615385 , 4911.28205128 , 4136.41025641 , 4141.02564103 , 2043.0 , 2036.0 , 91.835 , 0.0 , 0.0 , 0.0 , 0.0 , 

78.0 , 4136.92307692 , 4130.76923077 , 4135.38461538 , 4132.30769231 , 4132.30769231 , 4126.66666667 , 4125.12820513 , 4130.25641026 , 4135.8974359 , 4138.97435897 , 4192.30769231 , 4909.23076923 , 4135.38461538 , 4142.05128205 , 2043.0 , 2035.0 , 91.844 , 0.0 , 0.0 , 0.0 , 0.0 , 

79.0 , 4134.87179487 , 4131.28205128 , 4134.87179487 , 4133.84615385 , 4133.33333333 , 4126.66666667 , 4126.15384615 , 4129.23076923 , 4137.43589744 , 4138.97435897 , 4189.23076923 , 4913.33333333 , 4134.35897436 , 4139.48717949 , 2042.0 , 2036.0 , 91.851 , 0.0 , 0.0 , 0.0 , 0.0 , 

80.0 , 4131.79487179 , 4132.30769231 , 4134.87179487 , 4135.8974359 , 4131.79487179 , 4128.20512821 , 4127.17948718 , 4130.76923077 , 4135.8974359 , 4137.94871795 , 4192.30769231 , 4913.84615385 , 4133.84615385 , 4138.46153846 , 2043.0 , 2035.0 , 91.86 , 0.0 , 0.0 , 0.0 , 0.0 , 

81.0 , 4132.82051282 , 4132.30769231 , 4135.38461538 , 4135.38461538 , 4130.76923077 , 4128.20512821 , 4127.69230769 , 4132.30769231 , 4135.38461538 , 4138.46153846 , 4191.79487179 , 4909.74358974 , 4134.35897436 , 4136.92307692 , 2042.0 , 2034.0 , 91.868 , 0.0 , 0.0 , 0.0 , 0.0 , 

82.0 , 4135.8974359 , 4133.33333333 , 4134.35897436 , 4131.79487179 , 4130.76923077 , 4127.17948718 , 4127.17948718 , 4130.76923077 , 4137.43589744 , 4139.48717949 , 4187.17948718 , 4911.28205128 , 4134.35897436 , 4140.0 , 2042.0 , 2035.0 , 91.877 , 0.0 , 0.0 , 0.0 , 0.0 , 

83.0 , 4136.41025641 , 4133.84615385 , 4132.82051282 , 4131.79487179 , 4131.28205128 , 4128.71794872 , 4126.15384615 , 4131.28205128 , 4139.48717949 , 4138.46153846 , 4189.23076923 , 4913.84615385 , 4132.82051282 , 4140.51282051 , 2043.0 , 2034.0 , 91.883 , 0.0 , 0.0 , 0.0 , 0.0 , 

84.0 , 4135.8974359 , 4132.82051282 , 4135.8974359 , 4133.84615385 , 4133.33333333 , 4128.71794872 , 4125.64102564 , 4134.35897436 , 4139.48717949 , 4137.94871795 , 4191.79487179 , 4909.74358974 , 4132.30769231 , 4138.46153846 , 2043.0 , 2035.0 , 91.89 , 0.0 , 0.0 , 0.0 , 0.0 , 

85.0 , 4136.41025641 , 4131.79487179 , 4138.97435897 , 4131.79487179 , 4133.84615385 , 4127.69230769 , 4125.12820513 , 4132.30769231 , 4135.8974359 , 4139.48717949 , 4191.79487179 , 4909.23076923 , 4132.82051282 , 4141.02564103 , 2043.0 , 2035.0 , 91.9 , 0.0 , 0.0 , 0.0 , 0.0 , 

86.0 , 4135.8974359 , 4131.28205128 , 4136.41025641 , 4131.79487179 , 4130.76923077 , 4128.71794872 , 4124.61538462 , 4128.71794872 , 4133.84615385 , 4140.0 , 4193.33333333 , 4910.25641026 , 4134.35897436 , 4143.07692308 , 2043.0 , 2035.0 , 91.91 , 0.0 , 0.0 , 0.0 , 0.0 , 

87.0 , 4136.41025641 , 4129.74358974 , 4134.87179487 , 4133.84615385 , 4130.25641026 , 4129.23076923 , 4123.58974359 , 4130.25641026 , 4134.35897436 , 4138.46153846 , 4193.33333333 , 4910.25641026 , 4133.84615385 , 4144.61538462 , 2043.0 , 2035.0 , 91.913 , 0.0 , 0.0 , 0.0 , 0.0 , 

88.0 , 4135.8974359 , 4131.28205128 , 4135.38461538 , 4135.8974359 , 4132.30769231 , 4128.20512821 , 4125.12820513 , 4133.33333333 , 4135.8974359 , 4138.97435897 , 4191.79487179 , 4911.28205128 , 4133.33333333 , 4139.48717949 , 2043.0 , 2034.0 , 91.923 , 0.0 , 0.0 , 0.0 , 0.0 , 

89.0 , 4136.41025641 , 4132.82051282 , 4135.8974359 , 4134.35897436 , 4130.25641026 , 4127.17948718 , 4125.12820513 , 4129.74358974 , 4134.35897436 , 4138.97435897 , 4193.84615385 , 4914.35897436 , 4133.84615385 , 4140.51282051 , 2044.0 , 2036.0 , 91.931 , 0.0 , 0.0 , 0.0 , 0.0 , 

90.0 , 4134.87179487 , 4133.84615385 , 4133.84615385 , 4135.8974359 , 4129.74358974 , 4132.82051282 , 4125.64102564 , 4129.74358974 , 4134.87179487 , 4137.94871795 , 4192.30769231 , 4910.25641026 , 4132.82051282 , 4140.51282051 , 2046.0 , 2036.0 , 91.94 , 0.0 , 0.0 , 0.0 , 0.0 , 

91.0 , 4135.8974359 , 4131.79487179 , 4134.87179487 , 4135.8974359 , 4131.79487179 , 4135.38461538 , 4127.17948718 , 4131.28205128 , 4134.87179487 , 4139.48717949 , 4188.71794872 , 4911.28205128 , 4130.76923077 , 4140.0 , 2045.0 , 2036.0 , 91.946 , 0.0 , 0.0 , 0.0 , 0.0 , 

92.0 , 4132.82051282 , 4130.25641026 , 4135.8974359 , 4133.33333333 , 4133.33333333 , 4132.30769231 , 4129.74358974 , 4130.76923077 , 4132.30769231 , 4139.48717949 , 4190.25641026 , 4913.33333333 , 4131.28205128 , 4135.38461538 , 2045.0 , 2038.0 , 91.955 , 0.0 , 0.0 , 0.0 , 0.0 , 

93.0 , 4134.87179487 , 4129.23076923 , 4136.41025641 , 4131.79487179 , 4129.74358974 , 4126.66666667 , 4126.15384615 , 4127.69230769 , 4130.76923077 , 4136.92307692 , 4192.82051282 , 4914.35897436 , 4133.33333333 , 4136.41025641 , 2045.0 , 2037.0 , 91.962 , 0.0 , 0.0 , 0.0 , 0.0 , 

94.0 , 4138.46153846 , 4132.30769231 , 4134.35897436 , 4134.35897436 , 4126.66666667 , 4127.17948718 , 4124.61538462 , 4129.74358974 , 4133.84615385 , 4136.92307692 , 4191.28205128 , 4911.28205128 , 4133.84615385 , 4134.87179487 , 2044.0 , 2037.0 , 91.971 , 0.0 , 0.0 , 0.0 , 0.0 , 

95.0 , 4137.43589744 , 4133.84615385 , 4134.87179487 , 4133.84615385 , 4128.20512821 , 4127.69230769 , 4126.15384615 , 4132.30769231 , 4135.38461538 , 4137.94871795 , 4192.30769231 , 4911.79487179 , 4134.87179487 , 4138.97435897 , 2042.0 , 2039.0 , 91.978 , 0.0 , 0.0 , 0.0 , 0.0 , 

96.0 , 4131.79487179 , 4130.76923077 , 4137.43589744 , 4132.82051282 , 4131.79487179 , 4127.17948718 , 4130.25641026 , 4132.30769231 , 4134.87179487 , 4137.43589744 , 4192.82051282 , 4910.25641026 , 4135.38461538 , 4140.0 , 2043.0 , 2040.0 , 91.986 , 0.0 , 0.0 , 0.0 , 0.0 , 

97.0 , 4133.84615385 , 4127.69230769 , 4138.46153846 , 4132.82051282 , 4130.76923077 , 4126.66666667 , 4130.76923077 , 4130.76923077 , 4135.38461538 , 4137.94871795 , 4190.25641026 , 4911.79487179 , 4134.87179487 , 4139.48717949 , 2042.0 , 2038.0 , 91.994 , 0.0 , 0.0 , 0.0 , 0.0 , 

98.0 , 4135.8974359 , 4128.20512821 , 4133.84615385 , 4132.82051282 , 4129.23076923 , 4129.74358974 , 4127.69230769 , 4132.30769231 , 4136.41025641 , 4138.46153846 , 4190.25641026 , 4910.25641026 , 4133.33333333 , 4135.8974359 , 2041.0 , 2039.0 , 92.003 , 0.0 , 0.0 , 0.0 , 0.0 , 

99.0 , 4132.82051282 , 4130.25641026 , 4132.30769231 , 4131.79487179 , 4129.23076923 , 4130.76923077 , 4125.64102564 , 4132.30769231 , 4135.38461538 , 4138.97435897 , 4191.28205128 , 4906.66666667 , 4134.87179487 , 4138.97435897 , 2042.0 , 2038.0 , 92.01 , 0.0 , 0.0 , 0.0 , 0.0 , 

100.0 , 4130.25641026 , 4132.82051282 , 4134.35897436 , 4132.30769231 , 4129.74358974 , 4127.69230769 , 4126.15384615 , 4129.74358974 , 4133.84615385 , 4138.46153846 , 4190.76923077 , 4907.69230769 , 4137.43589744 , 4142.05128205 , 2041.0 , 2036.0 , 92.018 , 0.0 , 0.0 , 0.0 , 0.0 , 

101.0 , 4133.84615385 , 4132.82051282 , 4134.35897436 , 4132.82051282 , 4129.23076923 , 4126.66666667 , 4127.69230769 , 4131.28205128 , 4135.8974359 , 4138.46153846 , 4192.30769231 , 4910.25641026 , 4136.92307692 , 4141.02564103 , 2041.0 , 2036.0 , 92.024 , 0.0 , 0.0 , 0.0 , 0.0 , 

102.0 , 4132.30769231 , 4130.76923077 , 4133.33333333 , 4133.33333333 , 4129.74358974 , 4127.69230769 , 4128.71794872 , 4132.82051282 , 4135.8974359 , 4140.0 , 4190.25641026 , 4908.71794872 , 4132.30769231 , 4139.48717949 , 2041.0 , 2038.0 , 92.034 , 0.0 , 0.0 , 0.0 , 0.0 , 

103.0 , 4125.64102564 , 4131.79487179 , 4132.30769231 , 4133.33333333 , 4129.74358974 , 4126.15384615 , 4127.69230769 , 4131.28205128 , 4134.87179487 , 4137.94871795 , 4186.66666667 , 4908.71794872 , 4133.33333333 , 4138.97435897 , 2041.0 , 2038.0 , 92.04 , 0.0 , 0.0 , 0.0 , 0.0 , 

104.0 , 4129.74358974 , 4133.84615385 , 4132.30769231 , 4131.79487179 , 4129.74358974 , 4125.12820513 , 4125.64102564 , 4131.28205128 , 4136.92307692 , 4134.87179487 , 4189.74358974 , 4912.30769231 , 4135.38461538 , 4143.07692308 , 2040.0 , 2037.0 , 92.048 , 0.0 , 0.0 , 0.0 , 0.0 , 

105.0 , 4135.8974359 , 4132.82051282 , 4133.33333333 , 4133.84615385 , 4130.76923077 , 4129.74358974 , 4126.66666667 , 4132.82051282 , 4140.0 , 4136.92307692 , 4194.87179487 , 4913.33333333 , 4134.87179487 , 4142.56410256 , 2041.0 , 2036.0 , 92.056 , 0.0 , 0.0 , 0.0 , 0.0 , 

106.0 , 4134.87179487 , 4130.76923077 , 4135.8974359 , 4133.84615385 , 4131.79487179 , 4128.20512821 , 4128.20512821 , 4130.25641026 , 4135.8974359 , 4140.0 , 4193.84615385 , 4914.35897436 , 4136.41025641 , 4139.48717949 , 2040.0 , 2036.0 , 92.065 , 0.0 , 0.0 , 0.0 , 0.0 , 

107.0 , 4130.76923077 , 4131.28205128 , 4134.35897436 , 4131.79487179 , 4129.74358974 , 4124.61538462 , 4130.25641026 , 4131.28205128 , 4135.8974359 , 4138.46153846 , 4191.28205128 , 4909.23076923 , 4136.92307692 , 4133.84615385 , 2040.0 , 2036.0 , 92.072 , 0.0 , 0.0 , 0.0 , 0.0 , 

108.0 , 4130.25641026 , 4129.23076923 , 4131.79487179 , 4131.79487179 , 4127.69230769 , 4126.15384615 , 4129.23076923 , 4133.84615385 , 4138.97435897 , 4136.41025641 , 4191.28205128 , 4907.17948718 , 4132.82051282 , 4137.94871795 , 2040.0 , 2036.0 , 92.08 , 0.0 , 0.0 , 0.0 , 0.0 , 

109.0 , 4125.64102564 , 4129.74358974 , 4131.28205128 , 4134.35897436 , 4129.23076923 , 4128.71794872 , 4126.66666667 , 4137.94871795 , 4138.97435897 , 4137.94871795 , 4191.79487179 , 4911.79487179 , 4134.35897436 , 4136.92307692 , 2040.0 , 2036.0 , 92.088 , 0.0 , 0.0 , 0.0 , 0.0 , 

110.0 , 4126.66666667 , 4129.74358974 , 4134.35897436 , 4131.79487179 , 4127.69230769 , 4123.58974359 , 4125.64102564 , 4139.48717949 , 4138.46153846 , 4138.97435897 , 4193.33333333 , 4919.48717949 , 4135.38461538 , 4135.8974359 , 2040.0 , 2033.0 , 92.097 , 0.0 , 0.0 , 0.0 , 0.0 , 

111.0 , 4123.58974359 , 4128.71794872 , 4133.33333333 , 4132.30769231 , 4127.69230769 , 4119.48717949 , 4126.15384615 , 4139.48717949 , 4139.48717949 , 4138.46153846 , 4193.84615385 , 4915.8974359 , 4131.28205128 , 4133.33333333 , 2040.0 , 2032.0 , 92.103 , 0.0 , 0.0 , 0.0 , 0.0 , 

112.0 , 4116.41025641 , 4124.61538462 , 4134.35897436 , 4134.87179487 , 4129.23076923 , 4112.82051282 , 4113.84615385 , 4138.46153846 , 4138.46153846 , 4135.8974359 , 4193.84615385 , 4913.84615385 , 4127.17948718 , 4135.8974359 , 2040.0 , 2035.0 , 92.112 , 0.0 , 0.0 , 0.0 , 0.0 , 

113.0 , 4112.82051282 , 4117.94871795 , 4143.07692308 , 4131.28205128 , 4131.28205128 , 4109.74358974 , 4105.12820513 , 4144.1025641 , 4137.94871795 , 4135.8974359 , 4194.35897436 , 4916.92307692 , 4127.17948718 , 4136.92307692 , 2041.0 , 2034.0 , 92.119 , 0.0 , 0.0 , 0.0 , 0.0 , 

114.0 , 4116.92307692 , 4109.74358974 , 4153.84615385 , 4123.58974359 , 4129.23076923 , 4111.28205128 , 4110.76923077 , 4148.20512821 , 4138.97435897 , 4136.92307692 , 4195.38461538 , 4921.02564103 , 4131.28205128 , 4137.94871795 , 2041.0 , 2032.0 , 92.129 , 0.0 , 0.0 , 0.0 , 0.0 , 

115.0 , 4114.87179487 , 4108.71794872 , 4159.48717949 , 4120.0 , 4128.20512821 , 4113.84615385 , 4116.41025641 , 4144.61538462 , 4138.97435897 , 4137.94871795 , 4195.38461538 , 4918.46153846 , 4132.82051282 , 4132.30769231 , 2042.0 , 2033.0 , 92.135 , 0.0 , 0.0 , 0.0 , 0.0 , 

116.0 , 4112.30769231 , 4111.79487179 , 4158.97435897 , 4118.46153846 , 4131.28205128 , 4115.8974359 , 4111.28205128 , 4142.56410256 , 4138.97435897 , 4138.97435897 , 4196.41025641 , 4915.38461538 , 4127.69230769 , 4134.35897436 , 2041.0 , 2034.0 , 92.144 , 0.0 , 0.0 , 0.0 , 0.0 , 

117.0 , 4112.82051282 , 4108.71794872 , 4157.43589744 , 4118.97435897 , 4133.84615385 , 4120.51282051 , 4110.76923077 , 4146.15384615 , 4140.51282051 , 4140.51282051 , 4193.84615385 , 4915.38461538 , 4122.05128205 , 4137.43589744 , 2041.0 , 2033.0 , 92.152 , 0.0 , 0.0 , 0.0 , 0.0 , 

118.0 , 4112.82051282 , 4102.05128205 , 4160.0 , 4116.92307692 , 4132.82051282 , 4122.56410256 , 4118.46153846 , 4144.1025641 , 4139.48717949 , 4140.0 , 4191.28205128 , 4918.46153846 , 4125.12820513 , 4134.87179487 , 2041.0 , 2034.0 , 92.161 , 0.0 , 0.0 , 0.0 , 0.0 , 

119.0 , 4111.28205128 , 4100.0 , 4160.51282051 , 4113.84615385 , 4130.25641026 , 4124.61538462 , 4121.02564103 , 4139.48717949 , 4139.48717949 , 4138.97435897 , 4192.82051282 , 4920.0 , 4126.66666667 , 4131.79487179 , 2040.0 , 2034.0 , 92.166 , 0.0 , 0.0 , 0.0 , 0.0 , 

120.0 , 4114.35897436 , 4105.12820513 , 4150.76923077 , 4113.84615385 , 4129.23076923 , 4129.74358974 , 4120.0 , 4138.46153846 , 4142.05128205 , 4143.58974359 , 4193.33333333 , 4918.97435897 , 4121.02564103 , 4132.82051282 , 2040.0 , 2035.0 , 92.175 , 0.0 , 0.0 , 0.0 , 0.0 , 

121.0 , 4118.97435897 , 4109.23076923 , 4145.64102564 , 4114.87179487 , 4129.23076923 , 4128.20512821 , 4122.56410256 , 4137.43589744 , 4141.02564103 , 4144.61538462 , 4190.25641026 , 4918.97435897 , 4115.38461538 , 4132.82051282 , 2041.0 , 2037.0 , 92.183 , 0.0 , 0.0 , 0.0 , 0.0 , 

122.0 , 4121.53846154 , 4111.79487179 , 4147.17948718 , 4117.94871795 , 4131.79487179 , 4128.20512821 , 4126.66666667 , 4136.92307692 , 4139.48717949 , 4142.05128205 , 4188.20512821 , 4920.51282051 , 4114.87179487 , 4127.69230769 , 2039.0 , 2036.0 , 92.193 , 0.0 , 0.0 , 0.0 , 0.0 , 

123.0 , 4125.12820513 , 4116.41025641 , 4146.66666667 , 4120.51282051 , 4132.82051282 , 4132.30769231 , 4127.17948718 , 4137.94871795 , 4140.51282051 , 4142.05128205 , 4189.23076923 , 4925.12820513 , 4116.41025641 , 4127.69230769 , 2043.0 , 2037.0 , 92.198 , 0.0 , 0.0 , 0.0 , 0.0 , 

124.0 , 4127.69230769 , 4122.05128205 , 4142.05128205 , 4124.61538462 , 4131.28205128 , 4132.30769231 , 4127.17948718 , 4136.92307692 , 4137.94871795 , 4143.07692308 , 4188.20512821 , 4925.12820513 , 4118.46153846 , 4126.66666667 , 2044.0 , 2034.0 , 92.206 , 0.0 , 0.0 , 0.0 , 0.0 , 

125.0 , 4128.20512821 , 4127.17948718 , 4136.92307692 , 4127.69230769 , 4130.76923077 , 4129.23076923 , 4128.71794872 , 4132.82051282 , 4131.28205128 , 4140.0 , 4186.66666667 , 4920.0 , 4122.05128205 , 4130.25641026 , 2044.0 , 2037.0 , 92.215 , 0.0 , 0.0 , 0.0 , 0.0 , 

126.0 , 4126.66666667 , 4131.79487179 , 4134.35897436 , 4131.79487179 , 4132.30769231 , 4130.25641026 , 4129.74358974 , 4133.84615385 , 4133.84615385 , 4136.92307692 , 4183.58974359 , 4911.79487179 , 4125.12820513 , 4129.23076923 , 2044.0 , 2036.0 , 92.224 , 0.0 , 0.0 , 0.0 , 0.0 , 

127.0 , 4132.30769231 , 4131.28205128 , 4137.43589744 , 4131.28205128 , 4131.28205128 , 4131.79487179 , 4128.20512821 , 4131.79487179 , 4137.43589744 , 4138.46153846 , 4184.1025641 , 4915.38461538 , 4124.61538462 , 4130.76923077 , 2044.0 , 2035.0 , 92.229 , 0.0 , 0.0 , 0.0 , 0.0 , 

128.0 , 4135.38461538 , 4128.71794872 , 4137.94871795 , 4130.25641026 , 4130.76923077 , 4132.30769231 , 4132.30769231 , 4129.74358974 , 4132.82051282 , 4139.48717949 , 4186.15384615 , 4918.97435897 , 4126.15384615 , 4129.23076923 , 2045.0 , 2034.0 , 92.238 , 0.0 , 0.0 , 0.0 , 0.0 , 

0.0 , 4135.38461538 , 4129.23076923 , 4135.8974359 , 4131.28205128 , 4129.23076923 , 4127.69230769 , 4133.33333333 , 4131.28205128 , 4128.71794872 , 4138.97435897 , 4185.12820513 , 4917.94871795 , 4128.71794872 , 4132.30769231 , 2044.0 , 2035.0 , 92.246 , 0.0 , 0.0 , 0.0 , 0.0 , 

1.0 , 4133.84615385 , 4133.84615385 , 4133.84615385 , 4133.33333333 , 4129.74358974 , 4128.71794872 , 4131.28205128 , 4132.82051282 , 4130.25641026 , 4138.46153846 , 4186.15384615 , 4915.8974359 , 4132.82051282 , 4135.38461538 , 2045.0 , 2038.0 , 92.255 , 0.0 , 0.0 , 0.0 , 0.0 , 

2.0 , 4137.43589744 , 4135.38461538 , 4133.33333333 , 4131.79487179 , 4131.79487179 , 4133.84615385 , 4132.30769231 , 4130.25641026 , 4132.82051282 , 4138.46153846 , 4190.76923077 , 4916.92307692 , 4132.82051282 , 4140.0 , 2045.0 , 2039.0 , 92.261 , 0.0 , 0.0 , 0.0 , 0.0 , 

3.0 , 4137.43589744 , 4136.92307692 , 4129.74358974 , 4133.84615385 , 4132.82051282 , 4135.38461538 , 4134.35897436 , 4130.76923077 , 4134.87179487 , 4137.94871795 , 4192.30769231 , 4912.82051282 , 4130.76923077 , 4138.97435897 , 2046.0 , 2038.0 , 92.269 , 0.0 , 0.0 , 0.0 , 0.0 , 

4.0 , 4136.92307692 , 4140.51282051 , 4126.15384615 , 4142.05128205 , 4129.23076923 , 4130.76923077 , 4129.74358974 , 4132.30769231 , 4134.35897436 , 4136.41025641 , 4190.25641026 , 4911.79487179 , 4135.8974359 , 4142.05128205 , 2046.0 , 2039.0 , 92.277 , 0.0 , 0.0 , 0.0 , 0.0 , 

5.0 , 4135.38461538 , 4142.05128205 , 4122.56410256 , 4148.20512821 , 4128.71794872 , 4134.87179487 , 4127.69230769 , 4130.76923077 , 4131.79487179 , 4138.46153846 , 4190.76923077 , 4910.25641026 , 4140.51282051 , 4144.1025641 , 2046.0 , 2039.0 , 92.292 , 0.0 , 0.0 , 0.0 , 0.0 , 

6.0 , 4136.41025641 , 4140.51282051 , 4121.02564103 , 4144.61538462 , 4133.33333333 , 4139.48717949 , 4132.30769231 , 4128.20512821 , 4129.74358974 , 4138.46153846 , 4191.79487179 , 4909.23076923 , 4137.94871795 , 4143.58974359 , 2048.0 , 2038.0 , 92.294 , 0.0 , 0.0 , 0.0 , 0.0 , 

7.0 , 4136.92307692 , 4143.07692308 , 4120.51282051 , 4141.53846154 , 4133.33333333 , 4135.8974359 , 4135.38461538 , 4129.23076923 , 4128.71794872 , 4136.41025641 , 4188.20512821 , 4910.76923077 , 4136.41025641 , 4143.07692308 , 2048.0 , 2039.0 , 92.3 , 0.0 , 0.0 , 0.0 , 0.0 , 

8.0 , 4137.94871795 , 4147.69230769 , 4116.92307692 , 4145.12820513 , 4129.23076923 , 4132.82051282 , 4133.84615385 , 4130.76923077 , 4129.23076923 , 4136.92307692 , 4188.20512821 , 4911.28205128 , 4139.48717949 , 4146.15384615 , 2047.0 , 2039.0 , 92.308 , 0.0 , 0.0 , 0.0 , 0.0 , 

9.0 , 4139.48717949 , 4147.69230769 , 4114.87179487 , 4149.23076923 , 4128.20512821 , 4134.35897436 , 4131.79487179 , 4130.76923077 , 4131.79487179 , 4139.48717949 , 4192.30769231 , 4906.66666667 , 4139.48717949 , 4146.15384615 , 2047.0 , 2039.0 , 92.317 , 0.0 , 0.0 , 0.0 , 0.0 , 

10.0 , 4142.05128205 , 4145.64102564 , 4114.35897436 , 4147.69230769 , 4131.79487179 , 4136.41025641 , 4131.28205128 , 4130.76923077 , 4131.79487179 , 4137.43589744 , 4194.87179487 , 4906.15384615 , 4140.0 , 4144.61538462 , 2046.0 , 2038.0 , 92.325 , 0.0 , 0.0 , 0.0 , 0.0 , 

11.0 , 4145.12820513 , 4145.64102564 , 4113.84615385 , 4146.66666667 , 4131.79487179 , 4135.8974359 , 4131.79487179 , 4128.71794872 , 4127.17948718 , 4135.38461538 , 4193.33333333 , 4908.71794872 , 4143.07692308 , 4149.74358974 , 2046.0 , 2038.0 , 92.332 , 0.0 , 0.0 , 0.0 , 0.0 , 

12.0 , 4145.64102564 , 4146.15384615 , 4113.84615385 , 4150.25641026 , 4130.25641026 , 4133.84615385 , 4130.76923077 , 4127.17948718 , 4126.66666667 , 4136.92307692 , 4193.33333333 , 4904.61538462 , 4145.12820513 , 4150.25641026 , 2045.0 , 2037.0 , 92.341 , 0.0 , 0.0 , 0.0 , 0.0 , 

13.0 , 4146.66666667 , 4143.58974359 , 4117.43589744 , 4147.17948718 , 4131.28205128 , 4132.30769231 , 4129.23076923 , 4126.66666667 , 4129.23076923 , 4137.94871795 , 4196.92307692 , 4903.58974359 , 4145.12820513 , 4149.74358974 , 2047.0 , 2037.0 , 92.35 , 0.0 , 0.0 , 0.0 , 0.0 , 

14.0 , 4145.12820513 , 4139.48717949 , 4118.97435897 , 4144.1025641 , 4132.30769231 , 4133.84615385 , 4130.25641026 , 4128.71794872 , 4131.28205128 , 4136.41025641 , 4196.41025641 , 4902.05128205 , 4150.76923077 , 4147.69230769 , 2047.0 , 2037.0 , 92.356 , 0.0 , 0.0 , 0.0 , 0.0 , 

15.0 , 4143.58974359 , 4137.94871795 , 4123.07692308 , 4145.12820513 , 4131.28205128 , 4132.30769231 , 4127.69230769 , 4128.20512821 , 4131.28205128 , 4136.92307692 , 4193.84615385 , 4900.0 , 4151.28205128 , 4148.20512821 , 2046.0 , 2036.0 , 92.364 , 0.0 , 0.0 , 0.0 , 0.0 , 

16.0 , 4143.07692308 , 4140.51282051 , 4127.17948718 , 4142.56410256 , 4131.79487179 , 4130.76923077 , 4128.71794872 , 4126.15384615 , 4131.79487179 , 4137.43589744 , 4194.35897436 , 4901.02564103 , 4145.64102564 , 4148.20512821 , 2046.0 , 2035.0 , 92.372 , 0.0 , 0.0 , 0.0 , 0.0 , 

17.0 , 4145.64102564 , 4138.46153846 , 4129.23076923 , 4136.41025641 , 4132.82051282 , 4130.76923077 , 4127.17948718 , 4125.12820513 , 4129.74358974 , 4136.41025641 , 4195.38461538 , 4905.64102564 , 4145.12820513 , 4154.87179487 , 2045.0 , 2038.0 , 92.381 , 0.0 , 0.0 , 0.0 , 0.0 , 

18.0 , 4143.58974359 , 4138.97435897 , 4128.20512821 , 4135.8974359 , 4132.30769231 , 4132.30769231 , 4123.58974359 , 4128.71794872 , 4129.74358974 , 4136.92307692 , 4193.33333333 , 4904.61538462 , 4148.20512821 , 4153.33333333 , 2045.0 , 2036.0 , 92.387 , 0.0 , 0.0 , 0.0 , 0.0 , 

19.0 , 4143.58974359 , 4137.94871795 , 4130.76923077 , 4133.33333333 , 4132.82051282 , 4131.28205128 , 4123.07692308 , 4129.23076923 , 4131.28205128 , 4137.43589744 , 4192.30769231 , 4906.66666667 , 4145.12820513 , 4150.76923077 , 2046.0 , 2034.0 , 92.396 , 0.0 , 0.0 , 0.0 , 0.0 , 

20.0 , 4143.07692308 , 4134.87179487 , 4132.82051282 , 4134.35897436 , 4133.33333333 , 4133.33333333 , 4128.20512821 , 4128.20512821 , 4132.82051282 , 4137.43589744 , 4192.82051282 , 4909.74358974 , 4141.53846154 , 4145.64102564 , 2044.0 , 2036.0 , 92.403 , 0.0 , 0.0 , 0.0 , 0.0 , 

21.0 , 4145.64102564 , 4135.38461538 , 4134.87179487 , 4136.92307692 , 4130.76923077 , 4131.79487179 , 4128.71794872 , 4127.69230769 , 4130.25641026 , 4136.92307692 , 4193.84615385 , 4910.25641026 , 4141.53846154 , 4149.74358974 , 2044.0 , 2035.0 , 92.412 , 0.0 , 0.0 , 0.0 , 0.0 , 

22.0 , 4142.56410256 , 4137.43589744 , 4136.92307692 , 4136.41025641 , 4131.28205128 , 4129.74358974 , 4126.15384615 , 4126.66666667 , 4131.28205128 , 4137.94871795 , 4191.79487179 , 4908.71794872 , 4137.94871795 , 4150.25641026 , 2043.0 , 2034.0 , 92.419 , 0.0 , 0.0 , 0.0 , 0.0 , 

23.0 , 4138.46153846 , 4135.38461538 , 4136.92307692 , 4133.84615385 , 4131.28205128 , 4129.74358974 , 4125.12820513 , 4124.1025641 , 4131.79487179 , 4137.94871795 , 4191.79487179 , 4910.25641026 , 4136.92307692 , 4147.69230769 , 2042.0 , 2035.0 , 92.426 , 0.0 , 0.0 , 0.0 , 0.0 , 

24.0 , 4136.41025641 , 4134.35897436 , 4134.35897436 , 4133.84615385 , 4130.25641026 , 4131.79487179 , 4128.20512821 , 4126.15384615 , 4132.30769231 , 4137.94871795 , 4193.33333333 , 4910.25641026 , 4134.87179487 , 4144.1025641 , 2043.0 , 2037.0 , 92.435 , 0.0 , 0.0 , 0.0 , 0.0 , 

25.0 , 4136.41025641 , 4135.38461538 , 4131.79487179 , 4134.35897436 , 4130.25641026 , 4130.25641026 , 4131.28205128 , 4128.71794872 , 4135.38461538 , 4137.43589744 , 4189.23076923 , 4910.25641026 , 4136.41025641 , 4141.53846154 , 2043.0 , 2036.0 , 92.445 , 0.0 , 0.0 , 0.0 , 0.0 , 

26.0 , 4134.35897436 , 4132.30769231 , 4130.76923077 , 4134.87179487 , 4131.79487179 , 4128.71794872 , 4128.71794872 , 4127.69230769 , 4133.84615385 , 4137.43589744 , 4185.64102564 , 4909.74358974 , 4138.97435897 , 4138.46153846 , 2042.0 , 2036.0 , 92.45 , 0.0 , 0.0 , 0.0 , 0.0 , 

27.0 , 4132.82051282 , 4129.23076923 , 4130.76923077 , 4135.38461538 , 4132.30769231 , 4130.25641026 , 4124.61538462 , 4128.71794872 , 4128.71794872 , 4138.46153846 , 4190.76923077 , 4908.20512821 , 4135.38461538 , 4140.51282051 , 2041.0 , 2038.0 , 92.458 , 0.0 , 0.0 , 0.0 , 0.0 , 

28.0 , 4134.87179487 , 4130.76923077 , 4131.28205128 , 4133.33333333 , 4131.79487179 , 4129.74358974 , 4124.1025641 , 4130.25641026 , 4129.74358974 , 4140.0 , 4193.33333333 , 4908.20512821 , 4131.28205128 , 4144.1025641 , 2042.0 , 2038.0 , 92.466 , 0.0 , 0.0 , 0.0 , 0.0 , 

29.0 , 4134.87179487 , 4133.84615385 , 4133.33333333 , 4134.35897436 , 4130.25641026 , 4127.69230769 , 4125.12820513 , 4128.20512821 , 4133.84615385 , 4137.43589744 , 4189.74358974 , 4908.20512821 , 4134.87179487 , 4140.0 , 2041.0 , 2038.0 , 92.477 , 0.0 , 0.0 , 0.0 , 0.0 , 

30.0 , 4134.87179487 , 4134.87179487 , 4136.41025641 , 4134.35897436 , 4129.74358974 , 4126.66666667 , 4124.61538462 , 4127.69230769 , 4134.35897436 , 4135.38461538 , 4190.76923077 , 4909.74358974 , 4136.92307692 , 4138.46153846 , 2042.0 , 2039.0 , 92.482 , 0.0 , 0.0 , 0.0 , 0.0 , 

31.0 , 4132.82051282 , 4132.30769231 , 4136.41025641 , 4134.35897436 , 4131.28205128 , 4128.20512821 , 4126.66666667 , 4131.79487179 , 4134.35897436 , 4138.97435897 , 4192.30769231 , 4911.79487179 , 4135.8974359 , 4137.94871795 , 2042.0 , 2038.0 , 92.489 , 0.0 , 0.0 , 0.0 , 0.0 , 

32.0 , 4134.87179487 , 4131.28205128 , 4136.41025641 , 4132.82051282 , 4130.25641026 , 4128.20512821 , 4126.15384615 , 4131.28205128 , 4135.38461538 , 4142.05128205 , 4190.25641026 , 4915.38461538 , 4133.33333333 , 4140.0 , 2041.0 , 2037.0 , 92.498 , 0.0 , 0.0 , 0.0 , 0.0 , 

33.0 , 4136.92307692 , 4133.33333333 , 4135.8974359 , 4131.79487179 , 4129.74358974 , 4130.25641026 , 4128.20512821 , 4131.28205128 , 4136.92307692 , 4138.97435897 , 4191.28205128 , 4912.82051282 , 4133.33333333 , 4138.97435897 , 2042.0 , 2038.0 , 92.507 , 0.0 , 0.0 , 0.0 , 0.0 , 

34.0 , 4138.46153846 , 4130.25641026 , 4134.87179487 , 4133.33333333 , 4129.23076923 , 4129.23076923 , 4127.17948718 , 4131.79487179 , 4136.92307692 , 4135.38461538 , 4192.82051282 , 4909.74358974 , 4134.35897436 , 4141.53846154 , 2042.0 , 2038.0 , 92.513 , 0.0 , 0.0 , 0.0 , 0.0 , 

35.0 , 4132.30769231 , 4129.74358974 , 4135.8974359 , 4134.35897436 , 4130.25641026 , 4128.20512821 , 4124.1025641 , 4131.79487179 , 4137.43589744 , 4136.92307692 , 4190.76923077 , 4910.76923077 , 4137.43589744 , 4141.53846154 , 2040.0 , 2038.0 , 92.522 , 0.0 , 0.0 , 0.0 , 0.0 , 

36.0 , 4130.25641026 , 4132.82051282 , 4138.97435897 , 4132.82051282 , 4130.76923077 , 4128.20512821 , 4125.12820513 , 4129.74358974 , 4134.87179487 , 4138.97435897 , 4190.25641026 , 4916.41025641 , 4136.92307692 , 4147.17948718 , 2042.0 , 2039.0 , 92.53 , 0.0 , 0.0 , 0.0 , 0.0 , 

37.0 , 4130.25641026 , 4130.76923077 , 4135.38461538 , 4133.33333333 , 4131.79487179 , 4128.71794872 , 4129.23076923 , 4131.28205128 , 4131.79487179 , 4138.46153846 , 4191.28205128 , 4913.33333333 , 4134.87179487 , 4143.07692308 , 2042.0 , 2038.0 , 92.539 , 0.0 , 0.0 , 0.0 , 0.0 , 

38.0 , 4133.33333333 , 4127.69230769 , 4133.84615385 , 4131.79487179 , 4131.28205128 , 4126.15384615 , 4129.23076923 , 4131.28205128 , 4132.82051282 , 4138.46153846 , 4191.28205128 , 4912.30769231 , 4133.33333333 , 4141.53846154 , 2043.0 , 2037.0 , 92.546 , 0.0 , 0.0 , 0.0 , 0.0 , 

39.0 , 4133.84615385 , 4132.30769231 , 4135.8974359 , 4130.76923077 , 4131.28205128 , 4127.17948718 , 4126.15384615 , 4131.79487179 , 4135.38461538 , 4137.43589744 , 4190.25641026 , 4913.33333333 , 4132.30769231 , 4140.0 , 2042.0 , 2037.0 , 92.553 , 0.0 , 0.0 , 0.0 , 0.0 , 

40.0 , 4134.35897436 , 4131.28205128 , 4135.8974359 , 4133.84615385 , 4130.25641026 , 4128.71794872 , 4125.12820513 , 4131.28205128 , 4136.92307692 , 4137.43589744 , 4191.79487179 , 4913.33333333 , 4133.33333333 , 4138.97435897 , 2043.0 , 2037.0 , 92.561 , 0.0 , 0.0 , 0.0 , 0.0 , 

41.0 , 4133.33333333 , 4128.71794872 , 4133.33333333 , 4134.35897436 , 4128.71794872 , 4129.23076923 , 4127.69230769 , 4130.76923077 , 4137.43589744 , 4137.94871795 , 4192.82051282 , 4910.76923077 , 4135.38461538 , 4135.8974359 , 2042.0 , 2037.0 , 92.57 , 0.0 , 0.0 , 0.0 , 0.0 , 

42.0 , 4131.28205128 , 4129.74358974 , 4134.87179487 , 4130.25641026 , 4127.69230769 , 4128.71794872 , 4126.66666667 , 4132.30769231 , 4135.38461538 , 4137.43589744 , 4190.76923077 , 4910.25641026 , 4136.92307692 , 4136.92307692 , 2043.0 , 2037.0 , 92.577 , 0.0 , 0.0 , 0.0 , 0.0 , 

43.0 , 4130.76923077 , 4128.20512821 , 4135.8974359 , 4132.30769231 , 4128.20512821 , 4128.20512821 , 4123.58974359 , 4133.33333333 , 4133.84615385 , 4137.43589744 , 4188.71794872 , 4909.74358974 , 4134.87179487 , 4136.41025641 , 2043.0 , 2035.0 , 92.585 , 0.0 , 0.0 , 0.0 , 0.0 , 

44.0 , 4132.30769231 , 4127.69230769 , 4130.76923077 , 4135.38461538 , 4130.25641026 , 4125.64102564 , 4122.05128205 , 4130.76923077 , 4134.35897436 , 4138.97435897 , 4191.79487179 , 4910.76923077 , 4130.76923077 , 4135.8974359 , 2043.0 , 2035.0 , 92.593 , 0.0 , 0.0 , 0.0 , 0.0 , 

45.0 , 4133.33333333 , 4129.74358974 , 4129.74358974 , 4131.79487179 , 4131.28205128 , 4123.58974359 , 4124.1025641 , 4130.76923077 , 4134.35897436 , 4138.46153846 , 4193.84615385 , 4913.33333333 , 4130.76923077 , 4135.8974359 , 2044.0 , 2035.0 , 92.602 , 0.0 , 0.0 , 0.0 , 0.0 , 

46.0 , 4131.79487179 , 4128.71794872 , 4132.82051282 , 4130.25641026 , 4127.69230769 , 4125.12820513 , 4125.64102564 , 4133.33333333 , 4136.41025641 , 4138.46153846 , 4191.79487179 , 4912.30769231 , 4135.8974359 , 4135.8974359 , 2043.0 , 2036.0 , 92.608 , 0.0 , 0.0 , 0.0 , 0.0 , 

47.0 , 4129.74358974 , 4128.20512821 , 4134.35897436 , 4134.35897436 , 4126.66666667 , 4125.64102564 , 4123.07692308 , 4134.87179487 , 4137.94871795 , 4140.51282051 , 4191.79487179 , 4910.76923077 , 4136.92307692 , 4141.02564103 , 2040.0 , 2033.0 , 92.617 , 0.0 , 0.0 , 0.0 , 0.0 , 

48.0 , 4129.23076923 , 4132.30769231 , 4135.8974359 , 4136.41025641 , 4131.28205128 , 4120.51282051 , 4122.05128205 , 4135.8974359 , 4137.94871795 , 4137.94871795 , 4192.30769231 , 4911.28205128 , 4135.8974359 , 4143.58974359 , 2040.0 , 2033.0 , 92.624 , 0.0 , 0.0 , 0.0 , 0.0 , 

49.0 , 4128.20512821 , 4127.69230769 , 4141.02564103 , 4130.25641026 , 4130.76923077 , 4116.41025641 , 4123.07692308 , 4135.38461538 , 4136.92307692 , 4134.87179487 , 4193.33333333 , 4915.38461538 , 4136.92307692 , 4147.17948718 , 2039.0 , 2035.0 , 92.633 , 0.0 , 0.0 , 0.0 , 0.0 , 

50.0 , 4118.97435897 , 4115.8974359 , 4148.71794872 , 4124.61538462 , 4125.64102564 , 4117.94871795 , 4118.97435897 , 4141.02564103 , 4138.97435897 , 4137.43589744 , 4195.38461538 , 4915.8974359 , 4138.97435897 , 4145.64102564 , 2042.0 , 2033.0 , 92.639 , 0.0 , 0.0 , 0.0 , 0.0 , 

51.0 , 4112.30769231 , 4108.71794872 , 4163.07692308 , 4116.92307692 , 4126.15384615 , 4114.35897436 , 4109.74358974 , 4147.69230769 , 4138.97435897 , 4139.48717949 , 4195.8974359 , 4917.43589744 , 4137.94871795 , 4144.1025641 , 2041.0 , 2035.0 , 92.647 , 0.0 , 0.0 , 0.0 , 0.0 , 

52.0 , 4109.74358974 , 4100.51282051 , 4176.41025641 , 4109.23076923 , 4126.66666667 , 4109.23076923 , 4109.74358974 , 4147.17948718 , 4140.0 , 4137.43589744 , 4194.87179487 , 4918.97435897 , 4137.43589744 , 4142.56410256 , 2041.0 , 2034.0 , 92.655 , 0.0 , 0.0 , 0.0 , 0.0 , 

53.0 , 4105.12820513 , 4080.0 , 4180.51282051 , 4103.58974359 , 4126.66666667 , 4108.20512821 , 4109.74358974 , 4143.58974359 , 4141.53846154 , 4137.94871795 , 4197.43589744 , 4921.53846154 , 4136.41025641 , 4146.66666667 , 2040.0 , 2035.0 , 92.664 , 0.0 , 0.0 , 0.0 , 0.0 , 

54.0 , 4091.28205128 , 4053.84615385 , 4188.71794872 , 4091.79487179 , 4132.82051282 , 4110.76923077 , 4106.15384615 , 4150.25641026 , 4144.61538462 , 4141.02564103 , 4198.97435897 , 4922.05128205 , 4130.25641026 , 4137.94871795 , 2041.0 , 2034.0 , 92.671 , 0.0 , 0.0 , 0.0 , 0.0 , 

55.0 , 4095.8974359 , 4038.97435897 , 4203.58974359 , 4067.69230769 , 4132.82051282 , 4113.84615385 , 4111.28205128 , 4151.79487179 , 4145.64102564 , 4141.53846154 , 4198.46153846 , 4927.17948718 , 4125.12820513 , 4134.35897436 , 2040.0 , 2034.0 , 92.679 , 0.0 , 0.0 , 0.0 , 0.0 , 

56.0 , 4112.82051282 , 4044.1025641 , 4197.94871795 , 4064.61538462 , 4126.66666667 , 4123.07692308 , 4124.61538462 , 4146.15384615 , 4143.58974359 , 4141.53846154 , 4196.41025641 , 4925.12820513 , 4128.71794872 , 4135.8974359 , 2041.0 , 2036.0 , 92.687 , 0.0 , 0.0 , 0.0 , 0.0 , 

57.0 , 4119.48717949 , 4061.02564103 , 4179.48717949 , 4086.66666667 , 4129.23076923 , 4127.69230769 , 4125.64102564 , 4142.05128205 , 4141.53846154 , 4141.02564103 , 4195.38461538 , 4920.0 , 4132.30769231 , 4135.8974359 , 2042.0 , 2036.0 , 92.696 , 0.0 , 0.0 , 0.0 , 0.0 , 

58.0 , 4118.46153846 , 4080.0 , 4163.07692308 , 4101.02564103 , 4133.84615385 , 4125.64102564 , 4122.56410256 , 4142.56410256 , 4142.56410256 , 4138.97435897 , 4192.82051282 , 4919.48717949 , 4130.25641026 , 4130.76923077 , 2042.0 , 2036.0 , 92.702 , 0.0 , 0.0 , 0.0 , 0.0 , 

59.0 , 4124.1025641 , 4091.28205128 , 4155.8974359 , 4103.07692308 , 4129.23076923 , 4124.61538462 , 4124.1025641 , 4142.05128205 , 4141.53846154 , 4140.0 , 4192.82051282 , 4921.02564103 , 4128.71794872 , 4131.79487179 , 2041.0 , 2035.0 , 92.711 , 0.0 , 0.0 , 0.0 , 0.0 , 

60.0 , 4128.20512821 , 4101.02564103 , 4149.23076923 , 4114.35897436 , 4127.69230769 , 4127.69230769 , 4128.71794872 , 4140.0 , 4139.48717949 , 4141.53846154 , 4192.82051282 , 4915.8974359 , 4126.66666667 , 4132.30769231 , 2042.0 , 2037.0 , 92.718 , 0.0 , 0.0 , 0.0 , 0.0 , 

61.0 , 4130.25641026 , 4114.87179487 , 4142.56410256 , 4126.66666667 , 4130.25641026 , 4129.23076923 , 4129.23076923 , 4136.41025641 , 4138.46153846 , 4141.02564103 , 4191.28205128 , 4913.84615385 , 4122.05128205 , 4133.33333333 , 2041.0 , 2036.0 , 92.727 , 0.0 , 0.0 , 0.0 , 0.0 , 

62.0 , 4132.82051282 , 4125.12820513 , 4140.0 , 4129.23076923 , 4131.28205128 , 4128.71794872 , 4125.64102564 , 4134.35897436 , 4136.92307692 , 4138.97435897 , 4188.71794872 , 4916.41025641 , 4121.53846154 , 4131.79487179 , 2041.0 , 2035.0 , 92.734 , 0.0 , 0.0 , 0.0 , 0.0 , 

63.0 , 4133.84615385 , 4127.17948718 , 4139.48717949 , 4128.71794872 , 4131.28205128 , 4127.69230769 , 4123.58974359 , 4134.35897436 , 4135.8974359 , 4138.97435897 , 4190.76923077 , 4916.92307692 , 4127.69230769 , 4133.33333333 , 2044.0 , 2033.0 , 92.743 , 0.0 , 0.0 , 0.0 , 0.0 , 

64.0 , 4136.92307692 , 4131.28205128 , 4136.41025641 , 4133.33333333 , 4129.74358974 , 4128.20512821 , 4126.15384615 , 4132.82051282 , 4136.92307692 , 4138.46153846 , 4193.33333333 , 4914.35897436 , 4130.76923077 , 4138.97435897 , 2044.0 , 2036.0 , 92.751 , 0.0 , 0.0 , 0.0 , 0.0 , 

65.0 , 4139.48717949 , 4138.97435897 , 4130.76923077 , 4138.97435897 , 4128.20512821 , 4127.69230769 , 4126.15384615 , 4132.82051282 , 4137.43589744 , 4137.43589744 , 4190.76923077 , 4911.79487179 , 4134.87179487 , 4140.0 , 2044.0 , 2037.0 , 92.76 , 0.0 , 0.0 , 0.0 , 0.0 , 

66.0 , 4140.51282051 , 4144.1025641 , 4131.28205128 , 4136.92307692 , 4131.79487179 , 4126.15384615 , 4123.58974359 , 4132.82051282 , 4133.33333333 , 4137.43589744 , 4188.71794872 , 4912.30769231 , 4137.43589744 , 4141.02564103 , 2044.0 , 2039.0 , 92.765 , 0.0 , 0.0 , 0.0 , 0.0 , 

67.0 , 4138.97435897 , 4150.76923077 , 4128.71794872 , 4137.43589744 , 4132.82051282 , 4125.64102564 , 4125.12820513 , 4131.79487179 , 4130.76923077 , 4138.97435897 , 4189.23076923 , 4912.30769231 , 4137.43589744 , 4141.53846154 , 2046.0 , 2037.0 , 92.774 , 0.0 , 0.0 , 0.0 , 0.0 , 

68.0 , 4138.97435897 , 4154.87179487 , 4122.56410256 , 4144.61538462 , 4129.74358974 , 4124.61538462 , 4126.66666667 , 4129.23076923 , 4133.84615385 , 4141.02564103 , 4190.25641026 , 4911.79487179 , 4138.46153846 , 4144.61538462 , 2046.0 , 2036.0 , 92.782 , 0.0 , 0.0 , 0.0 , 0.0 , 

69.0 , 4136.41025641 , 4153.84615385 , 4121.53846154 , 4149.23076923 , 4128.71794872 , 4129.23076923 , 4125.12820513 , 4130.25641026 , 4134.35897436 , 4139.48717949 , 4189.23076923 , 4910.25641026 , 4140.0 , 4140.0 , 2046.0 , 2035.0 , 92.791 , 0.0 , 0.0 , 0.0 , 0.0 , 

70.0 , 4136.41025641 , 4155.8974359 , 4123.07692308 , 4147.69230769 , 4130.76923077 , 4135.38461538 , 4124.1025641 , 4130.25641026 , 4130.76923077 , 4136.41025641 , 4188.71794872 , 4912.30769231 , 4137.94871795 , 4141.02564103 , 2047.0 , 2038.0 , 92.797 , 0.0 , 0.0 , 0.0 , 0.0 , 

71.0 , 4134.87179487 , 4161.02564103 , 4119.48717949 , 4148.71794872 , 4132.30769231 , 4135.38461538 , 4129.23076923 , 4128.20512821 , 4129.74358974 , 4137.94871795 , 4189.23076923 , 4909.74358974 , 4137.43589744 , 4142.56410256 , 2047.0 , 2037.0 , 92.806 , 0.0 , 0.0 , 0.0 , 0.0 , 

72.0 , 4138.97435897 , 4162.56410256 , 4117.43589744 , 4148.20512821 , 4130.76923077 , 4130.25641026 , 4130.76923077 , 4126.66666667 , 4128.20512821 , 4138.97435897 , 4188.20512821 , 4909.23076923 , 4139.48717949 , 4146.15384615 , 2046.0 , 2039.0 , 92.814 , 0.0 , 0.0 , 0.0 , 0.0 , 

73.0 , 4140.51282051 , 4163.58974359 , 4117.43589744 , 4148.20512821 , 4130.76923077 , 4132.82051282 , 4130.25641026 , 4129.23076923 , 4129.23076923 , 4137.94871795 , 4188.71794872 , 4906.66666667 , 4139.48717949 , 4141.53846154 , 2047.0 , 2038.0 , 92.823 , 0.0 , 0.0 , 0.0 , 0.0 , 

74.0 , 4143.07692308 , 4166.15384615 , 4114.35897436 , 4152.82051282 , 4133.33333333 , 4136.92307692 , 4129.23076923 , 4128.20512821 , 4130.25641026 , 4137.43589744 , 4192.82051282 , 4905.64102564 , 4139.48717949 , 4144.1025641 , 2046.0 , 2037.0 , 92.828 , 0.0 , 0.0 , 0.0 , 0.0 , 

75.0 , 4146.15384615 , 4168.71794872 , 4103.07692308 , 4161.02564103 , 4132.30769231 , 4140.0 , 4131.79487179 , 4126.15384615 , 4127.69230769 , 4138.46153846 , 4193.84615385 , 4902.56410256 , 4141.02564103 , 4143.07692308 , 2045.0 , 2038.0 , 92.837 , 0.0 , 0.0 , 0.0 , 0.0 , 

76.0 , 4147.69230769 , 4170.25641026 , 4097.94871795 , 4166.15384615 , 4128.71794872 , 4137.94871795 , 4131.79487179 , 4126.15384615 , 4124.61538462 , 4137.43589744 , 4192.30769231 , 4904.61538462 , 4139.48717949 , 4141.53846154 , 2045.0 , 2037.0 , 92.844 , 0.0 , 0.0 , 0.0 , 0.0 , 

77.0 , 4146.66666667 , 4169.74358974 , 4099.48717949 , 4168.20512821 , 4128.71794872 , 4134.35897436 , 4130.76923077 , 4128.20512821 , 4125.64102564 , 4137.43589744 , 4191.28205128 , 4905.12820513 , 4135.38461538 , 4141.53846154 , 2043.0 , 2040.0 , 92.854 , 0.0 , 0.0 , 0.0 , 0.0 , 

78.0 , 4151.28205128 , 4164.1025641 , 4097.43589744 , 4168.20512821 , 4129.74358974 , 4136.41025641 , 4129.23076923 , 4125.64102564 , 4127.17948718 , 4138.46153846 , 4190.25641026 , 4906.15384615 , 4137.43589744 , 4144.1025641 , 2043.0 , 2039.0 , 92.86 , 0.0 , 0.0 , 0.0 , 0.0 , 

79.0 , 4152.30769231 , 4158.46153846 , 4093.84615385 , 4167.69230769 , 4130.25641026 , 4140.51282051 , 4129.23076923 , 4123.58974359 , 4130.76923077 , 4138.97435897 , 4190.76923077 , 4905.12820513 , 4138.97435897 , 4140.0 , 2041.0 , 2040.0 , 92.869 , 0.0 , 0.0 , 0.0 , 0.0 , 

80.0 , 4147.69230769 , 4155.8974359 , 4098.46153846 , 4164.1025641 , 4131.28205128 , 4138.46153846 , 4128.20512821 , 4126.66666667 , 4132.30769231 , 4137.94871795 , 4192.30769231 , 4904.61538462 , 4131.79487179 , 4141.02564103 , 2041.0 , 2040.0 , 92.877 , 0.0 , 0.0 , 0.0 , 0.0 , 

81.0 , 4146.15384615 , 4150.25641026 , 4105.12820513 , 4161.02564103 , 4131.28205128 , 4138.97435897 , 4129.23076923 , 4128.20512821 , 4130.76923077 , 4136.92307692 , 4190.76923077 , 4906.66666667 , 4127.69230769 , 4147.17948718 , 2041.0 , 2039.0 , 92.886 , 0.0 , 0.0 , 0.0 , 0.0 , 

82.0 , 4143.58974359 , 4143.58974359 , 4105.64102564 , 4160.0 , 4132.30769231 , 4141.02564103 , 4136.41025641 , 4127.17948718 , 4135.38461538 , 4137.43589744 , 4189.23076923 , 4907.69230769 , 4133.33333333 , 4150.76923077 , 2041.0 , 2038.0 , 92.891 , 0.0 , 0.0 , 0.0 , 0.0 , 

83.0 , 4138.46153846 , 4140.0 , 4109.74358974 , 4154.87179487 , 4132.82051282 , 4138.46153846 , 4140.51282051 , 4130.76923077 , 4138.46153846 , 4137.43589744 , 4190.25641026 , 4909.23076923 , 4135.38461538 , 4153.84615385 , 2041.0 , 2037.0 , 92.899 , 0.0 , 0.0 , 0.0 , 0.0 , 

84.0 , 4136.41025641 , 4140.0 , 4117.43589744 , 4148.20512821 , 4128.20512821 , 4133.84615385 , 4137.43589744 , 4134.35897436 , 4133.33333333 , 4138.97435897 , 4190.25641026 , 4912.82051282 , 4132.82051282 , 4148.71794872 , 2041.0 , 2037.0 , 92.907 , 0.0 , 0.0 , 0.0 , 0.0 , 

85.0 , 4139.48717949 , 4139.48717949 , 4126.15384615 , 4145.12820513 , 4127.69230769 , 4131.79487179 , 4131.28205128 , 4130.25641026 , 4131.79487179 , 4142.05128205 , 4190.76923077 , 4916.41025641 , 4133.33333333 , 4141.53846154 , 2041.0 , 2035.0 , 92.915 , 0.0 , 0.0 , 0.0 , 0.0 , 

86.0 , 4139.48717949 , 4138.46153846 , 4130.25641026 , 4144.61538462 , 4132.82051282 , 4129.74358974 , 4127.69230769 , 4128.20512821 , 4135.38461538 , 4140.51282051 , 4190.25641026 , 4915.38461538 , 4136.92307692 , 4134.35897436 , 2040.0 , 2037.0 , 92.923 , 0.0 , 0.0 , 0.0 , 0.0 , 

87.0 , 4137.94871795 , 4136.41025641 , 4131.79487179 , 4139.48717949 , 4130.76923077 , 4128.71794872 , 4127.69230769 , 4130.25641026 , 4133.33333333 , 4136.92307692 , 4190.76923077 , 4915.38461538 , 4136.41025641 , 4134.87179487 , 2040.0 , 2035.0 , 92.932 , 0.0 , 0.0 , 0.0 , 0.0 , 

88.0 , 4134.87179487 , 4135.8974359 , 4131.79487179 , 4138.46153846 , 4127.69230769 , 4130.76923077 , 4131.28205128 , 4131.79487179 , 4135.38461538 , 4138.46153846 , 4192.30769231 , 4913.33333333 , 4134.35897436 , 4134.35897436 , 2042.0 , 2035.0 , 92.939 , 0.0 , 0.0 , 0.0 , 0.0 , 

89.0 , 4135.8974359 , 4136.41025641 , 4134.87179487 , 4138.97435897 , 4129.23076923 , 4129.74358974 , 4128.71794872 , 4131.28205128 , 4137.43589744 , 4140.51282051 , 4193.33333333 , 4913.33333333 , 4131.79487179 , 4138.97435897 , 2041.0 , 2035.0 , 92.95 , 0.0 , 0.0 , 0.0 , 0.0 , 

90.0 , 4136.41025641 , 4137.94871795 , 4134.35897436 , 4140.0 , 4131.79487179 , 4130.25641026 , 4126.15384615 , 4133.84615385 , 4134.35897436 , 4139.48717949 , 4191.79487179 , 4912.82051282 , 4133.33333333 , 4136.92307692 , 2042.0 , 2035.0 , 92.953 , 0.0 , 0.0 , 0.0 , 0.0 , 

91.0 , 4134.87179487 , 4137.94871795 , 4133.33333333 , 4137.43589744 , 4132.82051282 , 4125.64102564 , 4123.58974359 , 4132.82051282 , 4130.76923077 , 4140.0 , 4191.28205128 , 4912.30769231 , 4133.33333333 , 4136.92307692 , 2043.0 , 2035.0 , 92.963 , 0.0 , 0.0 , 0.0 , 0.0 , 

92.0 , 4130.25641026 , 4135.8974359 , 4134.87179487 , 4133.84615385 , 4131.79487179 , 4123.58974359 , 4122.56410256 , 4131.79487179 , 4134.35897436 , 4138.97435897 , 4192.82051282 , 4910.76923077 , 4132.30769231 , 4138.46153846 , 2043.0 , 2033.0 , 92.97 , 0.0 , 0.0 , 0.0 , 0.0 , 

93.0 , 4133.33333333 , 4131.28205128 , 4136.41025641 , 4132.30769231 , 4129.74358974 , 4124.61538462 , 4123.58974359 , 4132.30769231 , 4137.94871795 , 4135.8974359 , 4192.30769231 , 4911.79487179 , 4134.35897436 , 4143.58974359 , 2043.0 , 2035.0 , 92.98 , 0.0 , 0.0 , 0.0 , 0.0 , 

94.0 , 4135.8974359 , 4130.76923077 , 4133.84615385 , 4135.38461538 , 4130.76923077 , 4126.15384615 , 4125.64102564 , 4133.33333333 , 4137.94871795 , 4136.92307692 , 4190.25641026 , 4909.74358974 , 4136.41025641 , 4140.0 , 2042.0 , 2035.0 , 92.986 , 0.0 , 0.0 , 0.0 , 0.0 , 

95.0 , 4134.87179487 , 4133.33333333 , 4134.35897436 , 4135.38461538 , 4131.79487179 , 4124.1025641 , 4122.56410256 , 4131.28205128 , 4134.87179487 , 4139.48717949 , 4191.28205128 , 4911.28205128 , 4136.41025641 , 4138.46153846 , 2045.0 , 2034.0 , 92.994 , 0.0 , 0.0 , 0.0 , 0.0 , 

96.0 , 4130.76923077 , 4134.35897436 , 4135.8974359 , 4131.79487179 , 4130.76923077 , 4124.1025641 , 4124.61538462 , 4131.28205128 , 4134.87179487 , 4138.46153846 , 4191.28205128 , 4913.33333333 , 4135.8974359 , 4140.0 , 2044.0 , 2034.0 , 93.003 , 0.0 , 0.0 , 0.0 , 0.0 , 

97.0 , 4132.30769231 , 4131.28205128 , 4134.87179487 , 4132.30769231 , 4131.79487179 , 4126.15384615 , 4128.20512821 , 4132.82051282 , 4134.87179487 , 4137.94871795 , 4189.74358974 , 4912.30769231 , 4135.38461538 , 4143.07692308 , 2043.0 , 2034.0 , 93.013 , 0.0 , 0.0 , 0.0 , 0.0 , 

98.0 , 4133.33333333 , 4131.79487179 , 4133.33333333 , 4134.87179487 , 4132.82051282 , 4127.69230769 , 4124.61538462 , 4131.28205128 , 4133.84615385 , 4137.43589744 , 4191.79487179 , 4908.71794872 , 4133.33333333 , 4140.51282051 , 2044.0 , 2034.0 , 93.017 , 0.0 , 0.0 , 0.0 , 0.0 , 

99.0 , 4130.76923077 , 4133.33333333 , 4134.87179487 , 4133.33333333 , 4130.76923077 , 4127.69230769 , 4123.58974359 , 4130.25641026 , 4134.87179487 , 4137.94871795 , 4192.82051282 , 4910.76923077 , 4135.8974359 , 4140.0 , 2043.0 , 2033.0 , 93.025 , 0.0 , 0.0 , 0.0 , 0.0 , 

100.0 , 4130.25641026 , 4131.79487179 , 4134.87179487 , 4132.82051282 , 4130.25641026 , 4125.64102564 , 4126.66666667 , 4132.30769231 , 4136.41025641 , 4138.46153846 , 4190.25641026 , 4912.82051282 , 4137.43589744 , 4143.58974359 , 2043.0 , 2034.0 , 93.034 , 0.0 , 0.0 , 0.0 , 0.0 , 

101.0 , 4128.20512821 , 4131.79487179 , 4134.35897436 , 4134.35897436 , 4130.76923077 , 4125.12820513 , 4122.05128205 , 4132.82051282 , 4136.92307692 , 4137.94871795 , 4190.76923077 , 4908.20512821 , 4136.41025641 , 4141.02564103 , 2042.0 , 2036.0 , 93.044 , 0.0 , 0.0 , 0.0 , 0.0 , 

102.0 , 4126.66666667 , 4132.30769231 , 4134.87179487 , 4132.30769231 , 4128.20512821 , 4126.66666667 , 4116.41025641 , 4133.33333333 , 4136.41025641 , 4137.43589744 , 4192.82051282 , 4908.20512821 , 4135.8974359 , 4135.8974359 , 2043.0 , 2036.0 , 93.049 , 0.0 , 0.0 , 0.0 , 0.0 , 

103.0 , 4127.17948718 , 4128.71794872 , 4132.82051282 , 4134.35897436 , 4128.20512821 , 4125.64102564 , 4120.0 , 4135.8974359 , 4137.94871795 , 4138.46153846 , 4190.76923077 , 4911.28205128 , 4136.92307692 , 4133.33333333 , 2043.0 , 2039.0 , 93.058 , 0.0 , 0.0 , 0.0 , 0.0 , 

104.0 , 4126.66666667 , 4121.02564103 , 4141.02564103 , 4134.35897436 , 4128.20512821 , 4118.97435897 , 4121.02564103 , 4136.41025641 , 4138.46153846 , 4138.46153846 , 4189.74358974 , 4913.33333333 , 4137.94871795 , 4138.46153846 , 2042.0 , 2038.0 , 93.066 , 0.0 , 0.0 , 0.0 , 0.0 , 

105.0 , 4118.46153846 , 4113.33333333 , 4153.33333333 , 4127.17948718 , 4128.20512821 , 4112.30769231 , 4111.28205128 , 4140.0 , 4140.51282051 , 4138.97435897 , 4194.35897436 , 4913.33333333 , 4140.0 , 4134.87179487 , 2044.0 , 2038.0 , 93.076 , 0.0 , 0.0 , 0.0 , 0.0 , 

106.0 , 4110.25641026 , 4101.53846154 , 4163.07692308 , 4118.46153846 , 4129.23076923 , 4102.05128205 , 4098.46153846 , 4146.15384615 , 4141.53846154 , 4140.0 , 4197.94871795 , 4917.94871795 , 4142.05128205 , 4136.92307692 , 2044.0 , 2037.0 , 93.08 , 0.0 , 0.0 , 0.0 , 0.0 , 

107.0 , 4101.02564103 , 4083.07692308 , 4176.92307692 , 4110.25641026 , 4132.82051282 , 4100.0 , 4099.48717949 , 4149.23076923 , 4144.61538462 , 4138.97435897 , 4196.41025641 , 4919.48717949 , 4144.1025641 , 4142.56410256 , 2043.0 , 2037.0 , 93.089 , 0.0 , 0.0 , 0.0 , 0.0 , 

108.0 , 4101.53846154 , 4066.15384615 , 4191.79487179 , 4093.84615385 , 4131.79487179 , 4108.20512821 , 4108.71794872 , 4148.71794872 , 4144.1025641 , 4137.94871795 , 4196.41025641 , 4920.51282051 , 4143.58974359 , 4146.15384615 , 2045.0 , 2036.0 , 93.097 , 0.0 , 0.0 , 0.0 , 0.0 , 

109.0 , 4105.64102564 , 4061.02564103 , 4192.30769231 , 4083.58974359 , 4130.25641026 , 4120.51282051 , 4116.92307692 , 4150.25641026 , 4140.51282051 , 4138.97435897 , 4197.43589744 , 4919.48717949 , 4143.07692308 , 4138.97435897 , 2045.0 , 2036.0 , 93.106 , 0.0 , 0.0 , 0.0 , 0.0 , 

110.0 , 4109.74358974 , 4058.46153846 , 4190.76923077 , 4080.0 , 4130.25641026 , 4123.58974359 , 4117.43589744 , 4147.69230769 , 4140.0 , 4140.0 , 4196.41025641 , 4918.46153846 , 4144.61538462 , 4144.1025641 , 2045.0 , 2037.0 , 93.113 , 0.0 , 0.0 , 0.0 , 0.0 , 

111.0 , 4114.35897436 , 4056.92307692 , 4190.25641026 , 4076.92307692 , 4129.74358974 , 4123.58974359 , 4120.51282051 , 4143.58974359 , 4142.05128205 , 4138.97435897 , 4193.84615385 , 4917.43589744 , 4143.58974359 , 4148.20512821 , 2045.0 , 2038.0 , 93.121 , 0.0 , 0.0 , 0.0 , 0.0 , 

112.0 , 4123.58974359 , 4066.15384615 , 4178.97435897 , 4082.56410256 , 4130.25641026 , 4123.58974359 , 4124.1025641 , 4143.58974359 , 4140.0 , 4138.97435897 , 4195.38461538 , 4921.02564103 , 4138.97435897 , 4146.66666667 , 2042.0 , 2037.0 , 93.128 , 0.0 , 0.0 , 0.0 , 0.0 , 

113.0 , 4124.1025641 , 4087.69230769 , 4157.43589744 , 4102.05128205 , 4133.33333333 , 4127.69230769 , 4123.58974359 , 4145.12820513 , 4136.41025641 , 4138.97435897 , 4196.92307692 , 4920.51282051 , 4136.41025641 , 4139.48717949 , 2043.0 , 2036.0 , 93.137 , 0.0 , 0.0 , 0.0 , 0.0 , 

114.0 , 4122.56410256 , 4107.17948718 , 4147.69230769 , 4115.38461538 , 4131.79487179 , 4130.76923077 , 4122.05128205 , 4140.51282051 , 4137.43589744 , 4138.97435897 , 4196.92307692 , 4916.92307692 , 4134.35897436 , 4138.46153846 , 2043.0 , 2038.0 , 93.142 , 0.0 , 0.0 , 0.0 , 0.0 , 

115.0 , 4121.53846154 , 4115.8974359 , 4145.12820513 , 4121.02564103 , 4129.23076923 , 4131.28205128 , 4124.1025641 , 4134.87179487 , 4138.97435897 , 4138.97435897 , 4194.35897436 , 4914.87179487 , 4133.33333333 , 4141.02564103 , 2043.0 , 2039.0 , 93.151 , 0.0 , 0.0 , 0.0 , 0.0 , 

116.0 , 4123.07692308 , 4120.51282051 , 4141.02564103 , 4128.20512821 , 4132.30769231 , 4131.28205128 , 4124.1025641 , 4134.87179487 , 4135.8974359 , 4137.94871795 , 4192.30769231 , 4915.8974359 , 4135.38461538 , 4142.56410256 , 2043.0 , 2038.0 , 93.159 , 0.0 , 0.0 , 0.0 , 0.0 , 

117.0 , 4127.69230769 , 4129.74358974 , 4136.92307692 , 4132.82051282 , 4132.82051282 , 4130.25641026 , 4124.1025641 , 4136.92307692 , 4134.35897436 , 4138.46153846 , 4193.84615385 , 4915.38461538 , 4135.38461538 , 4141.53846154 , 2042.0 , 2036.0 , 93.168 , 0.0 , 0.0 , 0.0 , 0.0 , 

118.0 , 4131.79487179 , 4136.41025641 , 4136.41025641 , 4133.33333333 , 4130.76923077 , 4127.17948718 , 4125.12820513 , 4135.8974359 , 4135.38461538 , 4140.0 , 4193.33333333 , 4913.84615385 , 4133.84615385 , 4142.56410256 , 2042.0 , 2036.0 , 93.175 , 0.0 , 0.0 , 0.0 , 0.0 , 

119.0 , 4132.30769231 , 4139.48717949 , 4134.87179487 , 4134.35897436 , 4130.25641026 , 4125.12820513 , 4123.07692308 , 4132.30769231 , 4135.38461538 , 4140.51282051 , 4188.20512821 , 4912.82051282 , 4133.84615385 , 4141.02564103 , 2042.0 , 2038.0 , 93.184 , 0.0 , 0.0 , 0.0 , 0.0 , 

120.0 , 4131.28205128 , 4148.20512821 , 4129.74358974 , 4134.87179487 , 4130.25641026 , 4127.17948718 , 4122.05128205 , 4133.33333333 , 4134.87179487 , 4138.97435897 , 4190.25641026 , 4910.76923077 , 4134.35897436 , 4136.92307692 , 2043.0 , 2038.0 , 93.192 , 0.0 , 0.0 , 0.0 , 0.0 , 

121.0 , 4130.25641026 , 4153.84615385 , 4127.69230769 , 4135.38461538 , 4130.76923077 , 4129.74358974 , 4125.64102564 , 4133.84615385 , 4132.82051282 , 4138.46153846 , 4193.33333333 , 4910.25641026 , 4132.82051282 , 4140.0 , 2043.0 , 2038.0 , 93.201 , 0.0 , 0.0 , 0.0 , 0.0 , 

122.0 , 4127.69230769 , 4153.33333333 , 4124.61538462 , 4141.02564103 , 4131.79487179 , 4132.30769231 , 4128.71794872 , 4131.79487179 , 4132.82051282 , 4137.94871795 , 4189.74358974 , 4907.69230769 , 4133.33333333 , 4139.48717949 , 2042.0 , 2038.0 , 93.207 , 0.0 , 0.0 , 0.0 , 0.0 , 

123.0 , 4130.76923077 , 4155.8974359 , 4122.05128205 , 4145.12820513 , 4130.76923077 , 4133.33333333 , 4126.66666667 , 4129.74358974 , 4132.82051282 , 4138.46153846 , 4188.71794872 , 4910.25641026 , 4132.30769231 , 4139.48717949 , 2044.0 , 2038.0 , 93.214 , 0.0 , 0.0 , 0.0 , 0.0 , 

124.0 , 4133.33333333 , 4161.53846154 , 4119.48717949 , 4147.17948718 , 4130.76923077 , 4133.33333333 , 4126.66666667 , 4130.76923077 , 4134.87179487 , 4140.0 , 4191.79487179 , 4909.74358974 , 4132.30769231 , 4138.46153846 , 2044.0 , 2036.0 , 93.223 , 0.0 , 0.0 , 0.0 , 0.0 , 

125.0 , 4136.92307692 , 4162.56410256 , 4116.41025641 , 4148.20512821 , 4132.30769231 , 4132.82051282 , 4127.69230769 , 4129.74358974 , 4135.38461538 , 4137.94871795 , 4189.74358974 , 4906.66666667 , 4131.28205128 , 4140.0 , 2045.0 , 2035.0 , 93.232 , 0.0 , 0.0 , 0.0 , 0.0 , 

126.0 , 4138.97435897 , 4163.58974359 , 4111.28205128 , 4155.38461538 , 4132.30769231 , 4134.35897436 , 4128.20512821 , 4129.74358974 , 4132.82051282 , 4136.41025641 , 4188.71794872 , 4902.56410256 , 4128.71794872 , 4136.41025641 , 2045.0 , 2035.0 , 93.238 , 0.0 , 0.0 , 0.0 , 0.0 , 

127.0 , 4145.12820513 , 4162.05128205 , 4107.17948718 , 4162.05128205 , 4129.74358974 , 4133.84615385 , 4127.17948718 , 4128.20512821 , 4127.69230769 , 4138.97435897 , 4191.79487179 , 4907.17948718 , 4128.71794872 , 4137.94871795 , 2045.0 , 2036.0 , 93.247 , 0.0 , 0.0 , 0.0 , 0.0 , 

128.0 , 4147.17948718 , 4162.05128205 , 4102.05128205 , 4166.66666667 , 4131.79487179 , 4136.41025641 , 4130.76923077 , 4127.69230769 , 4127.69230769 , 4140.51282051 , 4190.25641026 , 4909.23076923 , 4130.25641026 , 4136.41025641 , 2044.0 , 2034.0 , 93.254 , 0.0 , 0.0 , 0.0 , 0.0 , 

0.0 , 4152.30769231 , 4169.74358974 , 4100.0 , 4169.23076923 , 4132.82051282 , 4136.92307692 , 4132.82051282 , 4128.20512821 , 4130.76923077 , 4137.94871795 , 4188.20512821 , 4907.69230769 , 4128.20512821 , 4142.05128205 , 2045.0 , 2033.0 , 93.265 , 0.0 , 0.0 , 0.0 , 0.0 , 

1.0 , 4156.41025641 , 4172.30769231 , 4100.0 , 4175.38461538 , 4131.28205128 , 4135.38461538 , 4132.30769231 , 4124.1025641 , 4130.76923077 , 4137.94871795 , 4187.17948718 , 4907.17948718 , 4126.15384615 , 4139.48717949 , 2045.0 , 2036.0 , 93.27 , 0.0 , 0.0 , 0.0 , 0.0 , 

2.0 , 4157.43589744 , 4164.61538462 , 4097.94871795 , 4174.87179487 , 4128.71794872 , 4132.82051282 , 4131.28205128 , 4119.48717949 , 4127.69230769 , 4138.97435897 , 4187.69230769 , 4909.74358974 , 4127.69230769 , 4134.87179487 , 2045.0 , 2036.0 , 93.278 , 0.0 , 0.0 , 0.0 , 0.0 , 

3.0 , 4153.84615385 , 4162.56410256 , 4095.8974359 , 4166.66666667 , 4129.23076923 , 4135.8974359 , 4133.33333333 , 4123.07692308 , 4128.71794872 , 4138.46153846 , 4190.76923077 , 4908.20512821 , 4127.69230769 , 4134.87179487 , 2045.0 , 2035.0 , 93.286 , 0.0 , 0.0 , 0.0 , 0.0 , 

4.0 , 4151.28205128 , 4162.56410256 , 4102.56410256 , 4163.07692308 , 4130.25641026 , 4138.97435897 , 4131.79487179 , 4125.64102564 , 4131.28205128 , 4137.94871795 , 4190.76923077 , 4906.15384615 , 4126.66666667 , 4137.94871795 , 2043.0 , 2034.0 , 93.296 , 0.0 , 0.0 , 0.0 , 0.0 , 

5.0 , 4147.69230769 , 4155.8974359 , 4111.28205128 , 4161.02564103 , 4129.23076923 , 4136.92307692 , 4127.17948718 , 4124.61538462 , 4128.71794872 , 4138.97435897 , 4186.66666667 , 4907.17948718 , 4127.69230769 , 4135.8974359 , 2043.0 , 2035.0 , 93.301 , 0.0 , 0.0 , 0.0 , 0.0 , 

6.0 , 4146.66666667 , 4151.28205128 , 4115.8974359 , 4154.35897436 , 4129.74358974 , 4136.41025641 , 4127.69230769 , 4122.56410256 , 4125.12820513 , 4137.94871795 , 4187.69230769 , 4910.25641026 , 4127.17948718 , 4134.87179487 , 2042.0 , 2036.0 , 93.311 , 0.0 , 0.0 , 0.0 , 0.0 , 

7.0 , 4148.20512821 , 4146.66666667 , 4121.02564103 , 4146.66666667 , 4131.79487179 , 4139.48717949 , 4132.30769231 , 4123.07692308 , 4130.25641026 , 4138.46153846 , 4191.28205128 , 4910.76923077 , 4126.15384615 , 4135.8974359 , 2042.0 , 2037.0 , 93.318 , 0.0 , 0.0 , 0.0 , 0.0 , 

8.0 , 4145.64102564 , 4142.56410256 , 4125.64102564 , 4144.1025641 , 4130.76923077 , 4135.38461538 , 4131.28205128 , 4124.61538462 , 4136.92307692 , 4139.48717949 , 4189.23076923 , 4908.20512821 , 4130.25641026 , 4133.33333333 , 2041.0 , 2036.0 , 93.328 , 0.0 , 0.0 , 0.0 , 0.0 , 

9.0 , 4143.07692308 , 4141.53846154 , 4127.69230769 , 4143.07692308 , 4129.74358974 , 4126.66666667 , 4126.66666667 , 4126.66666667 , 4135.38461538 , 4136.92307692 , 4189.74358974 , 4906.66666667 , 4134.35897436 , 4137.43589744 , 2042.0 , 2037.0 , 93.333 , 0.0 , 0.0 , 0.0 , 0.0 , 

10.0 , 4142.56410256 , 4141.53846154 , 4128.20512821 , 4143.58974359 , 4129.23076923 , 4126.66666667 , 4130.25641026 , 4129.74358974 , 4133.84615385 , 4135.8974359 , 4193.33333333 , 4909.23076923 , 4132.82051282 , 4141.02564103 , 2042.0 , 2036.0 , 93.342 , 0.0 , 0.0 , 0.0 , 0.0 , 

11.0 , 4143.07692308 , 4138.97435897 , 4131.79487179 , 4142.56410256 , 4129.23076923 , 4129.23076923 , 4131.28205128 , 4130.76923077 , 4134.35897436 , 4137.94871795 , 4191.79487179 , 4913.84615385 , 4128.71794872 , 4143.07692308 , 2040.0 , 2037.0 , 93.348 , 0.0 , 0.0 , 0.0 , 0.0 , 

12.0 , 4139.48717949 , 4136.41025641 , 4133.33333333 , 4141.53846154 , 4129.74358974 , 4128.20512821 , 4128.20512821 , 4131.28205128 , 4135.38461538 , 4138.46153846 , 4187.69230769 , 4912.30769231 , 4131.79487179 , 4141.02564103 , 2042.0 , 2038.0 , 93.358 , 0.0 , 0.0 , 0.0 , 0.0 , 

13.0 , 4136.41025641 , 4132.82051282 , 4134.87179487 , 4141.02564103 , 4130.25641026 , 4127.17948718 , 4127.17948718 , 4129.23076923 , 4136.41025641 , 4137.43589744 , 4190.25641026 , 4913.84615385 , 4134.35897436 , 4142.05128205 , 2043.0 , 2038.0 , 93.364 , 0.0 , 0.0 , 0.0 , 0.0 , 

14.0 , 4131.79487179 , 4133.84615385 , 4136.41025641 , 4140.51282051 , 4131.79487179 , 4129.23076923 , 4130.25641026 , 4129.23076923 , 4135.8974359 , 4138.46153846 , 4192.30769231 , 4913.33333333 , 4134.87179487 , 4138.97435897 , 2042.0 , 2037.0 , 93.372 , 0.0 , 0.0 , 0.0 , 0.0 , 

15.0 , 4133.84615385 , 4134.87179487 , 4137.94871795 , 4139.48717949 , 4131.79487179 , 4127.69230769 , 4126.66666667 , 4130.76923077 , 4130.76923077 , 4138.46153846 , 4189.23076923 , 4910.25641026 , 4134.87179487 , 4139.48717949 , 2044.0 , 2037.0 , 93.38 , 0.0 , 0.0 , 0.0 , 0.0 , 

16.0 , 4134.87179487 , 4132.82051282 , 4134.87179487 , 4140.51282051 , 4132.30769231 , 4127.17948718 , 4124.1025641 , 4133.33333333 , 4132.30769231 , 4138.97435897 , 4188.71794872 , 4907.17948718 , 4135.38461538 , 4137.94871795 , 2043.0 , 2037.0 , 93.389 , 0.0 , 0.0 , 0.0 , 0.0 , 

17.0 , 4134.87179487 , 4133.33333333 , 4135.38461538 , 4137.94871795 , 4131.79487179 , 4126.66666667 , 4125.12820513 , 4131.28205128 , 4135.8974359 , 4138.46153846 , 4192.82051282 , 4912.30769231 , 4135.8974359 , 4142.56410256 , 2043.0 , 2036.0 , 93.396 , 0.0 , 0.0 , 0.0 , 0.0 , 

18.0 , 4131.79487179 , 4136.41025641 , 4136.41025641 , 4134.87179487 , 4131.28205128 , 4130.25641026 , 4127.69230769 , 4130.25641026 , 4135.38461538 , 4137.94871795 , 4192.30769231 , 4910.76923077 , 4134.35897436 , 4141.02564103 , 2043.0 , 2037.0 , 93.404 , 0.0 , 0.0 , 0.0 , 0.0 , 

19.0 , 4132.30769231 , 4134.35897436 , 4136.41025641 , 4134.35897436 , 4129.74358974 , 4130.25641026 , 4127.17948718 , 4132.30769231 , 4133.84615385 , 4140.0 , 4189.74358974 , 4909.74358974 , 4133.33333333 , 4139.48717949 , 2044.0 , 2037.0 , 93.411 , 0.0 , 0.0 , 0.0 , 0.0 , 

20.0 , 4132.30769231 , 4133.33333333 , 4133.84615385 , 4137.43589744 , 4129.74358974 , 4128.71794872 , 4128.71794872 , 4133.33333333 , 4134.87179487 , 4141.02564103 , 4189.23076923 , 4910.76923077 , 4132.82051282 , 4139.48717949 , 2045.0 , 2037.0 , 93.422 , 0.0 , 0.0 , 0.0 , 0.0 , 

21.0 , 4133.84615385 , 4134.35897436 , 4134.87179487 , 4135.8974359 , 4130.76923077 , 4126.66666667 , 4126.66666667 , 4131.79487179 , 4134.87179487 , 4138.46153846 , 4190.76923077 , 4912.30769231 , 4133.33333333 , 4144.61538462 , 2044.0 , 2037.0 , 93.427 , 0.0 , 0.0 , 0.0 , 0.0 , 

22.0 , 4133.33333333 , 4132.30769231 , 4137.94871795 , 4132.82051282 , 4131.28205128 , 4129.23076923 , 4125.64102564 , 4132.30769231 , 4135.38461538 , 4137.94871795 , 4190.25641026 , 4910.25641026 , 4131.79487179 , 4141.02564103 , 2043.0 , 2038.0 , 93.436 , 0.0 , 0.0 , 0.0 , 0.0 , 

23.0 , 4132.30769231 , 4130.25641026 , 4136.92307692 , 4133.84615385 , 4131.79487179 , 4129.23076923 , 4126.15384615 , 4132.82051282 , 4138.46153846 , 4138.97435897 , 4191.28205128 , 4912.82051282 , 4129.23076923 , 4137.43589744 , 2044.0 , 2038.0 , 93.444 , 0.0 , 0.0 , 0.0 , 0.0 , 

24.0 , 4133.84615385 , 4132.30769231 , 4131.28205128 , 4135.8974359 , 4130.76923077 , 4125.64102564 , 4126.15384615 , 4135.38461538 , 4138.97435897 , 4138.97435897 , 4193.33333333 , 4913.84615385 , 4128.71794872 , 4137.43589744 , 2043.0 , 2036.0 , 93.453 , 0.0 , 0.0 , 0.0 , 0.0 , 

25.0 , 4133.84615385 , 4132.30769231 , 4132.82051282 , 4132.82051282 , 4127.69230769 , 4126.66666667 , 4127.69230769 , 4134.35897436 , 4135.8974359 , 4137.94871795 , 4191.79487179 , 4910.76923077 , 4131.79487179 , 4138.97435897 , 2043.0 , 2036.0 , 93.459 , 0.0 , 0.0 , 0.0 , 0.0 , 

26.0 , 4131.79487179 , 4131.28205128 , 4140.0 , 4132.30769231 , 4128.71794872 , 4129.74358974 , 4129.23076923 , 4131.28205128 , 4133.84615385 , 4138.46153846 , 4190.25641026 , 4910.25641026 , 4133.33333333 , 4141.53846154 , 2044.0 , 2036.0 , 93.468 , 0.0 , 0.0 , 0.0 , 0.0 , 

27.0 , 4130.76923077 , 4132.82051282 , 4138.46153846 , 4135.38461538 , 4130.76923077 , 4129.74358974 , 4128.20512821 , 4132.30769231 , 4135.8974359 , 4137.43589744 , 4192.82051282 , 4911.28205128 , 4134.35897436 , 4141.02564103 , 2044.0 , 2036.0 , 93.475 , 0.0 , 0.0 , 0.0 , 0.0 , 

28.0 , 4133.33333333 , 4132.30769231 , 4134.87179487 , 4131.79487179 , 4127.69230769 , 4126.66666667 , 4126.66666667 , 4134.35897436 , 4136.92307692 , 4136.41025641 , 4194.87179487 , 4914.35897436 , 4133.84615385 , 4143.58974359 , 2043.0 , 2035.0 , 93.484 , 0.0 , 0.0 , 0.0 , 0.0 , 

29.0 , 4131.28205128 , 4129.23076923 , 4135.38461538 , 4130.25641026 , 4126.66666667 , 4126.66666667 , 4125.64102564 , 4132.30769231 , 4135.8974359 , 4136.92307692 , 4192.82051282 , 4913.33333333 , 4134.35897436 , 4143.58974359 , 2043.0 , 2036.0 , 93.49 , 0.0 , 0.0 , 0.0 , 0.0 , 

30.0 , 4130.76923077 , 4130.25641026 , 4135.38461538 , 4134.87179487 , 4130.76923077 , 4126.66666667 , 4124.1025641 , 4131.79487179 , 4133.33333333 , 4138.46153846 , 4191.79487179 , 4912.30769231 , 4135.38461538 , 4144.1025641 , 2042.0 , 2035.0 , 93.499 , 0.0 , 0.0 , 0.0 , 0.0 , 

31.0 , 4131.79487179 , 4133.33333333 , 4133.33333333 , 4137.94871795 , 4132.30769231 , 4127.17948718 , 4125.12820513 , 4134.35897436 , 4134.35897436 , 4139.48717949 , 4192.30769231 , 4914.35897436 , 4135.8974359 , 4138.97435897 , 2042.0 , 2037.0 , 93.507 , 0.0 , 0.0 , 0.0 , 0.0 , 

32.0 , 4132.82051282 , 4132.30769231 , 4135.8974359 , 4133.33333333 , 4129.74358974 , 4126.15384615 , 4125.12820513 , 4133.33333333 , 4136.92307692 , 4138.46153846 , 4191.79487179 , 4916.92307692 , 4135.8974359 , 4141.53846154 , 2043.0 , 2036.0 , 93.516 , 0.0 , 0.0 , 0.0 , 0.0 , 

33.0 , 4128.71794872 , 4129.74358974 , 4135.38461538 , 4132.82051282 , 4129.23076923 , 4126.15384615 , 4126.66666667 , 4132.30769231 , 4136.41025641 , 4137.94871795 , 4191.79487179 , 4912.82051282 , 4136.41025641 , 4141.02564103 , 2042.0 , 2037.0 , 93.522 , 0.0 , 0.0 , 0.0 , 0.0 , 

34.0 , 4128.71794872 , 4127.17948718 , 4133.33333333 , 4133.84615385 , 4128.71794872 , 4126.66666667 , 4125.12820513 , 4131.79487179 , 4132.82051282 , 4140.0 , 4191.79487179 , 4913.33333333 , 4133.84615385 , 4140.51282051 , 2042.0 , 2035.0 , 93.531 , 0.0 , 0.0 , 0.0 , 0.0 , 

35.0 , 4129.74358974 , 4130.76923077 , 4133.33333333 , 4135.8974359 , 4129.74358974 , 4125.64102564 , 4123.58974359 , 4134.35897436 , 4135.8974359 , 4138.97435897 , 4192.82051282 , 4913.33333333 , 4133.84615385 , 4138.46153846 , 2041.0 , 2034.0 , 93.539 , 0.0 , 0.0 , 0.0 , 0.0 , 

36.0 , 4130.25641026 , 4130.76923077 , 4135.8974359 , 4133.84615385 , 4129.23076923 , 4123.07692308 , 4122.05128205 , 4135.38461538 , 4137.43589744 , 4136.92307692 , 4193.33333333 , 4912.30769231 , 4136.41025641 , 4141.53846154 , 2041.0 , 2034.0 , 93.548 , 0.0 , 0.0 , 0.0 , 0.0 , 

37.0 , 4126.15384615 , 4125.64102564 , 4137.94871795 , 4129.74358974 , 4127.17948718 , 4122.05128205 , 4123.07692308 , 4133.84615385 , 4136.92307692 , 4136.92307692 , 4192.30769231 , 4911.79487179 , 4135.8974359 , 4138.97435897 , 2041.0 , 2034.0 , 93.553 , 0.0 , 0.0 , 0.0 , 0.0 , 

38.0 , 4125.64102564 , 4123.07692308 , 4140.0 , 4127.17948718 , 4127.17948718 , 4118.97435897 , 4121.53846154 , 4133.33333333 , 4138.46153846 , 4137.43589744 , 4190.76923077 , 4915.38461538 , 4136.92307692 , 4138.97435897 , 2042.0 , 2034.0 , 93.562 , 0.0 , 0.0 , 0.0 , 0.0 , 

39.0 , 4124.1025641 , 4123.58974359 , 4143.07692308 , 4129.23076923 , 4130.25641026 , 4118.97435897 , 4120.51282051 , 4137.43589744 , 4140.51282051 , 4137.43589744 , 4191.28205128 , 4915.8974359 , 4138.97435897 , 4138.97435897 , 2042.0 , 2036.0 , 93.57 , 0.0 , 0.0 , 0.0 , 0.0 , 

40.0 , 4123.07692308 , 4122.05128205 , 4145.64102564 , 4128.20512821 , 4128.71794872 , 4118.97435897 , 4117.94871795 , 4139.48717949 , 4137.94871795 , 4138.97435897 , 4192.82051282 , 4914.87179487 , 4138.97435897 , 4142.05128205 , 2042.0 , 2036.0 , 93.579 , 0.0 , 0.0 , 0.0 , 0.0 , 

41.0 , 4120.51282051 , 4118.97435897 , 4146.66666667 , 4124.61538462 , 4126.66666667 , 4117.43589744 , 4114.35897436 , 4137.94871795 , 4135.38461538 , 4138.97435897 , 4192.82051282 , 4912.82051282 , 4139.48717949 , 4141.53846154 , 2042.0 , 2034.0 , 93.585 , 0.0 , 0.0 , 0.0 , 0.0 , 

42.0 , 4118.97435897 , 4115.8974359 , 4149.74358974 , 4122.56410256 , 4128.20512821 , 4117.94871795 , 4112.30769231 , 4136.92307692 , 4137.43589744 , 4137.43589744 , 4192.82051282 , 4913.84615385 , 4141.53846154 , 4141.02564103 , 2043.0 , 2035.0 , 93.594 , 0.0 , 0.0 , 0.0 , 0.0 , 

43.0 , 4118.97435897 , 4113.84615385 , 4153.33333333 , 4121.02564103 , 4129.23076923 , 4120.0 , 4112.30769231 , 4138.46153846 , 4138.97435897 , 4136.92307692 , 4192.82051282 , 4916.41025641 , 4137.94871795 , 4142.56410256 , 2043.0 , 2034.0 , 93.601 , 0.0 , 0.0 , 0.0 , 0.0 , 

44.0 , 4117.94871795 , 4116.92307692 , 4154.35897436 , 4121.02564103 , 4129.74358974 , 4120.51282051 , 4115.38461538 , 4138.46153846 , 4138.97435897 , 4137.43589744 , 4193.84615385 , 4915.38461538 , 4135.8974359 , 4142.56410256 , 2043.0 , 2035.0 , 93.611 , 0.0 , 0.0 , 0.0 , 0.0 , 

45.0 , 4120.51282051 , 4118.46153846 , 4154.35897436 , 4123.58974359 , 4130.25641026 , 4122.05128205 , 4118.46153846 , 4137.43589744 , 4138.46153846 , 4137.43589744 , 4193.33333333 , 4915.8974359 , 4137.94871795 , 4143.58974359 , 2043.0 , 2034.0 , 93.616 , 0.0 , 0.0 , 0.0 , 0.0 , 

46.0 , 4123.07692308 , 4113.33333333 , 4150.25641026 , 4125.12820513 , 4131.28205128 , 4122.05128205 , 4120.0 , 4140.51282051 , 4138.97435897 , 4139.48717949 , 4192.30769231 , 4913.84615385 , 4137.94871795 , 4143.58974359 , 2042.0 , 2032.0 , 93.624 , 0.0 , 0.0 , 0.0 , 0.0 , 

47.0 , 4122.56410256 , 4111.79487179 , 4146.15384615 , 4123.58974359 , 4130.76923077 , 4120.0 , 4121.02564103 , 4138.46153846 , 4138.97435897 , 4140.51282051 , 4192.82051282 , 4912.30769231 , 4135.8974359 , 4145.12820513 , 2040.0 , 2034.0 , 93.632 , 0.0 , 0.0 , 0.0 , 0.0 , 

48.0 , 4119.48717949 , 4116.41025641 , 4146.15384615 , 4121.02564103 , 4130.25641026 , 4122.05128205 , 4122.56410256 , 4136.92307692 , 4139.48717949 , 4137.94871795 , 4192.82051282 , 4914.35897436 , 4137.94871795 , 4141.02564103 , 2042.0 , 2035.0 , 93.641 , 0.0 , 0.0 , 0.0 , 0.0 , 

49.0 , 4122.05128205 , 4115.8974359 , 4151.79487179 , 4118.46153846 , 4130.25641026 , 4123.07692308 , 4120.51282051 , 4141.02564103 , 4137.94871795 , 4135.8974359 , 4192.82051282 , 4916.41025641 , 4138.97435897 , 4141.53846154 , 2042.0 , 2034.0 , 93.648 , 0.0 , 0.0 , 0.0 , 0.0 , 

50.0 , 4121.53846154 , 4111.28205128 , 4151.79487179 , 4118.97435897 , 4129.74358974 , 4121.53846154 , 4120.51282051 , 4144.1025641 , 4138.46153846 , 4137.43589744 , 4193.84615385 , 4912.82051282 , 4138.46153846 , 4141.02564103 , 2042.0 , 2034.0 , 93.656 , 0.0 , 0.0 , 0.0 , 0.0 , 

51.0 , 4120.51282051 , 4106.15384615 , 4151.79487179 , 4114.35897436 , 4129.74358974 , 4121.53846154 , 4120.51282051 , 4138.46153846 , 4139.48717949 , 4138.46153846 , 4195.38461538 , 4913.84615385 , 4137.43589744 , 4142.56410256 , 2043.0 , 2034.0 , 93.664 , 0.0 , 0.0 , 0.0 , 0.0 , 

52.0 , 4120.0 , 4104.1025641 , 4155.8974359 , 4110.76923077 , 4131.79487179 , 4127.17948718 , 4121.53846154 , 4137.94871795 , 4137.94871795 , 4137.43589744 , 4194.35897436 , 4914.35897436 , 4138.97435897 , 4140.0 , 2042.0 , 2036.0 , 93.674 , 0.0 , 0.0 , 0.0 , 0.0 , 

53.0 , 4124.1025641 , 4106.15384615 , 4158.46153846 , 4111.28205128 , 4131.79487179 , 4126.15384615 , 4123.07692308 , 4140.0 , 4135.38461538 , 4137.43589744 , 4193.33333333 , 4914.35897436 , 4140.0 , 4143.07692308 , 2044.0 , 2036.0 , 93.679 , 0.0 , 0.0 , 0.0 , 0.0 , 

54.0 , 4123.07692308 , 4111.79487179 , 4152.82051282 , 4115.8974359 , 4131.79487179 , 4125.12820513 , 4125.12820513 , 4140.0 , 4138.97435897 , 4137.94871795 , 4193.84615385 , 4916.41025641 , 4138.97435897 , 4141.02564103 , 2045.0 , 2035.0 , 93.687 , 0.0 , 0.0 , 0.0 , 0.0 , 

55.0 , 4122.05128205 , 4111.79487179 , 4150.76923077 , 4114.87179487 , 4134.35897436 , 4124.61538462 , 4123.07692308 , 4138.97435897 , 4141.53846154 , 4136.92307692 , 4192.82051282 , 4919.48717949 , 4136.41025641 , 4142.56410256 , 2044.0 , 2037.0 , 93.695 , 0.0 , 0.0 , 0.0 , 0.0 , 

56.0 , 4124.1025641 , 4108.71794872 , 4156.41025641 , 4109.74358974 , 4134.35897436 , 4122.56410256 , 4123.58974359 , 4136.92307692 , 4138.97435897 , 4136.92307692 , 4192.82051282 , 4916.92307692 , 4136.41025641 , 4137.94871795 , 2044.0 , 2037.0 , 93.705 , 0.0 , 0.0 , 0.0 , 0.0 , 

57.0 , 4128.71794872 , 4108.20512821 , 4158.46153846 , 4108.71794872 , 4129.74358974 , 4121.53846154 , 4122.56410256 , 4136.41025641 , 4139.48717949 , 4137.43589744 , 4193.84615385 , 4913.33333333 , 4136.41025641 , 4139.48717949 , 2044.0 , 2036.0 , 93.711 , 0.0 , 0.0 , 0.0 , 0.0 , 

58.0 , 4127.69230769 , 4112.82051282 , 4153.84615385 , 4114.87179487 , 4130.25641026 , 4128.20512821 , 4122.56410256 , 4137.94871795 , 4141.53846154 , 4137.94871795 , 4194.35897436 , 4911.79487179 , 4135.8974359 , 4142.05128205 , 2044.0 , 2037.0 , 93.719 , 0.0 , 0.0 , 0.0 , 0.0 , 

59.0 , 4125.64102564 , 4118.97435897 , 4150.76923077 , 4122.05128205 , 4131.79487179 , 4130.25641026 , 4125.12820513 , 4137.43589744 , 4138.46153846 , 4137.94871795 , 4194.35897436 , 4914.87179487 , 4137.43589744 , 4141.53846154 , 2043.0 , 2038.0 , 93.728 , 0.0 , 0.0 , 0.0 , 0.0 , 

60.0 , 4127.17948718 , 4121.53846154 , 4146.66666667 , 4124.1025641 , 4129.74358974 , 4126.15384615 , 4124.61538462 , 4135.8974359 , 4135.38461538 , 4138.46153846 , 4193.33333333 , 4914.35897436 , 4136.92307692 , 4138.97435897 , 2043.0 , 2037.0 , 93.737 , 0.0 , 0.0 , 0.0 , 0.0 , 

61.0 , 4130.76923077 , 4120.51282051 , 4141.02564103 , 4124.61538462 , 4130.25641026 , 4126.66666667 , 4122.05128205 , 4134.87179487 , 4135.8974359 , 4137.94871795 , 4192.82051282 , 4911.28205128 , 4134.35897436 , 4142.05128205 , 2042.0 , 2037.0 , 93.742 , 0.0 , 0.0 , 0.0 , 0.0 , 

62.0 , 4131.28205128 , 4126.66666667 , 4136.92307692 , 4126.66666667 , 4132.82051282 , 4131.28205128 , 4123.58974359 , 4131.79487179 , 4135.38461538 , 4137.43589744 , 4190.76923077 , 4911.79487179 , 4135.38461538 , 4144.1025641 , 2043.0 , 2037.0 , 93.75 , 0.0 , 0.0 , 0.0 , 0.0 , 

63.0 , 4129.74358974 , 4133.84615385 , 4135.38461538 , 4131.28205128 , 4132.30769231 , 4131.28205128 , 4125.12820513 , 4131.28205128 , 4134.87179487 , 4138.97435897 , 4190.76923077 , 4913.33333333 , 4137.43589744 , 4139.48717949 , 2043.0 , 2038.0 , 93.758 , 0.0 , 0.0 , 0.0 , 0.0 , 

64.0 , 4132.30769231 , 4135.38461538 , 4135.8974359 , 4133.33333333 , 4130.76923077 , 4129.74358974 , 4126.15384615 , 4133.84615385 , 4135.38461538 , 4140.0 , 4191.28205128 , 4911.28205128 , 4133.84615385 , 4140.51282051 , 2043.0 , 2038.0 , 93.768 , 0.0 , 0.0 , 0.0 , 0.0 , 

65.0 , 4134.35897436 , 4132.30769231 , 4136.41025641 , 4130.25641026 , 4130.25641026 , 4130.25641026 , 4128.20512821 , 4133.33333333 , 4136.41025641 , 4137.94871795 , 4191.28205128 , 4910.25641026 , 4132.82051282 , 4139.48717949 , 2043.0 , 2037.0 , 93.775 , 0.0 , 0.0 , 0.0 , 0.0 , 

66.0 , 4135.38461538 , 4128.20512821 , 4136.92307692 , 4131.28205128 , 4129.74358974 , 4128.71794872 , 4127.69230769 , 4132.30769231 , 4136.41025641 , 4135.8974359 , 4191.79487179 , 4912.30769231 , 4134.35897436 , 4138.97435897 , 2043.0 , 2037.0 , 93.782 , 0.0 , 0.0 , 0.0 , 0.0 , 

67.0 , 4135.8974359 , 4131.79487179 , 4133.84615385 , 4137.43589744 , 4131.79487179 , 4127.69230769 , 4128.20512821 , 4135.8974359 , 4136.41025641 , 4136.92307692 , 4190.76923077 , 4910.76923077 , 4133.33333333 , 4135.8974359 , 2043.0 , 2036.0 , 93.791 , 0.0 , 0.0 , 0.0 , 0.0 , 

68.0 , 4136.92307692 , 4135.38461538 , 4132.30769231 , 4137.94871795 , 4130.25641026 , 4129.23076923 , 4130.25641026 , 4133.84615385 , 4134.87179487 , 4138.46153846 , 4191.28205128 , 4912.82051282 , 4132.30769231 , 4136.92307692 , 2042.0 , 2034.0 , 93.8 , 0.0 , 0.0 , 0.0 , 0.0 , 

69.0 , 4134.87179487 , 4136.92307692 , 4129.74358974 , 4136.92307692 , 4130.76923077 , 4132.30769231 , 4132.82051282 , 4130.76923077 , 4135.38461538 , 4137.43589744 , 4192.82051282 , 4911.79487179 , 4133.84615385 , 4133.84615385 , 2041.0 , 2034.0 , 93.805 , 0.0 , 0.0 , 0.0 , 0.0 , 

70.0 , 4137.43589744 , 4138.97435897 , 4128.71794872 , 4133.84615385 , 4132.30769231 , 4130.76923077 , 4130.25641026 , 4131.79487179 , 4136.92307692 , 4136.92307692 , 4192.82051282 , 4912.30769231 , 4128.71794872 , 4135.8974359 , 2042.0 , 2034.0 , 93.814 , 0.0 , 0.0 , 0.0 , 0.0 , 

71.0 , 4135.38461538 , 4141.02564103 , 4126.66666667 , 4135.8974359 , 4130.25641026 , 4129.74358974 , 4127.69230769 , 4134.87179487 , 4138.46153846 , 4138.46153846 , 4189.23076923 , 4910.76923077 , 4127.17948718 , 4135.38461538 , 2042.0 , 2035.0 , 93.821 , 0.0 , 0.0 , 0.0 , 0.0 , 

72.0 , 4135.38461538 , 4141.53846154 , 4127.69230769 , 4142.05128205 , 4128.71794872 , 4130.25641026 , 4125.64102564 , 4133.84615385 , 4135.8974359 , 4138.97435897 , 4189.74358974 , 4909.23076923 , 4130.25641026 , 4140.51282051 , 2043.0 , 2035.0 , 93.832 , 0.0 , 0.0 , 0.0 , 0.0 , 

73.0 , 4135.38461538 , 4144.61538462 , 4129.23076923 , 4145.64102564 , 4130.25641026 , 4131.28205128 , 4127.17948718 , 4132.82051282 , 4134.87179487 , 4138.97435897 , 4192.82051282 , 4907.69230769 , 4129.23076923 , 4141.02564103 , 2042.0 , 2033.0 , 93.837 , 0.0 , 0.0 , 0.0 , 0.0 , 

74.0 , 4135.8974359 , 4145.12820513 , 4126.15384615 , 4142.56410256 , 4129.23076923 , 4129.74358974 , 4127.69230769 , 4133.84615385 , 4136.92307692 , 4138.97435897 , 4193.33333333 , 4909.23076923 , 4128.71794872 , 4141.02564103 , 2043.0 , 2036.0 , 93.845 , 0.0 , 0.0 , 0.0 , 0.0 , 

75.0 , 4136.92307692 , 4146.15384615 , 4121.53846154 , 4142.05128205 , 4128.20512821 , 4131.79487179 , 4128.71794872 , 4132.30769231 , 4135.38461538 , 4138.46153846 , 4191.28205128 , 4910.76923077 , 4132.30769231 , 4137.43589744 , 2043.0 , 2034.0 , 93.853 , 0.0 , 0.0 , 0.0 , 0.0 , 

76.0 , 4137.94871795 , 4148.20512821 , 4122.56410256 , 4145.12820513 , 4131.79487179 , 4133.33333333 , 4127.69230769 , 4129.74358974 , 4129.23076923 , 4138.97435897 , 4190.25641026 , 4911.28205128 , 4132.30769231 , 4137.94871795 , 2042.0 , 2035.0 , 93.863 , 0.0 , 0.0 , 0.0 , 0.0 , 

77.0 , 4133.33333333 , 4148.71794872 , 4119.48717949 , 4148.20512821 , 4134.35897436 , 4134.35897436 , 4125.64102564 , 4130.25641026 , 4130.76923077 , 4138.97435897 , 4190.76923077 , 4909.74358974 , 4130.25641026 , 4137.43589744 , 2041.0 , 2036.0 , 93.868 , 0.0 , 0.0 , 0.0 , 0.0 , 

78.0 , 4134.87179487 , 4147.17948718 , 4115.8974359 , 4149.74358974 , 4130.76923077 , 4136.41025641 , 4126.15384615 , 4130.25641026 , 4135.38461538 , 4137.94871795 , 4191.79487179 , 4908.71794872 , 4130.76923077 , 4137.43589744 , 2044.0 , 2036.0 , 93.876 , 0.0 , 0.0 , 0.0 , 0.0 , 

79.0 , 4139.48717949 , 4143.58974359 , 4118.97435897 , 4146.66666667 , 4129.74358974 , 4136.41025641 , 4126.66666667 , 4128.20512821 , 4130.76923077 , 4140.0 , 4191.79487179 , 4908.71794872 , 4128.71794872 , 4137.94871795 , 2044.0 , 2036.0 , 93.884 , 0.0 , 0.0 , 0.0 , 0.0 , 

80.0 , 4138.97435897 , 4141.53846154 , 4121.02564103 , 4144.61538462 , 4131.28205128 , 4132.30769231 , 4126.66666667 , 4129.23076923 , 4127.69230769 , 4138.46153846 , 4188.20512821 , 4906.66666667 , 4128.20512821 , 4137.94871795 , 2043.0 , 2038.0 , 93.893 , 0.0 , 0.0 , 0.0 , 0.0 , 

81.0 , 4137.94871795 , 4141.02564103 , 4120.0 , 4145.12820513 , 4130.76923077 , 4131.79487179 , 4126.66666667 , 4129.74358974 , 4133.84615385 , 4134.87179487 , 4187.69230769 , 4908.71794872 , 4130.76923077 , 4137.43589744 , 2041.0 , 2037.0 , 93.901 , 0.0 , 0.0 , 0.0 , 0.0 , 

82.0 , 4137.43589744 , 4139.48717949 , 4124.61538462 , 4144.1025641 , 4129.23076923 , 4133.33333333 , 4126.66666667 , 4129.74358974 , 4138.46153846 , 4135.38461538 , 4190.76923077 , 4911.28205128 , 4132.82051282 , 4136.41025641 , 2042.0 , 2037.0 , 93.909 , 0.0 , 0.0 , 0.0 , 0.0 , 

83.0 , 4135.38461538 , 4137.43589744 , 4128.71794872 , 4140.51282051 , 4130.25641026 , 4129.74358974 , 4125.64102564 , 4132.30769231 , 4134.87179487 , 4138.46153846 , 4191.79487179 , 4909.23076923 , 4129.74358974 , 4142.05128205 , 2042.0 , 2038.0 , 93.917 , 0.0 , 0.0 , 0.0 , 0.0 , 

84.0 , 4134.35897436 , 4142.05128205 , 4123.07692308 , 4142.05128205 , 4132.82051282 , 4128.20512821 , 4127.69230769 , 4134.87179487 , 4133.84615385 , 4138.46153846 , 4191.28205128 , 4908.20512821 , 4126.15384615 , 4138.97435897 , 2043.0 , 2038.0 , 93.926 , 0.0 , 0.0 , 0.0 , 0.0 , 

85.0 , 4136.92307692 , 4143.07692308 , 4118.46153846 , 4147.69230769 , 4132.82051282 , 4129.74358974 , 4129.74358974 , 4131.79487179 , 4135.8974359 , 4137.94871795 , 4192.82051282 , 4913.33333333 , 4127.17948718 , 4136.41025641 , 2043.0 , 2037.0 , 93.932 , 0.0 , 0.0 , 0.0 , 0.0 , 

86.0 , 4137.43589744 , 4139.48717949 , 4117.94871795 , 4147.69230769 , 4131.28205128 , 4131.79487179 , 4127.69230769 , 4132.82051282 , 4135.8974359 , 4138.97435897 , 4190.76923077 , 4908.71794872 , 4129.74358974 , 4135.8974359 , 2044.0 , 2037.0 , 93.939 , 0.0 , 0.0 , 0.0 , 0.0 , 

87.0 , 4140.51282051 , 4140.0 , 4122.05128205 , 4143.58974359 , 4130.76923077 , 4131.28205128 , 4127.17948718 , 4131.79487179 , 4134.35897436 , 4137.43589744 , 4188.20512821 , 4905.64102564 , 4128.20512821 , 4137.43589744 , 2043.0 , 2035.0 , 93.948 , 0.0 , 0.0 , 0.0 , 0.0 , 

88.0 , 4139.48717949 , 4141.53846154 , 4123.07692308 , 4146.66666667 , 4132.30769231 , 4130.76923077 , 4129.74358974 , 4129.74358974 , 4135.8974359 , 4137.43589744 , 4191.28205128 , 4907.69230769 , 4125.64102564 , 4132.82051282 , 2044.0 , 2035.0 , 93.957 , 0.0 , 0.0 , 0.0 , 0.0 , 

89.0 , 4141.02564103 , 4139.48717949 , 4124.1025641 , 4146.66666667 , 4130.76923077 , 4130.76923077 , 4129.23076923 , 4129.74358974 , 4135.38461538 , 4138.97435897 , 4192.30769231 , 4908.71794872 , 4127.69230769 , 4135.38461538 , 2043.0 , 2037.0 , 93.963 , 0.0 , 0.0 , 0.0 , 0.0 , 

90.0 , 4140.0 , 4136.92307692 , 4127.69230769 , 4142.56410256 , 4130.76923077 , 4131.28205128 , 4130.76923077 , 4134.35897436 , 4133.84615385 , 4139.48717949 , 4190.25641026 , 4904.61538462 , 4130.76923077 , 4137.94871795 , 2044.0 , 2037.0 , 93.972 , 0.0 , 0.0 , 0.0 , 0.0 , 

91.0 , 4138.97435897 , 4134.87179487 , 4129.23076923 , 4141.53846154 , 4130.25641026 , 4127.17948718 , 4128.71794872 , 4133.84615385 , 4133.33333333 , 4139.48717949 , 4193.33333333 , 4909.23076923 , 4130.25641026 , 4141.53846154 , 2044.0 , 2037.0 , 93.98 , 0.0 , 0.0 , 0.0 , 0.0 , 

92.0 , 4134.87179487 , 4136.41025641 , 4126.66666667 , 4144.1025641 , 4129.23076923 , 4127.17948718 , 4126.15384615 , 4131.79487179 , 4134.87179487 , 4138.97435897 , 4193.84615385 , 4911.79487179 , 4129.23076923 , 4138.97435897 , 2042.0 , 2036.0 , 93.989 , 0.0 , 0.0 , 0.0 , 0.0 , 

93.0 , 4133.84615385 , 4137.94871795 , 4126.66666667 , 4142.56410256 , 4130.25641026 , 4130.25641026 , 4126.66666667 , 4132.30769231 , 4133.33333333 , 4138.46153846 , 4192.30769231 , 4910.76923077 , 4129.23076923 , 4138.46153846 , 2041.0 , 2036.0 , 93.995 , 0.0 , 0.0 , 0.0 , 0.0 , 

94.0 , 4132.30769231 , 4135.8974359 , 4127.69230769 , 4141.02564103 , 4133.84615385 , 4131.79487179 , 4126.15384615 , 4134.35897436 , 4131.79487179 , 4138.97435897 , 4192.82051282 , 4909.23076923 , 4130.25641026 , 4138.46153846 , 2041.0 , 2038.0 , 94.003 , 0.0 , 0.0 , 0.0 , 0.0 , 

95.0 , 4134.35897436 , 4134.35897436 , 4127.69230769 , 4138.46153846 , 4133.84615385 , 4130.76923077 , 4121.02564103 , 4130.76923077 , 4133.84615385 , 4140.51282051 , 4192.82051282 , 4910.76923077 , 4131.28205128 , 4141.53846154 , 2041.0 , 2038.0 , 94.011 , 0.0 , 0.0 , 0.0 , 0.0 , 

96.0 , 4136.41025641 , 4136.41025641 , 4129.23076923 , 4135.8974359 , 4131.79487179 , 4130.76923077 , 4124.61538462 , 4129.74358974 , 4136.92307692 , 4140.51282051 , 4190.76923077 , 4910.76923077 , 4132.30769231 , 4141.53846154 , 2042.0 , 2039.0 , 94.02 , 0.0 , 0.0 , 0.0 , 0.0 , 

97.0 , 4134.87179487 , 4133.33333333 , 4132.30769231 , 4135.8974359 , 4131.79487179 , 4129.74358974 , 4130.76923077 , 4133.84615385 , 4137.43589744 , 4138.97435897 , 4192.82051282 , 4909.23076923 , 4132.82051282 , 4139.48717949 , 2041.0 , 2038.0 , 94.026 , 0.0 , 0.0 , 0.0 , 0.0 , 

98.0 , 4133.84615385 , 4129.74358974 , 4136.41025641 , 4134.35897436 , 4133.33333333 , 4127.69230769 , 4129.23076923 , 4134.35897436 , 4134.35897436 , 4138.46153846 , 4192.82051282 , 4908.71794872 , 4131.28205128 , 4136.92307692 , 2041.0 , 2038.0 , 94.034 , 0.0 , 0.0 , 0.0 , 0.0 , 

99.0 , 4134.35897436 , 4131.79487179 , 4133.84615385 , 4131.79487179 , 4131.79487179 , 4128.71794872 , 4129.23076923 , 4133.33333333 , 4133.33333333 , 4137.94871795 , 4190.25641026 , 4909.74358974 , 4130.25641026 , 4135.38461538 , 2041.0 , 2038.0 , 94.043 , 0.0 , 0.0 , 0.0 , 0.0 , 

100.0 , 4136.41025641 , 4133.33333333 , 4129.74358974 , 4133.84615385 , 4129.23076923 , 4129.23076923 , 4127.69230769 , 4131.28205128 , 4134.35897436 , 4136.92307692 , 4191.28205128 , 4911.28205128 , 4131.28205128 , 4137.94871795 , 2040.0 , 2036.0 , 94.053 , 0.0 , 0.0 , 0.0 , 0.0 , 

101.0 , 4134.35897436 , 4133.33333333 , 4129.23076923 , 4139.48717949 , 4130.25641026 , 4127.69230769 , 4124.61538462 , 4130.25641026 , 4135.8974359 , 4137.43589744 , 4191.79487179 , 4909.74358974 , 4134.87179487 , 4136.92307692 , 2041.0 , 2036.0 , 94.058 , 0.0 , 0.0 , 0.0 , 0.0 , 

102.0 , 4135.38461538 , 4134.35897436 , 4129.23076923 , 4137.43589744 , 4131.79487179 , 4129.23076923 , 4126.66666667 , 4132.82051282 , 4135.38461538 , 4139.48717949 , 4190.76923077 , 4911.28205128 , 4131.28205128 , 4138.97435897 , 2041.0 , 2036.0 , 94.067 , 0.0 , 0.0 , 0.0 , 0.0 , 

103.0 , 4135.38461538 , 4134.87179487 , 4128.20512821 , 4134.35897436 , 4129.23076923 , 4132.30769231 , 4131.28205128 , 4134.87179487 , 4135.8974359 , 4138.46153846 , 4192.30769231 , 4910.76923077 , 4127.17948718 , 4137.43589744 , 2043.0 , 2036.0 , 94.074 , 0.0 , 0.0 , 0.0 , 0.0 , 

104.0 , 4133.33333333 , 4133.84615385 , 4129.74358974 , 4137.43589744 , 4127.69230769 , 4130.25641026 , 4127.17948718 , 4131.79487179 , 4135.8974359 , 4136.41025641 , 4194.35897436 , 4910.25641026 , 4128.20512821 , 4136.41025641 , 2042.0 , 2036.0 , 94.084 , 0.0 , 0.0 , 0.0 , 0.0 , 

105.0 , 4130.76923077 , 4133.84615385 , 4130.25641026 , 4140.51282051 , 4129.74358974 , 4129.74358974 , 4123.07692308 , 4133.84615385 , 4135.38461538 , 4137.43589744 , 4192.82051282 , 4910.25641026 , 4129.74358974 , 4134.87179487 , 2044.0 , 2034.0 , 94.089 , 0.0 , 0.0 , 0.0 , 0.0 , 

106.0 , 4135.38461538 , 4131.79487179 , 4132.30769231 , 4135.38461538 , 4130.76923077 , 4131.79487179 , 4124.61538462 , 4135.38461538 , 4134.35897436 , 4137.43589744 , 4192.82051282 , 4915.38461538 , 4128.20512821 , 4140.0 , 2044.0 , 2034.0 , 94.097 , 0.0 , 0.0 , 0.0 , 0.0 , 

107.0 , 4136.92307692 , 4134.35897436 , 4130.25641026 , 4136.92307692 , 4130.76923077 , 4132.82051282 , 4128.71794872 , 4132.82051282 , 4134.87179487 , 4137.43589744 , 4192.82051282 , 4914.87179487 , 4130.76923077 , 4136.92307692 , 2043.0 , 2034.0 , 94.105 , 0.0 , 0.0 , 0.0 , 0.0 , 

108.0 , 4137.43589744 , 4140.51282051 , 4126.15384615 , 4142.05128205 , 4130.25641026 , 4129.23076923 , 4128.20512821 , 4131.28205128 , 4134.87179487 , 4138.46153846 , 4190.76923077 , 4911.79487179 , 4132.30769231 , 4137.43589744 , 2045.0 , 2033.0 , 94.114 , 0.0 , 0.0 , 0.0 , 0.0 , 

109.0 , 4136.92307692 , 4138.97435897 , 4126.66666667 , 4141.02564103 , 4131.28205128 , 4129.23076923 , 4126.66666667 , 4132.82051282 , 4134.87179487 , 4137.94871795 , 4190.25641026 , 4910.25641026 , 4130.25641026 , 4138.97435897 , 2044.0 , 2033.0 , 94.121 , 0.0 , 0.0 , 0.0 , 0.0 , 

110.0 , 4138.97435897 , 4131.79487179 , 4129.74358974 , 4138.46153846 , 4131.28205128 , 4131.28205128 , 4125.12820513 , 4130.25641026 , 4132.82051282 , 4136.41025641 , 4193.33333333 , 4915.8974359 , 4130.25641026 , 4142.56410256 , 2043.0 , 2034.0 , 94.129 , 0.0 , 0.0 , 0.0 , 0.0 , 

111.0 , 4136.92307692 , 4131.79487179 , 4129.74358974 , 4137.94871795 , 4130.76923077 , 4129.74358974 , 4129.23076923 , 4129.74358974 , 4133.84615385 , 4138.46153846 , 4193.84615385 , 4916.41025641 , 4130.76923077 , 4140.0 , 2044.0 , 2034.0 , 94.136 , 0.0 , 0.0 , 0.0 , 0.0 , 

112.0 , 4134.87179487 , 4135.38461538 , 4131.79487179 , 4137.43589744 , 4129.23076923 , 4128.20512821 , 4131.79487179 , 4130.76923077 , 4136.92307692 , 4139.48717949 , 4191.28205128 , 4911.28205128 , 4129.74358974 , 4138.97435897 , 2043.0 , 2034.0 , 94.145 , 0.0 , 0.0 , 0.0 , 0.0 , 

113.0 , 4133.33333333 , 4134.35897436 , 4131.79487179 , 4137.43589744 , 4129.23076923 , 4132.82051282 , 4130.76923077 , 4129.23076923 , 4133.84615385 , 4138.97435897 , 4189.23076923 , 4907.69230769 , 4132.82051282 , 4135.38461538 , 2043.0 , 2034.0 , 94.153 , 0.0 , 0.0 , 0.0 , 0.0 , 

114.0 , 4134.87179487 , 4132.30769231 , 4130.76923077 , 4136.41025641 , 4130.76923077 , 4133.33333333 , 4126.66666667 , 4127.69230769 , 4130.25641026 , 4138.97435897 , 4190.25641026 , 4909.74358974 , 4135.8974359 , 4134.35897436 , 2043.0 , 2035.0 , 94.161 , 0.0 , 0.0 , 0.0 , 0.0 , 

115.0 , 4136.41025641 , 4133.84615385 , 4130.76923077 , 4135.8974359 , 4130.25641026 , 4129.23076923 , 4127.69230769 , 4128.20512821 , 4132.82051282 , 4137.43589744 , 4191.79487179 , 4911.79487179 , 4132.82051282 , 4136.41025641 , 2042.0 , 2036.0 , 94.169 , 0.0 , 0.0 , 0.0 , 0.0 , 

116.0 , 4135.38461538 , 4137.94871795 , 4129.23076923 , 4135.8974359 , 4129.74358974 , 4129.74358974 , 4130.25641026 , 4131.79487179 , 4134.87179487 , 4137.94871795 , 4193.33333333 , 4910.76923077 , 4130.25641026 , 4137.94871795 , 2042.0 , 2038.0 , 94.178 , 0.0 , 0.0 , 0.0 , 0.0 , 

117.0 , 4134.87179487 , 4137.43589744 , 4128.20512821 , 4135.38461538 , 4130.25641026 , 4131.28205128 , 4129.74358974 , 4132.82051282 , 4132.82051282 , 4141.02564103 , 4192.82051282 , 4913.33333333 , 4132.30769231 , 4138.97435897 , 2043.0 , 2035.0 , 94.185 , 0.0 , 0.0 , 0.0 , 0.0 , 

118.0 , 4134.35897436 , 4135.8974359 , 4129.23076923 , 4136.41025641 , 4132.82051282 , 4131.28205128 , 4127.17948718 , 4131.28205128 , 4131.28205128 , 4140.51282051 , 4192.30769231 , 4915.38461538 , 4134.35897436 , 4137.43589744 , 2042.0 , 2036.0 , 94.192 , 0.0 , 0.0 , 0.0 , 0.0 , 

119.0 , 4135.8974359 , 4134.87179487 , 4128.71794872 , 4136.41025641 , 4134.35897436 , 4132.30769231 , 4125.64102564 , 4129.74358974 , 4127.17948718 , 4137.94871795 , 4192.82051282 , 4914.87179487 , 4133.33333333 , 4136.41025641 , 2041.0 , 2036.0 , 94.201 , 0.0 , 0.0 , 0.0 , 0.0 , 

120.0 , 4135.8974359 , 4134.87179487 , 4130.76923077 , 4136.92307692 , 4131.79487179 , 4135.38461538 , 4126.15384615 , 4131.28205128 , 4127.69230769 , 4138.46153846 , 4192.30769231 , 4912.30769231 , 4134.35897436 , 4134.35897436 , 2042.0 , 2037.0 , 94.21 , 0.0 , 0.0 , 0.0 , 0.0 , 

121.0 , 4136.41025641 , 4134.35897436 , 4134.35897436 , 4138.97435897 , 4129.74358974 , 4133.33333333 , 4126.66666667 , 4130.25641026 , 4131.28205128 , 4138.97435897 , 4191.79487179 , 4912.82051282 , 4133.33333333 , 4138.97435897 , 2043.0 , 2037.0 , 94.215 , 0.0 , 0.0 , 0.0 , 0.0 , 

122.0 , 4135.38461538 , 4134.87179487 , 4130.76923077 , 4141.53846154 , 4132.30769231 , 4130.25641026 , 4129.74358974 , 4131.28205128 , 4131.28205128 , 4137.94871795 , 4192.30769231 , 4910.76923077 , 4132.30769231 , 4139.48717949 , 2041.0 , 2037.0 , 94.224 , 0.0 , 0.0 , 0.0 , 0.0 , 

123.0 , 4137.43589744 , 4134.87179487 , 4131.28205128 , 4136.92307692 , 4131.79487179 , 4128.71794872 , 4129.23076923 , 4133.33333333 , 4130.25641026 , 4137.43589744 , 4194.87179487 , 4910.25641026 , 4132.82051282 , 4141.53846154 , 2041.0 , 2038.0 , 94.231 , 0.0 , 0.0 , 0.0 , 0.0 , 

124.0 , 4135.8974359 , 4134.87179487 , 4132.82051282 , 4135.38461538 , 4130.25641026 , 4132.30769231 , 4127.69230769 , 4132.82051282 , 4134.35897436 , 4137.43589744 , 4193.84615385 , 4909.23076923 , 4131.79487179 , 4137.43589744 , 2042.0 , 2038.0 , 94.242 , 0.0 , 0.0 , 0.0 , 0.0 , 

125.0 , 4134.35897436 , 4134.87179487 , 4129.74358974 , 4136.92307692 , 4133.33333333 , 4130.25641026 , 4125.64102564 , 4131.28205128 , 4135.38461538 , 4138.46153846 , 4192.30769231 , 4914.87179487 , 4131.79487179 , 4138.46153846 , 2042.0 , 2038.0 , 94.247 , 0.0 , 0.0 , 0.0 , 0.0 , 

126.0 , 4132.82051282 , 4134.87179487 , 4125.64102564 , 4140.0 , 4134.87179487 , 4128.20512821 , 4124.61538462 , 4133.33333333 , 4133.33333333 , 4138.46153846 , 4190.76923077 , 4915.38461538 , 4133.84615385 , 4141.02564103 , 2043.0 , 2038.0 , 94.256 , 0.0 , 0.0 , 0.0 , 0.0 , 

127.0 , 4137.94871795 , 4134.35897436 , 4128.20512821 , 4139.48717949 , 4131.79487179 , 4128.20512821 , 4124.1025641 , 4132.82051282 , 4131.28205128 , 4137.43589744 , 4189.23076923 , 4913.84615385 , 4130.76923077 , 4142.05128205 , 2043.0 , 2038.0 , 94.264 , 0.0 , 0.0 , 0.0 , 0.0 , 

128.0 , 4137.94871795 , 4133.84615385 , 4130.76923077 , 4137.94871795 , 4130.25641026 , 4130.25641026 , 4126.66666667 , 4131.79487179 , 4132.82051282 , 4138.97435897 , 4190.25641026 , 4911.79487179 , 4129.74358974 , 4134.35897436 , 2043.0 , 2038.0 , 94.273 , 0.0 , 0.0 , 0.0 , 0.0 , 

0.0 , 4134.35897436 , 4132.30769231 , 4133.33333333 , 4137.43589744 , 4130.25641026 , 4129.23076923 , 4126.66666667 , 4132.30769231 , 4134.87179487 , 4138.97435897 , 4194.35897436 , 4913.84615385 , 4134.35897436 , 4136.92307692 , 2043.0 , 2037.0 , 94.278 , 0.0 , 0.0 , 0.0 , 0.0 , 

1.0 , 4131.79487179 , 4131.28205128 , 4132.82051282 , 4137.43589744 , 4130.76923077 , 4128.71794872 , 4127.17948718 , 4132.30769231 , 4134.35897436 , 4137.94871795 , 4192.30769231 , 4912.82051282 , 4132.30769231 , 4138.46153846 , 2044.0 , 2036.0 , 94.287 , 0.0 , 0.0 , 0.0 , 0.0 , 

2.0 , 4134.87179487 , 4130.25641026 , 4130.25641026 , 4133.33333333 , 4129.74358974 , 4129.74358974 , 4128.20512821 , 4131.28205128 , 4134.87179487 , 4139.48717949 , 4190.25641026 , 4910.76923077 , 4128.71794872 , 4135.38461538 , 2044.0 , 2036.0 , 94.295 , 0.0 , 0.0 , 0.0 , 0.0 , 

3.0 , 4134.87179487 , 4131.79487179 , 4131.28205128 , 4134.35897436 , 4129.74358974 , 4130.76923077 , 4128.71794872 , 4132.30769231 , 4134.87179487 , 4138.97435897 , 4191.28205128 , 4910.25641026 , 4131.28205128 , 4133.33333333 , 2044.0 , 2038.0 , 94.304 , 0.0 , 0.0 , 0.0 , 0.0 , 

4.0 , 4133.33333333 , 4133.33333333 , 4131.28205128 , 4138.97435897 , 4130.25641026 , 4130.76923077 , 4128.71794872 , 4131.79487179 , 4133.84615385 , 4138.46153846 , 4190.76923077 , 4910.76923077 , 4132.30769231 , 4137.94871795 , 2043.0 , 2037.0 , 94.31 , 0.0 , 0.0 , 0.0 , 0.0 , 

5.0 , 4134.35897436 , 4131.28205128 , 4129.74358974 , 4137.94871795 , 4129.74358974 , 4129.23076923 , 4128.20512821 , 4131.79487179 , 4133.33333333 , 4140.0 , 4190.76923077 , 4911.79487179 , 4131.28205128 , 4138.97435897 , 2044.0 , 2036.0 , 94.319 , 0.0 , 0.0 , 0.0 , 0.0 , 

6.0 , 4135.8974359 , 4131.28205128 , 4132.30769231 , 4133.33333333 , 4129.74358974 , 4127.69230769 , 4127.17948718 , 4131.79487179 , 4134.87179487 , 4139.48717949 , 4194.35897436 , 4911.79487179 , 4130.76923077 , 4136.41025641 , 2045.0 , 2037.0 , 94.326 , 0.0 , 0.0 , 0.0 , 0.0 , 

7.0 , 4135.8974359 , 4133.84615385 , 4136.41025641 , 4132.30769231 , 4131.28205128 , 4128.71794872 , 4127.69230769 , 4130.76923077 , 4135.8974359 , 4137.43589744 , 4193.84615385 , 4915.38461538 , 4127.17948718 , 4136.41025641 , 2045.0 , 2036.0 , 94.335 , 0.0 , 0.0 , 0.0 , 0.0 , 

8.0 , 4133.84615385 , 4131.79487179 , 4136.41025641 , 4133.84615385 , 4133.33333333 , 4128.71794872 , 4129.74358974 , 4131.28205128 , 4135.38461538 , 4138.97435897 , 4191.79487179 , 4916.41025641 , 4127.17948718 , 4136.92307692 , 2044.0 , 2035.0 , 94.341 , 0.0 , 0.0 , 0.0 , 0.0 , 

9.0 , 4133.33333333 , 4128.20512821 , 4137.43589744 , 4132.82051282 , 4132.82051282 , 4127.69230769 , 4128.20512821 , 4131.28205128 , 4132.82051282 , 4140.51282051 , 4192.82051282 , 4915.38461538 , 4128.20512821 , 4140.51282051 , 2046.0 , 2034.0 , 94.349 , 0.0 , 0.0 , 0.0 , 0.0 , 

10.0 , 4131.79487179 , 4130.76923077 , 4136.41025641 , 4132.30769231 , 4131.28205128 , 4129.23076923 , 4126.66666667 , 4132.82051282 , 4133.33333333 , 4138.46153846 , 4191.79487179 , 4913.33333333 , 4128.71794872 , 4137.94871795 , 2044.0 , 2035.0 , 94.357 , 0.0 , 0.0 , 0.0 , 0.0 , 

11.0 , 4134.35897436 , 4130.76923077 , 4133.84615385 , 4133.33333333 , 4131.79487179 , 4128.71794872 , 4128.20512821 , 4131.79487179 , 4135.38461538 , 4137.43589744 , 4191.28205128 , 4914.35897436 , 4129.23076923 , 4138.46153846 , 2044.0 , 2034.0 , 94.366 , 0.0 , 0.0 , 0.0 , 0.0 , 

12.0 , 4134.87179487 , 4131.28205128 , 4132.30769231 , 4133.33333333 , 4131.79487179 , 4132.30769231 , 4131.28205128 , 4130.25641026 , 4135.8974359 , 4138.97435897 , 4193.33333333 , 4910.76923077 , 4130.25641026 , 4137.94871795 , 2043.0 , 2035.0 , 94.373 , 0.0 , 0.0 , 0.0 , 0.0 , 

13.0 , 4133.84615385 , 4131.79487179 , 4134.87179487 , 4130.76923077 , 4127.17948718 , 4134.87179487 , 4129.74358974 , 4128.20512821 , 4134.87179487 , 4138.97435897 , 4193.84615385 , 4910.76923077 , 4129.74358974 , 4140.0 , 2043.0 , 2035.0 , 94.38 , 0.0 , 0.0 , 0.0 , 0.0 , 

14.0 , 4128.71794872 , 4132.30769231 , 4135.38461538 , 4132.30769231 , 4127.69230769 , 4132.82051282 , 4128.71794872 , 4128.71794872 , 4136.92307692 , 4139.48717949 , 4191.79487179 , 4912.82051282 , 4129.74358974 , 4137.43589744 , 2043.0 , 2035.0 , 94.39 , 0.0 , 0.0 , 0.0 , 0.0 , 

15.0 , 4130.25641026 , 4131.28205128 , 4133.33333333 , 4133.84615385 , 4132.82051282 , 4127.69230769 , 4127.69230769 , 4129.74358974 , 4135.38461538 , 4139.48717949 , 4191.79487179 , 4915.8974359 , 4129.23076923 , 4140.0 , 2042.0 , 2035.0 , 94.399 , 0.0 , 0.0 , 0.0 , 0.0 , 

16.0 , 4133.84615385 , 4129.74358974 , 4131.79487179 , 4131.79487179 , 4132.30769231 , 4128.71794872 , 4126.15384615 , 4132.82051282 , 4134.35897436 , 4138.46153846 , 4191.79487179 , 4914.35897436 , 4127.17948718 , 4137.43589744 , 2042.0 , 2034.0 , 94.404 , 0.0 , 0.0 , 0.0 , 0.0 , 

17.0 , 4136.92307692 , 4127.69230769 , 4133.84615385 , 4130.25641026 , 4128.20512821 , 4128.71794872 , 4125.12820513 , 4132.82051282 , 4136.41025641 , 4137.94871795 , 4190.25641026 , 4913.33333333 , 4129.74358974 , 4138.97435897 , 2041.0 , 2033.0 , 94.412 , 0.0 , 0.0 , 0.0 , 0.0 , 

18.0 , 4132.30769231 , 4131.79487179 , 4133.84615385 , 4135.38461538 , 4130.76923077 , 4129.23076923 , 4127.69230769 , 4130.76923077 , 4136.92307692 , 4137.43589744 , 4188.71794872 , 4912.82051282 , 4131.79487179 , 4141.02564103 , 2041.0 , 2034.0 , 94.421 , 0.0 , 0.0 , 0.0 , 0.0 , 

19.0 , 4130.76923077 , 4133.84615385 , 4133.84615385 , 4135.38461538 , 4131.28205128 , 4130.25641026 , 4128.20512821 , 4131.28205128 , 4135.8974359 , 4136.92307692 , 4189.74358974 , 4916.41025641 , 4129.74358974 , 4140.51282051 , 2040.0 , 2034.0 , 94.43 , 0.0 , 0.0 , 0.0 , 0.0 , 

20.0 , 4134.87179487 , 4131.28205128 , 4134.87179487 , 4131.79487179 , 4128.71794872 , 4131.28205128 , 4127.69230769 , 4132.82051282 , 4135.38461538 , 4137.94871795 , 4190.76923077 , 4914.87179487 , 4129.74358974 , 4134.35897436 , 2042.0 , 2033.0 , 94.436 , 0.0 , 0.0 , 0.0 , 0.0 , 

21.0 , 4135.8974359 , 4131.28205128 , 4134.87179487 , 4132.82051282 , 4130.25641026 , 4130.25641026 , 4127.69230769 , 4133.33333333 , 4135.38461538 , 4140.0 , 4192.30769231 , 4912.30769231 , 4132.30769231 , 4136.92307692 , 2043.0 , 2034.0 , 94.445 , 0.0 , 0.0 , 0.0 , 0.0 , 

22.0 , 4132.30769231 , 4133.33333333 , 4134.87179487 , 4133.84615385 , 4129.74358974 , 4130.76923077 , 4125.64102564 , 4132.30769231 , 4135.38461538 , 4139.48717949 , 4192.82051282 , 4912.30769231 , 4131.79487179 , 4141.02564103 , 2042.0 , 2034.0 , 94.453 , 0.0 , 0.0 , 0.0 , 0.0 , 

23.0 , 4132.30769231 , 4132.30769231 , 4136.92307692 , 4131.79487179 , 4126.15384615 , 4130.25641026 , 4123.58974359 , 4130.76923077 , 4134.87179487 , 4138.46153846 , 4191.79487179 , 4908.71794872 , 4129.74358974 , 4138.97435897 , 2042.0 , 2034.0 , 94.462 , 0.0 , 0.0 , 0.0 , 0.0 , 

