['COUNTER', 'AF3', 'F7', 'F3', 'FC5', 'T7', 'P7', 'O1', 'O2', 'P8', 'T8', 'FC6', 'F4', 'F8', 'AF4', 'GYROX', 'GYROY', 'TIMESTAMP', 'FUNC_ID', 'FUNC_VALUE', 'MARKER', 'SYNC_SIGNAL']
38.0 , 4131.79487179 , 4132.30769231 , 4135.38461538 , 4132.82051282 , 4127.69230769 , 4127.69230769 , 4122.56410256 , 4130.76923077 , 4132.30769231 , 4137.94871795 , 4191.79487179 , 4912.82051282 , 4135.8974359 , 4140.51282051 , 2044.0 , 2033.0 , 53.893 , 0.0 , 0.0 , 0.0 , 0.0 , 

39.0 , 4129.74358974 , 4129.23076923 , 4132.82051282 , 4134.87179487 , 4131.28205128 , 4128.71794872 , 4122.05128205 , 4132.30769231 , 4129.74358974 , 4136.41025641 , 4192.30769231 , 4909.23076923 , 4132.30769231 , 4135.8974359 , 2043.0 , 2033.0 , 53.901 , 0.0 , 0.0 , 0.0 , 0.0 , 

40.0 , 4130.25641026 , 4126.66666667 , 4130.25641026 , 4132.30769231 , 4130.76923077 , 4126.66666667 , 4121.02564103 , 4131.28205128 , 4129.23076923 , 4137.94871795 , 4189.74358974 , 4910.25641026 , 4135.38461538 , 4136.41025641 , 2044.0 , 2034.0 , 53.908 , 0.0 , 0.0 , 0.0 , 0.0 , 

41.0 , 4128.20512821 , 4128.20512821 , 4130.76923077 , 4131.28205128 , 4128.71794872 , 4126.66666667 , 4121.02564103 , 4131.28205128 , 4129.23076923 , 4138.46153846 , 4187.69230769 , 4908.71794872 , 4133.84615385 , 4137.43589744 , 2043.0 , 2035.0 , 53.915 , 0.0 , 0.0 , 0.0 , 0.0 , 

42.0 , 4126.15384615 , 4126.66666667 , 4132.30769231 , 4134.35897436 , 4127.69230769 , 4128.20512821 , 4120.51282051 , 4131.79487179 , 4131.79487179 , 4137.43589744 , 4189.23076923 , 4907.17948718 , 4127.69230769 , 4137.94871795 , 2043.0 , 2036.0 , 53.923 , 0.0 , 0.0 , 0.0 , 0.0 , 

43.0 , 4126.66666667 , 4123.07692308 , 4131.28205128 , 4138.46153846 , 4129.23076923 , 4129.23076923 , 4124.1025641 , 4132.30769231 , 4133.84615385 , 4135.8974359 , 4190.25641026 , 4909.74358974 , 4129.74358974 , 4135.38461538 , 2043.0 , 2035.0 , 53.931 , 0.0 , 0.0 , 0.0 , 0.0 , 

44.0 , 4129.74358974 , 4122.05128205 , 4126.66666667 , 4137.43589744 , 4132.30769231 , 4130.25641026 , 4127.17948718 , 4134.35897436 , 4134.35897436 , 4137.43589744 , 4192.30769231 , 4912.30769231 , 4135.38461538 , 4141.02564103 , 2043.0 , 2035.0 , 53.939 , 0.0 , 0.0 , 0.0 , 0.0 , 

45.0 , 4126.66666667 , 4122.56410256 , 4126.15384615 , 4132.82051282 , 4132.30769231 , 4129.74358974 , 4125.12820513 , 4135.38461538 , 4135.8974359 , 4139.48717949 , 4193.33333333 , 4911.79487179 , 4135.38461538 , 4148.71794872 , 2045.0 , 2036.0 , 53.947 , 0.0 , 0.0 , 0.0 , 0.0 , 

46.0 , 4124.61538462 , 4124.61538462 , 4129.74358974 , 4132.30769231 , 4130.76923077 , 4127.69230769 , 4123.07692308 , 4133.84615385 , 4135.8974359 , 4138.46153846 , 4192.30769231 , 4911.79487179 , 4134.87179487 , 4144.1025641 , 2043.0 , 2035.0 , 53.955 , 0.0 , 0.0 , 0.0 , 0.0 , 

47.0 , 4130.76923077 , 4123.58974359 , 4130.76923077 , 4133.84615385 , 4131.79487179 , 4126.66666667 , 4123.07692308 , 4134.35897436 , 4133.33333333 , 4137.43589744 , 4192.30769231 , 4912.30769231 , 4133.33333333 , 4136.41025641 , 2044.0 , 2035.0 , 53.964 , 0.0 , 0.0 , 0.0 , 0.0 , 

48.0 , 4129.23076923 , 4123.58974359 , 4128.71794872 , 4133.84615385 , 4131.28205128 , 4127.69230769 , 4124.1025641 , 4136.92307692 , 4133.84615385 , 4137.43589744 , 4190.25641026 , 4910.76923077 , 4133.84615385 , 4136.41025641 , 2045.0 , 2036.0 , 53.972 , 0.0 , 0.0 , 0.0 , 0.0 , 

49.0 , 4128.20512821 , 4131.28205128 , 4132.30769231 , 4130.76923077 , 4127.69230769 , 4125.12820513 , 4123.58974359 , 4130.76923077 , 4130.76923077 , 4137.43589744 , 4188.71794872 , 4911.28205128 , 4136.41025641 , 4143.07692308 , 2043.0 , 2036.0 , 53.979 , 0.0 , 0.0 , 0.0 , 0.0 , 

50.0 , 4131.79487179 , 4135.8974359 , 4135.38461538 , 4131.28205128 , 4129.23076923 , 4124.61538462 , 4124.1025641 , 4127.69230769 , 4125.64102564 , 4136.92307692 , 4189.74358974 , 4909.74358974 , 4136.41025641 , 4133.84615385 , 2043.0 , 2036.0 , 53.987 , 0.0 , 0.0 , 0.0 , 0.0 , 

51.0 , 4133.33333333 , 4132.30769231 , 4134.35897436 , 4133.33333333 , 4131.79487179 , 4123.58974359 , 4121.53846154 , 4129.74358974 , 4129.23076923 , 4136.92307692 , 4192.30769231 , 4910.76923077 , 4132.30769231 , 4131.28205128 , 2042.0 , 2036.0 , 53.995 , 0.0 , 0.0 , 0.0 , 0.0 , 

52.0 , 4126.66666667 , 4132.82051282 , 4131.79487179 , 4133.84615385 , 4133.33333333 , 4123.58974359 , 4120.51282051 , 4129.23076923 , 4134.35897436 , 4136.41025641 , 4190.76923077 , 4909.23076923 , 4132.82051282 , 4134.87179487 , 2043.0 , 2036.0 , 54.002 , 0.0 , 0.0 , 0.0 , 0.0 , 

53.0 , 4128.71794872 , 4132.30769231 , 4133.84615385 , 4132.82051282 , 4130.25641026 , 4124.61538462 , 4120.0 , 4126.66666667 , 4130.25641026 , 4136.41025641 , 4189.74358974 , 4912.30769231 , 4134.35897436 , 4142.05128205 , 2042.0 , 2037.0 , 54.011 , 0.0 , 0.0 , 0.0 , 0.0 , 

54.0 , 4133.33333333 , 4127.69230769 , 4134.35897436 , 4133.84615385 , 4126.15384615 , 4128.20512821 , 4121.53846154 , 4130.25641026 , 4130.25641026 , 4137.43589744 , 4190.25641026 , 4913.84615385 , 4134.87179487 , 4138.46153846 , 2043.0 , 2037.0 , 54.018 , 0.0 , 0.0 , 0.0 , 0.0 , 

55.0 , 4135.38461538 , 4125.64102564 , 4133.84615385 , 4132.82051282 , 4125.12820513 , 4125.64102564 , 4121.53846154 , 4129.74358974 , 4133.33333333 , 4136.92307692 , 4190.25641026 , 4915.38461538 , 4133.33333333 , 4136.41025641 , 2043.0 , 2038.0 , 54.027 , 0.0 , 0.0 , 0.0 , 0.0 , 

56.0 , 4131.79487179 , 4127.17948718 , 4131.28205128 , 4131.79487179 , 4129.74358974 , 4124.61538462 , 4122.05128205 , 4128.20512821 , 4134.87179487 , 4137.43589744 , 4190.25641026 , 4911.79487179 , 4133.33333333 , 4132.82051282 , 2043.0 , 2037.0 , 54.034 , 0.0 , 0.0 , 0.0 , 0.0 , 

57.0 , 4132.30769231 , 4126.66666667 , 4131.79487179 , 4132.82051282 , 4129.74358974 , 4126.15384615 , 4120.51282051 , 4130.25641026 , 4134.35897436 , 4137.43589744 , 4191.28205128 , 4912.82051282 , 4133.84615385 , 4139.48717949 , 2043.0 , 2037.0 , 54.043 , 0.0 , 0.0 , 0.0 , 0.0 , 

58.0 , 4133.33333333 , 4130.76923077 , 4133.33333333 , 4134.35897436 , 4126.15384615 , 4125.12820513 , 4120.51282051 , 4130.76923077 , 4132.30769231 , 4136.41025641 , 4191.79487179 , 4911.28205128 , 4133.33333333 , 4142.05128205 , 2042.0 , 2037.0 , 54.049 , 0.0 , 0.0 , 0.0 , 0.0 , 

59.0 , 4134.35897436 , 4130.25641026 , 4133.33333333 , 4130.25641026 , 4127.69230769 , 4123.07692308 , 4121.53846154 , 4130.76923077 , 4131.28205128 , 4135.8974359 , 4191.79487179 , 4911.79487179 , 4133.84615385 , 4144.1025641 , 2042.0 , 2036.0 , 54.057 , 0.0 , 0.0 , 0.0 , 0.0 , 

60.0 , 4132.30769231 , 4126.66666667 , 4133.33333333 , 4128.71794872 , 4129.23076923 , 4127.17948718 , 4124.61538462 , 4134.35897436 , 4133.33333333 , 4136.92307692 , 4191.79487179 , 4911.79487179 , 4133.33333333 , 4143.07692308 , 2043.0 , 2036.0 , 54.065 , 0.0 , 0.0 , 0.0 , 0.0 , 

61.0 , 4132.30769231 , 4127.69230769 , 4134.87179487 , 4132.30769231 , 4126.15384615 , 4128.71794872 , 4125.12820513 , 4134.35897436 , 4133.84615385 , 4136.41025641 , 4193.33333333 , 4911.79487179 , 4133.33333333 , 4142.05128205 , 2041.0 , 2037.0 , 54.074 , 0.0 , 0.0 , 0.0 , 0.0 , 

62.0 , 4132.82051282 , 4128.71794872 , 4133.33333333 , 4133.84615385 , 4125.64102564 , 4125.64102564 , 4123.58974359 , 4133.84615385 , 4131.79487179 , 4135.38461538 , 4191.79487179 , 4910.76923077 , 4131.28205128 , 4139.48717949 , 2042.0 , 2036.0 , 54.081 , 0.0 , 0.0 , 0.0 , 0.0 , 

63.0 , 4131.28205128 , 4125.64102564 , 4131.79487179 , 4130.76923077 , 4127.69230769 , 4124.1025641 , 4122.56410256 , 4132.30769231 , 4132.30769231 , 4137.43589744 , 4190.76923077 , 4911.79487179 , 4131.79487179 , 4139.48717949 , 2042.0 , 2034.0 , 54.089 , 0.0 , 0.0 , 0.0 , 0.0 , 

64.0 , 4130.25641026 , 4125.12820513 , 4134.87179487 , 4128.20512821 , 4128.71794872 , 4125.12820513 , 4123.58974359 , 4129.74358974 , 4131.79487179 , 4137.94871795 , 4191.79487179 , 4914.87179487 , 4134.87179487 , 4141.02564103 , 2044.0 , 2036.0 , 54.097 , 0.0 , 0.0 , 0.0 , 0.0 , 

65.0 , 4130.25641026 , 4127.17948718 , 4133.33333333 , 4130.76923077 , 4127.69230769 , 4127.69230769 , 4123.58974359 , 4132.30769231 , 4132.30769231 , 4135.8974359 , 4191.79487179 , 4913.84615385 , 4136.92307692 , 4142.05128205 , 2045.0 , 2036.0 , 54.105 , 0.0 , 0.0 , 0.0 , 0.0 , 

66.0 , 4130.76923077 , 4125.64102564 , 4130.25641026 , 4131.28205128 , 4128.71794872 , 4126.15384615 , 4122.56410256 , 4133.33333333 , 4133.33333333 , 4134.87179487 , 4189.74358974 , 4910.25641026 , 4134.35897436 , 4142.56410256 , 2044.0 , 2034.0 , 54.113 , 0.0 , 0.0 , 0.0 , 0.0 , 

67.0 , 4129.23076923 , 4126.15384615 , 4132.30769231 , 4132.30769231 , 4130.76923077 , 4122.56410256 , 4124.1025641 , 4130.25641026 , 4133.84615385 , 4138.46153846 , 4189.74358974 , 4908.71794872 , 4134.87179487 , 4139.48717949 , 2045.0 , 2034.0 , 54.12 , 0.0 , 0.0 , 0.0 , 0.0 , 

68.0 , 4131.79487179 , 4129.23076923 , 4134.87179487 , 4133.84615385 , 4130.25641026 , 4123.58974359 , 4124.61538462 , 4130.76923077 , 4133.33333333 , 4138.97435897 , 4191.79487179 , 4911.79487179 , 4135.38461538 , 4140.51282051 , 2044.0 , 2036.0 , 54.128 , 0.0 , 0.0 , 0.0 , 0.0 , 

69.0 , 4130.76923077 , 4128.71794872 , 4130.25641026 , 4133.84615385 , 4129.74358974 , 4129.74358974 , 4124.61538462 , 4134.87179487 , 4132.82051282 , 4137.94871795 , 4192.30769231 , 4909.23076923 , 4134.87179487 , 4135.38461538 , 2046.0 , 2037.0 , 54.136 , 0.0 , 0.0 , 0.0 , 0.0 , 

70.0 , 4130.76923077 , 4126.15384615 , 4132.30769231 , 4131.79487179 , 4128.20512821 , 4124.61538462 , 4125.12820513 , 4133.33333333 , 4132.30769231 , 4139.48717949 , 4190.76923077 , 4907.17948718 , 4136.41025641 , 4134.35897436 , 2044.0 , 2035.0 , 54.144 , 0.0 , 0.0 , 0.0 , 0.0 , 

71.0 , 4130.76923077 , 4127.69230769 , 4134.87179487 , 4132.30769231 , 4126.66666667 , 4121.02564103 , 4128.20512821 , 4131.79487179 , 4135.38461538 , 4137.94871795 , 4189.23076923 , 4907.69230769 , 4137.94871795 , 4133.33333333 , 2045.0 , 2037.0 , 54.153 , 0.0 , 0.0 , 0.0 , 0.0 , 

72.0 , 4134.35897436 , 4128.71794872 , 4133.33333333 , 4131.79487179 , 4128.20512821 , 4125.12820513 , 4123.58974359 , 4131.28205128 , 4135.38461538 , 4135.8974359 , 4189.74358974 , 4912.30769231 , 4131.79487179 , 4137.94871795 , 2045.0 , 2038.0 , 54.161 , 0.0 , 0.0 , 0.0 , 0.0 , 

73.0 , 4133.33333333 , 4126.15384615 , 4131.79487179 , 4131.28205128 , 4130.76923077 , 4127.17948718 , 4120.51282051 , 4132.30769231 , 4134.35897436 , 4136.41025641 , 4191.79487179 , 4910.76923077 , 4130.25641026 , 4136.41025641 , 2045.0 , 2038.0 , 54.168 , 0.0 , 0.0 , 0.0 , 0.0 , 

74.0 , 4132.82051282 , 4124.61538462 , 4134.35897436 , 4130.25641026 , 4128.20512821 , 4124.1025641 , 4122.05128205 , 4132.82051282 , 4134.35897436 , 4137.43589744 , 4192.30769231 , 4910.76923077 , 4137.43589744 , 4141.02564103 , 2043.0 , 2039.0 , 54.175 , 0.0 , 0.0 , 0.0 , 0.0 , 

75.0 , 4130.76923077 , 4128.71794872 , 4133.84615385 , 4132.82051282 , 4129.74358974 , 4127.17948718 , 4125.12820513 , 4132.30769231 , 4136.41025641 , 4137.43589744 , 4190.25641026 , 4911.28205128 , 4138.46153846 , 4142.05128205 , 2043.0 , 2039.0 , 54.183 , 0.0 , 0.0 , 0.0 , 0.0 , 

76.0 , 4131.28205128 , 4129.74358974 , 4133.33333333 , 4133.33333333 , 4132.30769231 , 4126.15384615 , 4123.58974359 , 4130.76923077 , 4136.41025641 , 4136.41025641 , 4191.28205128 , 4911.79487179 , 4132.82051282 , 4143.07692308 , 2042.0 , 2038.0 , 54.191 , 0.0 , 0.0 , 0.0 , 0.0 , 

77.0 , 4129.74358974 , 4127.69230769 , 4134.35897436 , 4133.33333333 , 4129.74358974 , 4124.1025641 , 4123.58974359 , 4132.30769231 , 4133.33333333 , 4136.92307692 , 4192.30769231 , 4908.71794872 , 4132.30769231 , 4140.51282051 , 2042.0 , 2037.0 , 54.2 , 0.0 , 0.0 , 0.0 , 0.0 , 

78.0 , 4128.71794872 , 4128.20512821 , 4134.87179487 , 4132.82051282 , 4127.17948718 , 4126.15384615 , 4125.12820513 , 4131.79487179 , 4130.76923077 , 4140.0 , 4191.79487179 , 4909.74358974 , 4135.8974359 , 4142.05128205 , 2042.0 , 2037.0 , 54.208 , 0.0 , 0.0 , 0.0 , 0.0 , 

79.0 , 4128.71794872 , 4128.20512821 , 4134.87179487 , 4131.79487179 , 4129.23076923 , 4129.23076923 , 4125.12820513 , 4129.23076923 , 4133.84615385 , 4140.0 , 4191.28205128 , 4910.76923077 , 4135.38461538 , 4140.51282051 , 2040.0 , 2035.0 , 54.215 , 0.0 , 0.0 , 0.0 , 0.0 , 

80.0 , 4131.28205128 , 4126.66666667 , 4135.38461538 , 4130.76923077 , 4129.74358974 , 4127.69230769 , 4124.61538462 , 4128.20512821 , 4136.92307692 , 4136.92307692 , 4190.76923077 , 4910.76923077 , 4135.38461538 , 4141.02564103 , 2041.0 , 2037.0 , 54.223 , 0.0 , 0.0 , 0.0 , 0.0 , 

81.0 , 4132.30769231 , 4127.69230769 , 4134.87179487 , 4131.28205128 , 4130.25641026 , 4125.12820513 , 4124.61538462 , 4130.25641026 , 4135.8974359 , 4137.43589744 , 4189.74358974 , 4913.33333333 , 4134.35897436 , 4140.0 , 2042.0 , 2036.0 , 54.231 , 0.0 , 0.0 , 0.0 , 0.0 , 

82.0 , 4130.25641026 , 4129.74358974 , 4133.84615385 , 4131.79487179 , 4130.76923077 , 4124.61538462 , 4124.1025641 , 4133.84615385 , 4133.84615385 , 4140.0 , 4189.23076923 , 4914.35897436 , 4133.33333333 , 4134.87179487 , 2041.0 , 2036.0 , 54.239 , 0.0 , 0.0 , 0.0 , 0.0 , 

83.0 , 4131.28205128 , 4129.23076923 , 4135.38461538 , 4131.79487179 , 4128.20512821 , 4126.66666667 , 4124.61538462 , 4132.30769231 , 4132.82051282 , 4138.97435897 , 4189.23076923 , 4911.28205128 , 4132.82051282 , 4134.87179487 , 2042.0 , 2037.0 , 54.247 , 0.0 , 0.0 , 0.0 , 0.0 , 

84.0 , 4131.28205128 , 4129.74358974 , 4135.38461538 , 4133.33333333 , 4125.12820513 , 4126.15384615 , 4127.17948718 , 4130.76923077 , 4134.35897436 , 4136.92307692 , 4189.74358974 , 4909.23076923 , 4132.82051282 , 4135.38461538 , 2042.0 , 2036.0 , 54.255 , 0.0 , 0.0 , 0.0 , 0.0 , 

85.0 , 4129.74358974 , 4127.69230769 , 4134.87179487 , 4131.28205128 , 4126.15384615 , 4122.56410256 , 4125.12820513 , 4131.79487179 , 4134.87179487 , 4135.8974359 , 4190.25641026 , 4912.30769231 , 4132.82051282 , 4135.38461538 , 2043.0 , 2036.0 , 54.262 , 0.0 , 0.0 , 0.0 , 0.0 , 

86.0 , 4128.20512821 , 4125.64102564 , 4134.35897436 , 4129.74358974 , 4130.25641026 , 4124.1025641 , 4124.61538462 , 4134.35897436 , 4131.79487179 , 4135.8974359 , 4189.74358974 , 4910.76923077 , 4133.84615385 , 4134.35897436 , 2042.0 , 2035.0 , 54.27 , 0.0 , 0.0 , 0.0 , 0.0 , 

87.0 , 4130.25641026 , 4125.64102564 , 4135.38461538 , 4130.25641026 , 4130.76923077 , 4126.15384615 , 4125.12820513 , 4133.33333333 , 4129.74358974 , 4137.94871795 , 4188.71794872 , 4910.76923077 , 4134.35897436 , 4140.0 , 2043.0 , 2035.0 , 54.278 , 0.0 , 0.0 , 0.0 , 0.0 , 

88.0 , 4130.76923077 , 4127.17948718 , 4134.35897436 , 4131.28205128 , 4130.25641026 , 4126.15384615 , 4125.12820513 , 4132.82051282 , 4135.38461538 , 4138.46153846 , 4190.25641026 , 4910.76923077 , 4134.87179487 , 4136.92307692 , 2044.0 , 2036.0 , 54.286 , 0.0 , 0.0 , 0.0 , 0.0 , 

89.0 , 4132.30769231 , 4125.12820513 , 4135.8974359 , 4129.23076923 , 4129.74358974 , 4124.61538462 , 4122.56410256 , 4132.30769231 , 4137.94871795 , 4136.92307692 , 4192.30769231 , 4912.30769231 , 4135.8974359 , 4137.94871795 , 2044.0 , 2034.0 , 54.295 , 0.0 , 0.0 , 0.0 , 0.0 , 

90.0 , 4128.71794872 , 4124.61538462 , 4135.8974359 , 4129.23076923 , 4128.71794872 , 4127.17948718 , 4122.05128205 , 4132.82051282 , 4135.8974359 , 4137.43589744 , 4190.76923077 , 4912.30769231 , 4136.92307692 , 4138.46153846 , 2045.0 , 2035.0 , 54.302 , 0.0 , 0.0 , 0.0 , 0.0 , 

91.0 , 4128.20512821 , 4127.17948718 , 4134.87179487 , 4130.25641026 , 4127.69230769 , 4127.69230769 , 4123.58974359 , 4131.28205128 , 4133.84615385 , 4137.94871795 , 4190.25641026 , 4913.33333333 , 4136.41025641 , 4141.53846154 , 2044.0 , 2035.0 , 54.309 , 0.0 , 0.0 , 0.0 , 0.0 , 

92.0 , 4130.25641026 , 4129.23076923 , 4135.38461538 , 4132.30769231 , 4129.23076923 , 4126.66666667 , 4127.69230769 , 4129.74358974 , 4135.8974359 , 4137.43589744 , 4191.28205128 , 4908.20512821 , 4137.43589744 , 4138.97435897 , 2045.0 , 2034.0 , 54.317 , 0.0 , 0.0 , 0.0 , 0.0 , 

93.0 , 4131.79487179 , 4127.17948718 , 4138.46153846 , 4132.30769231 , 4130.25641026 , 4125.12820513 , 4125.64102564 , 4127.69230769 , 4133.33333333 , 4137.43589744 , 4192.30769231 , 4911.28205128 , 4136.92307692 , 4142.05128205 , 2045.0 , 2036.0 , 54.326 , 0.0 , 0.0 , 0.0 , 0.0 , 

94.0 , 4127.69230769 , 4129.74358974 , 4135.8974359 , 4133.33333333 , 4129.74358974 , 4127.69230769 , 4121.53846154 , 4131.28205128 , 4130.25641026 , 4137.94871795 , 4190.76923077 , 4914.35897436 , 4135.8974359 , 4140.51282051 , 2045.0 , 2036.0 , 54.333 , 0.0 , 0.0 , 0.0 , 0.0 , 

95.0 , 4128.20512821 , 4133.33333333 , 4132.30769231 , 4131.28205128 , 4126.66666667 , 4127.17948718 , 4122.05128205 , 4133.84615385 , 4132.82051282 , 4136.92307692 , 4191.28205128 , 4911.28205128 , 4133.84615385 , 4141.02564103 , 2045.0 , 2036.0 , 54.341 , 0.0 , 0.0 , 0.0 , 0.0 , 

96.0 , 4128.20512821 , 4128.71794872 , 4132.82051282 , 4130.76923077 , 4126.66666667 , 4126.15384615 , 4122.05128205 , 4133.84615385 , 4134.87179487 , 4136.92307692 , 4191.79487179 , 4906.66666667 , 4133.33333333 , 4135.8974359 , 2042.0 , 2038.0 , 54.349 , 0.0 , 0.0 , 0.0 , 0.0 , 

97.0 , 4129.23076923 , 4125.64102564 , 4134.87179487 , 4132.82051282 , 4128.71794872 , 4126.15384615 , 4119.48717949 , 4133.33333333 , 4129.74358974 , 4136.92307692 , 4189.74358974 , 4909.23076923 , 4135.38461538 , 4132.82051282 , 2043.0 , 2037.0 , 54.358 , 0.0 , 0.0 , 0.0 , 0.0 , 

98.0 , 4133.33333333 , 4128.20512821 , 4133.33333333 , 4132.30769231 , 4128.20512821 , 4127.17948718 , 4122.05128205 , 4134.35897436 , 4128.20512821 , 4136.41025641 , 4189.74358974 , 4908.71794872 , 4134.35897436 , 4132.82051282 , 2043.0 , 2036.0 , 54.365 , 0.0 , 0.0 , 0.0 , 0.0 , 

99.0 , 4134.35897436 , 4128.71794872 , 4130.76923077 , 4130.25641026 , 4126.15384615 , 4127.17948718 , 4122.56410256 , 4132.82051282 , 4131.28205128 , 4136.41025641 , 4191.79487179 , 4906.66666667 , 4131.79487179 , 4135.38461538 , 2043.0 , 2035.0 , 54.373 , 0.0 , 0.0 , 0.0 , 0.0 , 

100.0 , 4131.28205128 , 4128.71794872 , 4131.79487179 , 4131.79487179 , 4128.71794872 , 4127.17948718 , 4120.51282051 , 4130.76923077 , 4128.71794872 , 4137.43589744 , 4190.25641026 , 4911.28205128 , 4131.79487179 , 4137.94871795 , 2043.0 , 2037.0 , 54.38 , 0.0 , 0.0 , 0.0 , 0.0 , 

101.0 , 4132.82051282 , 4129.23076923 , 4132.82051282 , 4133.84615385 , 4129.23076923 , 4128.20512821 , 4123.07692308 , 4133.33333333 , 4129.23076923 , 4138.46153846 , 4188.20512821 , 4912.30769231 , 4135.8974359 , 4138.46153846 , 2044.0 , 2036.0 , 54.388 , 0.0 , 0.0 , 0.0 , 0.0 , 

102.0 , 4134.35897436 , 4124.61538462 , 4132.30769231 , 4131.79487179 , 4125.64102564 , 4127.69230769 , 4125.12820513 , 4130.76923077 , 4133.33333333 , 4139.48717949 , 4190.25641026 , 4910.76923077 , 4134.35897436 , 4139.48717949 , 2044.0 , 2036.0 , 54.396 , 0.0 , 0.0 , 0.0 , 0.0 , 

103.0 , 4127.17948718 , 4125.12820513 , 4134.35897436 , 4133.33333333 , 4126.15384615 , 4127.69230769 , 4125.12820513 , 4129.23076923 , 4133.84615385 , 4137.94871795 , 4192.30769231 , 4910.25641026 , 4134.35897436 , 4138.46153846 , 2044.0 , 2034.0 , 54.404 , 0.0 , 0.0 , 0.0 , 0.0 , 

104.0 , 4128.20512821 , 4130.76923077 , 4136.92307692 , 4134.87179487 , 4130.25641026 , 4127.17948718 , 4124.61538462 , 4131.28205128 , 4131.79487179 , 4135.8974359 , 4190.76923077 , 4912.82051282 , 4135.38461538 , 4141.53846154 , 2045.0 , 2037.0 , 54.413 , 0.0 , 0.0 , 0.0 , 0.0 , 

105.0 , 4133.84615385 , 4130.76923077 , 4133.33333333 , 4132.82051282 , 4130.25641026 , 4128.20512821 , 4123.58974359 , 4132.82051282 , 4134.35897436 , 4136.41025641 , 4189.74358974 , 4911.79487179 , 4134.87179487 , 4140.0 , 2043.0 , 2036.0 , 54.42 , 0.0 , 0.0 , 0.0 , 0.0 , 

106.0 , 4132.82051282 , 4126.15384615 , 4131.79487179 , 4130.25641026 , 4127.69230769 , 4125.64102564 , 4122.05128205 , 4131.79487179 , 4134.87179487 , 4137.94871795 , 4190.25641026 , 4912.82051282 , 4134.87179487 , 4141.53846154 , 2045.0 , 2036.0 , 54.428 , 0.0 , 0.0 , 0.0 , 0.0 , 

107.0 , 4124.61538462 , 4128.20512821 , 4133.84615385 , 4130.76923077 , 4129.23076923 , 4124.1025641 , 4124.1025641 , 4131.79487179 , 4132.30769231 , 4137.43589744 , 4190.25641026 , 4910.25641026 , 4136.41025641 , 4141.02564103 , 2043.0 , 2036.0 , 54.437 , 0.0 , 0.0 , 0.0 , 0.0 , 

108.0 , 4128.71794872 , 4127.17948718 , 4135.8974359 , 4130.76923077 , 4129.74358974 , 4124.1025641 , 4120.51282051 , 4129.23076923 , 4129.74358974 , 4138.97435897 , 4192.30769231 , 4909.74358974 , 4133.33333333 , 4141.53846154 , 2044.0 , 2037.0 , 54.445 , 0.0 , 0.0 , 0.0 , 0.0 , 

109.0 , 4133.84615385 , 4126.66666667 , 4132.30769231 , 4132.30769231 , 4128.71794872 , 4125.64102564 , 4121.53846154 , 4130.25641026 , 4130.76923077 , 4140.0 , 4194.35897436 , 4908.71794872 , 4131.28205128 , 4133.33333333 , 2044.0 , 2035.0 , 54.451 , 0.0 , 0.0 , 0.0 , 0.0 , 

110.0 , 4134.87179487 , 4129.23076923 , 4131.28205128 , 4130.76923077 , 4128.71794872 , 4125.12820513 , 4123.07692308 , 4132.82051282 , 4130.25641026 , 4137.94871795 , 4192.30769231 , 4909.74358974 , 4132.82051282 , 4135.38461538 , 2044.0 , 2036.0 , 54.46 , 0.0 , 0.0 , 0.0 , 0.0 , 

111.0 , 4131.79487179 , 4129.74358974 , 4132.82051282 , 4132.82051282 , 4130.76923077 , 4126.15384615 , 4121.02564103 , 4132.30769231 , 4127.69230769 , 4137.94871795 , 4188.20512821 , 4908.71794872 , 4133.84615385 , 4137.94871795 , 2044.0 , 2036.0 , 54.467 , 0.0 , 0.0 , 0.0 , 0.0 , 

112.0 , 4131.79487179 , 4128.20512821 , 4134.35897436 , 4134.87179487 , 4129.74358974 , 4125.12820513 , 4119.48717949 , 4129.23076923 , 4128.20512821 , 4138.46153846 , 4191.79487179 , 4910.25641026 , 4132.30769231 , 4139.48717949 , 2043.0 , 2036.0 , 54.475 , 0.0 , 0.0 , 0.0 , 0.0 , 

113.0 , 4130.76923077 , 4130.76923077 , 4132.82051282 , 4133.33333333 , 4129.74358974 , 4125.64102564 , 4124.61538462 , 4130.76923077 , 4133.84615385 , 4137.94871795 , 4191.28205128 , 4907.17948718 , 4131.79487179 , 4135.38461538 , 2043.0 , 2035.0 , 54.483 , 0.0 , 0.0 , 0.0 , 0.0 , 

114.0 , 4133.84615385 , 4130.76923077 , 4132.30769231 , 4129.74358974 , 4131.28205128 , 4126.66666667 , 4125.12820513 , 4130.25641026 , 4134.87179487 , 4137.43589744 , 4187.17948718 , 4908.20512821 , 4132.82051282 , 4135.38461538 , 2043.0 , 2036.0 , 54.491 , 0.0 , 0.0 , 0.0 , 0.0 , 

115.0 , 4133.33333333 , 4129.23076923 , 4130.76923077 , 4130.76923077 , 4129.74358974 , 4128.71794872 , 4121.53846154 , 4129.74358974 , 4130.76923077 , 4136.41025641 , 4189.74358974 , 4912.30769231 , 4133.33333333 , 4135.8974359 , 2043.0 , 2037.0 , 54.499 , 0.0 , 0.0 , 0.0 , 0.0 , 

116.0 , 4129.74358974 , 4128.71794872 , 4130.25641026 , 4133.33333333 , 4127.69230769 , 4127.69230769 , 4121.02564103 , 4132.82051282 , 4131.79487179 , 4135.8974359 , 4192.82051282 , 4912.82051282 , 4131.28205128 , 4137.43589744 , 2042.0 , 2036.0 , 54.507 , 0.0 , 0.0 , 0.0 , 0.0 , 

117.0 , 4128.71794872 , 4129.23076923 , 4134.35897436 , 4134.87179487 , 4129.74358974 , 4127.17948718 , 4126.66666667 , 4133.84615385 , 4135.38461538 , 4137.94871795 , 4190.25641026 , 4909.23076923 , 4130.76923077 , 4137.43589744 , 2042.0 , 2037.0 , 54.514 , 0.0 , 0.0 , 0.0 , 0.0 , 

118.0 , 4130.76923077 , 4128.71794872 , 4134.35897436 , 4132.82051282 , 4129.23076923 , 4128.20512821 , 4128.71794872 , 4130.25641026 , 4132.30769231 , 4137.94871795 , 4189.74358974 , 4909.23076923 , 4133.33333333 , 4138.46153846 , 2042.0 , 2037.0 , 54.522 , 0.0 , 0.0 , 0.0 , 0.0 , 

119.0 , 4130.25641026 , 4129.74358974 , 4129.23076923 , 4130.76923077 , 4129.23076923 , 4128.71794872 , 4123.07692308 , 4128.20512821 , 4127.69230769 , 4136.92307692 , 4191.79487179 , 4911.28205128 , 4132.82051282 , 4144.1025641 , 2042.0 , 2037.0 , 54.53 , 0.0 , 0.0 , 0.0 , 0.0 , 

120.0 , 4128.71794872 , 4129.23076923 , 4130.76923077 , 4132.82051282 , 4130.76923077 , 4128.20512821 , 4121.02564103 , 4130.76923077 , 4129.23076923 , 4138.97435897 , 4190.76923077 , 4910.76923077 , 4131.79487179 , 4144.61538462 , 2043.0 , 2034.0 , 54.538 , 0.0 , 0.0 , 0.0 , 0.0 , 

121.0 , 4129.23076923 , 4126.66666667 , 4136.41025641 , 4132.82051282 , 4130.76923077 , 4127.17948718 , 4124.1025641 , 4132.30769231 , 4131.28205128 , 4138.97435897 , 4190.76923077 , 4912.30769231 , 4132.30769231 , 4140.0 , 2043.0 , 2035.0 , 54.546 , 0.0 , 0.0 , 0.0 , 0.0 , 

122.0 , 4128.20512821 , 4128.71794872 , 4133.33333333 , 4131.79487179 , 4129.74358974 , 4127.17948718 , 4123.07692308 , 4133.33333333 , 4133.84615385 , 4136.92307692 , 4190.76923077 , 4912.82051282 , 4134.87179487 , 4134.35897436 , 2044.0 , 2034.0 , 54.554 , 0.0 , 0.0 , 0.0 , 0.0 , 

123.0 , 4131.28205128 , 4128.20512821 , 4130.76923077 , 4131.28205128 , 4128.71794872 , 4125.64102564 , 4121.02564103 , 4132.82051282 , 4131.79487179 , 4138.97435897 , 4189.74358974 , 4913.33333333 , 4132.82051282 , 4137.94871795 , 2045.0 , 2033.0 , 54.562 , 0.0 , 0.0 , 0.0 , 0.0 , 

124.0 , 4128.20512821 , 4126.66666667 , 4133.33333333 , 4130.76923077 , 4127.17948718 , 4125.12820513 , 4125.12820513 , 4131.28205128 , 4128.71794872 , 4139.48717949 , 4190.25641026 , 4909.23076923 , 4129.74358974 , 4136.92307692 , 2045.0 , 2034.0 , 54.571 , 0.0 , 0.0 , 0.0 , 0.0 , 

125.0 , 4127.69230769 , 4127.17948718 , 4135.38461538 , 4128.71794872 , 4126.15384615 , 4124.1025641 , 4125.64102564 , 4130.25641026 , 4129.23076923 , 4135.38461538 , 4191.28205128 , 4906.66666667 , 4127.69230769 , 4134.35897436 , 2045.0 , 2034.0 , 54.577 , 0.0 , 0.0 , 0.0 , 0.0 , 

126.0 , 4130.76923077 , 4128.71794872 , 4133.33333333 , 4131.79487179 , 4127.69230769 , 4125.12820513 , 4124.61538462 , 4134.35897436 , 4131.28205128 , 4135.8974359 , 4190.76923077 , 4907.17948718 , 4129.74358974 , 4130.76923077 , 2044.0 , 2034.0 , 54.585 , 0.0 , 0.0 , 0.0 , 0.0 , 

127.0 , 4133.33333333 , 4128.20512821 , 4132.30769231 , 4131.79487179 , 4127.69230769 , 4124.61538462 , 4122.56410256 , 4133.33333333 , 4130.25641026 , 4139.48717949 , 4190.25641026 , 4913.33333333 , 4131.28205128 , 4140.0 , 2043.0 , 2034.0 , 54.593 , 0.0 , 0.0 , 0.0 , 0.0 , 

128.0 , 4129.23076923 , 4127.69230769 , 4131.79487179 , 4130.25641026 , 4129.74358974 , 4126.66666667 , 4122.05128205 , 4131.28205128 , 4133.33333333 , 4137.94871795 , 4189.74358974 , 4911.28205128 , 4129.74358974 , 4138.46153846 , 2044.0 , 2035.0 , 54.602 , 0.0 , 0.0 , 0.0 , 0.0 , 

0.0 , 4132.30769231 , 4128.20512821 , 4135.38461538 , 4130.76923077 , 4129.23076923 , 4127.69230769 , 4121.02564103 , 4131.28205128 , 4134.87179487 , 4135.8974359 , 4189.23076923 , 4908.71794872 , 4130.76923077 , 4137.43589744 , 2043.0 , 2035.0 , 54.61 , 0.0 , 0.0 , 0.0 , 0.0 , 

1.0 , 4132.30769231 , 4128.71794872 , 4135.8974359 , 4133.33333333 , 4128.71794872 , 4128.71794872 , 4124.61538462 , 4133.33333333 , 4128.71794872 , 4137.43589744 , 4189.74358974 , 4909.23076923 , 4132.30769231 , 4139.48717949 , 2043.0 , 2035.0 , 54.618 , 0.0 , 0.0 , 0.0 , 0.0 , 

2.0 , 4129.23076923 , 4126.15384615 , 4134.35897436 , 4131.28205128 , 4129.23076923 , 4125.12820513 , 4125.12820513 , 4131.79487179 , 4126.15384615 , 4137.43589744 , 4190.76923077 , 4913.33333333 , 4131.28205128 , 4146.15384615 , 2042.0 , 2035.0 , 54.625 , 0.0 , 0.0 , 0.0 , 0.0 , 

3.0 , 4127.17948718 , 4125.12820513 , 4133.33333333 , 4130.25641026 , 4128.20512821 , 4125.64102564 , 4123.07692308 , 4132.82051282 , 4130.25641026 , 4136.92307692 , 4190.76923077 , 4910.76923077 , 4131.79487179 , 4142.56410256 , 2042.0 , 2036.0 , 54.632 , 0.0 , 0.0 , 0.0 , 0.0 , 

4.0 , 4129.23076923 , 4127.69230769 , 4132.82051282 , 4132.82051282 , 4126.66666667 , 4129.23076923 , 4122.05128205 , 4134.35897436 , 4133.33333333 , 4138.46153846 , 4191.79487179 , 4910.76923077 , 4136.92307692 , 4140.0 , 2041.0 , 2035.0 , 54.64 , 0.0 , 0.0 , 0.0 , 0.0 , 

5.0 , 4127.17948718 , 4130.76923077 , 4132.30769231 , 4134.87179487 , 4128.71794872 , 4131.28205128 , 4125.64102564 , 4133.33333333 , 4133.84615385 , 4137.94871795 , 4191.79487179 , 4911.28205128 , 4137.94871795 , 4138.97435897 , 2040.0 , 2035.0 , 54.648 , 0.0 , 0.0 , 0.0 , 0.0 , 

6.0 , 4128.20512821 , 4130.25641026 , 4132.30769231 , 4132.30769231 , 4130.25641026 , 4129.23076923 , 4126.66666667 , 4131.79487179 , 4134.87179487 , 4135.8974359 , 4190.25641026 , 4912.30769231 , 4134.35897436 , 4139.48717949 , 2041.0 , 2034.0 , 54.656 , 0.0 , 0.0 , 0.0 , 0.0 , 

7.0 , 4130.76923077 , 4128.71794872 , 4131.79487179 , 4131.28205128 , 4127.17948718 , 4124.61538462 , 4123.58974359 , 4132.30769231 , 4132.82051282 , 4137.43589744 , 4190.25641026 , 4911.79487179 , 4133.33333333 , 4138.97435897 , 2042.0 , 2036.0 , 54.664 , 0.0 , 0.0 , 0.0 , 0.0 , 

8.0 , 4131.28205128 , 4126.66666667 , 4132.30769231 , 4133.33333333 , 4126.66666667 , 4124.61538462 , 4123.07692308 , 4133.33333333 , 4131.79487179 , 4137.94871795 , 4191.79487179 , 4909.23076923 , 4133.84615385 , 4139.48717949 , 2043.0 , 2036.0 , 54.672 , 0.0 , 0.0 , 0.0 , 0.0 , 

9.0 , 4129.74358974 , 4126.66666667 , 4133.33333333 , 4131.28205128 , 4128.71794872 , 4127.17948718 , 4123.58974359 , 4131.28205128 , 4135.38461538 , 4136.41025641 , 4190.76923077 , 4909.23076923 , 4132.30769231 , 4141.02564103 , 2041.0 , 2037.0 , 54.681 , 0.0 , 0.0 , 0.0 , 0.0 , 

10.0 , 4128.71794872 , 4128.71794872 , 4131.28205128 , 4132.30769231 , 4128.71794872 , 4128.20512821 , 4124.1025641 , 4129.74358974 , 4136.41025641 , 4136.92307692 , 4188.71794872 , 4910.76923077 , 4133.84615385 , 4136.92307692 , 2042.0 , 2037.0 , 54.689 , 0.0 , 0.0 , 0.0 , 0.0 , 

11.0 , 4132.82051282 , 4127.17948718 , 4130.76923077 , 4135.8974359 , 4128.71794872 , 4126.15384615 , 4124.61538462 , 4128.71794872 , 4133.33333333 , 4137.94871795 , 4188.20512821 , 4912.30769231 , 4133.33333333 , 4135.38461538 , 2042.0 , 2038.0 , 54.696 , 0.0 , 0.0 , 0.0 , 0.0 , 

12.0 , 4132.30769231 , 4126.66666667 , 4130.25641026 , 4135.8974359 , 4130.76923077 , 4126.66666667 , 4124.1025641 , 4129.23076923 , 4135.38461538 , 4137.43589744 , 4190.76923077 , 4909.74358974 , 4133.84615385 , 4135.8974359 , 2042.0 , 2037.0 , 54.704 , 0.0 , 0.0 , 0.0 , 0.0 , 

13.0 , 4131.79487179 , 4125.64102564 , 4131.79487179 , 4131.79487179 , 4130.76923077 , 4125.12820513 , 4120.51282051 , 4130.76923077 , 4134.35897436 , 4137.43589744 , 4191.79487179 , 4910.76923077 , 4134.87179487 , 4139.48717949 , 2043.0 , 2037.0 , 54.712 , 0.0 , 0.0 , 0.0 , 0.0 , 

14.0 , 4131.79487179 , 4126.15384615 , 4132.30769231 , 4133.33333333 , 4130.76923077 , 4124.61538462 , 4123.58974359 , 4131.79487179 , 4131.79487179 , 4138.46153846 , 4188.71794872 , 4910.25641026 , 4134.35897436 , 4135.8974359 , 2043.0 , 2038.0 , 54.719 , 0.0 , 0.0 , 0.0 , 0.0 , 

15.0 , 4131.79487179 , 4128.71794872 , 4132.82051282 , 4132.30769231 , 4131.28205128 , 4128.20512821 , 4128.20512821 , 4128.20512821 , 4131.79487179 , 4137.43589744 , 4189.74358974 , 4910.25641026 , 4131.79487179 , 4139.48717949 , 2043.0 , 2037.0 , 54.727 , 0.0 , 0.0 , 0.0 , 0.0 , 

16.0 , 4128.71794872 , 4129.74358974 , 4134.35897436 , 4130.25641026 , 4130.76923077 , 4129.23076923 , 4128.20512821 , 4129.23076923 , 4133.84615385 , 4136.92307692 , 4191.79487179 , 4910.25641026 , 4131.28205128 , 4140.51282051 , 2043.0 , 2038.0 , 54.735 , 0.0 , 0.0 , 0.0 , 0.0 , 

17.0 , 4133.33333333 , 4125.64102564 , 4135.38461538 , 4129.23076923 , 4129.74358974 , 4124.1025641 , 4123.07692308 , 4131.79487179 , 4131.79487179 , 4137.43589744 , 4189.74358974 , 4912.30769231 , 4131.28205128 , 4141.53846154 , 2044.0 , 2037.0 , 54.743 , 0.0 , 0.0 , 0.0 , 0.0 , 

18.0 , 4132.82051282 , 4126.15384615 , 4132.30769231 , 4131.28205128 , 4130.25641026 , 4126.15384615 , 4123.58974359 , 4131.79487179 , 4132.30769231 , 4136.41025641 , 4188.71794872 , 4911.79487179 , 4131.79487179 , 4139.48717949 , 2044.0 , 2036.0 , 54.751 , 0.0 , 0.0 , 0.0 , 0.0 , 

19.0 , 4128.71794872 , 4128.20512821 , 4132.82051282 , 4130.76923077 , 4128.20512821 , 4130.76923077 , 4124.61538462 , 4128.71794872 , 4133.33333333 , 4135.8974359 , 4190.76923077 , 4913.33333333 , 4133.84615385 , 4145.12820513 , 2044.0 , 2037.0 , 54.759 , 0.0 , 0.0 , 0.0 , 0.0 , 

20.0 , 4131.28205128 , 4128.71794872 , 4132.82051282 , 4131.28205128 , 4128.20512821 , 4133.84615385 , 4125.12820513 , 4131.79487179 , 4134.87179487 , 4137.43589744 , 4190.76923077 , 4910.76923077 , 4135.8974359 , 4143.58974359 , 2043.0 , 2037.0 , 54.767 , 0.0 , 0.0 , 0.0 , 0.0 , 

21.0 , 4136.41025641 , 4126.15384615 , 4134.35897436 , 4131.28205128 , 4128.20512821 , 4130.76923077 , 4122.56410256 , 4132.30769231 , 4133.84615385 , 4137.94871795 , 4190.76923077 , 4912.30769231 , 4133.84615385 , 4141.53846154 , 2043.0 , 2036.0 , 54.774 , 0.0 , 0.0 , 0.0 , 0.0 , 

22.0 , 4128.71794872 , 4124.61538462 , 4136.92307692 , 4132.82051282 , 4128.20512821 , 4128.20512821 , 4121.02564103 , 4130.25641026 , 4130.25641026 , 4136.92307692 , 4191.79487179 , 4913.33333333 , 4131.28205128 , 4137.94871795 , 2043.0 , 2037.0 , 54.782 , 0.0 , 0.0 , 0.0 , 0.0 , 

23.0 , 4126.66666667 , 4125.64102564 , 4135.38461538 , 4132.30769231 , 4131.28205128 , 4126.66666667 , 4120.51282051 , 4128.71794872 , 4130.76923077 , 4137.43589744 , 4191.28205128 , 4910.76923077 , 4131.79487179 , 4138.46153846 , 2042.0 , 2037.0 , 54.79 , 0.0 , 0.0 , 0.0 , 0.0 , 

24.0 , 4132.82051282 , 4127.69230769 , 4132.82051282 , 4130.25641026 , 4133.33333333 , 4129.23076923 , 4122.56410256 , 4131.28205128 , 4133.33333333 , 4137.43589744 , 4189.74358974 , 4907.17948718 , 4131.28205128 , 4135.38461538 , 2044.0 , 2036.0 , 54.798 , 0.0 , 0.0 , 0.0 , 0.0 , 

25.0 , 4132.82051282 , 4127.17948718 , 4133.84615385 , 4132.30769231 , 4130.76923077 , 4130.25641026 , 4123.07692308 , 4132.82051282 , 4131.28205128 , 4137.94871795 , 4189.23076923 , 4908.71794872 , 4130.25641026 , 4134.35897436 , 2044.0 , 2036.0 , 54.807 , 0.0 , 0.0 , 0.0 , 0.0 , 

26.0 , 4129.23076923 , 4126.15384615 , 4133.84615385 , 4135.38461538 , 4129.74358974 , 4127.17948718 , 4122.56410256 , 4129.74358974 , 4130.76923077 , 4137.94871795 , 4189.74358974 , 4912.30769231 , 4131.28205128 , 4135.8974359 , 2044.0 , 2036.0 , 54.815 , 0.0 , 0.0 , 0.0 , 0.0 , 

27.0 , 4129.74358974 , 4126.15384615 , 4132.30769231 , 4133.33333333 , 4131.79487179 , 4126.66666667 , 4121.53846154 , 4129.23076923 , 4132.82051282 , 4137.94871795 , 4191.28205128 , 4912.30769231 , 4135.38461538 , 4136.92307692 , 2045.0 , 2037.0 , 54.822 , 0.0 , 0.0 , 0.0 , 0.0 , 

28.0 , 4131.79487179 , 4128.71794872 , 4135.38461538 , 4130.76923077 , 4130.76923077 , 4127.69230769 , 4121.53846154 , 4131.28205128 , 4133.33333333 , 4137.94871795 , 4192.30769231 , 4910.76923077 , 4133.33333333 , 4140.0 , 2045.0 , 2036.0 , 54.831 , 0.0 , 0.0 , 0.0 , 0.0 , 

29.0 , 4132.30769231 , 4128.71794872 , 4135.8974359 , 4131.79487179 , 4128.71794872 , 4128.20512821 , 4124.1025641 , 4133.84615385 , 4135.8974359 , 4138.46153846 , 4191.28205128 , 4910.25641026 , 4131.79487179 , 4140.51282051 , 2044.0 , 2036.0 , 54.839 , 0.0 , 0.0 , 0.0 , 0.0 , 

30.0 , 4133.84615385 , 4125.64102564 , 4135.38461538 , 4131.79487179 , 4128.20512821 , 4126.66666667 , 4123.07692308 , 4132.82051282 , 4137.43589744 , 4137.94871795 , 4190.76923077 , 4912.82051282 , 4132.82051282 , 4142.05128205 , 2043.0 , 2035.0 , 54.845 , 0.0 , 0.0 , 0.0 , 0.0 , 

31.0 , 4129.74358974 , 4126.66666667 , 4135.8974359 , 4131.79487179 , 4128.20512821 , 4127.69230769 , 4121.53846154 , 4131.79487179 , 4137.43589744 , 4136.92307692 , 4191.28205128 , 4910.76923077 , 4132.30769231 , 4140.0 , 2044.0 , 2036.0 , 54.852 , 0.0 , 0.0 , 0.0 , 0.0 , 

32.0 , 4128.71794872 , 4127.17948718 , 4135.38461538 , 4130.76923077 , 4129.74358974 , 4127.17948718 , 4122.56410256 , 4131.79487179 , 4134.87179487 , 4136.41025641 , 4191.28205128 , 4912.30769231 , 4131.79487179 , 4143.07692308 , 2042.0 , 2034.0 , 54.861 , 0.0 , 0.0 , 0.0 , 0.0 , 

33.0 , 4128.20512821 , 4126.66666667 , 4132.82051282 , 4131.79487179 , 4132.30769231 , 4126.66666667 , 4126.15384615 , 4133.33333333 , 4133.33333333 , 4137.43589744 , 4189.74358974 , 4912.82051282 , 4133.33333333 , 4140.51282051 , 2041.0 , 2035.0 , 54.869 , 0.0 , 0.0 , 0.0 , 0.0 , 

34.0 , 4129.23076923 , 4125.64102564 , 4134.35897436 , 4132.30769231 , 4131.79487179 , 4126.15384615 , 4124.1025641 , 4131.28205128 , 4133.33333333 , 4136.92307692 , 4190.25641026 , 4911.79487179 , 4130.76923077 , 4141.53846154 , 2043.0 , 2034.0 , 54.877 , 0.0 , 0.0 , 0.0 , 0.0 , 

35.0 , 4127.17948718 , 4126.15384615 , 4133.84615385 , 4133.33333333 , 4130.25641026 , 4127.69230769 , 4124.1025641 , 4131.28205128 , 4136.41025641 , 4136.41025641 , 4190.25641026 , 4907.17948718 , 4129.74358974 , 4137.94871795 , 2043.0 , 2035.0 , 54.885 , 0.0 , 0.0 , 0.0 , 0.0 , 

36.0 , 4129.74358974 , 4126.15384615 , 4133.33333333 , 4132.82051282 , 4128.71794872 , 4126.66666667 , 4125.12820513 , 4131.79487179 , 4134.35897436 , 4137.43589744 , 4190.76923077 , 4909.74358974 , 4133.84615385 , 4140.0 , 2043.0 , 2035.0 , 54.894 , 0.0 , 0.0 , 0.0 , 0.0 , 

37.0 , 4129.74358974 , 4125.64102564 , 4133.33333333 , 4133.33333333 , 4128.71794872 , 4126.15384615 , 4125.64102564 , 4132.30769231 , 4132.82051282 , 4137.94871795 , 4191.28205128 , 4909.23076923 , 4133.84615385 , 4136.92307692 , 2043.0 , 2034.0 , 54.902 , 0.0 , 0.0 , 0.0 , 0.0 , 

38.0 , 4131.28205128 , 4125.12820513 , 4133.84615385 , 4131.28205128 , 4129.23076923 , 4126.15384615 , 4124.1025641 , 4131.28205128 , 4131.28205128 , 4136.41025641 , 4190.76923077 , 4909.23076923 , 4129.74358974 , 4136.92307692 , 2042.0 , 2036.0 , 54.908 , 0.0 , 0.0 , 0.0 , 0.0 , 

39.0 , 4132.82051282 , 4124.61538462 , 4131.28205128 , 4130.76923077 , 4128.20512821 , 4127.69230769 , 4126.66666667 , 4131.28205128 , 4130.76923077 , 4136.92307692 , 4189.74358974 , 4907.69230769 , 4129.74358974 , 4135.8974359 , 2043.0 , 2035.0 , 54.916 , 0.0 , 0.0 , 0.0 , 0.0 , 

40.0 , 4133.84615385 , 4123.58974359 , 4134.35897436 , 4131.79487179 , 4127.17948718 , 4127.69230769 , 4126.66666667 , 4131.28205128 , 4134.35897436 , 4136.92307692 , 4191.79487179 , 4909.23076923 , 4133.84615385 , 4137.94871795 , 2044.0 , 2035.0 , 54.924 , 0.0 , 0.0 , 0.0 , 0.0 , 

41.0 , 4132.30769231 , 4123.58974359 , 4137.94871795 , 4132.82051282 , 4129.74358974 , 4127.17948718 , 4126.66666667 , 4132.30769231 , 4137.43589744 , 4136.41025641 , 4191.28205128 , 4912.30769231 , 4134.87179487 , 4135.38461538 , 2044.0 , 2035.0 , 54.932 , 0.0 , 0.0 , 0.0 , 0.0 , 

42.0 , 4131.28205128 , 4126.66666667 , 4136.92307692 , 4133.33333333 , 4129.74358974 , 4125.64102564 , 4125.12820513 , 4131.28205128 , 4133.33333333 , 4137.43589744 , 4189.23076923 , 4914.87179487 , 4132.30769231 , 4137.94871795 , 2042.0 , 2035.0 , 54.94 , 0.0 , 0.0 , 0.0 , 0.0 , 

43.0 , 4131.79487179 , 4128.20512821 , 4134.87179487 , 4133.84615385 , 4128.20512821 , 4126.15384615 , 4125.64102564 , 4129.23076923 , 4132.30769231 , 4137.43589744 , 4189.74358974 , 4910.25641026 , 4129.23076923 , 4141.53846154 , 2041.0 , 2035.0 , 54.949 , 0.0 , 0.0 , 0.0 , 0.0 , 

44.0 , 4131.79487179 , 4126.15384615 , 4135.38461538 , 4132.82051282 , 4129.23076923 , 4126.66666667 , 4125.12820513 , 4130.76923077 , 4136.41025641 , 4136.41025641 , 4191.79487179 , 4907.69230769 , 4133.33333333 , 4140.51282051 , 2042.0 , 2036.0 , 54.956 , 0.0 , 0.0 , 0.0 , 0.0 , 

45.0 , 4127.17948718 , 4124.61538462 , 4135.8974359 , 4132.82051282 , 4129.74358974 , 4128.20512821 , 4124.61538462 , 4132.82051282 , 4135.38461538 , 4136.92307692 , 4192.30769231 , 4912.30769231 , 4135.8974359 , 4139.48717949 , 2043.0 , 2034.0 , 54.964 , 0.0 , 0.0 , 0.0 , 0.0 , 

46.0 , 4126.15384615 , 4125.64102564 , 4135.38461538 , 4133.84615385 , 4130.25641026 , 4131.28205128 , 4124.61538462 , 4133.84615385 , 4135.8974359 , 4136.92307692 , 4192.30769231 , 4912.30769231 , 4131.79487179 , 4142.05128205 , 2043.0 , 2035.0 , 54.972 , 0.0 , 0.0 , 0.0 , 0.0 , 

47.0 , 4133.33333333 , 4128.20512821 , 4133.84615385 , 4131.79487179 , 4128.71794872 , 4128.20512821 , 4123.58974359 , 4131.79487179 , 4138.97435897 , 4136.92307692 , 4191.79487179 , 4910.76923077 , 4128.20512821 , 4145.64102564 , 2042.0 , 2035.0 , 54.98 , 0.0 , 0.0 , 0.0 , 0.0 , 

48.0 , 4131.79487179 , 4128.20512821 , 4131.28205128 , 4131.28205128 , 4127.17948718 , 4124.61538462 , 4123.07692308 , 4130.25641026 , 4135.38461538 , 4137.43589744 , 4191.28205128 , 4912.82051282 , 4130.76923077 , 4137.94871795 , 2042.0 , 2036.0 , 54.987 , 0.0 , 0.0 , 0.0 , 0.0 , 

49.0 , 4128.20512821 , 4125.64102564 , 4135.8974359 , 4131.79487179 , 4129.23076923 , 4124.61538462 , 4121.02564103 , 4129.23076923 , 4131.28205128 , 4137.43589744 , 4191.79487179 , 4914.35897436 , 4132.30769231 , 4135.8974359 , 2042.0 , 2036.0 , 54.996 , 0.0 , 0.0 , 0.0 , 0.0 , 

50.0 , 4130.25641026 , 4129.23076923 , 4136.41025641 , 4134.87179487 , 4131.79487179 , 4127.69230769 , 4122.56410256 , 4131.79487179 , 4134.35897436 , 4135.8974359 , 4192.30769231 , 4909.74358974 , 4132.82051282 , 4136.92307692 , 2042.0 , 2035.0 , 55.003 , 0.0 , 0.0 , 0.0 , 0.0 , 

51.0 , 4134.35897436 , 4132.82051282 , 4131.79487179 , 4135.38461538 , 4128.71794872 , 4125.12820513 , 4124.1025641 , 4132.30769231 , 4134.87179487 , 4135.8974359 , 4191.79487179 , 4910.76923077 , 4132.30769231 , 4136.92307692 , 2042.0 , 2037.0 , 55.011 , 0.0 , 0.0 , 0.0 , 0.0 , 

52.0 , 4129.74358974 , 4131.28205128 , 4131.28205128 , 4133.84615385 , 4128.20512821 , 4126.66666667 , 4124.61538462 , 4131.28205128 , 4135.8974359 , 4137.43589744 , 4189.74358974 , 4911.79487179 , 4133.84615385 , 4129.74358974 , 2042.0 , 2037.0 , 55.019 , 0.0 , 0.0 , 0.0 , 0.0 , 

53.0 , 4132.82051282 , 4126.15384615 , 4134.35897436 , 4128.71794872 , 4130.25641026 , 4127.17948718 , 4123.58974359 , 4127.69230769 , 4134.87179487 , 4137.43589744 , 4190.25641026 , 4912.30769231 , 4130.76923077 , 4137.94871795 , 2041.0 , 2036.0 , 55.028 , 0.0 , 0.0 , 0.0 , 0.0 , 

54.0 , 4134.87179487 , 4125.64102564 , 4133.33333333 , 4128.20512821 , 4129.23076923 , 4126.15384615 , 4126.66666667 , 4128.71794872 , 4133.33333333 , 4137.43589744 , 4190.76923077 , 4909.23076923 , 4129.23076923 , 4140.51282051 , 2043.0 , 2036.0 , 55.034 , 0.0 , 0.0 , 0.0 , 0.0 , 

55.0 , 4132.30769231 , 4126.15384615 , 4133.33333333 , 4130.76923077 , 4127.69230769 , 4125.64102564 , 4127.69230769 , 4129.74358974 , 4131.28205128 , 4137.94871795 , 4188.71794872 , 4909.74358974 , 4133.33333333 , 4140.51282051 , 2043.0 , 2037.0 , 55.042 , 0.0 , 0.0 , 0.0 , 0.0 , 

56.0 , 4130.76923077 , 4127.69230769 , 4134.87179487 , 4132.82051282 , 4129.23076923 , 4128.71794872 , 4125.64102564 , 4129.23076923 , 4130.25641026 , 4138.97435897 , 4187.69230769 , 4908.71794872 , 4134.87179487 , 4138.97435897 , 2043.0 , 2036.0 , 55.051 , 0.0 , 0.0 , 0.0 , 0.0 , 

57.0 , 4135.38461538 , 4128.20512821 , 4136.41025641 , 4130.76923077 , 4129.23076923 , 4126.66666667 , 4122.56410256 , 4129.74358974 , 4130.25641026 , 4138.97435897 , 4191.28205128 , 4909.74358974 , 4131.28205128 , 4143.07692308 , 2043.0 , 2035.0 , 55.059 , 0.0 , 0.0 , 0.0 , 0.0 , 

58.0 , 4132.30769231 , 4127.17948718 , 4135.8974359 , 4131.28205128 , 4130.76923077 , 4127.17948718 , 4123.07692308 , 4130.25641026 , 4132.30769231 , 4136.41025641 , 4191.28205128 , 4908.71794872 , 4132.30769231 , 4141.53846154 , 2045.0 , 2036.0 , 55.067 , 0.0 , 0.0 , 0.0 , 0.0 , 

59.0 , 4128.71794872 , 4128.71794872 , 4133.33333333 , 4133.84615385 , 4131.28205128 , 4128.71794872 , 4124.1025641 , 4129.74358974 , 4131.79487179 , 4135.38461538 , 4188.20512821 , 4910.76923077 , 4135.38461538 , 4139.48717949 , 2044.0 , 2034.0 , 55.074 , 0.0 , 0.0 , 0.0 , 0.0 , 

60.0 , 4129.23076923 , 4131.79487179 , 4133.84615385 , 4134.35897436 , 4127.69230769 , 4129.74358974 , 4126.66666667 , 4132.30769231 , 4129.74358974 , 4136.92307692 , 4189.74358974 , 4911.79487179 , 4132.82051282 , 4137.43589744 , 2045.0 , 2036.0 , 55.082 , 0.0 , 0.0 , 0.0 , 0.0 , 

61.0 , 4129.74358974 , 4129.23076923 , 4137.94871795 , 4131.79487179 , 4127.17948718 , 4129.23076923 , 4127.17948718 , 4133.33333333 , 4130.76923077 , 4137.43589744 , 4192.30769231 , 4911.28205128 , 4132.82051282 , 4139.48717949 , 2046.0 , 2037.0 , 55.09 , 0.0 , 0.0 , 0.0 , 0.0 , 

62.0 , 4128.71794872 , 4128.20512821 , 4134.87179487 , 4131.28205128 , 4130.25641026 , 4126.15384615 , 4125.64102564 , 4128.20512821 , 4131.28205128 , 4136.92307692 , 4190.76923077 , 4910.76923077 , 4134.87179487 , 4141.02564103 , 2045.0 , 2036.0 , 55.098 , 0.0 , 0.0 , 0.0 , 0.0 , 

63.0 , 4127.69230769 , 4131.28205128 , 4130.25641026 , 4132.82051282 , 4129.23076923 , 4123.58974359 , 4125.12820513 , 4126.66666667 , 4130.25641026 , 4137.94871795 , 4189.23076923 , 4911.28205128 , 4132.30769231 , 4139.48717949 , 2045.0 , 2036.0 , 55.105 , 0.0 , 0.0 , 0.0 , 0.0 , 

64.0 , 4127.17948718 , 4130.25641026 , 4132.30769231 , 4132.30769231 , 4125.64102564 , 4125.64102564 , 4126.15384615 , 4130.76923077 , 4131.79487179 , 4138.46153846 , 4189.23076923 , 4914.35897436 , 4129.23076923 , 4137.43589744 , 2044.0 , 2037.0 , 55.113 , 0.0 , 0.0 , 0.0 , 0.0 , 

65.0 , 4128.20512821 , 4128.20512821 , 4133.84615385 , 4131.28205128 , 4127.69230769 , 4126.15384615 , 4126.15384615 , 4132.82051282 , 4134.35897436 , 4137.43589744 , 4189.23076923 , 4913.84615385 , 4132.30769231 , 4135.38461538 , 2044.0 , 2037.0 , 55.121 , 0.0 , 0.0 , 0.0 , 0.0 , 

66.0 , 4131.28205128 , 4126.66666667 , 4130.76923077 , 4131.79487179 , 4129.74358974 , 4124.1025641 , 4125.12820513 , 4131.79487179 , 4132.82051282 , 4136.41025641 , 4190.25641026 , 4912.82051282 , 4134.35897436 , 4136.41025641 , 2045.0 , 2036.0 , 55.129 , 0.0 , 0.0 , 0.0 , 0.0 , 

67.0 , 4129.23076923 , 4126.15384615 , 4129.74358974 , 4134.35897436 , 4126.66666667 , 4125.64102564 , 4126.66666667 , 4133.33333333 , 4132.30769231 , 4137.43589744 , 4191.79487179 , 4911.28205128 , 4134.87179487 , 4134.87179487 , 2043.0 , 2037.0 , 55.137 , 0.0 , 0.0 , 0.0 , 0.0 , 

68.0 , 4129.74358974 , 4125.64102564 , 4134.35897436 , 4135.38461538 , 4126.15384615 , 4125.12820513 , 4126.15384615 , 4131.79487179 , 4132.82051282 , 4137.43589744 , 4191.79487179 , 4911.79487179 , 4132.82051282 , 4137.94871795 , 2043.0 , 2036.0 , 55.146 , 0.0 , 0.0 , 0.0 , 0.0 , 

69.0 , 4128.20512821 , 4125.64102564 , 4134.35897436 , 4135.38461538 , 4131.79487179 , 4124.61538462 , 4125.64102564 , 4130.76923077 , 4132.30769231 , 4136.41025641 , 4189.74358974 , 4910.76923077 , 4130.76923077 , 4136.92307692 , 2043.0 , 2037.0 , 55.153 , 0.0 , 0.0 , 0.0 , 0.0 , 

70.0 , 4129.74358974 , 4124.1025641 , 4133.33333333 , 4132.30769231 , 4132.82051282 , 4127.69230769 , 4123.58974359 , 4132.30769231 , 4131.28205128 , 4135.8974359 , 4189.74358974 , 4912.82051282 , 4131.28205128 , 4142.05128205 , 2041.0 , 2037.0 , 55.162 , 0.0 , 0.0 , 0.0 , 0.0 , 

71.0 , 4132.82051282 , 4128.20512821 , 4132.30769231 , 4132.30769231 , 4127.69230769 , 4129.23076923 , 4124.1025641 , 4133.33333333 , 4134.35897436 , 4135.8974359 , 4191.28205128 , 4911.79487179 , 4132.82051282 , 4141.02564103 , 2042.0 , 2037.0 , 55.17 , 0.0 , 0.0 , 0.0 , 0.0 , 

72.0 , 4134.35897436 , 4131.79487179 , 4133.33333333 , 4132.30769231 , 4126.66666667 , 4125.64102564 , 4123.07692308 , 4129.23076923 , 4136.41025641 , 4135.38461538 , 4191.79487179 , 4911.28205128 , 4131.79487179 , 4143.58974359 , 2041.0 , 2036.0 , 55.176 , 0.0 , 0.0 , 0.0 , 0.0 , 

73.0 , 4128.71794872 , 4127.17948718 , 4133.84615385 , 4130.76923077 , 4131.28205128 , 4127.69230769 , 4124.1025641 , 4129.74358974 , 4137.43589744 , 4135.8974359 , 4189.74358974 , 4911.79487179 , 4132.30769231 , 4141.53846154 , 2043.0 , 2037.0 , 55.184 , 0.0 , 0.0 , 0.0 , 0.0 , 

74.0 , 4131.28205128 , 4124.1025641 , 4136.41025641 , 4129.23076923 , 4131.28205128 , 4127.69230769 , 4125.64102564 , 4132.30769231 , 4133.33333333 , 4137.94871795 , 4191.28205128 , 4914.87179487 , 4134.35897436 , 4141.53846154 , 2041.0 , 2036.0 , 55.193 , 0.0 , 0.0 , 0.0 , 0.0 , 

75.0 , 4135.38461538 , 4128.20512821 , 4136.41025641 , 4132.82051282 , 4129.74358974 , 4125.64102564 , 4127.17948718 , 4130.76923077 , 4131.79487179 , 4137.94871795 , 4191.79487179 , 4911.79487179 , 4135.38461538 , 4139.48717949 , 2042.0 , 2038.0 , 55.2 , 0.0 , 0.0 , 0.0 , 0.0 , 

76.0 , 4134.35897436 , 4129.23076923 , 4136.92307692 , 4135.38461538 , 4129.23076923 , 4126.15384615 , 4124.1025641 , 4129.23076923 , 4133.84615385 , 4136.92307692 , 4189.23076923 , 4911.28205128 , 4135.8974359 , 4143.07692308 , 2042.0 , 2037.0 , 55.208 , 0.0 , 0.0 , 0.0 , 0.0 , 

77.0 , 4130.25641026 , 4127.69230769 , 4134.87179487 , 4133.84615385 , 4129.23076923 , 4128.20512821 , 4124.1025641 , 4133.33333333 , 4132.82051282 , 4136.92307692 , 4190.25641026 , 4912.82051282 , 4132.82051282 , 4140.0 , 2044.0 , 2036.0 , 55.216 , 0.0 , 0.0 , 0.0 , 0.0 , 

78.0 , 4129.74358974 , 4127.69230769 , 4131.79487179 , 4132.30769231 , 4128.71794872 , 4126.15384615 , 4127.17948718 , 4134.87179487 , 4130.25641026 , 4136.41025641 , 4192.30769231 , 4912.82051282 , 4130.76923077 , 4135.38461538 , 2044.0 , 2035.0 , 55.224 , 0.0 , 0.0 , 0.0 , 0.0 , 

79.0 , 4130.76923077 , 4128.71794872 , 4131.79487179 , 4133.33333333 , 4130.25641026 , 4125.12820513 , 4126.15384615 , 4133.33333333 , 4131.28205128 , 4136.92307692 , 4191.28205128 , 4909.23076923 , 4131.28205128 , 4133.84615385 , 2044.0 , 2034.0 , 55.232 , 0.0 , 0.0 , 0.0 , 0.0 , 

80.0 , 4132.30769231 , 4126.66666667 , 4134.35897436 , 4132.82051282 , 4130.76923077 , 4127.69230769 , 4124.61538462 , 4131.79487179 , 4132.82051282 , 4138.46153846 , 4189.74358974 , 4910.25641026 , 4131.79487179 , 4135.38461538 , 2044.0 , 2034.0 , 55.239 , 0.0 , 0.0 , 0.0 , 0.0 , 

81.0 , 4132.30769231 , 4124.1025641 , 4133.84615385 , 4129.23076923 , 4128.20512821 , 4129.23076923 , 4128.71794872 , 4130.76923077 , 4131.28205128 , 4138.97435897 , 4190.25641026 , 4913.33333333 , 4129.74358974 , 4134.35897436 , 2045.0 , 2033.0 , 55.247 , 0.0 , 0.0 , 0.0 , 0.0 , 

82.0 , 4132.82051282 , 4125.12820513 , 4133.33333333 , 4130.76923077 , 4127.69230769 , 4126.66666667 , 4129.23076923 , 4129.74358974 , 4129.74358974 , 4137.94871795 , 4189.74358974 , 4911.79487179 , 4128.71794872 , 4133.84615385 , 2044.0 , 2034.0 , 55.257 , 0.0 , 0.0 , 0.0 , 0.0 , 

83.0 , 4133.33333333 , 4127.69230769 , 4135.38461538 , 4133.33333333 , 4129.74358974 , 4123.07692308 , 4125.12820513 , 4129.74358974 , 4130.25641026 , 4137.43589744 , 4188.20512821 , 4910.76923077 , 4132.30769231 , 4137.43589744 , 2044.0 , 2035.0 , 55.264 , 0.0 , 0.0 , 0.0 , 0.0 , 

84.0 , 4128.71794872 , 4127.17948718 , 4135.8974359 , 4129.74358974 , 4129.74358974 , 4126.15384615 , 4125.64102564 , 4131.79487179 , 4133.33333333 , 4136.92307692 , 4189.23076923 , 4911.79487179 , 4135.8974359 , 4138.97435897 , 2044.0 , 2033.0 , 55.271 , 0.0 , 0.0 , 0.0 , 0.0 , 

85.0 , 4128.20512821 , 4124.61538462 , 4136.92307692 , 4127.17948718 , 4128.20512821 , 4128.20512821 , 4126.15384615 , 4130.76923077 , 4132.82051282 , 4135.38461538 , 4190.76923077 , 4913.84615385 , 4130.76923077 , 4144.61538462 , 2042.0 , 2035.0 , 55.28 , 0.0 , 0.0 , 0.0 , 0.0 , 

86.0 , 4131.79487179 , 4127.17948718 , 4136.41025641 , 4133.33333333 , 4130.25641026 , 4126.15384615 , 4127.69230769 , 4129.74358974 , 4129.23076923 , 4135.8974359 , 4191.28205128 , 4913.84615385 , 4130.25641026 , 4142.56410256 , 2041.0 , 2034.0 , 55.287 , 0.0 , 0.0 , 0.0 , 0.0 , 

87.0 , 4134.87179487 , 4127.17948718 , 4134.35897436 , 4134.87179487 , 4130.25641026 , 4124.1025641 , 4126.15384615 , 4130.25641026 , 4129.74358974 , 4138.46153846 , 4191.28205128 , 4915.8974359 , 4134.35897436 , 4140.51282051 , 2042.0 , 2036.0 , 55.296 , 0.0 , 0.0 , 0.0 , 0.0 , 

88.0 , 4131.28205128 , 4127.17948718 , 4132.82051282 , 4132.30769231 , 4129.23076923 , 4127.69230769 , 4122.56410256 , 4132.30769231 , 4135.8974359 , 4139.48717949 , 4191.79487179 , 4914.87179487 , 4135.8974359 , 4138.46153846 , 2042.0 , 2035.0 , 55.302 , 0.0 , 0.0 , 0.0 , 0.0 , 

89.0 , 4130.25641026 , 4128.71794872 , 4132.82051282 , 4130.25641026 , 4130.25641026 , 4128.20512821 , 4121.53846154 , 4130.76923077 , 4135.38461538 , 4137.94871795 , 4192.82051282 , 4913.84615385 , 4133.84615385 , 4143.58974359 , 2044.0 , 2036.0 , 55.31 , 0.0 , 0.0 , 0.0 , 0.0 , 

90.0 , 4126.66666667 , 4127.17948718 , 4131.28205128 , 4134.87179487 , 4131.79487179 , 4127.17948718 , 4126.15384615 , 4129.23076923 , 4130.25641026 , 4137.43589744 , 4190.76923077 , 4911.28205128 , 4130.76923077 , 4140.0 , 2043.0 , 2037.0 , 55.318 , 0.0 , 0.0 , 0.0 , 0.0 , 

91.0 , 4129.74358974 , 4125.12820513 , 4132.30769231 , 4134.87179487 , 4128.71794872 , 4125.64102564 , 4124.1025641 , 4129.23076923 , 4127.69230769 , 4137.43589744 , 4190.76923077 , 4913.84615385 , 4127.17948718 , 4138.97435897 , 2043.0 , 2037.0 , 55.326 , 0.0 , 0.0 , 0.0 , 0.0 , 

92.0 , 4132.82051282 , 4128.20512821 , 4133.33333333 , 4132.82051282 , 4128.20512821 , 4125.64102564 , 4123.07692308 , 4131.79487179 , 4131.79487179 , 4137.94871795 , 4191.28205128 , 4912.30769231 , 4127.17948718 , 4137.43589744 , 2043.0 , 2037.0 , 55.334 , 0.0 , 0.0 , 0.0 , 0.0 , 

93.0 , 4130.76923077 , 4128.20512821 , 4132.30769231 , 4132.82051282 , 4129.23076923 , 4123.58974359 , 4124.1025641 , 4131.79487179 , 4133.33333333 , 4136.92307692 , 4191.79487179 , 4913.84615385 , 4128.71794872 , 4138.97435897 , 2043.0 , 2038.0 , 55.342 , 0.0 , 0.0 , 0.0 , 0.0 , 

94.0 , 4128.71794872 , 4126.66666667 , 4132.82051282 , 4134.87179487 , 4128.71794872 , 4127.17948718 , 4125.12820513 , 4131.28205128 , 4132.82051282 , 4136.92307692 , 4191.28205128 , 4913.33333333 , 4129.74358974 , 4135.8974359 , 2044.0 , 2038.0 , 55.35 , 0.0 , 0.0 , 0.0 , 0.0 , 

95.0 , 4132.82051282 , 4126.66666667 , 4132.82051282 , 4131.79487179 , 4127.69230769 , 4129.23076923 , 4123.07692308 , 4131.28205128 , 4132.30769231 , 4137.94871795 , 4189.74358974 , 4912.30769231 , 4134.87179487 , 4136.92307692 , 2043.0 , 2037.0 , 55.358 , 0.0 , 0.0 , 0.0 , 0.0 , 

96.0 , 4131.79487179 , 4125.64102564 , 4129.74358974 , 4129.74358974 , 4129.74358974 , 4125.64102564 , 4123.58974359 , 4133.33333333 , 4131.79487179 , 4138.46153846 , 4188.71794872 , 4910.76923077 , 4135.38461538 , 4137.43589744 , 2044.0 , 2036.0 , 55.364 , 0.0 , 0.0 , 0.0 , 0.0 , 

97.0 , 4129.74358974 , 4126.66666667 , 4134.87179487 , 4132.30769231 , 4130.76923077 , 4121.53846154 , 4124.1025641 , 4132.82051282 , 4134.35897436 , 4136.92307692 , 4189.74358974 , 4910.76923077 , 4131.79487179 , 4138.97435897 , 2044.0 , 2036.0 , 55.373 , 0.0 , 0.0 , 0.0 , 0.0 , 

98.0 , 4132.30769231 , 4130.25641026 , 4138.97435897 , 4132.30769231 , 4132.30769231 , 4123.58974359 , 4123.58974359 , 4132.82051282 , 4135.8974359 , 4136.41025641 , 4191.28205128 , 4910.76923077 , 4130.25641026 , 4141.02564103 , 2044.0 , 2037.0 , 55.382 , 0.0 , 0.0 , 0.0 , 0.0 , 

99.0 , 4132.82051282 , 4130.76923077 , 4133.84615385 , 4129.74358974 , 4131.28205128 , 4125.64102564 , 4124.61538462 , 4133.84615385 , 4132.82051282 , 4138.46153846 , 4193.84615385 , 4912.30769231 , 4130.76923077 , 4142.05128205 , 2044.0 , 2038.0 , 55.389 , 0.0 , 0.0 , 0.0 , 0.0 , 

100.0 , 4131.79487179 , 4130.76923077 , 4131.28205128 , 4129.23076923 , 4128.71794872 , 4126.66666667 , 4127.17948718 , 4132.30769231 , 4130.25641026 , 4136.92307692 , 4194.35897436 , 4914.87179487 , 4132.30769231 , 4142.56410256 , 2043.0 , 2036.0 , 55.397 , 0.0 , 0.0 , 0.0 , 0.0 , 

101.0 , 4131.28205128 , 4130.25641026 , 4135.38461538 , 4132.82051282 , 4130.25641026 , 4127.69230769 , 4127.69230769 , 4131.79487179 , 4132.82051282 , 4136.41025641 , 4191.28205128 , 4914.35897436 , 4134.87179487 , 4142.05128205 , 2042.0 , 2037.0 , 55.405 , 0.0 , 0.0 , 0.0 , 0.0 , 

102.0 , 4130.76923077 , 4127.69230769 , 4136.41025641 , 4131.79487179 , 4130.76923077 , 4125.12820513 , 4125.12820513 , 4129.74358974 , 4134.87179487 , 4137.94871795 , 4189.74358974 , 4915.8974359 , 4134.35897436 , 4141.02564103 , 2043.0 , 2036.0 , 55.413 , 0.0 , 0.0 , 0.0 , 0.0 , 

103.0 , 4128.71794872 , 4128.71794872 , 4132.30769231 , 4129.23076923 , 4127.17948718 , 4124.61538462 , 4124.1025641 , 4128.20512821 , 4132.82051282 , 4136.92307692 , 4191.79487179 , 4915.8974359 , 4133.84615385 , 4137.43589744 , 2045.0 , 2038.0 , 55.421 , 0.0 , 0.0 , 0.0 , 0.0 , 

104.0 , 4128.71794872 , 4129.74358974 , 4130.76923077 , 4130.25641026 , 4129.23076923 , 4126.15384615 , 4124.1025641 , 4129.23076923 , 4129.74358974 , 4135.8974359 , 4191.28205128 , 4914.35897436 , 4132.30769231 , 4140.51282051 , 2046.0 , 2038.0 , 55.43 , 0.0 , 0.0 , 0.0 , 0.0 , 

105.0 , 4127.17948718 , 4126.66666667 , 4132.30769231 , 4133.33333333 , 4133.33333333 , 4126.15384615 , 4123.58974359 , 4131.79487179 , 4131.79487179 , 4137.94871795 , 4188.71794872 , 4912.82051282 , 4132.30769231 , 4135.38461538 , 2043.0 , 2037.0 , 55.436 , 0.0 , 0.0 , 0.0 , 0.0 , 

106.0 , 4130.25641026 , 4125.64102564 , 4134.87179487 , 4131.28205128 , 4131.28205128 , 4123.07692308 , 4122.05128205 , 4128.71794872 , 4135.8974359 , 4138.46153846 , 4190.76923077 , 4913.33333333 , 4129.23076923 , 4134.87179487 , 2044.0 , 2036.0 , 55.444 , 0.0 , 0.0 , 0.0 , 0.0 , 

107.0 , 4130.25641026 , 4129.23076923 , 4132.82051282 , 4132.30769231 , 4130.76923077 , 4124.1025641 , 4124.1025641 , 4129.74358974 , 4135.38461538 , 4136.41025641 , 4192.30769231 , 4910.76923077 , 4130.25641026 , 4134.87179487 , 2044.0 , 2036.0 , 55.452 , 0.0 , 0.0 , 0.0 , 0.0 , 

108.0 , 4132.82051282 , 4129.74358974 , 4130.76923077 , 4130.25641026 , 4128.71794872 , 4125.64102564 , 4125.12820513 , 4132.30769231 , 4132.30769231 , 4136.92307692 , 4190.76923077 , 4911.79487179 , 4132.82051282 , 4138.97435897 , 2043.0 , 2035.0 , 55.461 , 0.0 , 0.0 , 0.0 , 0.0 , 

109.0 , 4131.79487179 , 4130.25641026 , 4130.76923077 , 4129.74358974 , 4127.69230769 , 4126.15384615 , 4125.12820513 , 4130.76923077 , 4132.30769231 , 4138.46153846 , 4188.20512821 , 4909.74358974 , 4131.28205128 , 4135.38461538 , 2043.0 , 2036.0 , 55.533 , 0.0 , 0.0 , 0.0 , 0.0 , 

110.0 , 4130.25641026 , 4129.23076923 , 4132.30769231 , 4130.25641026 , 4127.69230769 , 4123.58974359 , 4122.56410256 , 4127.69230769 , 4130.76923077 , 4136.92307692 , 4189.74358974 , 4910.25641026 , 4128.20512821 , 4135.38461538 , 2042.0 , 2034.0 , 55.535 , 0.0 , 0.0 , 0.0 , 0.0 , 

111.0 , 4131.79487179 , 4130.76923077 , 4132.30769231 , 4130.76923077 , 4127.69230769 , 4125.12820513 , 4124.61538462 , 4132.30769231 , 4132.30769231 , 4135.8974359 , 4191.79487179 , 4911.28205128 , 4132.30769231 , 4135.38461538 , 2042.0 , 2036.0 , 55.535 , 0.0 , 0.0 , 0.0 , 0.0 , 

112.0 , 4140.0 , 4134.35897436 , 4135.38461538 , 4131.79487179 , 4129.74358974 , 4129.23076923 , 4129.23076923 , 4136.92307692 , 4136.92307692 , 4137.43589744 , 4193.84615385 , 4914.87179487 , 4138.97435897 , 4142.56410256 , 2041.0 , 2036.0 , 55.535 , 0.0 , 0.0 , 0.0 , 0.0 , 

113.0 , 4137.43589744 , 4134.35897436 , 4135.8974359 , 4134.35897436 , 4131.79487179 , 4130.76923077 , 4130.76923077 , 4136.92307692 , 4136.92307692 , 4137.94871795 , 4191.79487179 , 4914.87179487 , 4136.41025641 , 4144.61538462 , 2042.0 , 2036.0 , 55.535 , 0.0 , 0.0 , 0.0 , 0.0 , 

114.0 , 4130.25641026 , 4130.25641026 , 4132.30769231 , 4132.30769231 , 4129.23076923 , 4127.17948718 , 4124.1025641 , 4134.35897436 , 4133.84615385 , 4137.43589744 , 4191.28205128 , 4912.82051282 , 4132.82051282 , 4143.07692308 , 2043.0 , 2036.0 , 55.535 , 0.0 , 0.0 , 0.0 , 0.0 , 

115.0 , 4128.20512821 , 4129.74358974 , 4129.23076923 , 4129.74358974 , 4128.71794872 , 4127.69230769 , 4122.56410256 , 4131.79487179 , 4135.38461538 , 4137.43589744 , 4192.82051282 , 4910.25641026 , 4132.30769231 , 4141.02564103 , 2043.0 , 2035.0 , 55.535 , 0.0 , 0.0 , 0.0 , 0.0 , 

116.0 , 4128.20512821 , 4130.25641026 , 4130.76923077 , 4130.25641026 , 4129.74358974 , 4129.23076923 , 4127.17948718 , 4130.25641026 , 4135.8974359 , 4136.92307692 , 4191.79487179 , 4913.33333333 , 4132.30769231 , 4141.53846154 , 2043.0 , 2035.0 , 55.535 , 0.0 , 0.0 , 0.0 , 0.0 , 

117.0 , 4129.23076923 , 4128.20512821 , 4132.30769231 , 4129.23076923 , 4128.20512821 , 4125.64102564 , 4125.64102564 , 4131.79487179 , 4134.87179487 , 4136.41025641 , 4190.25641026 , 4914.35897436 , 4129.23076923 , 4139.48717949 , 2043.0 , 2033.0 , 55.535 , 0.0 , 0.0 , 0.0 , 0.0 , 

118.0 , 4130.76923077 , 4127.69230769 , 4132.30769231 , 4129.23076923 , 4129.23076923 , 4124.61538462 , 4121.53846154 , 4131.79487179 , 4135.38461538 , 4138.46153846 , 4192.82051282 , 4912.30769231 , 4126.66666667 , 4138.46153846 , 2044.0 , 2033.0 , 55.541 , 0.0 , 0.0 , 0.0 , 0.0 , 

119.0 , 4130.76923077 , 4128.71794872 , 4133.33333333 , 4131.28205128 , 4131.28205128 , 4126.66666667 , 4121.53846154 , 4128.20512821 , 4134.35897436 , 4139.48717949 , 4191.79487179 , 4910.25641026 , 4128.71794872 , 4138.97435897 , 2044.0 , 2036.0 , 55.547 , 0.0 , 0.0 , 0.0 , 0.0 , 

120.0 , 4130.25641026 , 4129.74358974 , 4131.79487179 , 4132.30769231 , 4131.79487179 , 4126.66666667 , 4125.12820513 , 4129.74358974 , 4132.30769231 , 4136.92307692 , 4186.15384615 , 4909.74358974 , 4132.82051282 , 4135.38461538 , 2044.0 , 2034.0 , 55.556 , 0.0 , 0.0 , 0.0 , 0.0 , 

121.0 , 4132.82051282 , 4128.71794872 , 4131.28205128 , 4131.79487179 , 4131.79487179 , 4125.12820513 , 4127.17948718 , 4132.30769231 , 4131.28205128 , 4136.41025641 , 4188.20512821 , 4912.82051282 , 4133.84615385 , 4134.87179487 , 2044.0 , 2034.0 , 55.563 , 0.0 , 0.0 , 0.0 , 0.0 , 

122.0 , 4132.82051282 , 4128.20512821 , 4132.30769231 , 4132.30769231 , 4131.28205128 , 4128.71794872 , 4125.64102564 , 4131.28205128 , 4131.79487179 , 4137.43589744 , 4190.25641026 , 4911.79487179 , 4133.84615385 , 4134.87179487 , 2044.0 , 2034.0 , 55.57 , 0.0 , 0.0 , 0.0 , 0.0 , 

123.0 , 4134.35897436 , 4129.23076923 , 4133.33333333 , 4130.76923077 , 4131.79487179 , 4129.23076923 , 4123.07692308 , 4129.23076923 , 4130.25641026 , 4136.92307692 , 4187.69230769 , 4910.76923077 , 4132.30769231 , 4141.02564103 , 2044.0 , 2034.0 , 55.578 , 0.0 , 0.0 , 0.0 , 0.0 , 

124.0 , 4133.33333333 , 4128.71794872 , 4132.82051282 , 4132.82051282 , 4131.28205128 , 4127.17948718 , 4125.64102564 , 4133.33333333 , 4131.28205128 , 4135.38461538 , 4189.23076923 , 4908.20512821 , 4133.84615385 , 4138.46153846 , 2045.0 , 2035.0 , 55.586 , 0.0 , 0.0 , 0.0 , 0.0 , 

125.0 , 4135.8974359 , 4126.15384615 , 4134.35897436 , 4132.82051282 , 4128.71794872 , 4125.64102564 , 4123.58974359 , 4135.8974359 , 4132.30769231 , 4136.41025641 , 4191.79487179 , 4907.69230769 , 4134.35897436 , 4136.92307692 , 2044.0 , 2035.0 , 55.594 , 0.0 , 0.0 , 0.0 , 0.0 , 

126.0 , 4134.87179487 , 4127.69230769 , 4132.30769231 , 4132.30769231 , 4129.74358974 , 4128.71794872 , 4121.02564103 , 4133.84615385 , 4131.79487179 , 4137.94871795 , 4190.25641026 , 4906.66666667 , 4130.76923077 , 4136.92307692 , 2044.0 , 2034.0 , 55.602 , 0.0 , 0.0 , 0.0 , 0.0 , 

127.0 , 4133.33333333 , 4127.69230769 , 4131.28205128 , 4130.25641026 , 4130.25641026 , 4127.69230769 , 4123.07692308 , 4129.74358974 , 4131.28205128 , 4137.43589744 , 4190.25641026 , 4909.23076923 , 4127.17948718 , 4141.02564103 , 2045.0 , 2036.0 , 55.61 , 0.0 , 0.0 , 0.0 , 0.0 , 

128.0 , 4130.76923077 , 4127.69230769 , 4132.82051282 , 4132.82051282 , 4129.74358974 , 4127.17948718 , 4127.69230769 , 4132.30769231 , 4132.30769231 , 4136.41025641 , 4191.28205128 , 4913.84615385 , 4129.23076923 , 4136.92307692 , 2044.0 , 2037.0 , 55.618 , 0.0 , 0.0 , 0.0 , 0.0 , 

0.0 , 4132.30769231 , 4127.69230769 , 4134.87179487 , 4130.25641026 , 4128.71794872 , 4124.61538462 , 4124.61538462 , 4132.82051282 , 4132.30769231 , 4137.43589744 , 4190.25641026 , 4922.05128205 , 4130.76923077 , 4141.53846154 , 2044.0 , 2036.0 , 55.626 , 0.0 , 0.0 , 0.0 , 0.0 , 

1.0 , 4128.71794872 , 4126.15384615 , 4133.84615385 , 4128.71794872 , 4130.25641026 , 4126.15384615 , 4122.56410256 , 4128.71794872 , 4132.30769231 , 4137.94871795 , 4190.25641026 , 4919.48717949 , 4127.17948718 , 4143.07692308 , 2044.0 , 2037.0 , 55.633 , 0.0 , 0.0 , 0.0 , 0.0 , 

2.0 , 4129.23076923 , 4124.1025641 , 4133.84615385 , 4131.28205128 , 4131.79487179 , 4129.23076923 , 4125.12820513 , 4126.66666667 , 4133.84615385 , 4136.41025641 , 4190.25641026 , 4913.84615385 , 4127.69230769 , 4141.53846154 , 2043.0 , 2037.0 , 55.641 , 0.0 , 0.0 , 0.0 , 0.0 , 

3.0 , 4130.76923077 , 4128.20512821 , 4131.79487179 , 4131.79487179 , 4130.76923077 , 4128.71794872 , 4127.69230769 , 4130.76923077 , 4134.35897436 , 4136.41025641 , 4189.23076923 , 4911.79487179 , 4130.25641026 , 4136.41025641 , 2044.0 , 2037.0 , 55.649 , 0.0 , 0.0 , 0.0 , 0.0 , 

4.0 , 4129.74358974 , 4130.25641026 , 4129.74358974 , 4129.74358974 , 4128.20512821 , 4126.66666667 , 4125.12820513 , 4132.30769231 , 4133.33333333 , 4137.94871795 , 4191.79487179 , 4914.35897436 , 4130.76923077 , 4138.46153846 , 2044.0 , 2038.0 , 55.658 , 0.0 , 0.0 , 0.0 , 0.0 , 

5.0 , 4127.17948718 , 4127.69230769 , 4131.28205128 , 4132.30769231 , 4128.71794872 , 4129.23076923 , 4124.61538462 , 4129.74358974 , 4133.84615385 , 4137.43589744 , 4191.79487179 , 4912.30769231 , 4129.74358974 , 4137.94871795 , 2043.0 , 2038.0 , 55.665 , 0.0 , 0.0 , 0.0 , 0.0 , 

6.0 , 4129.23076923 , 4128.20512821 , 4132.82051282 , 4133.84615385 , 4128.71794872 , 4128.71794872 , 4126.15384615 , 4130.76923077 , 4134.87179487 , 4136.41025641 , 4189.74358974 , 4912.30769231 , 4132.30769231 , 4136.41025641 , 2043.0 , 2038.0 , 55.673 , 0.0 , 0.0 , 0.0 , 0.0 , 

7.0 , 4131.79487179 , 4129.74358974 , 4131.28205128 , 4131.79487179 , 4128.71794872 , 4125.64102564 , 4125.12820513 , 4133.33333333 , 4131.28205128 , 4136.92307692 , 4189.74358974 , 4911.79487179 , 4133.84615385 , 4137.94871795 , 2044.0 , 2036.0 , 55.681 , 0.0 , 0.0 , 0.0 , 0.0 , 

8.0 , 4132.30769231 , 4129.23076923 , 4130.76923077 , 4131.28205128 , 4129.23076923 , 4125.64102564 , 4122.56410256 , 4132.82051282 , 4127.69230769 , 4137.94871795 , 4190.25641026 , 4907.69230769 , 4130.25641026 , 4138.97435897 , 2044.0 , 2037.0 , 55.689 , 0.0 , 0.0 , 0.0 , 0.0 , 

9.0 , 4134.35897436 , 4128.20512821 , 4131.79487179 , 4131.28205128 , 4127.69230769 , 4126.66666667 , 4122.05128205 , 4130.76923077 , 4128.71794872 , 4137.43589744 , 4189.23076923 , 4910.76923077 , 4127.17948718 , 4141.02564103 , 2042.0 , 2036.0 , 55.697 , 0.0 , 0.0 , 0.0 , 0.0 , 

10.0 , 4134.87179487 , 4129.74358974 , 4131.28205128 , 4132.30769231 , 4127.69230769 , 4125.64102564 , 4122.05128205 , 4133.33333333 , 4133.33333333 , 4136.41025641 , 4189.74358974 , 4913.84615385 , 4131.28205128 , 4140.0 , 2043.0 , 2037.0 , 55.706 , 0.0 , 0.0 , 0.0 , 0.0 , 

11.0 , 4133.33333333 , 4129.74358974 , 4133.33333333 , 4132.30769231 , 4128.20512821 , 4125.64102564 , 4123.58974359 , 4132.82051282 , 4133.84615385 , 4137.43589744 , 4192.30769231 , 4911.79487179 , 4133.84615385 , 4143.07692308 , 2042.0 , 2037.0 , 55.714 , 0.0 , 0.0 , 0.0 , 0.0 , 

12.0 , 4131.28205128 , 4130.76923077 , 4133.33333333 , 4132.82051282 , 4127.69230769 , 4128.20512821 , 4127.69230769 , 4130.25641026 , 4133.84615385 , 4137.94871795 , 4190.76923077 , 4906.66666667 , 4133.33333333 , 4140.0 , 2042.0 , 2038.0 , 55.72 , 0.0 , 0.0 , 0.0 , 0.0 , 

13.0 , 4132.30769231 , 4130.25641026 , 4131.28205128 , 4134.35897436 , 4128.71794872 , 4126.15384615 , 4126.66666667 , 4128.71794872 , 4135.38461538 , 4136.41025641 , 4189.23076923 , 4910.76923077 , 4134.87179487 , 4141.02564103 , 2044.0 , 2037.0 , 55.728 , 0.0 , 0.0 , 0.0 , 0.0 , 

14.0 , 4128.71794872 , 4129.23076923 , 4132.82051282 , 4136.92307692 , 4132.30769231 , 4126.15384615 , 4123.58974359 , 4130.76923077 , 4135.8974359 , 4134.87179487 , 4191.28205128 , 4912.82051282 , 4136.41025641 , 4141.02564103 , 2043.0 , 2036.0 , 55.736 , 0.0 , 0.0 , 0.0 , 0.0 , 

15.0 , 4128.71794872 , 4129.23076923 , 4137.94871795 , 4135.38461538 , 4130.76923077 , 4125.64102564 , 4121.02564103 , 4130.76923077 , 4131.79487179 , 4136.41025641 , 4193.84615385 , 4912.30769231 , 4131.28205128 , 4142.56410256 , 2045.0 , 2036.0 , 55.744 , 0.0 , 0.0 , 0.0 , 0.0 , 

16.0 , 4130.76923077 , 4131.79487179 , 4134.35897436 , 4134.35897436 , 4131.28205128 , 4124.1025641 , 4124.1025641 , 4132.82051282 , 4129.23076923 , 4137.43589744 , 4191.28205128 , 4910.25641026 , 4128.71794872 , 4138.97435897 , 2043.0 , 2036.0 , 55.753 , 0.0 , 0.0 , 0.0 , 0.0 , 

17.0 , 4134.87179487 , 4130.25641026 , 4131.28205128 , 4133.33333333 , 4131.79487179 , 4123.58974359 , 4126.15384615 , 4133.33333333 , 4130.76923077 , 4137.43589744 , 4190.25641026 , 4913.33333333 , 4129.23076923 , 4141.02564103 , 2045.0 , 2036.0 , 55.76 , 0.0 , 0.0 , 0.0 , 0.0 , 

18.0 , 4132.30769231 , 4127.69230769 , 4133.33333333 , 4132.82051282 , 4128.20512821 , 4125.64102564 , 4125.12820513 , 4134.35897436 , 4130.25641026 , 4138.46153846 , 4190.25641026 , 4913.33333333 , 4131.28205128 , 4136.41025641 , 2044.0 , 2036.0 , 55.767 , 0.0 , 0.0 , 0.0 , 0.0 , 

19.0 , 4130.76923077 , 4126.66666667 , 4134.87179487 , 4132.30769231 , 4126.15384615 , 4123.58974359 , 4122.05128205 , 4133.33333333 , 4129.23076923 , 4138.46153846 , 4190.25641026 , 4913.84615385 , 4134.35897436 , 4134.35897436 , 2045.0 , 2034.0 , 55.776 , 0.0 , 0.0 , 0.0 , 0.0 , 

20.0 , 4131.79487179 , 4128.71794872 , 4132.30769231 , 4133.33333333 , 4130.76923077 , 4125.64102564 , 4123.58974359 , 4129.74358974 , 4134.35897436 , 4137.43589744 , 4191.28205128 , 4911.28205128 , 4133.84615385 , 4134.35897436 , 2044.0 , 2035.0 , 55.783 , 0.0 , 0.0 , 0.0 , 0.0 , 

21.0 , 4134.35897436 , 4128.71794872 , 4131.28205128 , 4132.82051282 , 4133.33333333 , 4126.15384615 , 4122.56410256 , 4127.69230769 , 4135.38461538 , 4136.41025641 , 4191.28205128 , 4911.28205128 , 4130.25641026 , 4138.97435897 , 2043.0 , 2036.0 , 55.791 , 0.0 , 0.0 , 0.0 , 0.0 , 

22.0 , 4131.28205128 , 4129.23076923 , 4131.28205128 , 4132.30769231 , 4128.71794872 , 4123.07692308 , 4121.53846154 , 4132.82051282 , 4131.79487179 , 4136.92307692 , 4188.71794872 , 4908.71794872 , 4130.25641026 , 4137.94871795 , 2043.0 , 2034.0 , 55.799 , 0.0 , 0.0 , 0.0 , 0.0 , 

23.0 , 4129.74358974 , 4131.28205128 , 4133.33333333 , 4131.28205128 , 4124.61538462 , 4123.07692308 , 4123.07692308 , 4133.84615385 , 4133.33333333 , 4136.92307692 , 4189.23076923 , 4906.66666667 , 4133.84615385 , 4138.46153846 , 2044.0 , 2036.0 , 55.807 , 0.0 , 0.0 , 0.0 , 0.0 , 

24.0 , 4131.28205128 , 4131.79487179 , 4133.84615385 , 4130.76923077 , 4128.20512821 , 4125.64102564 , 4125.12820513 , 4130.76923077 , 4134.35897436 , 4136.41025641 , 4191.28205128 , 4909.74358974 , 4133.33333333 , 4138.97435897 , 2044.0 , 2034.0 , 55.815 , 0.0 , 0.0 , 0.0 , 0.0 , 

25.0 , 4132.82051282 , 4128.71794872 , 4132.30769231 , 4131.28205128 , 4131.28205128 , 4123.58974359 , 4124.61538462 , 4131.79487179 , 4129.23076923 , 4136.92307692 , 4190.76923077 , 4911.28205128 , 4131.79487179 , 4140.0 , 2044.0 , 2033.0 , 55.823 , 0.0 , 0.0 , 0.0 , 0.0 , 

26.0 , 4130.76923077 , 4127.17948718 , 4131.28205128 , 4132.82051282 , 4129.23076923 , 4125.64102564 , 4122.05128205 , 4134.35897436 , 4128.71794872 , 4138.46153846 , 4189.23076923 , 4909.23076923 , 4129.74358974 , 4143.07692308 , 2043.0 , 2034.0 , 55.83 , 0.0 , 0.0 , 0.0 , 0.0 , 

27.0 , 4128.20512821 , 4129.74358974 , 4132.82051282 , 4133.84615385 , 4128.20512821 , 4128.20512821 , 4122.05128205 , 4132.30769231 , 4135.38461538 , 4139.48717949 , 4188.71794872 , 4911.28205128 , 4129.74358974 , 4142.56410256 , 2043.0 , 2033.0 , 55.838 , 0.0 , 0.0 , 0.0 , 0.0 , 

28.0 , 4133.33333333 , 4131.28205128 , 4134.87179487 , 4131.79487179 , 4128.71794872 , 4123.58974359 , 4124.61538462 , 4130.76923077 , 4134.87179487 , 4139.48717949 , 4190.76923077 , 4916.41025641 , 4131.79487179 , 4140.51282051 , 2043.0 , 2033.0 , 55.846 , 0.0 , 0.0 , 0.0 , 0.0 , 

29.0 , 4133.33333333 , 4129.74358974 , 4131.28205128 , 4133.84615385 , 4126.15384615 , 4123.07692308 , 4127.17948718 , 4133.33333333 , 4131.79487179 , 4138.97435897 , 4192.30769231 , 4911.28205128 , 4132.82051282 , 4138.97435897 , 2042.0 , 2034.0 , 55.854 , 0.0 , 0.0 , 0.0 , 0.0 , 

30.0 , 4130.76923077 , 4126.15384615 , 4129.74358974 , 4131.79487179 , 4127.17948718 , 4125.12820513 , 4125.12820513 , 4131.79487179 , 4132.30769231 , 4138.46153846 , 4191.28205128 , 4907.17948718 , 4130.25641026 , 4142.56410256 , 2043.0 , 2034.0 , 55.862 , 0.0 , 0.0 , 0.0 , 0.0 , 

31.0 , 4130.25641026 , 4128.71794872 , 4131.28205128 , 4130.25641026 , 4130.76923077 , 4126.15384615 , 4124.61538462 , 4129.23076923 , 4133.33333333 , 4137.94871795 , 4189.23076923 , 4908.20512821 , 4131.79487179 , 4137.94871795 , 2044.0 , 2033.0 , 55.871 , 0.0 , 0.0 , 0.0 , 0.0 , 

32.0 , 4131.79487179 , 4129.23076923 , 4134.35897436 , 4133.33333333 , 4129.23076923 , 4126.66666667 , 4124.1025641 , 4129.23076923 , 4128.20512821 , 4136.41025641 , 4189.23076923 , 4909.74358974 , 4135.8974359 , 4136.41025641 , 2042.0 , 2035.0 , 55.878 , 0.0 , 0.0 , 0.0 , 0.0 , 

33.0 , 4128.20512821 , 4127.17948718 , 4132.30769231 , 4136.92307692 , 4129.74358974 , 4128.20512821 , 4124.1025641 , 4131.79487179 , 4128.71794872 , 4136.41025641 , 4190.25641026 , 4906.66666667 , 4134.87179487 , 4132.30769231 , 2042.0 , 2035.0 , 55.886 , 0.0 , 0.0 , 0.0 , 0.0 , 

34.0 , 4129.74358974 , 4130.76923077 , 4129.74358974 , 4132.82051282 , 4132.82051282 , 4125.64102564 , 4123.07692308 , 4132.82051282 , 4135.38461538 , 4138.46153846 , 4190.76923077 , 4910.76923077 , 4130.76923077 , 4135.8974359 , 2042.0 , 2035.0 , 55.893 , 0.0 , 0.0 , 0.0 , 0.0 , 

35.0 , 4129.74358974 , 4133.84615385 , 4131.79487179 , 4131.28205128 , 4133.33333333 , 4125.64102564 , 4123.58974359 , 4131.79487179 , 4139.48717949 , 4138.46153846 , 4189.23076923 , 4911.79487179 , 4131.79487179 , 4137.43589744 , 2042.0 , 2035.0 , 55.901 , 0.0 , 0.0 , 0.0 , 0.0 , 

36.0 , 4130.76923077 , 4128.71794872 , 4134.87179487 , 4132.82051282 , 4128.71794872 , 4125.64102564 , 4120.51282051 , 4130.76923077 , 4134.35897436 , 4137.94871795 , 4188.71794872 , 4911.28205128 , 4134.35897436 , 4142.05128205 , 2043.0 , 2036.0 , 55.909 , 0.0 , 0.0 , 0.0 , 0.0 , 

37.0 , 4130.25641026 , 4128.20512821 , 4132.30769231 , 4136.92307692 , 4126.66666667 , 4125.12820513 , 4120.51282051 , 4132.30769231 , 4131.28205128 , 4137.43589744 , 4188.71794872 , 4909.23076923 , 4134.35897436 , 4137.94871795 , 2043.0 , 2035.0 , 55.917 , 0.0 , 0.0 , 0.0 , 0.0 , 

38.0 , 4131.79487179 , 4131.79487179 , 4130.25641026 , 4134.87179487 , 4127.69230769 , 4125.12820513 , 4122.05128205 , 4132.30769231 , 4132.82051282 , 4136.41025641 , 4189.74358974 , 4911.28205128 , 4131.79487179 , 4140.0 , 2042.0 , 2034.0 , 55.926 , 0.0 , 0.0 , 0.0 , 0.0 , 

39.0 , 4130.76923077 , 4129.74358974 , 4132.82051282 , 4132.82051282 , 4130.76923077 , 4128.20512821 , 4123.58974359 , 4130.25641026 , 4136.41025641 , 4137.94871795 , 4190.76923077 , 4912.30769231 , 4129.74358974 , 4141.53846154 , 2042.0 , 2035.0 , 55.934 , 0.0 , 0.0 , 0.0 , 0.0 , 

40.0 , 4130.76923077 , 4129.23076923 , 4135.38461538 , 4133.84615385 , 4131.28205128 , 4126.66666667 , 4123.58974359 , 4129.74358974 , 4135.8974359 , 4139.48717949 , 4190.76923077 , 4913.33333333 , 4132.82051282 , 4142.05128205 , 2042.0 , 2034.0 , 55.94 , 0.0 , 0.0 , 0.0 , 0.0 , 

41.0 , 4128.20512821 , 4130.25641026 , 4134.87179487 , 4134.35897436 , 4132.30769231 , 4125.12820513 , 4124.61538462 , 4132.30769231 , 4134.35897436 , 4138.46153846 , 4188.71794872 , 4910.76923077 , 4133.84615385 , 4142.05128205 , 2041.0 , 2036.0 , 55.949 , 0.0 , 0.0 , 0.0 , 0.0 , 

42.0 , 4127.69230769 , 4127.17948718 , 4133.33333333 , 4135.38461538 , 4135.38461538 , 4126.66666667 , 4124.61538462 , 4132.82051282 , 4135.38461538 , 4136.92307692 , 4189.23076923 , 4909.74358974 , 4130.76923077 , 4143.58974359 , 2042.0 , 2035.0 , 55.957 , 0.0 , 0.0 , 0.0 , 0.0 , 

43.0 , 4128.71794872 , 4127.69230769 , 4132.30769231 , 4137.43589744 , 4132.82051282 , 4127.69230769 , 4124.61538462 , 4131.28205128 , 4134.87179487 , 4136.92307692 , 4189.74358974 , 4911.28205128 , 4128.71794872 , 4141.02564103 , 2044.0 , 2035.0 , 55.965 , 0.0 , 0.0 , 0.0 , 0.0 , 

44.0 , 4129.74358974 , 4130.25641026 , 4132.30769231 , 4135.8974359 , 4128.20512821 , 4126.66666667 , 4125.64102564 , 4131.28205128 , 4134.35897436 , 4136.92307692 , 4191.28205128 , 4913.33333333 , 4131.28205128 , 4138.97435897 , 2043.0 , 2035.0 , 55.974 , 0.0 , 0.0 , 0.0 , 0.0 , 

45.0 , 4132.30769231 , 4129.23076923 , 4132.30769231 , 4132.30769231 , 4128.20512821 , 4126.15384615 , 4125.64102564 , 4130.76923077 , 4135.8974359 , 4136.41025641 , 4190.76923077 , 4913.84615385 , 4130.25641026 , 4141.02564103 , 2043.0 , 2035.0 , 55.981 , 0.0 , 0.0 , 0.0 , 0.0 , 

46.0 , 4133.33333333 , 4127.69230769 , 4132.30769231 , 4133.84615385 , 4131.79487179 , 4127.17948718 , 4124.61538462 , 4132.30769231 , 4134.87179487 , 4136.41025641 , 4189.74358974 , 4912.82051282 , 4129.23076923 , 4134.87179487 , 2042.0 , 2035.0 , 55.989 , 0.0 , 0.0 , 0.0 , 0.0 , 

47.0 , 4133.33333333 , 4129.23076923 , 4135.38461538 , 4134.35897436 , 4130.25641026 , 4125.12820513 , 4122.56410256 , 4132.30769231 , 4130.25641026 , 4136.92307692 , 4190.76923077 , 4912.82051282 , 4131.79487179 , 4134.35897436 , 2042.0 , 2035.0 , 55.996 , 0.0 , 0.0 , 0.0 , 0.0 , 

48.0 , 4129.74358974 , 4130.76923077 , 4134.35897436 , 4133.33333333 , 4125.12820513 , 4124.61538462 , 4123.58974359 , 4131.79487179 , 4132.30769231 , 4136.92307692 , 4190.25641026 , 4909.74358974 , 4132.82051282 , 4137.94871795 , 2044.0 , 2036.0 , 56.004 , 0.0 , 0.0 , 0.0 , 0.0 , 

49.0 , 4131.28205128 , 4128.20512821 , 4131.79487179 , 4131.79487179 , 4124.1025641 , 4125.64102564 , 4122.56410256 , 4131.28205128 , 4132.82051282 , 4135.8974359 , 4188.71794872 , 4907.69230769 , 4130.25641026 , 4139.48717949 , 2044.0 , 2037.0 , 56.012 , 0.0 , 0.0 , 0.0 , 0.0 , 

50.0 , 4132.82051282 , 4125.64102564 , 4131.28205128 , 4131.28205128 , 4128.71794872 , 4128.20512821 , 4121.53846154 , 4131.79487179 , 4132.82051282 , 4137.94871795 , 4188.20512821 , 4906.66666667 , 4132.30769231 , 4133.84615385 , 2044.0 , 2036.0 , 56.019 , 0.0 , 0.0 , 0.0 , 0.0 , 

51.0 , 4132.30769231 , 4124.1025641 , 4134.87179487 , 4130.76923077 , 4132.82051282 , 4125.12820513 , 4121.53846154 , 4130.25641026 , 4134.87179487 , 4140.51282051 , 4190.76923077 , 4910.76923077 , 4135.38461538 , 4138.97435897 , 2044.0 , 2036.0 , 56.027 , 0.0 , 0.0 , 0.0 , 0.0 , 

52.0 , 4129.23076923 , 4126.66666667 , 4136.41025641 , 4133.84615385 , 4130.76923077 , 4122.05128205 , 4125.12820513 , 4131.79487179 , 4133.84615385 , 4138.46153846 , 4191.28205128 , 4909.74358974 , 4133.33333333 , 4138.46153846 , 2044.0 , 2035.0 , 56.035 , 0.0 , 0.0 , 0.0 , 0.0 , 

53.0 , 4132.82051282 , 4128.71794872 , 4135.8974359 , 4132.30769231 , 4128.20512821 , 4123.07692308 , 4126.15384615 , 4133.33333333 , 4131.28205128 , 4135.38461538 , 4189.74358974 , 4908.71794872 , 4130.76923077 , 4139.48717949 , 2044.0 , 2036.0 , 56.044 , 0.0 , 0.0 , 0.0 , 0.0 , 

54.0 , 4133.33333333 , 4130.25641026 , 4134.35897436 , 4131.79487179 , 4130.76923077 , 4128.20512821 , 4125.12820513 , 4132.82051282 , 4134.35897436 , 4136.41025641 , 4190.76923077 , 4911.79487179 , 4132.30769231 , 4139.48717949 , 2043.0 , 2036.0 , 56.051 , 0.0 , 0.0 , 0.0 , 0.0 , 

55.0 , 4131.79487179 , 4129.23076923 , 4136.41025641 , 4131.79487179 , 4130.76923077 , 4127.69230769 , 4123.58974359 , 4132.30769231 , 4131.28205128 , 4139.48717949 , 4191.79487179 , 4915.8974359 , 4132.82051282 , 4144.1025641 , 2043.0 , 2037.0 , 56.059 , 0.0 , 0.0 , 0.0 , 0.0 , 

56.0 , 4131.28205128 , 4128.20512821 , 4136.92307692 , 4133.84615385 , 4130.76923077 , 4126.15384615 , 4124.1025641 , 4134.35897436 , 4127.17948718 , 4138.46153846 , 4190.25641026 , 4911.28205128 , 4133.84615385 , 4142.05128205 , 2043.0 , 2036.0 , 56.067 , 0.0 , 0.0 , 0.0 , 0.0 , 

57.0 , 4133.84615385 , 4127.69230769 , 4133.84615385 , 4133.33333333 , 4129.23076923 , 4126.66666667 , 4125.12820513 , 4133.84615385 , 4133.33333333 , 4136.92307692 , 4189.23076923 , 4909.74358974 , 4135.38461538 , 4143.07692308 , 2041.0 , 2037.0 , 56.075 , 0.0 , 0.0 , 0.0 , 0.0 , 

58.0 , 4130.25641026 , 4128.71794872 , 4130.25641026 , 4133.84615385 , 4129.74358974 , 4126.15384615 , 4126.66666667 , 4133.84615385 , 4137.94871795 , 4137.43589744 , 4189.74358974 , 4914.35897436 , 4134.87179487 , 4139.48717949 , 2042.0 , 2037.0 , 56.083 , 0.0 , 0.0 , 0.0 , 0.0 , 

59.0 , 4128.71794872 , 4126.66666667 , 4132.82051282 , 4134.87179487 , 4131.28205128 , 4124.1025641 , 4124.61538462 , 4132.82051282 , 4132.82051282 , 4137.43589744 , 4190.76923077 , 4915.38461538 , 4135.8974359 , 4137.43589744 , 2043.0 , 2037.0 , 56.09 , 0.0 , 0.0 , 0.0 , 0.0 , 

60.0 , 4131.79487179 , 4127.17948718 , 4135.38461538 , 4132.82051282 , 4130.25641026 , 4127.17948718 , 4124.1025641 , 4131.28205128 , 4134.87179487 , 4136.41025641 , 4190.25641026 , 4908.20512821 , 4134.87179487 , 4135.8974359 , 2043.0 , 2037.0 , 56.098 , 0.0 , 0.0 , 0.0 , 0.0 , 

61.0 , 4133.33333333 , 4130.76923077 , 4132.82051282 , 4130.76923077 , 4127.17948718 , 4128.71794872 , 4124.61538462 , 4131.79487179 , 4138.97435897 , 4135.38461538 , 4192.30769231 , 4906.66666667 , 4133.84615385 , 4136.41025641 , 2043.0 , 2038.0 , 56.107 , 0.0 , 0.0 , 0.0 , 0.0 , 

62.0 , 4131.28205128 , 4130.25641026 , 4129.23076923 , 4130.76923077 , 4127.69230769 , 4126.66666667 , 4122.56410256 , 4132.30769231 , 4134.35897436 , 4136.92307692 , 4193.84615385 , 4910.76923077 , 4133.33333333 , 4136.41025641 , 2043.0 , 2036.0 , 56.114 , 0.0 , 0.0 , 0.0 , 0.0 , 

63.0 , 4131.79487179 , 4126.66666667 , 4131.28205128 , 4131.79487179 , 4130.76923077 , 4126.15384615 , 4123.07692308 , 4131.79487179 , 4132.30769231 , 4137.43589744 , 4192.30769231 , 4910.25641026 , 4136.92307692 , 4135.38461538 , 2042.0 , 2036.0 , 56.123 , 0.0 , 0.0 , 0.0 , 0.0 , 

64.0 , 4132.30769231 , 4127.69230769 , 4135.38461538 , 4131.28205128 , 4130.76923077 , 4126.66666667 , 4126.66666667 , 4129.23076923 , 4138.46153846 , 4136.41025641 , 4189.74358974 , 4909.74358974 , 4136.41025641 , 4141.02564103 , 2042.0 , 2038.0 , 56.13 , 0.0 , 0.0 , 0.0 , 0.0 , 

65.0 , 4130.76923077 , 4129.23076923 , 4132.82051282 , 4131.28205128 , 4130.76923077 , 4127.17948718 , 4128.71794872 , 4130.76923077 , 4139.48717949 , 4135.8974359 , 4190.76923077 , 4912.30769231 , 4132.82051282 , 4142.56410256 , 2044.0 , 2038.0 , 56.139 , 0.0 , 0.0 , 0.0 , 0.0 , 

66.0 , 4130.25641026 , 4127.69230769 , 4131.79487179 , 4132.30769231 , 4128.71794872 , 4127.69230769 , 4127.69230769 , 4131.79487179 , 4133.33333333 , 4135.8974359 , 4192.82051282 , 4915.8974359 , 4131.28205128 , 4143.07692308 , 2043.0 , 2037.0 , 56.147 , 0.0 , 0.0 , 0.0 , 0.0 , 

67.0 , 4128.20512821 , 4128.71794872 , 4134.87179487 , 4135.38461538 , 4127.17948718 , 4127.17948718 , 4126.15384615 , 4132.30769231 , 4134.87179487 , 4136.41025641 , 4192.30769231 , 4913.84615385 , 4134.35897436 , 4138.97435897 , 2043.0 , 2037.0 , 56.153 , 0.0 , 0.0 , 0.0 , 0.0 , 

68.0 , 4133.33333333 , 4131.28205128 , 4135.38461538 , 4133.84615385 , 4130.25641026 , 4126.15384615 , 4125.12820513 , 4131.79487179 , 4136.41025641 , 4135.8974359 , 4192.30769231 , 4912.82051282 , 4134.87179487 , 4143.07692308 , 2042.0 , 2038.0 , 56.162 , 0.0 , 0.0 , 0.0 , 0.0 , 

69.0 , 4133.84615385 , 4133.33333333 , 4132.30769231 , 4131.79487179 , 4130.25641026 , 4130.25641026 , 4129.74358974 , 4133.33333333 , 4134.87179487 , 4136.41025641 , 4192.30769231 , 4910.76923077 , 4133.33333333 , 4140.51282051 , 2044.0 , 2037.0 , 56.17 , 0.0 , 0.0 , 0.0 , 0.0 , 

70.0 , 4130.25641026 , 4130.76923077 , 4132.82051282 , 4128.20512821 , 4128.71794872 , 4129.23076923 , 4130.25641026 , 4133.84615385 , 4133.84615385 , 4137.43589744 , 4193.33333333 , 4912.82051282 , 4136.41025641 , 4140.51282051 , 2044.0 , 2036.0 , 56.177 , 0.0 , 0.0 , 0.0 , 0.0 , 

71.0 , 4129.23076923 , 4131.79487179 , 4132.82051282 , 4132.82051282 , 4130.76923077 , 4129.74358974 , 4125.64102564 , 4135.38461538 , 4133.84615385 , 4137.94871795 , 4193.33333333 , 4912.82051282 , 4136.92307692 , 4137.94871795 , 2044.0 , 2036.0 , 56.185 , 0.0 , 0.0 , 0.0 , 0.0 , 

72.0 , 4134.35897436 , 4130.25641026 , 4131.79487179 , 4135.8974359 , 4129.23076923 , 4129.23076923 , 4123.07692308 , 4133.33333333 , 4133.33333333 , 4137.43589744 , 4192.30769231 , 4915.38461538 , 4129.74358974 , 4141.02564103 , 2045.0 , 2035.0 , 56.193 , 0.0 , 0.0 , 0.0 , 0.0 , 

73.0 , 4129.74358974 , 4125.64102564 , 4133.33333333 , 4132.82051282 , 4127.69230769 , 4127.69230769 , 4128.20512821 , 4129.74358974 , 4135.8974359 , 4137.94871795 , 4191.28205128 , 4913.33333333 , 4129.74358974 , 4142.05128205 , 2045.0 , 2034.0 , 56.201 , 0.0 , 0.0 , 0.0 , 0.0 , 

74.0 , 4127.69230769 , 4126.66666667 , 4136.92307692 , 4128.20512821 , 4130.25641026 , 4125.12820513 , 4127.69230769 , 4129.74358974 , 4134.87179487 , 4137.43589744 , 4192.30769231 , 4910.76923077 , 4135.38461538 , 4143.58974359 , 2045.0 , 2034.0 , 56.209 , 0.0 , 0.0 , 0.0 , 0.0 , 

75.0 , 4130.76923077 , 4129.23076923 , 4134.87179487 , 4132.82051282 , 4130.76923077 , 4126.66666667 , 4125.64102564 , 4132.82051282 , 4133.33333333 , 4137.43589744 , 4192.30769231 , 4908.71794872 , 4134.87179487 , 4134.87179487 , 2044.0 , 2036.0 , 56.217 , 0.0 , 0.0 , 0.0 , 0.0 , 

76.0 , 4132.30769231 , 4126.66666667 , 4134.35897436 , 4137.94871795 , 4126.15384615 , 4125.64102564 , 4125.64102564 , 4131.28205128 , 4133.33333333 , 4138.97435897 , 4191.79487179 , 4911.28205128 , 4133.84615385 , 4134.87179487 , 2045.0 , 2037.0 , 56.224 , 0.0 , 0.0 , 0.0 , 0.0 , 

77.0 , 4130.76923077 , 4127.17948718 , 4134.35897436 , 4134.87179487 , 4128.20512821 , 4123.07692308 , 4126.15384615 , 4131.28205128 , 4134.35897436 , 4138.46153846 , 4190.76923077 , 4911.28205128 , 4133.33333333 , 4140.51282051 , 2044.0 , 2037.0 , 56.232 , 0.0 , 0.0 , 0.0 , 0.0 , 

78.0 , 4131.79487179 , 4130.25641026 , 4134.35897436 , 4132.82051282 , 4130.76923077 , 4125.64102564 , 4122.05128205 , 4131.79487179 , 4135.8974359 , 4136.41025641 , 4189.74358974 , 4914.35897436 , 4133.33333333 , 4142.05128205 , 2043.0 , 2037.0 , 56.241 , 0.0 , 0.0 , 0.0 , 0.0 , 

79.0 , 4131.79487179 , 4127.69230769 , 4133.33333333 , 4136.41025641 , 4127.69230769 , 4128.20512821 , 4121.53846154 , 4130.76923077 , 4134.87179487 , 4136.92307692 , 4189.23076923 , 4916.41025641 , 4134.87179487 , 4136.92307692 , 2043.0 , 2036.0 , 56.248 , 0.0 , 0.0 , 0.0 , 0.0 , 

80.0 , 4131.79487179 , 4125.64102564 , 4132.30769231 , 4134.87179487 , 4127.69230769 , 4126.66666667 , 4123.07692308 , 4132.82051282 , 4132.82051282 , 4137.94871795 , 4189.23076923 , 4911.79487179 , 4135.38461538 , 4138.97435897 , 2045.0 , 2037.0 , 56.257 , 0.0 , 0.0 , 0.0 , 0.0 , 

81.0 , 4131.79487179 , 4126.15384615 , 4132.82051282 , 4129.74358974 , 4128.71794872 , 4124.1025641 , 4122.05128205 , 4134.87179487 , 4132.30769231 , 4137.43589744 , 4188.71794872 , 4908.20512821 , 4130.76923077 , 4144.1025641 , 2044.0 , 2037.0 , 56.265 , 0.0 , 0.0 , 0.0 , 0.0 , 

82.0 , 4129.74358974 , 4128.20512821 , 4132.30769231 , 4131.28205128 , 4127.17948718 , 4123.58974359 , 4124.1025641 , 4132.82051282 , 4131.79487179 , 4136.41025641 , 4191.79487179 , 4910.25641026 , 4132.30769231 , 4140.51282051 , 2044.0 , 2038.0 , 56.273 , 0.0 , 0.0 , 0.0 , 0.0 , 

83.0 , 4129.23076923 , 4130.76923077 , 4131.28205128 , 4134.35897436 , 4127.69230769 , 4124.61538462 , 4126.15384615 , 4131.79487179 , 4130.76923077 , 4137.43589744 , 4194.35897436 , 4915.8974359 , 4136.92307692 , 4140.0 , 2044.0 , 2038.0 , 56.28 , 0.0 , 0.0 , 0.0 , 0.0 , 

84.0 , 4128.20512821 , 4128.20512821 , 4131.79487179 , 4131.79487179 , 4130.76923077 , 4126.66666667 , 4123.58974359 , 4134.35897436 , 4135.38461538 , 4137.43589744 , 4191.79487179 , 4915.8974359 , 4136.92307692 , 4141.02564103 , 2045.0 , 2037.0 , 56.287 , 0.0 , 0.0 , 0.0 , 0.0 , 

85.0 , 4130.25641026 , 4126.15384615 , 4133.33333333 , 4129.23076923 , 4131.79487179 , 4129.23076923 , 4121.53846154 , 4131.79487179 , 4137.94871795 , 4135.38461538 , 4190.25641026 , 4912.82051282 , 4131.79487179 , 4142.56410256 , 2045.0 , 2037.0 , 56.295 , 0.0 , 0.0 , 0.0 , 0.0 , 

86.0 , 4129.74358974 , 4131.79487179 , 4130.76923077 , 4133.33333333 , 4130.25641026 , 4132.30769231 , 4125.12820513 , 4130.25641026 , 4134.87179487 , 4134.87179487 , 4190.76923077 , 4908.71794872 , 4130.25641026 , 4136.41025641 , 2044.0 , 2037.0 , 56.303 , 0.0 , 0.0 , 0.0 , 0.0 , 

87.0 , 4130.76923077 , 4132.30769231 , 4133.33333333 , 4133.33333333 , 4127.69230769 , 4127.69230769 , 4124.61538462 , 4132.82051282 , 4134.35897436 , 4135.8974359 , 4190.25641026 , 4912.82051282 , 4131.79487179 , 4137.43589744 , 2044.0 , 2036.0 , 56.311 , 0.0 , 0.0 , 0.0 , 0.0 , 

88.0 , 4129.23076923 , 4127.17948718 , 4136.92307692 , 4133.33333333 , 4127.69230769 , 4124.1025641 , 4122.56410256 , 4136.41025641 , 4137.94871795 , 4136.41025641 , 4188.71794872 , 4912.82051282 , 4130.25641026 , 4134.87179487 , 2044.0 , 2037.0 , 56.319 , 0.0 , 0.0 , 0.0 , 0.0 , 

89.0 , 4130.25641026 , 4126.15384615 , 4135.38461538 , 4133.84615385 , 4129.23076923 , 4124.1025641 , 4122.05128205 , 4136.41025641 , 4135.38461538 , 4136.41025641 , 4189.74358974 , 4912.82051282 , 4129.74358974 , 4135.8974359 , 2043.0 , 2037.0 , 56.327 , 0.0 , 0.0 , 0.0 , 0.0 , 

90.0 , 4129.23076923 , 4128.71794872 , 4132.30769231 , 4134.35897436 , 4129.23076923 , 4126.66666667 , 4124.1025641 , 4135.8974359 , 4131.28205128 , 4136.92307692 , 4189.74358974 , 4911.79487179 , 4134.87179487 , 4136.41025641 , 2044.0 , 2036.0 , 56.335 , 0.0 , 0.0 , 0.0 , 0.0 , 

91.0 , 4129.74358974 , 4128.20512821 , 4135.38461538 , 4131.28205128 , 4126.66666667 , 4125.64102564 , 4124.1025641 , 4132.30769231 , 4129.23076923 , 4136.92307692 , 4190.25641026 , 4912.30769231 , 4136.41025641 , 4141.02564103 , 2041.0 , 2036.0 , 56.343 , 0.0 , 0.0 , 0.0 , 0.0 , 

92.0 , 4128.71794872 , 4126.66666667 , 4136.92307692 , 4131.28205128 , 4128.71794872 , 4127.69230769 , 4126.66666667 , 4130.76923077 , 4130.76923077 , 4136.92307692 , 4190.76923077 , 4911.28205128 , 4132.82051282 , 4136.41025641 , 2040.0 , 2037.0 , 56.351 , 0.0 , 0.0 , 0.0 , 0.0 , 

93.0 , 4133.33333333 , 4125.12820513 , 4133.33333333 , 4132.82051282 , 4131.28205128 , 4126.66666667 , 4126.15384615 , 4132.30769231 , 4131.28205128 , 4137.94871795 , 4192.30769231 , 4913.84615385 , 4131.79487179 , 4136.92307692 , 2041.0 , 2036.0 , 56.358 , 0.0 , 0.0 , 0.0 , 0.0 , 

94.0 , 4135.38461538 , 4127.69230769 , 4130.25641026 , 4135.8974359 , 4130.76923077 , 4126.66666667 , 4125.12820513 , 4133.33333333 , 4128.71794872 , 4137.94871795 , 4192.82051282 , 4911.79487179 , 4133.84615385 , 4139.48717949 , 2042.0 , 2038.0 , 56.366 , 0.0 , 0.0 , 0.0 , 0.0 , 

95.0 , 4133.84615385 , 4128.71794872 , 4134.87179487 , 4134.87179487 , 4130.76923077 , 4128.20512821 , 4125.64102564 , 4131.79487179 , 4128.71794872 , 4136.41025641 , 4190.25641026 , 4911.79487179 , 4133.84615385 , 4140.51282051 , 2042.0 , 2037.0 , 56.374 , 0.0 , 0.0 , 0.0 , 0.0 , 

96.0 , 4130.76923077 , 4129.23076923 , 4135.8974359 , 4132.30769231 , 4132.82051282 , 4129.23076923 , 4127.69230769 , 4131.28205128 , 4133.84615385 , 4136.41025641 , 4188.71794872 , 4911.79487179 , 4132.30769231 , 4136.92307692 , 2043.0 , 2035.0 , 56.382 , 0.0 , 0.0 , 0.0 , 0.0 , 

97.0 , 4131.79487179 , 4129.23076923 , 4131.28205128 , 4132.30769231 , 4130.76923077 , 4126.66666667 , 4126.15384615 , 4131.28205128 , 4135.38461538 , 4137.43589744 , 4191.79487179 , 4909.23076923 , 4131.79487179 , 4137.43589744 , 2042.0 , 2035.0 , 56.39 , 0.0 , 0.0 , 0.0 , 0.0 , 

98.0 , 4130.25641026 , 4127.17948718 , 4131.28205128 , 4132.30769231 , 4127.69230769 , 4126.15384615 , 4125.12820513 , 4132.30769231 , 4132.82051282 , 4136.41025641 , 4190.76923077 , 4908.71794872 , 4132.82051282 , 4137.94871795 , 2042.0 , 2035.0 , 56.398 , 0.0 , 0.0 , 0.0 , 0.0 , 

99.0 , 4127.17948718 , 4127.17948718 , 4133.33333333 , 4131.79487179 , 4129.74358974 , 4128.20512821 , 4125.64102564 , 4132.30769231 , 4132.30769231 , 4135.8974359 , 4189.23076923 , 4914.35897436 , 4134.87179487 , 4136.92307692 , 2042.0 , 2035.0 , 56.407 , 0.0 , 0.0 , 0.0 , 0.0 , 

100.0 , 4130.76923077 , 4128.20512821 , 4133.84615385 , 4132.82051282 , 4132.30769231 , 4127.69230769 , 4126.15384615 , 4130.76923077 , 4132.82051282 , 4137.94871795 , 4191.28205128 , 4913.84615385 , 4134.35897436 , 4138.46153846 , 2043.0 , 2034.0 , 56.414 , 0.0 , 0.0 , 0.0 , 0.0 , 

101.0 , 4132.82051282 , 4126.66666667 , 4133.84615385 , 4132.30769231 , 4130.25641026 , 4124.61538462 , 4127.17948718 , 4131.79487179 , 4132.30769231 , 4137.43589744 , 4192.30769231 , 4908.20512821 , 4134.87179487 , 4137.94871795 , 2043.0 , 2035.0 , 56.422 , 0.0 , 0.0 , 0.0 , 0.0 , 

102.0 , 4130.76923077 , 4125.12820513 , 4134.87179487 , 4131.28205128 , 4128.71794872 , 4123.58974359 , 4125.12820513 , 4132.30769231 , 4132.30769231 , 4135.8974359 , 4190.76923077 , 4911.79487179 , 4135.38461538 , 4138.46153846 , 2044.0 , 2033.0 , 56.429 , 0.0 , 0.0 , 0.0 , 0.0 , 

103.0 , 4130.25641026 , 4129.23076923 , 4132.82051282 , 4134.87179487 , 4130.25641026 , 4125.12820513 , 4124.1025641 , 4131.28205128 , 4135.8974359 , 4136.92307692 , 4190.25641026 , 4913.33333333 , 4135.38461538 , 4137.94871795 , 2044.0 , 2035.0 , 56.437 , 0.0 , 0.0 , 0.0 , 0.0 , 

104.0 , 4135.38461538 , 4129.23076923 , 4132.82051282 , 4134.35897436 , 4128.20512821 , 4124.61538462 , 4122.56410256 , 4129.74358974 , 4137.43589744 , 4137.43589744 , 4190.25641026 , 4910.76923077 , 4134.87179487 , 4138.97435897 , 2045.0 , 2035.0 , 56.445 , 0.0 , 0.0 , 0.0 , 0.0 , 

105.0 , 4133.33333333 , 4128.71794872 , 4133.33333333 , 4133.33333333 , 4126.66666667 , 4126.66666667 , 4122.05128205 , 4132.82051282 , 4135.38461538 , 4136.41025641 , 4190.25641026 , 4906.15384615 , 4134.35897436 , 4133.84615385 , 2044.0 , 2035.0 , 56.453 , 0.0 , 0.0 , 0.0 , 0.0 , 

106.0 , 4130.76923077 , 4130.25641026 , 4134.35897436 , 4134.35897436 , 4127.69230769 , 4127.17948718 , 4122.05128205 , 4132.82051282 , 4133.33333333 , 4137.43589744 , 4190.76923077 , 4910.25641026 , 4133.33333333 , 4136.41025641 , 2043.0 , 2035.0 , 56.462 , 0.0 , 0.0 , 0.0 , 0.0 , 

107.0 , 4128.71794872 , 4128.71794872 , 4133.84615385 , 4134.35897436 , 4129.23076923 , 4127.17948718 , 4124.61538462 , 4132.30769231 , 4137.94871795 , 4137.94871795 , 4191.28205128 , 4911.28205128 , 4133.84615385 , 4137.94871795 , 2043.0 , 2035.0 , 56.469 , 0.0 , 0.0 , 0.0 , 0.0 , 

108.0 , 4130.25641026 , 4124.61538462 , 4135.8974359 , 4130.76923077 , 4128.20512821 , 4126.15384615 , 4124.61538462 , 4131.28205128 , 4136.92307692 , 4136.41025641 , 4192.30769231 , 4912.30769231 , 4134.35897436 , 4141.02564103 , 2045.0 , 2034.0 , 56.477 , 0.0 , 0.0 , 0.0 , 0.0 , 

109.0 , 4128.20512821 , 4126.66666667 , 4135.38461538 , 4131.28205128 , 4128.71794872 , 4127.69230769 , 4125.64102564 , 4132.30769231 , 4133.33333333 , 4136.92307692 , 4192.82051282 , 4910.76923077 , 4133.33333333 , 4140.0 , 2044.0 , 2034.0 , 56.484 , 0.0 , 0.0 , 0.0 , 0.0 , 

110.0 , 4130.25641026 , 4129.74358974 , 4132.30769231 , 4132.30769231 , 4129.23076923 , 4126.15384615 , 4126.15384615 , 4131.79487179 , 4133.33333333 , 4137.43589744 , 4192.30769231 , 4911.79487179 , 4134.87179487 , 4143.07692308 , 2046.0 , 2035.0 , 56.493 , 0.0 , 0.0 , 0.0 , 0.0 , 

111.0 , 4131.28205128 , 4127.69230769 , 4132.82051282 , 4133.33333333 , 4130.76923077 , 4127.69230769 , 4125.64102564 , 4132.30769231 , 4133.84615385 , 4136.41025641 , 4190.76923077 , 4910.76923077 , 4136.92307692 , 4141.02564103 , 2045.0 , 2036.0 , 56.5 , 0.0 , 0.0 , 0.0 , 0.0 , 

112.0 , 4131.28205128 , 4124.61538462 , 4137.43589744 , 4132.82051282 , 4131.28205128 , 4128.71794872 , 4124.1025641 , 4132.82051282 , 4133.33333333 , 4135.38461538 , 4190.76923077 , 4911.79487179 , 4135.8974359 , 4142.05128205 , 2045.0 , 2035.0 , 56.508 , 0.0 , 0.0 , 0.0 , 0.0 , 

113.0 , 4129.23076923 , 4126.66666667 , 4133.33333333 , 4133.33333333 , 4129.74358974 , 4126.15384615 , 4124.1025641 , 4132.30769231 , 4136.41025641 , 4136.41025641 , 4191.28205128 , 4910.76923077 , 4132.30769231 , 4137.43589744 , 2046.0 , 2035.0 , 56.516 , 0.0 , 0.0 , 0.0 , 0.0 , 

114.0 , 4130.25641026 , 4129.23076923 , 4130.25641026 , 4132.82051282 , 4129.74358974 , 4124.61538462 , 4124.61538462 , 4130.76923077 , 4137.94871795 , 4136.92307692 , 4192.30769231 , 4908.71794872 , 4131.28205128 , 4135.8974359 , 2044.0 , 2035.0 , 56.525 , 0.0 , 0.0 , 0.0 , 0.0 , 

115.0 , 4130.76923077 , 4128.71794872 , 4133.84615385 , 4131.79487179 , 4132.30769231 , 4128.71794872 , 4125.64102564 , 4133.33333333 , 4136.41025641 , 4136.92307692 , 4190.76923077 , 4906.66666667 , 4132.82051282 , 4136.92307692 , 2042.0 , 2035.0 , 56.532 , 0.0 , 0.0 , 0.0 , 0.0 , 

116.0 , 4131.79487179 , 4128.20512821 , 4135.38461538 , 4131.79487179 , 4131.28205128 , 4127.17948718 , 4123.07692308 , 4133.33333333 , 4136.41025641 , 4136.92307692 , 4189.74358974 , 4909.74358974 , 4134.87179487 , 4137.94871795 , 2043.0 , 2035.0 , 56.54 , 0.0 , 0.0 , 0.0 , 0.0 , 

117.0 , 4134.35897436 , 4129.74358974 , 4134.35897436 , 4133.33333333 , 4129.23076923 , 4123.07692308 , 4122.56410256 , 4129.74358974 , 4135.38461538 , 4137.43589744 , 4190.25641026 , 4913.33333333 , 4132.30769231 , 4137.94871795 , 2043.0 , 2037.0 , 56.548 , 0.0 , 0.0 , 0.0 , 0.0 , 

118.0 , 4133.84615385 , 4129.23076923 , 4134.35897436 , 4133.84615385 , 4127.69230769 , 4127.69230769 , 4126.66666667 , 4129.74358974 , 4134.87179487 , 4136.92307692 , 4191.79487179 , 4911.79487179 , 4128.71794872 , 4137.94871795 , 2041.0 , 2035.0 , 56.555 , 0.0 , 0.0 , 0.0 , 0.0 , 

119.0 , 4134.35897436 , 4128.20512821 , 4133.84615385 , 4132.30769231 , 4128.71794872 , 4129.23076923 , 4126.15384615 , 4131.28205128 , 4137.43589744 , 4135.38461538 , 4192.82051282 , 4910.76923077 , 4130.25641026 , 4138.97435897 , 2041.0 , 2036.0 , 56.563 , 0.0 , 0.0 , 0.0 , 0.0 , 

120.0 , 4133.84615385 , 4129.23076923 , 4133.33333333 , 4131.79487179 , 4131.79487179 , 4125.12820513 , 4124.1025641 , 4133.33333333 , 4136.41025641 , 4136.92307692 , 4193.33333333 , 4909.74358974 , 4132.30769231 , 4138.46153846 , 2041.0 , 2037.0 , 56.571 , 0.0 , 0.0 , 0.0 , 0.0 , 

121.0 , 4132.30769231 , 4128.20512821 , 4135.8974359 , 4131.79487179 , 4129.74358974 , 4125.64102564 , 4123.07692308 , 4132.30769231 , 4134.87179487 , 4139.48717949 , 4192.82051282 , 4912.30769231 , 4132.30769231 , 4145.64102564 , 2042.0 , 2037.0 , 56.579 , 0.0 , 0.0 , 0.0 , 0.0 , 

122.0 , 4128.20512821 , 4126.15384615 , 4135.38461538 , 4132.30769231 , 4126.66666667 , 4128.71794872 , 4124.61538462 , 4131.79487179 , 4136.41025641 , 4138.97435897 , 4190.76923077 , 4911.79487179 , 4133.84615385 , 4142.56410256 , 2042.0 , 2037.0 , 56.588 , 0.0 , 0.0 , 0.0 , 0.0 , 

123.0 , 4131.28205128 , 4128.20512821 , 4134.87179487 , 4130.76923077 , 4129.23076923 , 4126.15384615 , 4123.58974359 , 4132.82051282 , 4132.30769231 , 4137.94871795 , 4189.23076923 , 4912.30769231 , 4131.79487179 , 4136.41025641 , 2041.0 , 2037.0 , 56.596 , 0.0 , 0.0 , 0.0 , 0.0 , 

124.0 , 4133.33333333 , 4130.76923077 , 4134.87179487 , 4131.28205128 , 4131.79487179 , 4126.66666667 , 4123.07692308 , 4133.33333333 , 4130.25641026 , 4137.94871795 , 4191.28205128 , 4910.76923077 , 4129.74358974 , 4134.87179487 , 2043.0 , 2037.0 , 56.603 , 0.0 , 0.0 , 0.0 , 0.0 , 

125.0 , 4134.35897436 , 4129.74358974 , 4137.43589744 , 4131.79487179 , 4128.20512821 , 4126.66666667 , 4122.56410256 , 4129.74358974 , 4134.87179487 , 4137.43589744 , 4193.84615385 , 4914.87179487 , 4130.76923077 , 4142.56410256 , 2043.0 , 2037.0 , 56.611 , 0.0 , 0.0 , 0.0 , 0.0 , 

126.0 , 4132.30769231 , 4130.25641026 , 4135.8974359 , 4132.82051282 , 4129.23076923 , 4125.12820513 , 4123.07692308 , 4131.79487179 , 4136.41025641 , 4136.92307692 , 4190.25641026 , 4912.30769231 , 4130.76923077 , 4139.48717949 , 2042.0 , 2036.0 , 56.619 , 0.0 , 0.0 , 0.0 , 0.0 , 

127.0 , 4133.84615385 , 4129.23076923 , 4134.87179487 , 4132.30769231 , 4131.79487179 , 4124.61538462 , 4122.05128205 , 4134.35897436 , 4133.84615385 , 4137.94871795 , 4187.69230769 , 4910.76923077 , 4128.20512821 , 4139.48717949 , 2042.0 , 2036.0 , 56.626 , 0.0 , 0.0 , 0.0 , 0.0 , 

128.0 , 4133.33333333 , 4128.71794872 , 4133.84615385 , 4133.84615385 , 4129.74358974 , 4126.66666667 , 4122.56410256 , 4131.28205128 , 4135.8974359 , 4137.94871795 , 4190.25641026 , 4911.79487179 , 4131.79487179 , 4138.46153846 , 2043.0 , 2037.0 , 56.634 , 0.0 , 0.0 , 0.0 , 0.0 , 

0.0 , 4132.82051282 , 4129.74358974 , 4133.33333333 , 4133.33333333 , 4126.15384615 , 4124.61538462 , 4122.05128205 , 4129.23076923 , 4134.87179487 , 4136.41025641 , 4193.33333333 , 4911.79487179 , 4134.87179487 , 4140.51282051 , 2042.0 , 2036.0 , 56.642 , 0.0 , 0.0 , 0.0 , 0.0 , 

1.0 , 4130.76923077 , 4129.23076923 , 4133.33333333 , 4133.33333333 , 4128.71794872 , 4124.61538462 , 4122.05128205 , 4132.82051282 , 4133.84615385 , 4136.41025641 , 4191.28205128 , 4909.74358974 , 4133.33333333 , 4136.41025641 , 2043.0 , 2036.0 , 56.65 , 0.0 , 0.0 , 0.0 , 0.0 , 

2.0 , 4131.79487179 , 4127.69230769 , 4135.38461538 , 4133.33333333 , 4130.76923077 , 4126.66666667 , 4122.05128205 , 4132.82051282 , 4134.35897436 , 4137.94871795 , 4188.71794872 , 4911.28205128 , 4132.82051282 , 4135.8974359 , 2044.0 , 2035.0 , 56.658 , 0.0 , 0.0 , 0.0 , 0.0 , 

3.0 , 4131.28205128 , 4129.23076923 , 4135.38461538 , 4132.82051282 , 4128.71794872 , 4127.69230769 , 4122.56410256 , 4131.28205128 , 4134.35897436 , 4139.48717949 , 4189.23076923 , 4908.71794872 , 4130.25641026 , 4134.87179487 , 2044.0 , 2034.0 , 56.666 , 0.0 , 0.0 , 0.0 , 0.0 , 

4.0 , 4131.79487179 , 4129.23076923 , 4132.82051282 , 4131.79487179 , 4126.66666667 , 4123.58974359 , 4121.02564103 , 4131.79487179 , 4136.41025641 , 4136.92307692 , 4191.28205128 , 4907.69230769 , 4129.23076923 , 4137.94871795 , 2045.0 , 2035.0 , 56.674 , 0.0 , 0.0 , 0.0 , 0.0 , 

5.0 , 4133.33333333 , 4128.20512821 , 4131.79487179 , 4132.30769231 , 4129.23076923 , 4124.61538462 , 4122.56410256 , 4133.84615385 , 4135.8974359 , 4135.38461538 , 4190.76923077 , 4912.82051282 , 4132.82051282 , 4138.46153846 , 2045.0 , 2035.0 , 56.681 , 0.0 , 0.0 , 0.0 , 0.0 , 

6.0 , 4132.82051282 , 4127.69230769 , 4133.84615385 , 4131.28205128 , 4130.76923077 , 4128.71794872 , 4124.1025641 , 4132.82051282 , 4130.25641026 , 4137.43589744 , 4189.74358974 , 4912.82051282 , 4135.38461538 , 4138.46153846 , 2044.0 , 2034.0 , 56.689 , 0.0 , 0.0 , 0.0 , 0.0 , 

7.0 , 4129.74358974 , 4126.66666667 , 4134.87179487 , 4128.71794872 , 4129.23076923 , 4125.64102564 , 4121.53846154 , 4130.25641026 , 4129.74358974 , 4138.46153846 , 4190.25641026 , 4908.20512821 , 4131.28205128 , 4140.51282051 , 2044.0 , 2036.0 , 56.697 , 0.0 , 0.0 , 0.0 , 0.0 , 

8.0 , 4128.71794872 , 4128.20512821 , 4133.84615385 , 4130.76923077 , 4130.25641026 , 4124.1025641 , 4122.05128205 , 4130.25641026 , 4136.41025641 , 4137.43589744 , 4192.82051282 , 4911.79487179 , 4132.82051282 , 4138.97435897 , 2044.0 , 2035.0 , 56.705 , 0.0 , 0.0 , 0.0 , 0.0 , 

9.0 , 4131.79487179 , 4126.15384615 , 4134.87179487 , 4131.79487179 , 4129.74358974 , 4127.69230769 , 4124.1025641 , 4129.74358974 , 4137.43589744 , 4137.94871795 , 4193.84615385 , 4914.87179487 , 4136.92307692 , 4140.0 , 2043.0 , 2034.0 , 56.713 , 0.0 , 0.0 , 0.0 , 0.0 , 

10.0 , 4130.25641026 , 4125.12820513 , 4134.87179487 , 4131.28205128 , 4128.20512821 , 4127.69230769 , 4123.58974359 , 4129.74358974 , 4136.41025641 , 4137.94871795 , 4192.82051282 , 4908.71794872 , 4134.35897436 , 4138.46153846 , 2043.0 , 2033.0 , 56.721 , 0.0 , 0.0 , 0.0 , 0.0 , 

11.0 , 4130.76923077 , 4129.23076923 , 4133.33333333 , 4131.28205128 , 4127.69230769 , 4123.58974359 , 4122.56410256 , 4130.76923077 , 4134.35897436 , 4137.43589744 , 4192.30769231 , 4911.79487179 , 4130.25641026 , 4138.46153846 , 2043.0 , 2034.0 , 56.729 , 0.0 , 0.0 , 0.0 , 0.0 , 

12.0 , 4131.79487179 , 4131.79487179 , 4128.20512821 , 4132.30769231 , 4127.69230769 , 4123.07692308 , 4124.61538462 , 4132.82051282 , 4131.28205128 , 4137.43589744 , 4189.74358974 , 4915.38461538 , 4131.28205128 , 4134.35897436 , 2043.0 , 2035.0 , 56.737 , 0.0 , 0.0 , 0.0 , 0.0 , 

13.0 , 4131.79487179 , 4128.20512821 , 4127.69230769 , 4130.76923077 , 4127.17948718 , 4123.07692308 , 4123.58974359 , 4131.79487179 , 4129.23076923 , 4137.43589744 , 4188.20512821 , 4912.82051282 , 4130.76923077 , 4136.92307692 , 2042.0 , 2035.0 , 56.744 , 0.0 , 0.0 , 0.0 , 0.0 , 

14.0 , 4127.69230769 , 4126.66666667 , 4131.28205128 , 4133.84615385 , 4129.23076923 , 4127.69230769 , 4123.58974359 , 4131.28205128 , 4134.87179487 , 4137.43589744 , 4190.25641026 , 4906.66666667 , 4130.25641026 , 4134.35897436 , 2041.0 , 2035.0 , 56.752 , 0.0 , 0.0 , 0.0 , 0.0 , 

15.0 , 4130.25641026 , 4127.69230769 , 4133.33333333 , 4134.35897436 , 4131.28205128 , 4126.15384615 , 4122.05128205 , 4129.74358974 , 4137.43589744 , 4137.43589744 , 4192.82051282 , 4912.82051282 , 4130.76923077 , 4139.48717949 , 2042.0 , 2034.0 , 56.76 , 0.0 , 0.0 , 0.0 , 0.0 , 

16.0 , 4130.76923077 , 4130.25641026 , 4132.30769231 , 4133.33333333 , 4130.25641026 , 4123.58974359 , 4122.56410256 , 4132.30769231 , 4134.87179487 , 4137.94871795 , 4191.28205128 , 4912.82051282 , 4133.33333333 , 4140.51282051 , 2043.0 , 2035.0 , 56.768 , 0.0 , 0.0 , 0.0 , 0.0 , 

17.0 , 4133.33333333 , 4129.23076923 , 4135.8974359 , 4130.76923077 , 4128.71794872 , 4125.64102564 , 4123.58974359 , 4133.84615385 , 4133.33333333 , 4137.94871795 , 4189.74358974 , 4910.25641026 , 4133.84615385 , 4142.05128205 , 2043.0 , 2036.0 , 56.776 , 0.0 , 0.0 , 0.0 , 0.0 , 

18.0 , 4132.30769231 , 4127.17948718 , 4135.38461538 , 4130.25641026 , 4130.76923077 , 4129.23076923 , 4123.07692308 , 4131.79487179 , 4137.94871795 , 4138.46153846 , 4190.76923077 , 4909.23076923 , 4132.30769231 , 4141.02564103 , 2043.0 , 2035.0 , 56.784 , 0.0 , 0.0 , 0.0 , 0.0 , 

19.0 , 4132.82051282 , 4127.69230769 , 4132.82051282 , 4130.76923077 , 4131.79487179 , 4126.66666667 , 4122.56410256 , 4129.23076923 , 4138.46153846 , 4139.48717949 , 4192.82051282 , 4911.79487179 , 4131.79487179 , 4144.1025641 , 2042.0 , 2034.0 , 56.792 , 0.0 , 0.0 , 0.0 , 0.0 , 

20.0 , 4131.79487179 , 4127.69230769 , 4134.87179487 , 4132.82051282 , 4131.28205128 , 4125.64102564 , 4125.64102564 , 4131.28205128 , 4134.87179487 , 4136.92307692 , 4191.28205128 , 4913.84615385 , 4132.82051282 , 4140.0 , 2041.0 , 2035.0 , 56.8 , 0.0 , 0.0 , 0.0 , 0.0 , 

21.0 , 4130.25641026 , 4126.15384615 , 4135.8974359 , 4130.76923077 , 4128.71794872 , 4123.07692308 , 4126.15384615 , 4131.79487179 , 4135.38461538 , 4134.35897436 , 4189.23076923 , 4914.35897436 , 4134.35897436 , 4138.97435897 , 2042.0 , 2036.0 , 56.808 , 0.0 , 0.0 , 0.0 , 0.0 , 

22.0 , 4127.17948718 , 4129.23076923 , 4133.33333333 , 4130.76923077 , 4130.25641026 , 4125.12820513 , 4124.1025641 , 4132.82051282 , 4136.41025641 , 4135.8974359 , 4190.76923077 , 4912.82051282 , 4134.35897436 , 4140.0 , 2043.0 , 2035.0 , 56.815 , 0.0 , 0.0 , 0.0 , 0.0 , 

23.0 , 4128.20512821 , 4129.74358974 , 4132.82051282 , 4133.84615385 , 4131.28205128 , 4130.76923077 , 4126.15384615 , 4133.33333333 , 4135.38461538 , 4136.92307692 , 4192.82051282 , 4914.35897436 , 4133.33333333 , 4141.02564103 , 2043.0 , 2035.0 , 56.823 , 0.0 , 0.0 , 0.0 , 0.0 , 

24.0 , 4127.69230769 , 4126.15384615 , 4133.33333333 , 4131.79487179 , 4129.23076923 , 4129.74358974 , 4127.69230769 , 4132.30769231 , 4134.87179487 , 4136.41025641 , 4190.25641026 , 4916.92307692 , 4132.30769231 , 4140.0 , 2043.0 , 2037.0 , 56.831 , 0.0 , 0.0 , 0.0 , 0.0 , 

25.0 , 4127.17948718 , 4129.23076923 , 4132.82051282 , 4130.25641026 , 4128.71794872 , 4124.1025641 , 4124.1025641 , 4131.79487179 , 4133.84615385 , 4136.92307692 , 4189.23076923 , 4915.38461538 , 4134.35897436 , 4141.02564103 , 2043.0 , 2035.0 , 56.84 , 0.0 , 0.0 , 0.0 , 0.0 , 

26.0 , 4133.33333333 , 4130.25641026 , 4133.84615385 , 4133.33333333 , 4129.23076923 , 4124.1025641 , 4122.56410256 , 4131.28205128 , 4133.33333333 , 4137.94871795 , 4189.74358974 , 4910.76923077 , 4131.79487179 , 4142.56410256 , 2044.0 , 2037.0 , 56.847 , 0.0 , 0.0 , 0.0 , 0.0 , 

27.0 , 4133.33333333 , 4127.17948718 , 4134.87179487 , 4132.30769231 , 4128.71794872 , 4126.15384615 , 4126.15384615 , 4130.76923077 , 4134.35897436 , 4137.43589744 , 4190.25641026 , 4909.23076923 , 4128.71794872 , 4139.48717949 , 2044.0 , 2038.0 , 56.855 , 0.0 , 0.0 , 0.0 , 0.0 , 

28.0 , 4129.74358974 , 4127.17948718 , 4136.41025641 , 4126.66666667 , 4129.23076923 , 4124.1025641 , 4125.12820513 , 4129.74358974 , 4131.79487179 , 4136.41025641 , 4191.28205128 , 4911.79487179 , 4131.79487179 , 4138.46153846 , 2045.0 , 2036.0 , 56.863 , 0.0 , 0.0 , 0.0 , 0.0 , 

29.0 , 4130.25641026 , 4127.17948718 , 4134.87179487 , 4131.28205128 , 4130.76923077 , 4123.58974359 , 4123.07692308 , 4130.25641026 , 4131.28205128 , 4137.43589744 , 4190.76923077 , 4911.79487179 , 4135.8974359 , 4135.8974359 , 2044.0 , 2036.0 , 56.873 , 0.0 , 0.0 , 0.0 , 0.0 , 

30.0 , 4134.35897436 , 4126.66666667 , 4136.41025641 , 4135.8974359 , 4127.69230769 , 4124.61538462 , 4123.07692308 , 4129.74358974 , 4132.30769231 , 4139.48717949 , 4189.74358974 , 4911.28205128 , 4131.79487179 , 4137.94871795 , 2043.0 , 2035.0 , 56.879 , 0.0 , 0.0 , 0.0 , 0.0 , 

31.0 , 4129.74358974 , 4129.74358974 , 4135.38461538 , 4134.87179487 , 4128.20512821 , 4126.66666667 , 4124.61538462 , 4131.79487179 , 4132.30769231 , 4138.46153846 , 4189.74358974 , 4907.17948718 , 4129.74358974 , 4134.35897436 , 2043.0 , 2036.0 , 56.886 , 0.0 , 0.0 , 0.0 , 0.0 , 

32.0 , 4127.17948718 , 4129.74358974 , 4131.79487179 , 4132.30769231 , 4130.25641026 , 4127.17948718 , 4121.53846154 , 4131.79487179 , 4130.76923077 , 4135.38461538 , 4189.74358974 , 4908.71794872 , 4131.79487179 , 4135.8974359 , 2043.0 , 2036.0 , 56.895 , 0.0 , 0.0 , 0.0 , 0.0 , 

33.0 , 4130.76923077 , 4129.74358974 , 4130.76923077 , 4134.35897436 , 4127.69230769 , 4127.69230769 , 4123.07692308 , 4132.82051282 , 4131.79487179 , 4135.8974359 , 4189.23076923 , 4909.74358974 , 4135.38461538 , 4135.8974359 , 2043.0 , 2035.0 , 56.902 , 0.0 , 0.0 , 0.0 , 0.0 , 

34.0 , 4137.94871795 , 4131.28205128 , 4135.8974359 , 4131.28205128 , 4127.69230769 , 4127.69230769 , 4126.66666667 , 4133.84615385 , 4133.84615385 , 4137.43589744 , 4191.28205128 , 4912.30769231 , 4136.41025641 , 4142.05128205 , 2043.0 , 2034.0 , 56.91 , 0.0 , 0.0 , 0.0 , 0.0 , 

35.0 , 4131.79487179 , 4131.28205128 , 4133.84615385 , 4131.28205128 , 4130.76923077 , 4128.20512821 , 4127.69230769 , 4133.33333333 , 4137.94871795 , 4136.92307692 , 4192.82051282 , 4909.74358974 , 4134.35897436 , 4140.51282051 , 2043.0 , 2034.0 , 56.918 , 0.0 , 0.0 , 0.0 , 0.0 , 

36.0 , 4127.69230769 , 4129.74358974 , 4131.28205128 , 4132.82051282 , 4128.20512821 , 4126.15384615 , 4126.15384615 , 4129.23076923 , 4135.38461538 , 4136.41025641 , 4191.79487179 , 4909.74358974 , 4131.28205128 , 4141.02564103 , 2043.0 , 2034.0 , 56.926 , 0.0 , 0.0 , 0.0 , 0.0 , 

37.0 , 4131.28205128 , 4129.74358974 , 4131.79487179 , 4132.82051282 , 4126.15384615 , 4126.66666667 , 4126.15384615 , 4130.76923077 , 4130.25641026 , 4136.41025641 , 4191.79487179 , 4909.23076923 , 4132.30769231 , 4138.97435897 , 2043.0 , 2036.0 , 56.934 , 0.0 , 0.0 , 0.0 , 0.0 , 

38.0 , 4132.30769231 , 4127.17948718 , 4132.30769231 , 4132.30769231 , 4127.69230769 , 4127.69230769 , 4123.58974359 , 4132.30769231 , 4133.33333333 , 4136.92307692 , 4194.35897436 , 4913.33333333 , 4135.38461538 , 4141.02564103 , 2044.0 , 2035.0 , 56.941 , 0.0 , 0.0 , 0.0 , 0.0 , 

39.0 , 4127.17948718 , 4126.15384615 , 4131.28205128 , 4133.84615385 , 4129.74358974 , 4127.69230769 , 4123.07692308 , 4132.30769231 , 4135.8974359 , 4137.43589744 , 4192.30769231 , 4914.35897436 , 4133.33333333 , 4138.46153846 , 2044.0 , 2035.0 , 56.949 , 0.0 , 0.0 , 0.0 , 0.0 , 

40.0 , 4128.20512821 , 4126.15384615 , 4131.28205128 , 4131.28205128 , 4129.74358974 , 4125.12820513 , 4125.12820513 , 4131.79487179 , 4131.79487179 , 4136.92307692 , 4188.71794872 , 4910.25641026 , 4132.82051282 , 4136.41025641 , 2045.0 , 2035.0 , 56.957 , 0.0 , 0.0 , 0.0 , 0.0 , 

41.0 , 4128.20512821 , 4127.17948718 , 4132.82051282 , 4131.28205128 , 4131.79487179 , 4126.15384615 , 4127.17948718 , 4131.79487179 , 4131.79487179 , 4135.38461538 , 4189.74358974 , 4908.20512821 , 4134.87179487 , 4134.87179487 , 2045.0 , 2036.0 , 56.965 , 0.0 , 0.0 , 0.0 , 0.0 , 

42.0 , 4128.71794872 , 4129.23076923 , 4134.35897436 , 4133.84615385 , 4130.76923077 , 4127.17948718 , 4124.1025641 , 4131.28205128 , 4134.35897436 , 4136.92307692 , 4191.79487179 , 4912.82051282 , 4134.87179487 , 4134.87179487 , 2044.0 , 2035.0 , 56.973 , 0.0 , 0.0 , 0.0 , 0.0 , 

43.0 , 4131.79487179 , 4129.74358974 , 4134.35897436 , 4132.82051282 , 4125.64102564 , 4124.61538462 , 4124.1025641 , 4132.82051282 , 4134.35897436 , 4139.48717949 , 4190.25641026 , 4915.38461538 , 4131.28205128 , 4135.8974359 , 2043.0 , 2035.0 , 56.982 , 0.0 , 0.0 , 0.0 , 0.0 , 

44.0 , 4131.28205128 , 4128.20512821 , 4131.79487179 , 4132.30769231 , 4125.64102564 , 4123.07692308 , 4127.17948718 , 4133.33333333 , 4135.38461538 , 4137.94871795 , 4190.25641026 , 4911.79487179 , 4131.28205128 , 4136.41025641 , 2044.0 , 2035.0 , 56.989 , 0.0 , 0.0 , 0.0 , 0.0 , 

45.0 , 4129.74358974 , 4128.71794872 , 4131.28205128 , 4133.84615385 , 4128.20512821 , 4124.1025641 , 4125.12820513 , 4132.82051282 , 4135.38461538 , 4135.8974359 , 4191.28205128 , 4911.79487179 , 4132.82051282 , 4142.05128205 , 2044.0 , 2037.0 , 56.997 , 0.0 , 0.0 , 0.0 , 0.0 , 

46.0 , 4131.79487179 , 4130.76923077 , 4132.82051282 , 4133.84615385 , 4127.17948718 , 4124.1025641 , 4122.56410256 , 4134.87179487 , 4131.28205128 , 4137.43589744 , 4190.25641026 , 4912.82051282 , 4134.87179487 , 4141.53846154 , 2044.0 , 2038.0 , 57.006 , 0.0 , 0.0 , 0.0 , 0.0 , 

47.0 , 4133.84615385 , 4130.76923077 , 4135.38461538 , 4130.76923077 , 4126.66666667 , 4124.1025641 , 4124.61538462 , 4132.30769231 , 4131.28205128 , 4139.48717949 , 4191.28205128 , 4913.33333333 , 4132.82051282 , 4139.48717949 , 2042.0 , 2035.0 , 57.012 , 0.0 , 0.0 , 0.0 , 0.0 , 

48.0 , 4128.71794872 , 4129.23076923 , 4134.35897436 , 4131.79487179 , 4130.76923077 , 4128.71794872 , 4126.66666667 , 4130.25641026 , 4137.94871795 , 4136.92307692 , 4191.79487179 , 4909.74358974 , 4132.82051282 , 4137.43589744 , 2043.0 , 2037.0 , 57.02 , 0.0 , 0.0 , 0.0 , 0.0 , 

49.0 , 4127.17948718 , 4128.20512821 , 4131.79487179 , 4131.79487179 , 4131.28205128 , 4128.20512821 , 4123.07692308 , 4131.79487179 , 4136.92307692 , 4134.87179487 , 4189.74358974 , 4911.28205128 , 4134.35897436 , 4141.53846154 , 2042.0 , 2038.0 , 57.028 , 0.0 , 0.0 , 0.0 , 0.0 , 

50.0 , 4131.28205128 , 4130.25641026 , 4130.76923077 , 4132.30769231 , 4128.71794872 , 4129.23076923 , 4122.56410256 , 4133.33333333 , 4132.30769231 , 4136.92307692 , 4189.23076923 , 4912.30769231 , 4132.82051282 , 4138.46153846 , 2042.0 , 2036.0 , 57.035 , 0.0 , 0.0 , 0.0 , 0.0 , 

51.0 , 4137.43589744 , 4128.71794872 , 4133.33333333 , 4131.79487179 , 4127.69230769 , 4131.28205128 , 4123.58974359 , 4131.28205128 , 4132.82051282 , 4138.46153846 , 4191.79487179 , 4911.28205128 , 4132.82051282 , 4138.97435897 , 2044.0 , 2037.0 , 57.043 , 0.0 , 0.0 , 0.0 , 0.0 , 

52.0 , 4131.28205128 , 4127.17948718 , 4135.8974359 , 4133.33333333 , 4127.69230769 , 4128.71794872 , 4124.61538462 , 4132.30769231 , 4136.92307692 , 4137.94871795 , 4190.25641026 , 4909.23076923 , 4135.8974359 , 4137.94871795 , 2042.0 , 2038.0 , 57.052 , 0.0 , 0.0 , 0.0 , 0.0 , 

53.0 , 4129.74358974 , 4129.23076923 , 4136.92307692 , 4133.84615385 , 4128.71794872 , 4123.58974359 , 4124.1025641 , 4130.25641026 , 4135.8974359 , 4137.43589744 , 4189.23076923 , 4912.82051282 , 4134.35897436 , 4140.51282051 , 2043.0 , 2037.0 , 57.06 , 0.0 , 0.0 , 0.0 , 0.0 , 

54.0 , 4132.82051282 , 4130.76923077 , 4133.33333333 , 4133.33333333 , 4128.20512821 , 4127.69230769 , 4125.12820513 , 4129.23076923 , 4133.33333333 , 4136.92307692 , 4190.25641026 , 4912.82051282 , 4131.79487179 , 4137.43589744 , 2042.0 , 2037.0 , 57.068 , 0.0 , 0.0 , 0.0 , 0.0 , 

55.0 , 4134.35897436 , 4128.20512821 , 4132.82051282 , 4133.33333333 , 4125.64102564 , 4130.25641026 , 4125.64102564 , 4130.76923077 , 4133.33333333 , 4136.92307692 , 4191.28205128 , 4913.33333333 , 4133.33333333 , 4137.94871795 , 2043.0 , 2034.0 , 57.077 , 0.0 , 0.0 , 0.0 , 0.0 , 

56.0 , 4129.74358974 , 4130.25641026 , 4133.84615385 , 4135.8974359 , 4130.25641026 , 4124.61538462 , 4126.15384615 , 4131.79487179 , 4136.41025641 , 4137.43589744 , 4189.74358974 , 4911.79487179 , 4134.35897436 , 4135.38461538 , 2043.0 , 2035.0 , 57.084 , 0.0 , 0.0 , 0.0 , 0.0 , 

57.0 , 4129.23076923 , 4132.30769231 , 4136.41025641 , 4133.33333333 , 4131.79487179 , 4121.53846154 , 4125.12820513 , 4132.82051282 , 4136.41025641 , 4138.46153846 , 4189.23076923 , 4911.79487179 , 4133.84615385 , 4136.92307692 , 2043.0 , 2035.0 , 57.091 , 0.0 , 0.0 , 0.0 , 0.0 , 

58.0 , 4129.74358974 , 4130.25641026 , 4136.41025641 , 4129.23076923 , 4128.20512821 , 4128.20512821 , 4125.64102564 , 4134.35897436 , 4135.38461538 , 4137.43589744 , 4189.74358974 , 4911.79487179 , 4132.82051282 , 4138.46153846 , 2043.0 , 2035.0 , 57.1 , 0.0 , 0.0 , 0.0 , 0.0 , 

59.0 , 4132.82051282 , 4129.74358974 , 4134.35897436 , 4129.23076923 , 4127.69230769 , 4130.25641026 , 4125.12820513 , 4132.30769231 , 4136.41025641 , 4136.41025641 , 4189.74358974 , 4911.28205128 , 4132.82051282 , 4138.46153846 , 2043.0 , 2034.0 , 57.107 , 0.0 , 0.0 , 0.0 , 0.0 , 

60.0 , 4133.33333333 , 4133.33333333 , 4133.33333333 , 4131.79487179 , 4130.25641026 , 4126.66666667 , 4125.64102564 , 4130.25641026 , 4136.92307692 , 4137.43589744 , 4190.76923077 , 4911.79487179 , 4134.87179487 , 4138.46153846 , 2042.0 , 2034.0 , 57.115 , 0.0 , 0.0 , 0.0 , 0.0 , 

61.0 , 4132.30769231 , 4134.35897436 , 4133.33333333 , 4132.30769231 , 4129.23076923 , 4126.15384615 , 4125.12820513 , 4130.76923077 , 4135.8974359 , 4137.94871795 , 4191.28205128 , 4913.84615385 , 4133.84615385 , 4140.0 , 2043.0 , 2034.0 , 57.123 , 0.0 , 0.0 , 0.0 , 0.0 , 

62.0 , 4131.28205128 , 4131.28205128 , 4133.84615385 , 4131.28205128 , 4128.71794872 , 4128.71794872 , 4124.1025641 , 4129.74358974 , 4133.84615385 , 4136.41025641 , 4190.76923077 , 4911.79487179 , 4130.76923077 , 4140.51282051 , 2043.0 , 2034.0 , 57.131 , 0.0 , 0.0 , 0.0 , 0.0 , 

63.0 , 4128.20512821 , 4128.20512821 , 4133.33333333 , 4131.28205128 , 4129.23076923 , 4131.28205128 , 4123.07692308 , 4128.71794872 , 4132.30769231 , 4137.43589744 , 4190.25641026 , 4910.76923077 , 4135.38461538 , 4140.51282051 , 2044.0 , 2034.0 , 57.139 , 0.0 , 0.0 , 0.0 , 0.0 , 

64.0 , 4130.25641026 , 4129.74358974 , 4132.82051282 , 4131.79487179 , 4128.71794872 , 4132.30769231 , 4123.07692308 , 4130.25641026 , 4132.30769231 , 4138.46153846 , 4190.25641026 , 4914.87179487 , 4137.43589744 , 4143.58974359 , 2043.0 , 2034.0 , 57.147 , 0.0 , 0.0 , 0.0 , 0.0 , 

65.0 , 4132.30769231 , 4133.33333333 , 4131.79487179 , 4132.30769231 , 4129.23076923 , 4129.23076923 , 4126.15384615 , 4132.30769231 , 4135.8974359 , 4136.92307692 , 4188.71794872 , 4911.28205128 , 4134.87179487 , 4139.48717949 , 2043.0 , 2036.0 , 57.154 , 0.0 , 0.0 , 0.0 , 0.0 , 

66.0 , 4131.28205128 , 4130.25641026 , 4132.82051282 , 4132.82051282 , 4129.74358974 , 4125.12820513 , 4127.17948718 , 4132.82051282 , 4136.41025641 , 4136.92307692 , 4188.71794872 , 4908.71794872 , 4131.79487179 , 4137.94871795 , 2043.0 , 2037.0 , 57.163 , 0.0 , 0.0 , 0.0 , 0.0 , 

67.0 , 4128.20512821 , 4125.64102564 , 4131.79487179 , 4134.87179487 , 4129.74358974 , 4128.71794872 , 4127.17948718 , 4132.82051282 , 4134.35897436 , 4138.46153846 , 4189.23076923 , 4911.28205128 , 4132.82051282 , 4135.38461538 , 2044.0 , 2037.0 , 57.17 , 0.0 , 0.0 , 0.0 , 0.0 , 

68.0 , 4132.30769231 , 4127.69230769 , 4131.28205128 , 4132.30769231 , 4131.28205128 , 4129.74358974 , 4124.61538462 , 4130.25641026 , 4133.84615385 , 4137.43589744 , 4188.71794872 , 4913.84615385 , 4133.84615385 , 4136.41025641 , 2044.0 , 2036.0 , 57.178 , 0.0 , 0.0 , 0.0 , 0.0 , 

69.0 , 4131.28205128 , 4132.30769231 , 4131.28205128 , 4131.79487179 , 4131.28205128 , 4126.66666667 , 4124.1025641 , 4131.79487179 , 4136.92307692 , 4136.92307692 , 4189.23076923 , 4908.71794872 , 4131.79487179 , 4134.35897436 , 2044.0 , 2037.0 , 57.186 , 0.0 , 0.0 , 0.0 , 0.0 , 

70.0 , 4131.79487179 , 4129.74358974 , 4132.82051282 , 4133.33333333 , 4130.25641026 , 4124.61538462 , 4122.56410256 , 4130.76923077 , 4135.8974359 , 4137.43589744 , 4192.82051282 , 4909.74358974 , 4131.79487179 , 4138.46153846 , 2043.0 , 2037.0 , 57.195 , 0.0 , 0.0 , 0.0 , 0.0 , 

71.0 , 4131.79487179 , 4127.69230769 , 4133.33333333 , 4132.82051282 , 4129.74358974 , 4129.23076923 , 4123.07692308 , 4130.25641026 , 4135.38461538 , 4138.46153846 , 4192.30769231 , 4910.25641026 , 4135.38461538 , 4134.87179487 , 2044.0 , 2037.0 , 57.202 , 0.0 , 0.0 , 0.0 , 0.0 , 

72.0 , 4131.28205128 , 4129.23076923 , 4136.92307692 , 4130.76923077 , 4128.71794872 , 4129.23076923 , 4122.56410256 , 4131.79487179 , 4136.41025641 , 4138.46153846 , 4188.20512821 , 4910.76923077 , 4134.87179487 , 4137.43589744 , 2044.0 , 2036.0 , 57.21 , 0.0 , 0.0 , 0.0 , 0.0 , 

73.0 , 4129.23076923 , 4131.79487179 , 4136.41025641 , 4132.30769231 , 4130.25641026 , 4126.66666667 , 4123.07692308 , 4133.84615385 , 4136.41025641 , 4137.94871795 , 4188.71794872 , 4909.23076923 , 4132.82051282 , 4138.97435897 , 2044.0 , 2037.0 , 57.217 , 0.0 , 0.0 , 0.0 , 0.0 , 

