['COUNTER', 'AF3', 'F7', 'F3', 'FC5', 'T7', 'P7', 'O1', 'O2', 'P8', 'T8', 'FC6', 'F4', 'F8', 'AF4', 'GYROX', 'GYROY', 'TIMESTAMP', 'FUNC_ID', 'FUNC_VALUE', 'MARKER', 'SYNC_SIGNAL']
26.0 , 4131.79487179 , 4133.33333333 , 4136.92307692 , 4135.8974359 , 4131.28205128 , 4127.17948718 , 4126.15384615 , 4133.84615385 , 4136.41025641 , 4138.97435897 , 4191.28205128 , 4909.74358974 , 4136.92307692 , 4135.8974359 , 2042.0 , 2037.0 , 129.046 , 0.0 , 0.0 , 0.0 , 0.0 , 

27.0 , 4132.30769231 , 4128.20512821 , 4133.84615385 , 4135.8974359 , 4132.30769231 , 4131.79487179 , 4124.61538462 , 4133.33333333 , 4137.94871795 , 4140.0 , 4189.23076923 , 4912.30769231 , 4138.46153846 , 4140.0 , 2041.0 , 2039.0 , 129.054 , 0.0 , 0.0 , 0.0 , 0.0 , 

28.0 , 4130.76923077 , 4127.17948718 , 4132.30769231 , 4134.35897436 , 4132.82051282 , 4132.30769231 , 4123.58974359 , 4132.82051282 , 4135.8974359 , 4137.94871795 , 4191.79487179 , 4908.20512821 , 4135.8974359 , 4141.02564103 , 2043.0 , 2039.0 , 129.062 , 0.0 , 0.0 , 0.0 , 0.0 , 

29.0 , 4132.82051282 , 4132.30769231 , 4133.84615385 , 4135.8974359 , 4131.28205128 , 4127.69230769 , 4125.12820513 , 4132.82051282 , 4136.41025641 , 4137.94871795 , 4193.84615385 , 4912.30769231 , 4134.87179487 , 4140.51282051 , 2042.0 , 2038.0 , 129.072 , 0.0 , 0.0 , 0.0 , 0.0 , 

30.0 , 4133.84615385 , 4131.79487179 , 4136.41025641 , 4135.8974359 , 4132.30769231 , 4128.71794872 , 4125.64102564 , 4133.84615385 , 4136.41025641 , 4139.48717949 , 4192.82051282 , 4919.48717949 , 4136.41025641 , 4141.02564103 , 2043.0 , 2037.0 , 129.078 , 0.0 , 0.0 , 0.0 , 0.0 , 

31.0 , 4131.28205128 , 4130.25641026 , 4135.38461538 , 4132.82051282 , 4132.82051282 , 4131.28205128 , 4123.58974359 , 4134.87179487 , 4135.8974359 , 4138.97435897 , 4192.30769231 , 4913.84615385 , 4136.41025641 , 4142.05128205 , 2043.0 , 2037.0 , 129.086 , 0.0 , 0.0 , 0.0 , 0.0 , 

32.0 , 4132.82051282 , 4132.30769231 , 4134.35897436 , 4133.33333333 , 4131.79487179 , 4129.74358974 , 4123.58974359 , 4133.84615385 , 4136.41025641 , 4138.46153846 , 4191.28205128 , 4909.74358974 , 4134.87179487 , 4145.12820513 , 2044.0 , 2036.0 , 129.094 , 0.0 , 0.0 , 0.0 , 0.0 , 

33.0 , 4136.41025641 , 4131.79487179 , 4135.8974359 , 4138.46153846 , 4133.33333333 , 4129.74358974 , 4126.66666667 , 4133.33333333 , 4137.94871795 , 4138.46153846 , 4191.79487179 , 4910.76923077 , 4136.92307692 , 4143.07692308 , 2044.0 , 2037.0 , 129.103 , 0.0 , 0.0 , 0.0 , 0.0 , 

34.0 , 4136.92307692 , 4128.20512821 , 4137.43589744 , 4136.41025641 , 4134.35897436 , 4129.74358974 , 4126.15384615 , 4135.38461538 , 4134.87179487 , 4138.46153846 , 4193.84615385 , 4914.35897436 , 4136.92307692 , 4143.07692308 , 2044.0 , 2037.0 , 129.108 , 0.0 , 0.0 , 0.0 , 0.0 , 

35.0 , 4131.79487179 , 4130.25641026 , 4134.87179487 , 4133.84615385 , 4132.82051282 , 4130.25641026 , 4124.1025641 , 4137.94871795 , 4133.84615385 , 4137.94871795 , 4193.84615385 , 4914.35897436 , 4134.87179487 , 4138.46153846 , 2043.0 , 2036.0 , 129.118 , 0.0 , 0.0 , 0.0 , 0.0 , 

36.0 , 4132.82051282 , 4131.79487179 , 4135.8974359 , 4133.84615385 , 4131.28205128 , 4128.20512821 , 4120.51282051 , 4133.33333333 , 4134.87179487 , 4136.41025641 , 4191.79487179 , 4911.79487179 , 4132.82051282 , 4140.0 , 2043.0 , 2037.0 , 129.125 , 0.0 , 0.0 , 0.0 , 0.0 , 

37.0 , 4132.82051282 , 4129.74358974 , 4137.43589744 , 4134.35897436 , 4132.30769231 , 4129.74358974 , 4123.58974359 , 4131.28205128 , 4134.35897436 , 4136.92307692 , 4191.79487179 , 4907.69230769 , 4133.84615385 , 4136.92307692 , 2045.0 , 2037.0 , 129.136 , 0.0 , 0.0 , 0.0 , 0.0 , 

38.0 , 4134.35897436 , 4130.25641026 , 4136.92307692 , 4132.30769231 , 4132.82051282 , 4130.25641026 , 4125.64102564 , 4133.33333333 , 4133.33333333 , 4138.97435897 , 4194.87179487 , 4912.30769231 , 4135.8974359 , 4138.46153846 , 2044.0 , 2036.0 , 129.141 , 0.0 , 0.0 , 0.0 , 0.0 , 

39.0 , 4132.82051282 , 4134.35897436 , 4134.87179487 , 4135.38461538 , 4132.30769231 , 4130.25641026 , 4125.64102564 , 4134.35897436 , 4136.92307692 , 4138.97435897 , 4195.8974359 , 4913.33333333 , 4137.94871795 , 4138.97435897 , 2043.0 , 2037.0 , 129.149 , 0.0 , 0.0 , 0.0 , 0.0 , 

40.0 , 4134.35897436 , 4131.79487179 , 4136.41025641 , 4137.94871795 , 4128.20512821 , 4127.69230769 , 4124.61538462 , 4131.28205128 , 4137.43589744 , 4135.8974359 , 4194.87179487 , 4911.28205128 , 4136.41025641 , 4145.12820513 , 2044.0 , 2036.0 , 129.157 , 0.0 , 0.0 , 0.0 , 0.0 , 

41.0 , 4131.79487179 , 4129.23076923 , 4135.8974359 , 4136.41025641 , 4129.74358974 , 4128.71794872 , 4126.66666667 , 4132.82051282 , 4133.33333333 , 4135.8974359 , 4192.30769231 , 4912.30769231 , 4134.35897436 , 4141.53846154 , 2045.0 , 2036.0 , 129.166 , 0.0 , 0.0 , 0.0 , 0.0 , 

42.0 , 4133.33333333 , 4130.25641026 , 4136.92307692 , 4133.84615385 , 4135.38461538 , 4131.79487179 , 4125.12820513 , 4133.84615385 , 4131.28205128 , 4138.97435897 , 4192.82051282 , 4916.92307692 , 4135.38461538 , 4142.56410256 , 2043.0 , 2036.0 , 129.172 , 0.0 , 0.0 , 0.0 , 0.0 , 

43.0 , 4133.84615385 , 4134.87179487 , 4135.8974359 , 4135.38461538 , 4133.84615385 , 4133.33333333 , 4126.15384615 , 4131.79487179 , 4135.38461538 , 4138.97435897 , 4193.33333333 , 4913.33333333 , 4135.38461538 , 4142.05128205 , 2043.0 , 2035.0 , 129.181 , 0.0 , 0.0 , 0.0 , 0.0 , 

44.0 , 4133.33333333 , 4134.87179487 , 4134.87179487 , 4134.87179487 , 4128.20512821 , 4127.69230769 , 4126.66666667 , 4130.76923077 , 4137.94871795 , 4138.46153846 , 4193.33333333 , 4912.30769231 , 4133.33333333 , 4143.07692308 , 2044.0 , 2036.0 , 129.189 , 0.0 , 0.0 , 0.0 , 0.0 , 

45.0 , 4131.28205128 , 4129.23076923 , 4134.35897436 , 4135.38461538 , 4129.74358974 , 4127.69230769 , 4126.15384615 , 4133.84615385 , 4135.8974359 , 4139.48717949 , 4193.33333333 , 4912.82051282 , 4131.28205128 , 4140.0 , 2044.0 , 2036.0 , 129.199 , 0.0 , 0.0 , 0.0 , 0.0 , 

46.0 , 4130.76923077 , 4127.17948718 , 4136.41025641 , 4136.41025641 , 4132.30769231 , 4129.74358974 , 4125.12820513 , 4134.87179487 , 4133.84615385 , 4140.0 , 4193.33333333 , 4913.84615385 , 4132.30769231 , 4141.53846154 , 2043.0 , 2036.0 , 129.204 , 0.0 , 0.0 , 0.0 , 0.0 , 

47.0 , 4130.76923077 , 4130.76923077 , 4137.43589744 , 4135.8974359 , 4132.82051282 , 4129.23076923 , 4126.15384615 , 4132.30769231 , 4134.35897436 , 4139.48717949 , 4192.82051282 , 4915.38461538 , 4134.35897436 , 4141.53846154 , 2041.0 , 2034.0 , 129.212 , 0.0 , 0.0 , 0.0 , 0.0 , 

48.0 , 4134.35897436 , 4131.79487179 , 4137.43589744 , 4134.35897436 , 4130.76923077 , 4127.69230769 , 4124.61538462 , 4130.76923077 , 4136.41025641 , 4138.46153846 , 4191.28205128 , 4915.8974359 , 4136.41025641 , 4141.53846154 , 2042.0 , 2034.0 , 129.219 , 0.0 , 0.0 , 0.0 , 0.0 , 

49.0 , 4135.38461538 , 4131.28205128 , 4137.94871795 , 4134.35897436 , 4130.76923077 , 4128.20512821 , 4123.58974359 , 4131.79487179 , 4135.38461538 , 4138.97435897 , 4192.30769231 , 4911.79487179 , 4133.84615385 , 4141.02564103 , 2042.0 , 2033.0 , 129.23 , 0.0 , 0.0 , 0.0 , 0.0 , 

50.0 , 4132.82051282 , 4134.35897436 , 4136.41025641 , 4133.84615385 , 4131.28205128 , 4128.71794872 , 4123.07692308 , 4133.33333333 , 4133.84615385 , 4138.97435897 , 4194.87179487 , 4909.23076923 , 4134.35897436 , 4138.97435897 , 2042.0 , 2033.0 , 129.235 , 0.0 , 0.0 , 0.0 , 0.0 , 

51.0 , 4134.35897436 , 4133.33333333 , 4134.87179487 , 4132.30769231 , 4130.25641026 , 4128.71794872 , 4121.53846154 , 4133.33333333 , 4131.79487179 , 4137.94871795 , 4193.84615385 , 4912.30769231 , 4137.43589744 , 4141.02564103 , 2044.0 , 2034.0 , 129.244 , 0.0 , 0.0 , 0.0 , 0.0 , 

52.0 , 4133.33333333 , 4129.23076923 , 4134.35897436 , 4134.35897436 , 4129.23076923 , 4130.76923077 , 4124.1025641 , 4135.38461538 , 4132.30769231 , 4138.97435897 , 4190.25641026 , 4911.79487179 , 4137.43589744 , 4143.07692308 , 2043.0 , 2033.0 , 129.251 , 0.0 , 0.0 , 0.0 , 0.0 , 

53.0 , 4134.35897436 , 4130.76923077 , 4136.92307692 , 4133.84615385 , 4129.23076923 , 4128.71794872 , 4127.17948718 , 4135.38461538 , 4135.38461538 , 4139.48717949 , 4190.76923077 , 4912.30769231 , 4132.82051282 , 4146.66666667 , 2044.0 , 2034.0 , 129.261 , 0.0 , 0.0 , 0.0 , 0.0 , 

54.0 , 4135.8974359 , 4135.38461538 , 4134.35897436 , 4133.84615385 , 4131.79487179 , 4129.23076923 , 4128.20512821 , 4134.35897436 , 4139.48717949 , 4138.46153846 , 4190.76923077 , 4911.79487179 , 4132.82051282 , 4140.0 , 2044.0 , 2033.0 , 129.267 , 0.0 , 0.0 , 0.0 , 0.0 , 

55.0 , 4134.35897436 , 4133.33333333 , 4133.84615385 , 4134.87179487 , 4135.38461538 , 4129.23076923 , 4125.64102564 , 4131.28205128 , 4137.43589744 , 4138.97435897 , 4189.74358974 , 4913.33333333 , 4135.38461538 , 4140.0 , 2043.0 , 2034.0 , 129.275 , 0.0 , 0.0 , 0.0 , 0.0 , 

56.0 , 4128.20512821 , 4131.79487179 , 4134.35897436 , 4136.41025641 , 4136.92307692 , 4130.25641026 , 4125.64102564 , 4131.28205128 , 4133.33333333 , 4138.46153846 , 4190.76923077 , 4911.79487179 , 4136.41025641 , 4140.0 , 2044.0 , 2035.0 , 129.282 , 0.0 , 0.0 , 0.0 , 0.0 , 

57.0 , 4131.79487179 , 4133.33333333 , 4134.35897436 , 4132.82051282 , 4132.30769231 , 4129.23076923 , 4124.61538462 , 4130.25641026 , 4134.35897436 , 4136.41025641 , 4192.30769231 , 4913.33333333 , 4135.8974359 , 4143.58974359 , 2044.0 , 2035.0 , 129.292 , 0.0 , 0.0 , 0.0 , 0.0 , 

58.0 , 4133.33333333 , 4133.33333333 , 4133.33333333 , 4134.87179487 , 4131.79487179 , 4131.79487179 , 4125.12820513 , 4132.30769231 , 4139.48717949 , 4136.92307692 , 4191.28205128 , 4913.33333333 , 4136.92307692 , 4140.0 , 2044.0 , 2036.0 , 129.298 , 0.0 , 0.0 , 0.0 , 0.0 , 

59.0 , 4133.84615385 , 4128.71794872 , 4137.43589744 , 4136.92307692 , 4135.38461538 , 4130.25641026 , 4125.12820513 , 4133.33333333 , 4137.94871795 , 4136.41025641 , 4191.79487179 , 4913.84615385 , 4135.38461538 , 4142.05128205 , 2045.0 , 2036.0 , 129.307 , 0.0 , 0.0 , 0.0 , 0.0 , 

60.0 , 4133.33333333 , 4128.20512821 , 4137.94871795 , 4135.8974359 , 4136.41025641 , 4127.17948718 , 4127.69230769 , 4133.33333333 , 4137.43589744 , 4136.41025641 , 4193.84615385 , 4909.23076923 , 4134.35897436 , 4140.51282051 , 2042.0 , 2037.0 , 129.315 , 0.0 , 0.0 , 0.0 , 0.0 , 

61.0 , 4135.38461538 , 4130.25641026 , 4135.38461538 , 4133.84615385 , 4132.82051282 , 4126.15384615 , 4127.69230769 , 4130.76923077 , 4137.94871795 , 4138.46153846 , 4194.35897436 , 4910.25641026 , 4136.41025641 , 4142.56410256 , 2043.0 , 2035.0 , 129.325 , 0.0 , 0.0 , 0.0 , 0.0 , 

62.0 , 4134.35897436 , 4130.76923077 , 4133.33333333 , 4136.92307692 , 4132.30769231 , 4130.76923077 , 4128.20512821 , 4132.30769231 , 4138.46153846 , 4139.48717949 , 4192.82051282 , 4912.82051282 , 4135.8974359 , 4138.46153846 , 2043.0 , 2035.0 , 129.332 , 0.0 , 0.0 , 0.0 , 0.0 , 

63.0 , 4135.8974359 , 4128.71794872 , 4133.33333333 , 4136.41025641 , 4132.30769231 , 4129.74358974 , 4126.66666667 , 4134.35897436 , 4137.43589744 , 4139.48717949 , 4192.82051282 , 4912.30769231 , 4131.79487179 , 4137.94871795 , 2043.0 , 2035.0 , 129.339 , 0.0 , 0.0 , 0.0 , 0.0 , 

64.0 , 4134.87179487 , 4128.71794872 , 4133.33333333 , 4132.82051282 , 4133.33333333 , 4127.17948718 , 4126.15384615 , 4134.35897436 , 4136.41025641 , 4141.02564103 , 4191.28205128 , 4908.20512821 , 4130.25641026 , 4139.48717949 , 2042.0 , 2038.0 , 129.347 , 0.0 , 0.0 , 0.0 , 0.0 , 

65.0 , 4132.82051282 , 4131.79487179 , 4134.87179487 , 4133.33333333 , 4133.84615385 , 4127.17948718 , 4125.64102564 , 4133.84615385 , 4133.33333333 , 4138.46153846 , 4190.25641026 , 4911.79487179 , 4134.35897436 , 4142.56410256 , 2042.0 , 2039.0 , 129.357 , 0.0 , 0.0 , 0.0 , 0.0 , 

66.0 , 4132.82051282 , 4133.33333333 , 4135.38461538 , 4137.94871795 , 4132.82051282 , 4128.71794872 , 4125.12820513 , 4134.87179487 , 4134.35897436 , 4135.38461538 , 4192.82051282 , 4915.8974359 , 4133.33333333 , 4142.56410256 , 2042.0 , 2039.0 , 129.362 , 0.0 , 0.0 , 0.0 , 0.0 , 

67.0 , 4133.33333333 , 4131.28205128 , 4133.84615385 , 4137.94871795 , 4131.28205128 , 4130.25641026 , 4126.66666667 , 4135.8974359 , 4139.48717949 , 4137.43589744 , 4194.35897436 , 4912.30769231 , 4130.76923077 , 4145.12820513 , 2041.0 , 2036.0 , 129.37 , 0.0 , 0.0 , 0.0 , 0.0 , 

68.0 , 4133.33333333 , 4130.76923077 , 4133.84615385 , 4135.38461538 , 4132.82051282 , 4130.25641026 , 4127.69230769 , 4135.38461538 , 4139.48717949 , 4139.48717949 , 4193.33333333 , 4912.30769231 , 4131.28205128 , 4146.15384615 , 2041.0 , 2037.0 , 129.378 , 0.0 , 0.0 , 0.0 , 0.0 , 

69.0 , 4132.82051282 , 4132.30769231 , 4135.38461538 , 4136.41025641 , 4133.84615385 , 4129.74358974 , 4125.12820513 , 4132.82051282 , 4138.46153846 , 4138.46153846 , 4191.28205128 , 4914.87179487 , 4136.92307692 , 4141.53846154 , 2042.0 , 2037.0 , 129.388 , 0.0 , 0.0 , 0.0 , 0.0 , 

70.0 , 4136.92307692 , 4131.79487179 , 4138.97435897 , 4134.35897436 , 4132.30769231 , 4127.69230769 , 4123.07692308 , 4132.30769231 , 4137.94871795 , 4137.94871795 , 4191.79487179 , 4913.33333333 , 4137.94871795 , 4142.56410256 , 2043.0 , 2037.0 , 129.392 , 0.0 , 0.0 , 0.0 , 0.0 , 

71.0 , 4137.94871795 , 4131.28205128 , 4137.43589744 , 4133.33333333 , 4132.82051282 , 4130.25641026 , 4126.66666667 , 4136.41025641 , 4137.43589744 , 4138.46153846 , 4192.30769231 , 4912.30769231 , 4136.92307692 , 4141.53846154 , 2044.0 , 2037.0 , 129.401 , 0.0 , 0.0 , 0.0 , 0.0 , 

72.0 , 4135.38461538 , 4129.23076923 , 4135.38461538 , 4136.41025641 , 4132.82051282 , 4131.79487179 , 4127.17948718 , 4134.35897436 , 4136.92307692 , 4139.48717949 , 4192.30769231 , 4917.94871795 , 4134.87179487 , 4140.0 , 2042.0 , 2038.0 , 129.409 , 0.0 , 0.0 , 0.0 , 0.0 , 

73.0 , 4132.30769231 , 4129.23076923 , 4133.84615385 , 4138.46153846 , 4132.30769231 , 4130.25641026 , 4125.12820513 , 4131.28205128 , 4136.41025641 , 4138.97435897 , 4191.28205128 , 4914.35897436 , 4134.35897436 , 4134.87179487 , 2042.0 , 2037.0 , 129.419 , 0.0 , 0.0 , 0.0 , 0.0 , 

74.0 , 4134.35897436 , 4130.76923077 , 4133.33333333 , 4134.87179487 , 4132.30769231 , 4127.69230769 , 4125.12820513 , 4131.28205128 , 4135.38461538 , 4137.43589744 , 4191.28205128 , 4910.76923077 , 4134.35897436 , 4138.46153846 , 2043.0 , 2038.0 , 129.425 , 0.0 , 0.0 , 0.0 , 0.0 , 

75.0 , 4131.79487179 , 4129.74358974 , 4133.84615385 , 4134.87179487 , 4132.82051282 , 4129.74358974 , 4129.74358974 , 4134.35897436 , 4138.46153846 , 4135.8974359 , 4192.30769231 , 4912.30769231 , 4136.41025641 , 4137.43589744 , 2043.0 , 2036.0 , 129.433 , 0.0 , 0.0 , 0.0 , 0.0 , 

76.0 , 4132.30769231 , 4127.69230769 , 4137.43589744 , 4133.84615385 , 4132.82051282 , 4129.74358974 , 4129.74358974 , 4134.35897436 , 4137.43589744 , 4136.41025641 , 4192.82051282 , 4916.41025641 , 4135.8974359 , 4140.0 , 2042.0 , 2036.0 , 129.44 , 0.0 , 0.0 , 0.0 , 0.0 , 

77.0 , 4132.82051282 , 4131.28205128 , 4133.84615385 , 4132.30769231 , 4132.30769231 , 4129.74358974 , 4130.25641026 , 4133.84615385 , 4134.87179487 , 4138.46153846 , 4192.30769231 , 4914.87179487 , 4135.38461538 , 4137.43589744 , 2043.0 , 2036.0 , 129.45 , 0.0 , 0.0 , 0.0 , 0.0 , 

78.0 , 4135.38461538 , 4131.28205128 , 4131.79487179 , 4131.28205128 , 4130.25641026 , 4126.66666667 , 4126.66666667 , 4132.82051282 , 4135.8974359 , 4138.97435897 , 4192.30769231 , 4915.8974359 , 4135.8974359 , 4142.56410256 , 2044.0 , 2036.0 , 129.456 , 0.0 , 0.0 , 0.0 , 0.0 , 

79.0 , 4133.84615385 , 4128.71794872 , 4133.84615385 , 4135.38461538 , 4130.76923077 , 4128.71794872 , 4126.66666667 , 4133.84615385 , 4139.48717949 , 4137.43589744 , 4193.84615385 , 4914.87179487 , 4137.43589744 , 4143.07692308 , 2042.0 , 2034.0 , 129.465 , 0.0 , 0.0 , 0.0 , 0.0 , 

80.0 , 4133.33333333 , 4130.76923077 , 4136.41025641 , 4135.38461538 , 4131.79487179 , 4130.76923077 , 4126.66666667 , 4133.84615385 , 4137.43589744 , 4137.43589744 , 4195.8974359 , 4915.38461538 , 4137.43589744 , 4143.58974359 , 2043.0 , 2034.0 , 129.472 , 0.0 , 0.0 , 0.0 , 0.0 , 

81.0 , 4131.28205128 , 4132.82051282 , 4136.41025641 , 4134.87179487 , 4132.30769231 , 4131.28205128 , 4126.15384615 , 4135.8974359 , 4136.41025641 , 4137.94871795 , 4193.84615385 , 4913.33333333 , 4136.41025641 , 4140.51282051 , 2043.0 , 2033.0 , 129.482 , 0.0 , 0.0 , 0.0 , 0.0 , 

82.0 , 4133.33333333 , 4129.74358974 , 4136.92307692 , 4134.87179487 , 4132.82051282 , 4128.20512821 , 4125.64102564 , 4134.35897436 , 4136.92307692 , 4136.92307692 , 4191.79487179 , 4914.35897436 , 4135.38461538 , 4142.05128205 , 2044.0 , 2034.0 , 129.488 , 0.0 , 0.0 , 0.0 , 0.0 , 

83.0 , 4134.35897436 , 4130.25641026 , 4133.84615385 , 4135.38461538 , 4132.82051282 , 4130.25641026 , 4129.74358974 , 4132.30769231 , 4136.41025641 , 4136.92307692 , 4191.28205128 , 4916.41025641 , 4135.38461538 , 4141.53846154 , 2043.0 , 2036.0 , 129.495 , 0.0 , 0.0 , 0.0 , 0.0 , 

84.0 , 4135.38461538 , 4132.82051282 , 4133.33333333 , 4134.35897436 , 4130.76923077 , 4134.87179487 , 4129.74358974 , 4134.35897436 , 4137.94871795 , 4138.46153846 , 4192.30769231 , 4915.8974359 , 4137.43589744 , 4141.53846154 , 2043.0 , 2036.0 , 129.503 , 0.0 , 0.0 , 0.0 , 0.0 , 

85.0 , 4134.87179487 , 4132.30769231 , 4136.92307692 , 4133.84615385 , 4131.28205128 , 4134.87179487 , 4126.15384615 , 4132.82051282 , 4138.46153846 , 4138.46153846 , 4191.79487179 , 4913.84615385 , 4135.38461538 , 4138.97435897 , 2043.0 , 2035.0 , 129.513 , 0.0 , 0.0 , 0.0 , 0.0 , 

86.0 , 4132.30769231 , 4131.28205128 , 4136.92307692 , 4136.41025641 , 4131.28205128 , 4129.23076923 , 4128.20512821 , 4129.74358974 , 4135.8974359 , 4138.97435897 , 4190.25641026 , 4913.84615385 , 4133.33333333 , 4138.46153846 , 2043.0 , 2036.0 , 129.519 , 0.0 , 0.0 , 0.0 , 0.0 , 

87.0 , 4133.33333333 , 4131.79487179 , 4133.84615385 , 4135.38461538 , 4130.25641026 , 4126.66666667 , 4130.25641026 , 4131.79487179 , 4132.82051282 , 4138.97435897 , 4190.25641026 , 4914.87179487 , 4135.38461538 , 4143.07692308 , 2043.0 , 2036.0 , 129.527 , 0.0 , 0.0 , 0.0 , 0.0 , 

88.0 , 4135.8974359 , 4132.30769231 , 4132.82051282 , 4134.87179487 , 4133.33333333 , 4129.23076923 , 4126.66666667 , 4134.87179487 , 4133.33333333 , 4138.97435897 , 4191.28205128 , 4912.82051282 , 4136.41025641 , 4140.51282051 , 2043.0 , 2036.0 , 129.536 , 0.0 , 0.0 , 0.0 , 0.0 , 

89.0 , 4136.92307692 , 4132.30769231 , 4135.38461538 , 4133.84615385 , 4135.8974359 , 4128.20512821 , 4125.12820513 , 4132.82051282 , 4134.87179487 , 4138.97435897 , 4191.79487179 , 4914.35897436 , 4133.84615385 , 4138.46153846 , 2043.0 , 2036.0 , 129.545 , 0.0 , 0.0 , 0.0 , 0.0 , 

90.0 , 4132.30769231 , 4131.28205128 , 4135.38461538 , 4134.87179487 , 4134.35897436 , 4127.69230769 , 4129.23076923 , 4133.33333333 , 4136.41025641 , 4141.53846154 , 4189.23076923 , 4913.84615385 , 4135.8974359 , 4139.48717949 , 2044.0 , 2036.0 , 129.551 , 0.0 , 0.0 , 0.0 , 0.0 , 

91.0 , 4130.25641026 , 4129.74358974 , 4133.84615385 , 4135.8974359 , 4132.82051282 , 4129.23076923 , 4127.69230769 , 4135.38461538 , 4135.8974359 , 4141.53846154 , 4187.69230769 , 4912.82051282 , 4136.92307692 , 4144.1025641 , 2045.0 , 2036.0 , 129.559 , 0.0 , 0.0 , 0.0 , 0.0 , 

92.0 , 4129.74358974 , 4131.28205128 , 4133.33333333 , 4137.43589744 , 4133.33333333 , 4130.76923077 , 4125.12820513 , 4137.94871795 , 4134.87179487 , 4137.94871795 , 4189.23076923 , 4910.76923077 , 4134.87179487 , 4139.48717949 , 2044.0 , 2035.0 , 129.567 , 0.0 , 0.0 , 0.0 , 0.0 , 

93.0 , 4133.33333333 , 4130.25641026 , 4137.94871795 , 4136.41025641 , 4132.30769231 , 4127.69230769 , 4124.61538462 , 4135.38461538 , 4133.33333333 , 4137.43589744 , 4192.82051282 , 4912.30769231 , 4135.38461538 , 4140.51282051 , 2044.0 , 2036.0 , 129.576 , 0.0 , 0.0 , 0.0 , 0.0 , 

94.0 , 4132.30769231 , 4128.20512821 , 4136.92307692 , 4136.41025641 , 4132.82051282 , 4129.23076923 , 4126.66666667 , 4132.30769231 , 4133.84615385 , 4139.48717949 , 4192.82051282 , 4911.79487179 , 4137.43589744 , 4138.97435897 , 2045.0 , 2036.0 , 129.582 , 0.0 , 0.0 , 0.0 , 0.0 , 

95.0 , 4133.84615385 , 4128.71794872 , 4133.33333333 , 4133.33333333 , 4133.33333333 , 4129.23076923 , 4124.1025641 , 4132.82051282 , 4134.87179487 , 4137.94871795 , 4191.28205128 , 4916.92307692 , 4135.8974359 , 4143.07692308 , 2043.0 , 2036.0 , 129.591 , 0.0 , 0.0 , 0.0 , 0.0 , 

96.0 , 4132.82051282 , 4131.79487179 , 4133.33333333 , 4133.84615385 , 4133.84615385 , 4127.69230769 , 4125.12820513 , 4134.35897436 , 4135.38461538 , 4135.38461538 , 4192.82051282 , 4916.92307692 , 4136.41025641 , 4141.53846154 , 2044.0 , 2036.0 , 129.599 , 0.0 , 0.0 , 0.0 , 0.0 , 

97.0 , 4132.82051282 , 4131.28205128 , 4137.94871795 , 4134.87179487 , 4133.33333333 , 4124.1025641 , 4126.66666667 , 4131.28205128 , 4135.38461538 , 4135.8974359 , 4194.35897436 , 4914.87179487 , 4135.38461538 , 4142.56410256 , 2043.0 , 2036.0 , 129.608 , 0.0 , 0.0 , 0.0 , 0.0 , 

98.0 , 4132.30769231 , 4129.23076923 , 4137.43589744 , 4133.84615385 , 4132.82051282 , 4128.20512821 , 4127.17948718 , 4132.30769231 , 4136.92307692 , 4137.43589744 , 4192.30769231 , 4912.30769231 , 4132.82051282 , 4139.48717949 , 2043.0 , 2037.0 , 129.613 , 0.0 , 0.0 , 0.0 , 0.0 , 

99.0 , 4134.35897436 , 4128.71794872 , 4134.35897436 , 4131.28205128 , 4131.28205128 , 4131.79487179 , 4124.61538462 , 4134.35897436 , 4135.8974359 , 4137.43589744 , 4191.79487179 , 4915.8974359 , 4134.35897436 , 4143.58974359 , 2043.0 , 2037.0 , 129.622 , 0.0 , 0.0 , 0.0 , 0.0 , 

100.0 , 4133.84615385 , 4132.82051282 , 4131.28205128 , 4135.8974359 , 4131.79487179 , 4130.25641026 , 4125.12820513 , 4134.35897436 , 4133.84615385 , 4136.92307692 , 4192.30769231 , 4913.84615385 , 4135.38461538 , 4140.51282051 , 2042.0 , 2035.0 , 129.63 , 0.0 , 0.0 , 0.0 , 0.0 , 

101.0 , 4136.41025641 , 4133.84615385 , 4133.84615385 , 4137.94871795 , 4132.82051282 , 4125.64102564 , 4125.12820513 , 4132.82051282 , 4133.84615385 , 4136.92307692 , 4190.76923077 , 4908.71794872 , 4134.87179487 , 4136.92307692 , 2043.0 , 2036.0 , 129.639 , 0.0 , 0.0 , 0.0 , 0.0 , 

102.0 , 4133.84615385 , 4131.28205128 , 4135.8974359 , 4133.33333333 , 4133.33333333 , 4126.66666667 , 4124.1025641 , 4131.28205128 , 4134.87179487 , 4138.97435897 , 4190.76923077 , 4909.23076923 , 4134.35897436 , 4137.43589744 , 2043.0 , 2037.0 , 129.645 , 0.0 , 0.0 , 0.0 , 0.0 , 

103.0 , 4129.23076923 , 4130.76923077 , 4132.82051282 , 4132.30769231 , 4132.30769231 , 4130.25641026 , 4126.15384615 , 4131.79487179 , 4135.8974359 , 4138.97435897 , 4192.30769231 , 4913.33333333 , 4135.38461538 , 4140.51282051 , 2043.0 , 2036.0 , 129.654 , 0.0 , 0.0 , 0.0 , 0.0 , 

104.0 , 4132.30769231 , 4130.76923077 , 4132.30769231 , 4135.38461538 , 4131.79487179 , 4130.25641026 , 4127.69230769 , 4133.33333333 , 4136.92307692 , 4137.43589744 , 4192.30769231 , 4912.82051282 , 4134.87179487 , 4139.48717949 , 2043.0 , 2036.0 , 129.662 , 0.0 , 0.0 , 0.0 , 0.0 , 

105.0 , 4134.87179487 , 4131.79487179 , 4136.41025641 , 4134.87179487 , 4133.33333333 , 4129.74358974 , 4126.66666667 , 4133.84615385 , 4137.43589744 , 4139.48717949 , 4192.82051282 , 4914.35897436 , 4133.84615385 , 4139.48717949 , 2043.0 , 2036.0 , 129.671 , 0.0 , 0.0 , 0.0 , 0.0 , 

106.0 , 4133.84615385 , 4132.82051282 , 4140.0 , 4129.74358974 , 4133.33333333 , 4130.76923077 , 4127.69230769 , 4132.30769231 , 4137.43589744 , 4138.97435897 , 4194.87179487 , 4918.46153846 , 4133.33333333 , 4142.56410256 , 2042.0 , 2036.0 , 129.677 , 0.0 , 0.0 , 0.0 , 0.0 , 

107.0 , 4132.82051282 , 4132.30769231 , 4137.94871795 , 4131.28205128 , 4130.76923077 , 4132.30769231 , 4128.20512821 , 4132.82051282 , 4137.43589744 , 4136.41025641 , 4193.33333333 , 4915.8974359 , 4137.43589744 , 4140.0 , 2042.0 , 2036.0 , 129.685 , 0.0 , 0.0 , 0.0 , 0.0 , 

108.0 , 4135.8974359 , 4131.79487179 , 4135.8974359 , 4134.87179487 , 4130.25641026 , 4131.79487179 , 4126.15384615 , 4133.33333333 , 4134.87179487 , 4137.43589744 , 4191.79487179 , 4916.41025641 , 4138.46153846 , 4143.07692308 , 2042.0 , 2036.0 , 129.692 , 0.0 , 0.0 , 0.0 , 0.0 , 

109.0 , 4133.84615385 , 4132.30769231 , 4135.8974359 , 4136.41025641 , 4132.82051282 , 4131.28205128 , 4127.17948718 , 4134.87179487 , 4133.84615385 , 4140.0 , 4191.79487179 , 4915.8974359 , 4135.8974359 , 4139.48717949 , 2041.0 , 2036.0 , 129.702 , 0.0 , 0.0 , 0.0 , 0.0 , 

110.0 , 4132.82051282 , 4128.71794872 , 4137.43589744 , 4136.41025641 , 4132.30769231 , 4128.20512821 , 4125.64102564 , 4133.33333333 , 4134.35897436 , 4141.02564103 , 4193.33333333 , 4914.35897436 , 4134.87179487 , 4136.92307692 , 2042.0 , 2036.0 , 129.708 , 0.0 , 0.0 , 0.0 , 0.0 , 

111.0 , 4129.74358974 , 4128.20512821 , 4135.38461538 , 4137.43589744 , 4132.30769231 , 4127.69230769 , 4126.66666667 , 4131.79487179 , 4136.92307692 , 4138.46153846 , 4192.30769231 , 4912.82051282 , 4133.33333333 , 4133.84615385 , 2044.0 , 2036.0 , 129.717 , 0.0 , 0.0 , 0.0 , 0.0 , 

112.0 , 4130.76923077 , 4130.25641026 , 4134.35897436 , 4134.87179487 , 4132.82051282 , 4127.69230769 , 4127.17948718 , 4130.25641026 , 4136.41025641 , 4136.92307692 , 4191.28205128 , 4915.8974359 , 4131.79487179 , 4140.0 , 2044.0 , 2036.0 , 129.724 , 0.0 , 0.0 , 0.0 , 0.0 , 

113.0 , 4132.30769231 , 4130.76923077 , 4133.84615385 , 4135.8974359 , 4132.30769231 , 4126.15384615 , 4126.15384615 , 4132.30769231 , 4136.41025641 , 4138.97435897 , 4192.30769231 , 4915.38461538 , 4135.38461538 , 4137.43589744 , 2044.0 , 2036.0 , 129.734 , 0.0 , 0.0 , 0.0 , 0.0 , 

114.0 , 4136.41025641 , 4129.23076923 , 4135.38461538 , 4136.41025641 , 4132.30769231 , 4124.61538462 , 4124.1025641 , 4133.84615385 , 4137.43589744 , 4137.94871795 , 4191.79487179 , 4914.87179487 , 4137.43589744 , 4139.48717949 , 2044.0 , 2035.0 , 129.74 , 0.0 , 0.0 , 0.0 , 0.0 , 

115.0 , 4134.35897436 , 4129.23076923 , 4137.94871795 , 4136.41025641 , 4133.33333333 , 4128.71794872 , 4128.20512821 , 4134.87179487 , 4138.46153846 , 4135.8974359 , 4189.74358974 , 4910.25641026 , 4136.92307692 , 4138.46153846 , 2044.0 , 2035.0 , 129.747 , 0.0 , 0.0 , 0.0 , 0.0 , 

116.0 , 4133.33333333 , 4129.74358974 , 4137.94871795 , 4133.33333333 , 4131.28205128 , 4128.20512821 , 4125.64102564 , 4132.30769231 , 4135.38461538 , 4137.43589744 , 4194.35897436 , 4912.82051282 , 4136.92307692 , 4141.02564103 , 2044.0 , 2035.0 , 129.755 , 0.0 , 0.0 , 0.0 , 0.0 , 

117.0 , 4132.82051282 , 4131.28205128 , 4133.33333333 , 4134.87179487 , 4130.25641026 , 4127.69230769 , 4124.61538462 , 4132.30769231 , 4135.8974359 , 4140.51282051 , 4196.92307692 , 4914.87179487 , 4135.38461538 , 4138.46153846 , 2044.0 , 2036.0 , 129.765 , 0.0 , 0.0 , 0.0 , 0.0 , 

118.0 , 4134.87179487 , 4129.74358974 , 4133.84615385 , 4136.41025641 , 4131.28205128 , 4128.71794872 , 4127.69230769 , 4134.87179487 , 4137.43589744 , 4138.97435897 , 4192.82051282 , 4912.82051282 , 4135.8974359 , 4141.02564103 , 2043.0 , 2036.0 , 129.771 , 0.0 , 0.0 , 0.0 , 0.0 , 

119.0 , 4132.82051282 , 4131.28205128 , 4135.38461538 , 4135.8974359 , 4132.30769231 , 4130.76923077 , 4127.69230769 , 4133.33333333 , 4136.41025641 , 4137.94871795 , 4190.76923077 , 4911.28205128 , 4136.41025641 , 4141.02564103 , 2042.0 , 2037.0 , 129.779 , 0.0 , 0.0 , 0.0 , 0.0 , 

120.0 , 4132.30769231 , 4132.82051282 , 4133.84615385 , 4135.8974359 , 4130.76923077 , 4130.76923077 , 4125.12820513 , 4130.25641026 , 4134.35897436 , 4138.97435897 , 4193.33333333 , 4914.87179487 , 4133.33333333 , 4143.07692308 , 2041.0 , 2036.0 , 129.787 , 0.0 , 0.0 , 0.0 , 0.0 , 

121.0 , 4133.33333333 , 4129.23076923 , 4132.82051282 , 4137.94871795 , 4129.74358974 , 4130.76923077 , 4126.66666667 , 4131.28205128 , 4136.41025641 , 4138.97435897 , 4193.84615385 , 4914.35897436 , 4131.79487179 , 4143.58974359 , 2043.0 , 2035.0 , 129.797 , 0.0 , 0.0 , 0.0 , 0.0 , 

122.0 , 4133.84615385 , 4127.17948718 , 4133.84615385 , 4137.43589744 , 4131.28205128 , 4130.76923077 , 4125.64102564 , 4132.82051282 , 4138.97435897 , 4137.43589744 , 4192.82051282 , 4913.84615385 , 4135.8974359 , 4142.05128205 , 2042.0 , 2036.0 , 129.802 , 0.0 , 0.0 , 0.0 , 0.0 , 

123.0 , 4133.33333333 , 4131.79487179 , 4133.84615385 , 4135.8974359 , 4134.87179487 , 4131.28205128 , 4122.56410256 , 4132.82051282 , 4134.87179487 , 4136.41025641 , 4192.82051282 , 4911.79487179 , 4137.43589744 , 4139.48717949 , 2042.0 , 2037.0 , 129.811 , 0.0 , 0.0 , 0.0 , 0.0 , 

124.0 , 4133.33333333 , 4133.84615385 , 4133.84615385 , 4136.41025641 , 4133.84615385 , 4131.28205128 , 4123.58974359 , 4133.84615385 , 4132.30769231 , 4137.94871795 , 4193.33333333 , 4907.69230769 , 4136.92307692 , 4137.94871795 , 2042.0 , 2036.0 , 129.819 , 0.0 , 0.0 , 0.0 , 0.0 , 

125.0 , 4134.87179487 , 4131.28205128 , 4134.87179487 , 4135.38461538 , 4130.25641026 , 4128.71794872 , 4124.1025641 , 4131.79487179 , 4133.84615385 , 4138.97435897 , 4193.84615385 , 4910.25641026 , 4134.87179487 , 4140.51282051 , 2041.0 , 2036.0 , 129.828 , 0.0 , 0.0 , 0.0 , 0.0 , 

126.0 , 4135.8974359 , 4134.87179487 , 4134.87179487 , 4135.38461538 , 4132.30769231 , 4128.20512821 , 4125.12820513 , 4130.25641026 , 4137.94871795 , 4137.94871795 , 4192.82051282 , 4913.84615385 , 4132.82051282 , 4139.48717949 , 2041.0 , 2037.0 , 129.834 , 0.0 , 0.0 , 0.0 , 0.0 , 

127.0 , 4137.94871795 , 4137.43589744 , 4136.92307692 , 4134.87179487 , 4135.38461538 , 4127.17948718 , 4126.15384615 , 4132.82051282 , 4138.97435897 , 4138.46153846 , 4191.79487179 , 4913.33333333 , 4133.84615385 , 4139.48717949 , 2042.0 , 2038.0 , 129.843 , 0.0 , 0.0 , 0.0 , 0.0 , 

128.0 , 4133.84615385 , 4133.33333333 , 4136.92307692 , 4135.38461538 , 4133.33333333 , 4127.69230769 , 4127.17948718 , 4133.84615385 , 4140.0 , 4138.46153846 , 4192.82051282 , 4910.76923077 , 4137.94871795 , 4137.94871795 , 2042.0 , 2037.0 , 129.851 , 0.0 , 0.0 , 0.0 , 0.0 , 

0.0 , 4133.33333333 , 4127.69230769 , 4136.92307692 , 4135.8974359 , 4131.28205128 , 4127.17948718 , 4126.15384615 , 4132.30769231 , 4138.97435897 , 4136.41025641 , 4193.33333333 , 4913.84615385 , 4135.8974359 , 4142.05128205 , 2043.0 , 2036.0 , 129.86 , 0.0 , 0.0 , 0.0 , 0.0 , 

1.0 , 4132.30769231 , 4130.25641026 , 4136.41025641 , 4138.46153846 , 4132.82051282 , 4128.71794872 , 4127.69230769 , 4136.92307692 , 4138.46153846 , 4136.92307692 , 4192.30769231 , 4912.82051282 , 4132.82051282 , 4137.94871795 , 2042.0 , 2037.0 , 129.866 , 0.0 , 0.0 , 0.0 , 0.0 , 

2.0 , 4134.35897436 , 4130.76923077 , 4135.8974359 , 4136.41025641 , 4132.30769231 , 4131.28205128 , 4127.69230769 , 4136.92307692 , 4135.38461538 , 4137.94871795 , 4191.28205128 , 4912.82051282 , 4133.84615385 , 4140.51282051 , 2043.0 , 2035.0 , 129.875 , 0.0 , 0.0 , 0.0 , 0.0 , 

3.0 , 4133.33333333 , 4129.23076923 , 4133.84615385 , 4135.38461538 , 4131.79487179 , 4133.33333333 , 4128.71794872 , 4136.92307692 , 4131.79487179 , 4137.94871795 , 4193.33333333 , 4913.84615385 , 4136.41025641 , 4141.53846154 , 2045.0 , 2036.0 , 129.882 , 0.0 , 0.0 , 0.0 , 0.0 , 

4.0 , 4132.82051282 , 4132.30769231 , 4136.41025641 , 4134.87179487 , 4129.74358974 , 4130.25641026 , 4126.66666667 , 4135.8974359 , 4131.79487179 , 4137.94871795 , 4195.38461538 , 4916.41025641 , 4135.38461538 , 4146.15384615 , 2044.0 , 2036.0 , 129.891 , 0.0 , 0.0 , 0.0 , 0.0 , 

5.0 , 4131.79487179 , 4134.87179487 , 4136.92307692 , 4136.41025641 , 4130.76923077 , 4131.79487179 , 4125.64102564 , 4134.87179487 , 4135.8974359 , 4138.97435897 , 4192.30769231 , 4911.28205128 , 4132.82051282 , 4140.0 , 2043.0 , 2035.0 , 129.896 , 0.0 , 0.0 , 0.0 , 0.0 , 

6.0 , 4132.30769231 , 4131.28205128 , 4135.38461538 , 4135.8974359 , 4132.30769231 , 4131.28205128 , 4124.1025641 , 4131.28205128 , 4135.38461538 , 4138.46153846 , 4192.82051282 , 4912.30769231 , 4134.87179487 , 4139.48717949 , 2044.0 , 2036.0 , 129.906 , 0.0 , 0.0 , 0.0 , 0.0 , 

7.0 , 4129.74358974 , 4130.76923077 , 4132.82051282 , 4135.8974359 , 4132.30769231 , 4128.71794872 , 4124.61538462 , 4132.30769231 , 4134.87179487 , 4139.48717949 , 4194.87179487 , 4914.87179487 , 4135.8974359 , 4139.48717949 , 2045.0 , 2035.0 , 129.913 , 0.0 , 0.0 , 0.0 , 0.0 , 

8.0 , 4132.30769231 , 4131.28205128 , 4132.30769231 , 4134.87179487 , 4130.76923077 , 4127.69230769 , 4123.07692308 , 4132.30769231 , 4135.8974359 , 4139.48717949 , 4192.30769231 , 4912.82051282 , 4132.82051282 , 4140.0 , 2044.0 , 2036.0 , 129.923 , 0.0 , 0.0 , 0.0 , 0.0 , 

9.0 , 4135.38461538 , 4129.74358974 , 4132.82051282 , 4135.8974359 , 4131.79487179 , 4129.23076923 , 4123.07692308 , 4131.79487179 , 4133.84615385 , 4137.43589744 , 4188.71794872 , 4909.74358974 , 4131.28205128 , 4137.94871795 , 2045.0 , 2037.0 , 129.929 , 0.0 , 0.0 , 0.0 , 0.0 , 

10.0 , 4135.38461538 , 4131.28205128 , 4135.8974359 , 4137.43589744 , 4133.33333333 , 4128.71794872 , 4125.64102564 , 4133.33333333 , 4132.82051282 , 4137.94871795 , 4193.33333333 , 4914.35897436 , 4132.82051282 , 4138.97435897 , 2046.0 , 2037.0 , 129.938 , 0.0 , 0.0 , 0.0 , 0.0 , 

11.0 , 4133.33333333 , 4133.84615385 , 4136.92307692 , 4136.92307692 , 4133.84615385 , 4127.69230769 , 4127.69230769 , 4131.79487179 , 4135.38461538 , 4138.46153846 , 4194.87179487 , 4917.43589744 , 4131.79487179 , 4140.51282051 , 2046.0 , 2037.0 , 129.944 , 0.0 , 0.0 , 0.0 , 0.0 , 

12.0 , 4132.82051282 , 4130.76923077 , 4134.87179487 , 4133.84615385 , 4132.82051282 , 4126.66666667 , 4127.69230769 , 4131.28205128 , 4135.38461538 , 4137.43589744 , 4190.25641026 , 4913.84615385 , 4134.87179487 , 4141.02564103 , 2046.0 , 2036.0 , 129.954 , 0.0 , 0.0 , 0.0 , 0.0 , 

13.0 , 4134.35897436 , 4127.69230769 , 4134.35897436 , 4132.82051282 , 4132.30769231 , 4127.17948718 , 4128.20512821 , 4133.84615385 , 4133.84615385 , 4138.46153846 , 4190.25641026 , 4911.28205128 , 4137.94871795 , 4143.07692308 , 2046.0 , 2035.0 , 129.959 , 0.0 , 0.0 , 0.0 , 0.0 , 

14.0 , 4134.87179487 , 4130.76923077 , 4135.38461538 , 4135.8974359 , 4133.33333333 , 4131.28205128 , 4127.17948718 , 4135.38461538 , 4136.41025641 , 4138.46153846 , 4193.84615385 , 4914.87179487 , 4133.33333333 , 4142.05128205 , 2046.0 , 2034.0 , 129.968 , 0.0 , 0.0 , 0.0 , 0.0 , 

15.0 , 4132.82051282 , 4130.76923077 , 4136.41025641 , 4136.41025641 , 4132.30769231 , 4128.20512821 , 4123.07692308 , 4133.33333333 , 4137.43589744 , 4136.41025641 , 4193.33333333 , 4919.48717949 , 4130.76923077 , 4143.07692308 , 2045.0 , 2033.0 , 129.976 , 0.0 , 0.0 , 0.0 , 0.0 , 

16.0 , 4129.23076923 , 4126.66666667 , 4136.92307692 , 4135.8974359 , 4133.33333333 , 4124.61538462 , 4124.1025641 , 4133.84615385 , 4134.35897436 , 4136.92307692 , 4191.28205128 , 4916.41025641 , 4136.92307692 , 4141.02564103 , 2044.0 , 2034.0 , 129.985 , 0.0 , 0.0 , 0.0 , 0.0 , 

17.0 , 4133.84615385 , 4126.66666667 , 4135.8974359 , 4134.35897436 , 4134.35897436 , 4127.69230769 , 4124.61538462 , 4134.87179487 , 4132.82051282 , 4138.46153846 , 4193.33333333 , 4915.38461538 , 4136.92307692 , 4142.05128205 , 2042.0 , 2035.0 , 129.992 , 0.0 , 0.0 , 0.0 , 0.0 , 

18.0 , 4131.79487179 , 4132.82051282 , 4132.30769231 , 4135.8974359 , 4132.82051282 , 4131.28205128 , 4124.1025641 , 4134.35897436 , 4134.87179487 , 4137.43589744 , 4193.33333333 , 4914.87179487 , 4134.35897436 , 4137.43589744 , 2043.0 , 2036.0 , 130.0 , 0.0 , 0.0 , 0.0 , 0.0 , 

19.0 , 4128.71794872 , 4131.28205128 , 4133.84615385 , 4138.46153846 , 4132.82051282 , 4128.71794872 , 4126.15384615 , 4131.79487179 , 4134.87179487 , 4137.43589744 , 4190.76923077 , 4913.84615385 , 4135.38461538 , 4137.43589744 , 2042.0 , 2036.0 , 130.008 , 0.0 , 0.0 , 0.0 , 0.0 , 

20.0 , 4128.71794872 , 4127.69230769 , 4135.8974359 , 4138.97435897 , 4134.87179487 , 4130.25641026 , 4129.74358974 , 4131.28205128 , 4134.87179487 , 4138.46153846 , 4190.25641026 , 4911.28205128 , 4136.92307692 , 4138.46153846 , 2043.0 , 2036.0 , 130.017 , 0.0 , 0.0 , 0.0 , 0.0 , 

21.0 , 4134.35897436 , 4128.71794872 , 4135.8974359 , 4133.33333333 , 4132.30769231 , 4130.76923077 , 4125.64102564 , 4131.28205128 , 4134.35897436 , 4136.92307692 , 4192.82051282 , 4915.8974359 , 4134.87179487 , 4145.64102564 , 2043.0 , 2036.0 , 130.023 , 0.0 , 0.0 , 0.0 , 0.0 , 

22.0 , 4134.87179487 , 4131.79487179 , 4134.87179487 , 4131.79487179 , 4131.28205128 , 4130.76923077 , 4126.15384615 , 4134.35897436 , 4136.41025641 , 4137.94871795 , 4193.84615385 , 4913.84615385 , 4135.38461538 , 4140.0 , 2041.0 , 2034.0 , 130.031 , 0.0 , 0.0 , 0.0 , 0.0 , 

23.0 , 4137.94871795 , 4130.76923077 , 4135.8974359 , 4135.38461538 , 4131.79487179 , 4128.71794872 , 4127.17948718 , 4132.82051282 , 4135.8974359 , 4140.0 , 4192.30769231 , 4911.28205128 , 4138.46153846 , 4137.43589744 , 2042.0 , 2035.0 , 130.04 , 0.0 , 0.0 , 0.0 , 0.0 , 

24.0 , 4135.8974359 , 4133.33333333 , 4133.33333333 , 4137.43589744 , 4133.33333333 , 4128.71794872 , 4124.61538462 , 4131.28205128 , 4132.82051282 , 4139.48717949 , 4190.76923077 , 4911.28205128 , 4135.8974359 , 4136.92307692 , 2041.0 , 2036.0 , 130.05 , 0.0 , 0.0 , 0.0 , 0.0 , 

25.0 , 4134.35897436 , 4134.87179487 , 4134.87179487 , 4134.35897436 , 4132.82051282 , 4128.20512821 , 4123.07692308 , 4131.79487179 , 4131.79487179 , 4138.46153846 , 4191.79487179 , 4914.87179487 , 4132.30769231 , 4143.07692308 , 2040.0 , 2036.0 , 130.056 , 0.0 , 0.0 , 0.0 , 0.0 , 

26.0 , 4133.33333333 , 4132.82051282 , 4136.41025641 , 4133.84615385 , 4131.28205128 , 4131.28205128 , 4128.71794872 , 4133.33333333 , 4134.87179487 , 4138.97435897 , 4193.33333333 , 4914.35897436 , 4134.35897436 , 4141.02564103 , 2042.0 , 2034.0 , 130.063 , 0.0 , 0.0 , 0.0 , 0.0 , 

27.0 , 4132.30769231 , 4128.71794872 , 4135.38461538 , 4135.8974359 , 4128.20512821 , 4129.74358974 , 4127.69230769 , 4132.30769231 , 4136.41025641 , 4138.46153846 , 4193.33333333 , 4913.33333333 , 4136.41025641 , 4141.53846154 , 2042.0 , 2035.0 , 130.072 , 0.0 , 0.0 , 0.0 , 0.0 , 

28.0 , 4130.76923077 , 4129.23076923 , 4135.8974359 , 4138.46153846 , 4129.74358974 , 4126.66666667 , 4124.61538462 , 4132.30769231 , 4135.38461538 , 4137.94871795 , 4192.82051282 , 4912.30769231 , 4134.87179487 , 4143.58974359 , 2041.0 , 2034.0 , 130.081 , 0.0 , 0.0 , 0.0 , 0.0 , 

29.0 , 4132.30769231 , 4132.82051282 , 4137.94871795 , 4135.8974359 , 4134.87179487 , 4128.71794872 , 4126.66666667 , 4132.30769231 , 4134.87179487 , 4140.51282051 , 4191.79487179 , 4913.84615385 , 4135.8974359 , 4146.66666667 , 2043.0 , 2036.0 , 130.087 , 0.0 , 0.0 , 0.0 , 0.0 , 

30.0 , 4133.33333333 , 4131.28205128 , 4137.43589744 , 4131.79487179 , 4135.38461538 , 4131.28205128 , 4128.20512821 , 4134.35897436 , 4134.87179487 , 4140.51282051 , 4191.79487179 , 4913.33333333 , 4135.8974359 , 4143.58974359 , 2042.0 , 2033.0 , 130.094 , 0.0 , 0.0 , 0.0 , 0.0 , 

31.0 , 4131.79487179 , 4127.17948718 , 4136.92307692 , 4133.33333333 , 4130.25641026 , 4129.74358974 , 4126.15384615 , 4134.35897436 , 4135.8974359 , 4138.46153846 , 4192.82051282 , 4909.23076923 , 4135.38461538 , 4137.43589744 , 2043.0 , 2034.0 , 130.102 , 0.0 , 0.0 , 0.0 , 0.0 , 

32.0 , 4132.82051282 , 4127.69230769 , 4137.94871795 , 4136.41025641 , 4128.71794872 , 4127.17948718 , 4122.56410256 , 4131.79487179 , 4137.43589744 , 4138.46153846 , 4192.30769231 , 4909.74358974 , 4134.87179487 , 4137.43589744 , 2043.0 , 2035.0 , 130.112 , 0.0 , 0.0 , 0.0 , 0.0 , 

33.0 , 4132.82051282 , 4130.25641026 , 4137.43589744 , 4136.41025641 , 4131.28205128 , 4127.69230769 , 4123.58974359 , 4132.82051282 , 4136.41025641 , 4138.97435897 , 4191.79487179 , 4911.79487179 , 4132.82051282 , 4137.94871795 , 2043.0 , 2034.0 , 130.118 , 0.0 , 0.0 , 0.0 , 0.0 , 

34.0 , 4133.84615385 , 4129.23076923 , 4136.41025641 , 4133.33333333 , 4130.25641026 , 4126.15384615 , 4124.1025641 , 4132.82051282 , 4135.38461538 , 4137.94871795 , 4192.30769231 , 4911.28205128 , 4132.30769231 , 4142.05128205 , 2044.0 , 2035.0 , 130.127 , 0.0 , 0.0 , 0.0 , 0.0 , 

35.0 , 4131.28205128 , 4127.69230769 , 4135.38461538 , 4134.87179487 , 4129.74358974 , 4127.69230769 , 4123.58974359 , 4131.79487179 , 4137.94871795 , 4137.94871795 , 4192.30769231 , 4908.71794872 , 4136.41025641 , 4139.48717949 , 2045.0 , 2034.0 , 130.135 , 0.0 , 0.0 , 0.0 , 0.0 , 

36.0 , 4131.79487179 , 4128.20512821 , 4139.48717949 , 4137.43589744 , 4133.84615385 , 4128.71794872 , 4122.56410256 , 4132.82051282 , 4136.41025641 , 4139.48717949 , 4192.30769231 , 4912.30769231 , 4135.38461538 , 4140.0 , 2045.0 , 2035.0 , 130.144 , 0.0 , 0.0 , 0.0 , 0.0 , 

37.0 , 4132.82051282 , 4129.74358974 , 4141.02564103 , 4137.43589744 , 4134.87179487 , 4128.71794872 , 4124.1025641 , 4135.38461538 , 4134.35897436 , 4139.48717949 , 4193.33333333 , 4911.28205128 , 4136.41025641 , 4137.94871795 , 2046.0 , 2035.0 , 130.15 , 0.0 , 0.0 , 0.0 , 0.0 , 

38.0 , 4135.8974359 , 4129.74358974 , 4136.92307692 , 4131.28205128 , 4131.28205128 , 4126.15384615 , 4125.12820513 , 4131.79487179 , 4136.41025641 , 4138.46153846 , 4192.30769231 , 4910.76923077 , 4138.97435897 , 4142.56410256 , 2046.0 , 2035.0 , 130.157 , 0.0 , 0.0 , 0.0 , 0.0 , 

39.0 , 4132.30769231 , 4130.25641026 , 4134.35897436 , 4133.33333333 , 4131.79487179 , 4128.71794872 , 4128.20512821 , 4131.79487179 , 4137.94871795 , 4138.46153846 , 4191.28205128 , 4910.76923077 , 4136.41025641 , 4141.02564103 , 2046.0 , 2036.0 , 130.166 , 0.0 , 0.0 , 0.0 , 0.0 , 

40.0 , 4131.79487179 , 4128.20512821 , 4138.46153846 , 4136.92307692 , 4132.82051282 , 4130.25641026 , 4126.66666667 , 4133.33333333 , 4131.79487179 , 4138.97435897 , 4194.87179487 , 4915.38461538 , 4135.38461538 , 4143.58974359 , 2044.0 , 2035.0 , 130.176 , 0.0 , 0.0 , 0.0 , 0.0 , 

41.0 , 4131.79487179 , 4129.23076923 , 4138.46153846 , 4136.41025641 , 4132.30769231 , 4130.25641026 , 4126.15384615 , 4133.84615385 , 4130.76923077 , 4138.46153846 , 4194.35897436 , 4912.82051282 , 4137.43589744 , 4140.51282051 , 2043.0 , 2035.0 , 130.182 , 0.0 , 0.0 , 0.0 , 0.0 , 

42.0 , 4133.84615385 , 4132.82051282 , 4138.97435897 , 4137.94871795 , 4131.79487179 , 4129.74358974 , 4126.66666667 , 4132.82051282 , 4133.84615385 , 4136.92307692 , 4190.76923077 , 4913.84615385 , 4136.41025641 , 4144.1025641 , 2043.0 , 2038.0 , 130.19 , 0.0 , 0.0 , 0.0 , 0.0 , 

43.0 , 4130.76923077 , 4132.82051282 , 4138.46153846 , 4141.53846154 , 4131.79487179 , 4132.30769231 , 4127.17948718 , 4133.33333333 , 4133.84615385 , 4136.41025641 , 4190.76923077 , 4914.87179487 , 4135.8974359 , 4144.61538462 , 2042.0 , 2038.0 , 130.198 , 0.0 , 0.0 , 0.0 , 0.0 , 

44.0 , 4131.79487179 , 4126.15384615 , 4135.38461538 , 4137.43589744 , 4129.74358974 , 4129.23076923 , 4124.61538462 , 4133.33333333 , 4132.82051282 , 4137.43589744 , 4193.33333333 , 4914.87179487 , 4138.97435897 , 4143.58974359 , 2041.0 , 2038.0 , 130.207 , 0.0 , 0.0 , 0.0 , 0.0 , 

45.0 , 4132.30769231 , 4124.61538462 , 4135.8974359 , 4135.8974359 , 4131.28205128 , 4127.69230769 , 4125.64102564 , 4133.84615385 , 4134.35897436 , 4138.46153846 , 4192.82051282 , 4910.25641026 , 4137.43589744 , 4133.33333333 , 2040.0 , 2038.0 , 130.213 , 0.0 , 0.0 , 0.0 , 0.0 , 

46.0 , 4132.82051282 , 4128.20512821 , 4136.92307692 , 4137.94871795 , 4131.28205128 , 4129.23076923 , 4125.64102564 , 4133.84615385 , 4135.38461538 , 4139.48717949 , 4191.28205128 , 4910.76923077 , 4134.87179487 , 4133.84615385 , 2041.0 , 2037.0 , 130.22 , 0.0 , 0.0 , 0.0 , 0.0 , 

47.0 , 4130.25641026 , 4130.76923077 , 4133.84615385 , 4138.46153846 , 4128.20512821 , 4129.23076923 , 4124.1025641 , 4133.84615385 , 4136.41025641 , 4138.97435897 , 4190.76923077 , 4911.28205128 , 4135.8974359 , 4140.51282051 , 2040.0 , 2038.0 , 130.229 , 0.0 , 0.0 , 0.0 , 0.0 , 

48.0 , 4132.30769231 , 4132.30769231 , 4134.35897436 , 4136.92307692 , 4130.25641026 , 4127.17948718 , 4125.12820513 , 4135.8974359 , 4136.92307692 , 4139.48717949 , 4192.82051282 , 4910.76923077 , 4136.92307692 , 4140.51282051 , 2042.0 , 2036.0 , 130.238 , 0.0 , 0.0 , 0.0 , 0.0 , 

49.0 , 4136.41025641 , 4130.76923077 , 4138.46153846 , 4136.92307692 , 4133.84615385 , 4128.71794872 , 4128.20512821 , 4134.87179487 , 4134.87179487 , 4141.53846154 , 4192.82051282 , 4911.28205128 , 4135.8974359 , 4136.92307692 , 2042.0 , 2037.0 , 130.244 , 0.0 , 0.0 , 0.0 , 0.0 , 

50.0 , 4135.8974359 , 4129.74358974 , 4136.92307692 , 4136.92307692 , 4131.28205128 , 4128.71794872 , 4126.66666667 , 4131.79487179 , 4133.84615385 , 4140.51282051 , 4191.28205128 , 4911.28205128 , 4134.87179487 , 4138.97435897 , 2041.0 , 2037.0 , 130.252 , 0.0 , 0.0 , 0.0 , 0.0 , 

51.0 , 4134.87179487 , 4131.79487179 , 4135.38461538 , 4135.38461538 , 4130.76923077 , 4127.69230769 , 4126.15384615 , 4132.82051282 , 4134.35897436 , 4136.92307692 , 4191.28205128 , 4912.30769231 , 4133.33333333 , 4144.1025641 , 2042.0 , 2038.0 , 130.26 , 0.0 , 0.0 , 0.0 , 0.0 , 

52.0 , 4133.84615385 , 4133.33333333 , 4136.92307692 , 4134.87179487 , 4133.33333333 , 4130.25641026 , 4127.17948718 , 4136.41025641 , 4135.8974359 , 4138.97435897 , 4192.30769231 , 4914.87179487 , 4135.38461538 , 4140.0 , 2041.0 , 2038.0 , 130.269 , 0.0 , 0.0 , 0.0 , 0.0 , 

53.0 , 4135.8974359 , 4131.28205128 , 4137.94871795 , 4135.8974359 , 4130.25641026 , 4129.23076923 , 4124.61538462 , 4133.84615385 , 4134.87179487 , 4140.0 , 4192.82051282 , 4916.41025641 , 4135.8974359 , 4138.97435897 , 2041.0 , 2037.0 , 130.275 , 0.0 , 0.0 , 0.0 , 0.0 , 

54.0 , 4135.38461538 , 4130.76923077 , 4133.84615385 , 4137.43589744 , 4130.25641026 , 4130.76923077 , 4124.61538462 , 4132.30769231 , 4135.38461538 , 4138.46153846 , 4191.79487179 , 4912.30769231 , 4136.41025641 , 4136.92307692 , 2041.0 , 2037.0 , 130.284 , 0.0 , 0.0 , 0.0 , 0.0 , 

55.0 , 4133.84615385 , 4130.25641026 , 4131.79487179 , 4134.35897436 , 4134.87179487 , 4132.30769231 , 4126.66666667 , 4133.33333333 , 4133.84615385 , 4140.51282051 , 4191.79487179 , 4912.82051282 , 4135.38461538 , 4141.53846154 , 2042.0 , 2037.0 , 130.292 , 0.0 , 0.0 , 0.0 , 0.0 , 

56.0 , 4129.23076923 , 4131.28205128 , 4131.79487179 , 4136.41025641 , 4134.87179487 , 4130.76923077 , 4126.66666667 , 4134.35897436 , 4133.84615385 , 4141.53846154 , 4190.25641026 , 4913.84615385 , 4135.38461538 , 4139.48717949 , 2044.0 , 2036.0 , 130.302 , 0.0 , 0.0 , 0.0 , 0.0 , 

57.0 , 4132.82051282 , 4133.33333333 , 4133.84615385 , 4137.43589744 , 4129.74358974 , 4127.17948718 , 4125.12820513 , 4133.33333333 , 4134.87179487 , 4137.94871795 , 4189.74358974 , 4915.8974359 , 4136.92307692 , 4139.48717949 , 2043.0 , 2036.0 , 130.307 , 0.0 , 0.0 , 0.0 , 0.0 , 

58.0 , 4133.33333333 , 4131.79487179 , 4133.84615385 , 4136.41025641 , 4131.28205128 , 4130.25641026 , 4127.17948718 , 4136.41025641 , 4136.41025641 , 4137.43589744 , 4190.25641026 , 4912.30769231 , 4137.43589744 , 4136.92307692 , 2043.0 , 2036.0 , 130.316 , 0.0 , 0.0 , 0.0 , 0.0 , 

59.0 , 4133.33333333 , 4130.25641026 , 4135.38461538 , 4134.87179487 , 4134.35897436 , 4128.20512821 , 4124.1025641 , 4135.8974359 , 4135.8974359 , 4141.53846154 , 4191.28205128 , 4913.84615385 , 4135.38461538 , 4141.02564103 , 2043.0 , 2035.0 , 130.324 , 0.0 , 0.0 , 0.0 , 0.0 , 

60.0 , 4134.87179487 , 4132.82051282 , 4135.38461538 , 4135.8974359 , 4132.30769231 , 4125.64102564 , 4126.15384615 , 4134.87179487 , 4134.87179487 , 4141.53846154 , 4192.30769231 , 4914.87179487 , 4136.41025641 , 4136.92307692 , 2043.0 , 2036.0 , 130.333 , 0.0 , 0.0 , 0.0 , 0.0 , 

61.0 , 4138.46153846 , 4130.76923077 , 4134.35897436 , 4134.87179487 , 4128.71794872 , 4126.15384615 , 4128.20512821 , 4132.82051282 , 4133.33333333 , 4137.43589744 , 4193.33333333 , 4915.38461538 , 4136.41025641 , 4138.97435897 , 2044.0 , 2035.0 , 130.339 , 0.0 , 0.0 , 0.0 , 0.0 , 

62.0 , 4133.33333333 , 4130.25641026 , 4133.84615385 , 4134.87179487 , 4130.76923077 , 4128.71794872 , 4127.17948718 , 4131.79487179 , 4135.8974359 , 4136.41025641 , 4190.25641026 , 4911.28205128 , 4134.35897436 , 4142.05128205 , 2045.0 , 2037.0 , 130.347 , 0.0 , 0.0 , 0.0 , 0.0 , 

63.0 , 4131.79487179 , 4129.74358974 , 4135.8974359 , 4134.87179487 , 4132.82051282 , 4128.20512821 , 4126.15384615 , 4132.30769231 , 4138.97435897 , 4139.48717949 , 4190.76923077 , 4910.76923077 , 4135.8974359 , 4146.15384615 , 2044.0 , 2035.0 , 130.355 , 0.0 , 0.0 , 0.0 , 0.0 , 

64.0 , 4132.30769231 , 4128.20512821 , 4136.41025641 , 4134.87179487 , 4131.79487179 , 4128.20512821 , 4129.23076923 , 4132.82051282 , 4136.41025641 , 4140.51282051 , 4193.84615385 , 4912.82051282 , 4137.43589744 , 4142.05128205 , 2043.0 , 2037.0 , 130.364 , 0.0 , 0.0 , 0.0 , 0.0 , 

65.0 , 4132.30769231 , 4128.20512821 , 4136.41025641 , 4134.35897436 , 4131.28205128 , 4129.74358974 , 4128.71794872 , 4132.30769231 , 4133.84615385 , 4138.46153846 , 4191.28205128 , 4913.33333333 , 4135.8974359 , 4141.53846154 , 2043.0 , 2036.0 , 130.37 , 0.0 , 0.0 , 0.0 , 0.0 , 

66.0 , 4129.74358974 , 4130.76923077 , 4136.92307692 , 4134.35897436 , 4132.82051282 , 4131.28205128 , 4126.15384615 , 4133.84615385 , 4135.8974359 , 4138.97435897 , 4187.17948718 , 4911.28205128 , 4135.8974359 , 4141.53846154 , 2042.0 , 2038.0 , 130.379 , 0.0 , 0.0 , 0.0 , 0.0 , 

67.0 , 4131.79487179 , 4131.79487179 , 4135.8974359 , 4135.38461538 , 4132.30769231 , 4128.71794872 , 4125.12820513 , 4135.38461538 , 4137.43589744 , 4138.97435897 , 4190.76923077 , 4913.33333333 , 4136.92307692 , 4142.05128205 , 2041.0 , 2038.0 , 130.559 , 0.0 , 0.0 , 0.0 , 0.0 , 

68.0 , 4133.84615385 , 4132.82051282 , 4134.87179487 , 4137.43589744 , 4131.79487179 , 4128.20512821 , 4125.64102564 , 4131.28205128 , 4136.92307692 , 4137.94871795 , 4193.84615385 , 4916.92307692 , 4136.41025641 , 4144.61538462 , 2043.0 , 2037.0 , 130.56 , 0.0 , 0.0 , 0.0 , 0.0 , 

69.0 , 4130.76923077 , 4131.79487179 , 4132.82051282 , 4137.94871795 , 4131.79487179 , 4131.28205128 , 4127.17948718 , 4128.20512821 , 4137.43589744 , 4137.43589744 , 4190.76923077 , 4914.35897436 , 4135.8974359 , 4141.02564103 , 2042.0 , 2038.0 , 130.56 , 0.0 , 0.0 , 0.0 , 0.0 , 

70.0 , 4131.79487179 , 4129.23076923 , 4132.30769231 , 4134.87179487 , 4131.79487179 , 4129.74358974 , 4128.20512821 , 4130.76923077 , 4135.8974359 , 4136.92307692 , 4190.76923077 , 4913.84615385 , 4133.84615385 , 4140.0 , 2045.0 , 2039.0 , 130.56 , 0.0 , 0.0 , 0.0 , 0.0 , 

71.0 , 4134.35897436 , 4131.28205128 , 4131.79487179 , 4134.35897436 , 4132.82051282 , 4127.69230769 , 4128.71794872 , 4134.35897436 , 4133.84615385 , 4138.46153846 , 4191.79487179 , 4914.87179487 , 4134.35897436 , 4141.53846154 , 2043.0 , 2038.0 , 130.56 , 0.0 , 0.0 , 0.0 , 0.0 , 

72.0 , 4135.8974359 , 4131.28205128 , 4132.82051282 , 4134.87179487 , 4131.79487179 , 4129.23076923 , 4127.17948718 , 4132.82051282 , 4136.92307692 , 4139.48717949 , 4191.79487179 , 4913.84615385 , 4136.41025641 , 4144.61538462 , 2042.0 , 2037.0 , 130.56 , 0.0 , 0.0 , 0.0 , 0.0 , 

73.0 , 4134.35897436 , 4127.17948718 , 4134.35897436 , 4138.46153846 , 4130.76923077 , 4131.28205128 , 4128.20512821 , 4132.30769231 , 4141.02564103 , 4138.46153846 , 4191.28205128 , 4907.69230769 , 4136.92307692 , 4138.46153846 , 2043.0 , 2037.0 , 130.56 , 0.0 , 0.0 , 0.0 , 0.0 , 

74.0 , 4135.38461538 , 4129.74358974 , 4137.43589744 , 4134.87179487 , 4131.79487179 , 4128.71794872 , 4128.20512821 , 4133.84615385 , 4138.97435897 , 4138.46153846 , 4191.28205128 , 4910.25641026 , 4134.87179487 , 4137.94871795 , 2044.0 , 2036.0 , 130.56 , 0.0 , 0.0 , 0.0 , 0.0 , 

75.0 , 4131.28205128 , 4135.38461538 , 4135.8974359 , 4133.33333333 , 4134.35897436 , 4128.71794872 , 4125.64102564 , 4135.38461538 , 4136.92307692 , 4138.46153846 , 4190.25641026 , 4911.79487179 , 4136.41025641 , 4136.41025641 , 2043.0 , 2037.0 , 130.56 , 0.0 , 0.0 , 0.0 , 0.0 , 

76.0 , 4131.28205128 , 4131.28205128 , 4134.87179487 , 4135.8974359 , 4131.79487179 , 4129.23076923 , 4124.1025641 , 4133.84615385 , 4137.43589744 , 4139.48717949 , 4191.28205128 , 4910.25641026 , 4137.43589744 , 4142.56410256 , 2043.0 , 2036.0 , 130.56 , 0.0 , 0.0 , 0.0 , 0.0 , 

77.0 , 4131.79487179 , 4125.12820513 , 4133.84615385 , 4138.46153846 , 4129.74358974 , 4131.79487179 , 4128.71794872 , 4134.35897436 , 4140.0 , 4140.51282051 , 4193.33333333 , 4906.66666667 , 4136.92307692 , 4141.53846154 , 2042.0 , 2037.0 , 130.56 , 0.0 , 0.0 , 0.0 , 0.0 , 

78.0 , 4134.87179487 , 4126.66666667 , 4135.8974359 , 4135.8974359 , 4132.30769231 , 4129.23076923 , 4127.69230769 , 4132.82051282 , 4135.8974359 , 4138.97435897 , 4194.87179487 , 4915.38461538 , 4135.8974359 , 4142.56410256 , 2041.0 , 2037.0 , 130.56 , 0.0 , 0.0 , 0.0 , 0.0 , 

79.0 , 4133.84615385 , 4132.82051282 , 4135.8974359 , 4136.41025641 , 4134.87179487 , 4130.25641026 , 4126.66666667 , 4131.79487179 , 4132.82051282 , 4137.43589744 , 4193.84615385 , 4917.43589744 , 4133.84615385 , 4142.56410256 , 2042.0 , 2036.0 , 130.56 , 0.0 , 0.0 , 0.0 , 0.0 , 

80.0 , 4132.82051282 , 4130.25641026 , 4135.38461538 , 4136.92307692 , 4130.76923077 , 4134.35897436 , 4127.17948718 , 4132.30769231 , 4135.8974359 , 4137.94871795 , 4192.30769231 , 4912.82051282 , 4133.33333333 , 4147.69230769 , 2043.0 , 2036.0 , 130.56 , 0.0 , 0.0 , 0.0 , 0.0 , 

81.0 , 4130.25641026 , 4126.66666667 , 4134.87179487 , 4135.8974359 , 4130.76923077 , 4132.82051282 , 4127.17948718 , 4132.82051282 , 4137.43589744 , 4138.46153846 , 4192.30769231 , 4909.23076923 , 4134.35897436 , 4140.51282051 , 2043.0 , 2038.0 , 130.56 , 0.0 , 0.0 , 0.0 , 0.0 , 

82.0 , 4132.30769231 , 4128.71794872 , 4135.8974359 , 4133.33333333 , 4133.33333333 , 4128.71794872 , 4126.15384615 , 4131.79487179 , 4135.8974359 , 4136.92307692 , 4193.84615385 , 4912.82051282 , 4137.43589744 , 4134.87179487 , 2042.0 , 2036.0 , 130.56 , 0.0 , 0.0 , 0.0 , 0.0 , 

83.0 , 4133.84615385 , 4130.25641026 , 4136.41025641 , 4133.84615385 , 4133.33333333 , 4131.28205128 , 4126.15384615 , 4132.82051282 , 4137.43589744 , 4137.94871795 , 4193.84615385 , 4910.76923077 , 4135.8974359 , 4133.84615385 , 2044.0 , 2037.0 , 130.56 , 0.0 , 0.0 , 0.0 , 0.0 , 

84.0 , 4133.84615385 , 4129.23076923 , 4134.87179487 , 4134.87179487 , 4131.79487179 , 4131.28205128 , 4122.56410256 , 4133.33333333 , 4139.48717949 , 4139.48717949 , 4191.79487179 , 4908.71794872 , 4132.30769231 , 4135.38461538 , 2043.0 , 2037.0 , 130.56 , 0.0 , 0.0 , 0.0 , 0.0 , 

85.0 , 4132.82051282 , 4128.20512821 , 4133.33333333 , 4135.8974359 , 4132.82051282 , 4127.17948718 , 4123.58974359 , 4132.30769231 , 4137.94871795 , 4138.46153846 , 4191.28205128 , 4913.84615385 , 4131.28205128 , 4136.92307692 , 2043.0 , 2036.0 , 130.56 , 0.0 , 0.0 , 0.0 , 0.0 , 

86.0 , 4133.84615385 , 4128.71794872 , 4133.33333333 , 4136.92307692 , 4133.33333333 , 4127.17948718 , 4128.71794872 , 4132.30769231 , 4137.43589744 , 4137.43589744 , 4191.28205128 , 4916.92307692 , 4135.8974359 , 4138.97435897 , 2041.0 , 2037.0 , 130.56 , 0.0 , 0.0 , 0.0 , 0.0 , 

87.0 , 4135.8974359 , 4127.17948718 , 4135.38461538 , 4135.38461538 , 4132.30769231 , 4129.74358974 , 4128.20512821 , 4132.30769231 , 4134.87179487 , 4138.46153846 , 4190.76923077 , 4913.33333333 , 4134.87179487 , 4139.48717949 , 2043.0 , 2037.0 , 130.56 , 0.0 , 0.0 , 0.0 , 0.0 , 

88.0 , 4134.35897436 , 4127.17948718 , 4135.38461538 , 4132.30769231 , 4131.28205128 , 4128.71794872 , 4126.15384615 , 4134.35897436 , 4133.33333333 , 4138.97435897 , 4190.76923077 , 4909.23076923 , 4131.79487179 , 4138.97435897 , 2044.0 , 2036.0 , 130.56 , 0.0 , 0.0 , 0.0 , 0.0 , 

89.0 , 4131.28205128 , 4128.71794872 , 4134.35897436 , 4133.33333333 , 4131.79487179 , 4125.64102564 , 4126.66666667 , 4133.33333333 , 4136.41025641 , 4138.46153846 , 4191.79487179 , 4912.82051282 , 4132.82051282 , 4145.12820513 , 2044.0 , 2035.0 , 130.56 , 0.0 , 0.0 , 0.0 , 0.0 , 

90.0 , 4130.76923077 , 4129.23076923 , 4134.87179487 , 4135.38461538 , 4133.84615385 , 4128.71794872 , 4126.66666667 , 4132.30769231 , 4139.48717949 , 4141.02564103 , 4191.79487179 , 4913.84615385 , 4136.92307692 , 4143.58974359 , 2044.0 , 2035.0 , 130.57 , 0.0 , 0.0 , 0.0 , 0.0 , 

91.0 , 4134.35897436 , 4130.25641026 , 4138.46153846 , 4131.28205128 , 4133.84615385 , 4130.76923077 , 4125.12820513 , 4133.84615385 , 4137.43589744 , 4140.0 , 4191.79487179 , 4912.82051282 , 4137.43589744 , 4141.02564103 , 2043.0 , 2036.0 , 130.575 , 0.0 , 0.0 , 0.0 , 0.0 , 

92.0 , 4131.28205128 , 4130.25641026 , 4138.46153846 , 4131.28205128 , 4131.79487179 , 4130.76923077 , 4126.15384615 , 4135.8974359 , 4136.41025641 , 4138.46153846 , 4191.79487179 , 4909.23076923 , 4136.41025641 , 4138.46153846 , 2042.0 , 2035.0 , 130.584 , 0.0 , 0.0 , 0.0 , 0.0 , 

93.0 , 4129.74358974 , 4129.23076923 , 4136.92307692 , 4133.33333333 , 4130.76923077 , 4128.71794872 , 4125.12820513 , 4132.30769231 , 4135.38461538 , 4141.02564103 , 4192.82051282 , 4910.25641026 , 4135.8974359 , 4145.64102564 , 2042.0 , 2035.0 , 130.592 , 0.0 , 0.0 , 0.0 , 0.0 , 

94.0 , 4129.23076923 , 4130.76923077 , 4134.87179487 , 4136.41025641 , 4131.79487179 , 4131.28205128 , 4127.69230769 , 4133.33333333 , 4136.41025641 , 4142.05128205 , 4192.30769231 , 4908.71794872 , 4137.43589744 , 4142.05128205 , 2042.0 , 2035.0 , 130.604 , 0.0 , 0.0 , 0.0 , 0.0 , 

95.0 , 4132.82051282 , 4130.76923077 , 4136.92307692 , 4134.35897436 , 4130.25641026 , 4128.20512821 , 4128.71794872 , 4134.35897436 , 4135.8974359 , 4137.94871795 , 4190.76923077 , 4910.76923077 , 4137.43589744 , 4139.48717949 , 2041.0 , 2035.0 , 130.606 , 0.0 , 0.0 , 0.0 , 0.0 , 

96.0 , 4133.33333333 , 4129.23076923 , 4135.38461538 , 4134.35897436 , 4131.28205128 , 4126.66666667 , 4127.69230769 , 4133.33333333 , 4133.84615385 , 4136.92307692 , 4191.28205128 , 4911.28205128 , 4136.92307692 , 4134.35897436 , 2044.0 , 2037.0 , 130.615 , 0.0 , 0.0 , 0.0 , 0.0 , 

97.0 , 4134.35897436 , 4128.71794872 , 4134.87179487 , 4134.87179487 , 4131.28205128 , 4128.20512821 , 4126.15384615 , 4132.82051282 , 4132.82051282 , 4139.48717949 , 4193.33333333 , 4912.82051282 , 4135.8974359 , 4138.46153846 , 2043.0 , 2035.0 , 130.622 , 0.0 , 0.0 , 0.0 , 0.0 , 

98.0 , 4132.30769231 , 4130.76923077 , 4134.87179487 , 4135.38461538 , 4130.25641026 , 4129.23076923 , 4126.66666667 , 4136.41025641 , 4136.41025641 , 4138.97435897 , 4191.79487179 , 4910.76923077 , 4136.41025641 , 4138.97435897 , 2043.0 , 2037.0 , 130.634 , 0.0 , 0.0 , 0.0 , 0.0 , 

99.0 , 4134.35897436 , 4129.23076923 , 4134.87179487 , 4133.84615385 , 4128.20512821 , 4126.15384615 , 4126.15384615 , 4135.8974359 , 4136.92307692 , 4136.41025641 , 4191.79487179 , 4911.79487179 , 4137.43589744 , 4140.51282051 , 2042.0 , 2036.0 , 130.637 , 0.0 , 0.0 , 0.0 , 0.0 , 

100.0 , 4132.30769231 , 4131.28205128 , 4136.41025641 , 4133.33333333 , 4129.74358974 , 4128.20512821 , 4126.66666667 , 4132.30769231 , 4135.8974359 , 4136.92307692 , 4191.28205128 , 4911.79487179 , 4136.41025641 , 4136.92307692 , 2042.0 , 2037.0 , 130.647 , 0.0 , 0.0 , 0.0 , 0.0 , 

101.0 , 4132.30769231 , 4131.79487179 , 4138.46153846 , 4134.87179487 , 4132.82051282 , 4129.74358974 , 4126.15384615 , 4129.74358974 , 4137.43589744 , 4139.48717949 , 4191.28205128 , 4912.82051282 , 4136.41025641 , 4139.48717949 , 2042.0 , 2036.0 , 130.654 , 0.0 , 0.0 , 0.0 , 0.0 , 

102.0 , 4133.33333333 , 4128.71794872 , 4135.8974359 , 4135.8974359 , 4131.79487179 , 4130.25641026 , 4127.17948718 , 4132.30769231 , 4136.92307692 , 4138.97435897 , 4192.30769231 , 4912.30769231 , 4137.43589744 , 4143.58974359 , 2043.0 , 2039.0 , 130.667 , 0.0 , 0.0 , 0.0 , 0.0 , 

103.0 , 4132.30769231 , 4128.71794872 , 4134.35897436 , 4135.8974359 , 4127.17948718 , 4129.74358974 , 4129.74358974 , 4133.33333333 , 4135.38461538 , 4138.97435897 , 4192.82051282 , 4912.82051282 , 4137.94871795 , 4144.1025641 , 2042.0 , 2038.0 , 130.669 , 0.0 , 0.0 , 0.0 , 0.0 , 

104.0 , 4131.79487179 , 4132.82051282 , 4135.8974359 , 4136.92307692 , 4129.74358974 , 4127.69230769 , 4130.25641026 , 4129.23076923 , 4133.33333333 , 4140.51282051 , 4191.28205128 , 4916.41025641 , 4136.92307692 , 4141.02564103 , 2043.0 , 2037.0 , 130.677 , 0.0 , 0.0 , 0.0 , 0.0 , 

105.0 , 4131.79487179 , 4132.30769231 , 4134.87179487 , 4138.46153846 , 4133.33333333 , 4129.23076923 , 4127.69230769 , 4130.25641026 , 4134.35897436 , 4138.46153846 , 4191.79487179 , 4916.41025641 , 4136.92307692 , 4140.51282051 , 2041.0 , 2038.0 , 130.686 , 0.0 , 0.0 , 0.0 , 0.0 , 

106.0 , 4130.76923077 , 4129.23076923 , 4134.35897436 , 4136.92307692 , 4132.82051282 , 4133.33333333 , 4126.15384615 , 4134.35897436 , 4136.41025641 , 4136.41025641 , 4193.33333333 , 4915.38461538 , 4135.8974359 , 4143.58974359 , 2042.0 , 2038.0 , 130.697 , 0.0 , 0.0 , 0.0 , 0.0 , 

107.0 , 4129.74358974 , 4132.30769231 , 4133.33333333 , 4135.8974359 , 4132.30769231 , 4131.79487179 , 4127.69230769 , 4136.41025641 , 4138.46153846 , 4137.43589744 , 4193.33333333 , 4912.82051282 , 4135.8974359 , 4141.53846154 , 2043.0 , 2039.0 , 130.701 , 0.0 , 0.0 , 0.0 , 0.0 , 

108.0 , 4133.84615385 , 4133.84615385 , 4131.79487179 , 4135.38461538 , 4130.76923077 , 4128.20512821 , 4127.69230769 , 4134.87179487 , 4137.43589744 , 4137.43589744 , 4192.82051282 , 4910.25641026 , 4133.84615385 , 4140.51282051 , 2043.0 , 2038.0 , 130.709 , 0.0 , 0.0 , 0.0 , 0.0 , 

109.0 , 4132.82051282 , 4130.76923077 , 4133.84615385 , 4137.94871795 , 4129.74358974 , 4131.79487179 , 4126.15384615 , 4135.38461538 , 4136.92307692 , 4137.43589744 , 4191.28205128 , 4910.25641026 , 4134.87179487 , 4138.46153846 , 2042.0 , 2038.0 , 130.717 , 0.0 , 0.0 , 0.0 , 0.0 , 

110.0 , 4133.84615385 , 4128.20512821 , 4140.0 , 4138.46153846 , 4130.25641026 , 4134.35897436 , 4124.61538462 , 4133.84615385 , 4137.94871795 , 4138.97435897 , 4191.79487179 , 4915.38461538 , 4134.87179487 , 4141.02564103 , 2042.0 , 2037.0 , 130.728 , 0.0 , 0.0 , 0.0 , 0.0 , 

111.0 , 4132.82051282 , 4130.25641026 , 4138.46153846 , 4135.8974359 , 4128.71794872 , 4132.82051282 , 4127.17948718 , 4133.84615385 , 4137.94871795 , 4138.97435897 , 4193.33333333 , 4912.82051282 , 4133.33333333 , 4136.92307692 , 2042.0 , 2037.0 , 130.733 , 0.0 , 0.0 , 0.0 , 0.0 , 

112.0 , 4132.30769231 , 4130.76923077 , 4135.38461538 , 4132.82051282 , 4126.66666667 , 4130.76923077 , 4128.20512821 , 4133.84615385 , 4135.8974359 , 4139.48717949 , 4193.84615385 , 4911.79487179 , 4133.84615385 , 4139.48717949 , 2043.0 , 2038.0 , 130.74 , 0.0 , 0.0 , 0.0 , 0.0 , 

113.0 , 4131.28205128 , 4129.74358974 , 4136.92307692 , 4135.38461538 , 4129.23076923 , 4134.35897436 , 4128.71794872 , 4134.87179487 , 4136.41025641 , 4139.48717949 , 4191.79487179 , 4912.82051282 , 4134.87179487 , 4138.46153846 , 2044.0 , 2038.0 , 130.748 , 0.0 , 0.0 , 0.0 , 0.0 , 

114.0 , 4134.87179487 , 4128.71794872 , 4138.97435897 , 4135.8974359 , 4131.79487179 , 4133.33333333 , 4126.66666667 , 4133.84615385 , 4136.92307692 , 4136.41025641 , 4191.79487179 , 4912.82051282 , 4133.33333333 , 4143.07692308 , 2042.0 , 2037.0 , 130.759 , 0.0 , 0.0 , 0.0 , 0.0 , 

115.0 , 4131.28205128 , 4129.74358974 , 4136.41025641 , 4136.92307692 , 4131.79487179 , 4132.30769231 , 4128.71794872 , 4134.35897436 , 4138.46153846 , 4136.41025641 , 4192.30769231 , 4911.28205128 , 4135.38461538 , 4142.05128205 , 2042.0 , 2037.0 , 130.763 , 0.0 , 0.0 , 0.0 , 0.0 , 

116.0 , 4132.30769231 , 4129.74358974 , 4137.94871795 , 4134.35897436 , 4130.76923077 , 4131.79487179 , 4129.74358974 , 4133.33333333 , 4136.92307692 , 4137.94871795 , 4193.84615385 , 4917.94871795 , 4140.0 , 4145.12820513 , 2044.0 , 2037.0 , 130.772 , 0.0 , 0.0 , 0.0 , 0.0 , 

117.0 , 4135.8974359 , 4129.23076923 , 4137.43589744 , 4132.30769231 , 4130.25641026 , 4132.82051282 , 4129.23076923 , 4132.82051282 , 4135.38461538 , 4137.43589744 , 4192.82051282 , 4915.8974359 , 4138.97435897 , 4143.58974359 , 2044.0 , 2037.0 , 130.781 , 0.0 , 0.0 , 0.0 , 0.0 , 

118.0 , 4133.84615385 , 4130.25641026 , 4134.35897436 , 4135.8974359 , 4131.28205128 , 4128.71794872 , 4128.20512821 , 4133.84615385 , 4135.38461538 , 4137.43589744 , 4192.82051282 , 4912.30769231 , 4135.8974359 , 4143.58974359 , 2044.0 , 2037.0 , 130.791 , 0.0 , 0.0 , 0.0 , 0.0 , 

119.0 , 4128.71794872 , 4133.84615385 , 4133.84615385 , 4140.51282051 , 4134.35897436 , 4129.74358974 , 4128.20512821 , 4134.35897436 , 4135.8974359 , 4137.94871795 , 4192.82051282 , 4914.35897436 , 4136.41025641 , 4138.97435897 , 2043.0 , 2036.0 , 130.795 , 0.0 , 0.0 , 0.0 , 0.0 , 

120.0 , 4133.33333333 , 4132.82051282 , 4133.33333333 , 4136.41025641 , 4132.82051282 , 4130.25641026 , 4124.61538462 , 4134.35897436 , 4133.84615385 , 4138.46153846 , 4192.82051282 , 4916.92307692 , 4137.94871795 , 4137.94871795 , 2043.0 , 2036.0 , 130.803 , 0.0 , 0.0 , 0.0 , 0.0 , 

121.0 , 4133.84615385 , 4129.23076923 , 4130.76923077 , 4134.87179487 , 4130.76923077 , 4127.69230769 , 4125.64102564 , 4134.87179487 , 4134.87179487 , 4139.48717949 , 4190.76923077 , 4910.76923077 , 4134.35897436 , 4136.41025641 , 2044.0 , 2034.0 , 130.812 , 0.0 , 0.0 , 0.0 , 0.0 , 

122.0 , 4128.71794872 , 4131.79487179 , 4134.35897436 , 4137.43589744 , 4131.79487179 , 4127.17948718 , 4128.71794872 , 4133.84615385 , 4137.43589744 , 4137.94871795 , 4189.23076923 , 4910.25641026 , 4131.79487179 , 4134.87179487 , 2044.0 , 2036.0 , 130.823 , 0.0 , 0.0 , 0.0 , 0.0 , 

123.0 , 4131.79487179 , 4131.79487179 , 4137.43589744 , 4137.43589744 , 4132.30769231 , 4130.76923077 , 4125.12820513 , 4133.84615385 , 4136.92307692 , 4135.8974359 , 4191.79487179 , 4914.87179487 , 4132.82051282 , 4136.92307692 , 2043.0 , 2035.0 , 130.826 , 0.0 , 0.0 , 0.0 , 0.0 , 

124.0 , 4137.43589744 , 4129.74358974 , 4133.84615385 , 4136.41025641 , 4130.25641026 , 4129.74358974 , 4122.56410256 , 4135.8974359 , 4137.43589744 , 4136.92307692 , 4195.8974359 , 4911.28205128 , 4137.43589744 , 4140.0 , 2044.0 , 2036.0 , 130.836 , 0.0 , 0.0 , 0.0 , 0.0 , 

125.0 , 4137.43589744 , 4132.30769231 , 4132.82051282 , 4135.38461538 , 4130.25641026 , 4125.64102564 , 4127.17948718 , 4133.33333333 , 4136.92307692 , 4136.41025641 , 4194.87179487 , 4910.76923077 , 4137.43589744 , 4141.02564103 , 2044.0 , 2036.0 , 130.844 , 0.0 , 0.0 , 0.0 , 0.0 , 

126.0 , 4134.87179487 , 4133.84615385 , 4134.35897436 , 4135.38461538 , 4131.79487179 , 4130.25641026 , 4129.23076923 , 4130.25641026 , 4135.8974359 , 4136.92307692 , 4191.79487179 , 4913.33333333 , 4133.84615385 , 4138.46153846 , 2043.0 , 2036.0 , 130.854 , 0.0 , 0.0 , 0.0 , 0.0 , 

127.0 , 4135.38461538 , 4129.23076923 , 4135.38461538 , 4134.35897436 , 4131.79487179 , 4133.33333333 , 4125.64102564 , 4132.82051282 , 4136.92307692 , 4138.97435897 , 4192.30769231 , 4914.87179487 , 4131.79487179 , 4141.53846154 , 2042.0 , 2035.0 , 130.857 , 0.0 , 0.0 , 0.0 , 0.0 , 

128.0 , 4133.33333333 , 4131.79487179 , 4135.8974359 , 4135.38461538 , 4133.33333333 , 4131.28205128 , 4125.12820513 , 4136.92307692 , 4138.46153846 , 4138.97435897 , 4191.79487179 , 4912.30769231 , 4136.92307692 , 4138.97435897 , 2043.0 , 2034.0 , 130.867 , 0.0 , 0.0 , 0.0 , 0.0 , 

0.0 , 4134.35897436 , 4134.35897436 , 4136.92307692 , 4136.41025641 , 4133.33333333 , 4127.69230769 , 4124.61538462 , 4134.35897436 , 4138.46153846 , 4138.46153846 , 4190.76923077 , 4912.82051282 , 4140.0 , 4141.02564103 , 2043.0 , 2034.0 , 130.874 , 0.0 , 0.0 , 0.0 , 0.0 , 

1.0 , 4130.76923077 , 4129.74358974 , 4135.38461538 , 4137.43589744 , 4130.25641026 , 4130.76923077 , 4125.64102564 , 4134.35897436 , 4139.48717949 , 4138.97435897 , 4192.82051282 , 4911.79487179 , 4137.94871795 , 4138.97435897 , 2044.0 , 2036.0 , 130.886 , 0.0 , 0.0 , 0.0 , 0.0 , 

2.0 , 4131.28205128 , 4127.17948718 , 4136.41025641 , 4131.79487179 , 4127.69230769 , 4131.79487179 , 4126.66666667 , 4134.87179487 , 4136.92307692 , 4138.97435897 , 4195.8974359 , 4915.8974359 , 4136.41025641 , 4139.48717949 , 2042.0 , 2036.0 , 130.889 , 0.0 , 0.0 , 0.0 , 0.0 , 

3.0 , 4133.84615385 , 4131.28205128 , 4135.8974359 , 4132.30769231 , 4131.28205128 , 4130.76923077 , 4126.66666667 , 4136.41025641 , 4137.94871795 , 4139.48717949 , 4192.82051282 , 4914.87179487 , 4137.43589744 , 4135.8974359 , 2041.0 , 2034.0 , 130.899 , 0.0 , 0.0 , 0.0 , 0.0 , 

4.0 , 4137.43589744 , 4131.28205128 , 4136.41025641 , 4135.38461538 , 4133.33333333 , 4131.28205128 , 4124.61538462 , 4133.33333333 , 4138.97435897 , 4138.97435897 , 4190.25641026 , 4911.79487179 , 4137.43589744 , 4142.05128205 , 2042.0 , 2034.0 , 130.907 , 0.0 , 0.0 , 0.0 , 0.0 , 

5.0 , 4133.33333333 , 4126.66666667 , 4135.8974359 , 4134.35897436 , 4132.30769231 , 4131.28205128 , 4127.69230769 , 4132.30769231 , 4137.43589744 , 4137.43589744 , 4190.76923077 , 4910.25641026 , 4136.92307692 , 4140.51282051 , 2043.0 , 2033.0 , 130.917 , 0.0 , 0.0 , 0.0 , 0.0 , 

6.0 , 4132.30769231 , 4125.64102564 , 4136.41025641 , 4132.30769231 , 4131.79487179 , 4127.17948718 , 4129.23076923 , 4134.35897436 , 4135.38461538 , 4137.94871795 , 4190.76923077 , 4913.84615385 , 4135.8974359 , 4141.02564103 , 2042.0 , 2033.0 , 130.922 , 0.0 , 0.0 , 0.0 , 0.0 , 

7.0 , 4133.33333333 , 4127.69230769 , 4135.8974359 , 4137.43589744 , 4132.30769231 , 4127.69230769 , 4129.23076923 , 4135.38461538 , 4136.92307692 , 4138.97435897 , 4190.76923077 , 4911.79487179 , 4135.38461538 , 4138.46153846 , 2043.0 , 2033.0 , 130.93 , 0.0 , 0.0 , 0.0 , 0.0 , 

8.0 , 4136.92307692 , 4127.69230769 , 4134.87179487 , 4137.43589744 , 4130.25641026 , 4128.20512821 , 4126.66666667 , 4133.33333333 , 4138.97435897 , 4138.97435897 , 4193.33333333 , 4911.28205128 , 4136.92307692 , 4140.0 , 2042.0 , 2033.0 , 130.937 , 0.0 , 0.0 , 0.0 , 0.0 , 

9.0 , 4134.87179487 , 4129.23076923 , 4133.84615385 , 4135.38461538 , 4129.74358974 , 4128.20512821 , 4126.66666667 , 4133.84615385 , 4137.94871795 , 4138.46153846 , 4194.35897436 , 4912.30769231 , 4136.41025641 , 4140.0 , 2043.0 , 2033.0 , 130.949 , 0.0 , 0.0 , 0.0 , 0.0 , 

10.0 , 4132.82051282 , 4130.76923077 , 4135.38461538 , 4137.43589744 , 4130.76923077 , 4130.76923077 , 4129.23076923 , 4135.38461538 , 4134.87179487 , 4138.46153846 , 4192.30769231 , 4912.82051282 , 4135.8974359 , 4143.58974359 , 2044.0 , 2035.0 , 130.952 , 0.0 , 0.0 , 0.0 , 0.0 , 

11.0 , 4132.82051282 , 4130.25641026 , 4134.87179487 , 4136.92307692 , 4131.28205128 , 4133.33333333 , 4130.76923077 , 4132.82051282 , 4136.92307692 , 4138.97435897 , 4191.28205128 , 4912.82051282 , 4135.8974359 , 4142.56410256 , 2043.0 , 2035.0 , 130.961 , 0.0 , 0.0 , 0.0 , 0.0 , 

12.0 , 4132.30769231 , 4128.71794872 , 4133.33333333 , 4134.35897436 , 4132.82051282 , 4129.74358974 , 4127.69230769 , 4132.30769231 , 4139.48717949 , 4138.46153846 , 4191.28205128 , 4913.84615385 , 4137.43589744 , 4140.51282051 , 2043.0 , 2035.0 , 130.969 , 0.0 , 0.0 , 0.0 , 0.0 , 

13.0 , 4130.76923077 , 4129.23076923 , 4136.92307692 , 4135.38461538 , 4135.38461538 , 4128.71794872 , 4124.61538462 , 4134.87179487 , 4136.41025641 , 4138.97435897 , 4192.82051282 , 4913.84615385 , 4136.92307692 , 4142.05128205 , 2043.0 , 2036.0 , 130.979 , 0.0 , 0.0 , 0.0 , 0.0 , 

14.0 , 4129.23076923 , 4130.76923077 , 4138.46153846 , 4137.94871795 , 4134.35897436 , 4130.25641026 , 4124.61538462 , 4135.38461538 , 4135.8974359 , 4138.46153846 , 4191.79487179 , 4913.33333333 , 4135.8974359 , 4142.05128205 , 2043.0 , 2035.0 , 130.985 , 0.0 , 0.0 , 0.0 , 0.0 , 

15.0 , 4130.76923077 , 4129.23076923 , 4133.33333333 , 4137.43589744 , 4131.79487179 , 4127.69230769 , 4123.58974359 , 4132.82051282 , 4135.8974359 , 4138.46153846 , 4191.79487179 , 4915.8974359 , 4134.87179487 , 4144.61538462 , 2045.0 , 2036.0 , 130.993 , 0.0 , 0.0 , 0.0 , 0.0 , 

16.0 , 4132.82051282 , 4128.20512821 , 4131.28205128 , 4136.41025641 , 4132.82051282 , 4127.17948718 , 4124.61538462 , 4132.82051282 , 4134.87179487 , 4139.48717949 , 4192.82051282 , 4913.84615385 , 4137.43589744 , 4142.56410256 , 2044.0 , 2037.0 , 131.0 , 0.0 , 0.0 , 0.0 , 0.0 , 

17.0 , 4135.38461538 , 4130.25641026 , 4134.87179487 , 4133.84615385 , 4132.82051282 , 4127.69230769 , 4125.64102564 , 4133.33333333 , 4136.41025641 , 4139.48717949 , 4193.33333333 , 4913.84615385 , 4135.8974359 , 4141.02564103 , 2045.0 , 2037.0 , 131.012 , 0.0 , 0.0 , 0.0 , 0.0 , 

18.0 , 4132.30769231 , 4132.82051282 , 4134.87179487 , 4135.38461538 , 4131.79487179 , 4127.69230769 , 4125.64102564 , 4133.84615385 , 4140.0 , 4138.46153846 , 4193.33333333 , 4912.82051282 , 4136.92307692 , 4136.92307692 , 2044.0 , 2036.0 , 131.016 , 0.0 , 0.0 , 0.0 , 0.0 , 

19.0 , 4133.84615385 , 4131.79487179 , 4133.84615385 , 4135.38461538 , 4133.33333333 , 4127.17948718 , 4126.15384615 , 4133.33333333 , 4137.43589744 , 4138.46153846 , 4193.84615385 , 4913.33333333 , 4140.0 , 4141.02564103 , 2043.0 , 2036.0 , 131.025 , 0.0 , 0.0 , 0.0 , 0.0 , 

20.0 , 4135.38461538 , 4131.79487179 , 4135.38461538 , 4134.35897436 , 4132.82051282 , 4128.71794872 , 4129.23076923 , 4133.33333333 , 4136.92307692 , 4140.0 , 4193.33333333 , 4910.76923077 , 4137.94871795 , 4138.46153846 , 2043.0 , 2035.0 , 131.033 , 0.0 , 0.0 , 0.0 , 0.0 , 

21.0 , 4136.92307692 , 4129.23076923 , 4137.94871795 , 4134.35897436 , 4128.71794872 , 4127.17948718 , 4126.66666667 , 4131.79487179 , 4138.97435897 , 4140.51282051 , 4193.33333333 , 4913.33333333 , 4133.84615385 , 4141.02564103 , 2044.0 , 2037.0 , 131.044 , 0.0 , 0.0 , 0.0 , 0.0 , 

22.0 , 4132.30769231 , 4127.17948718 , 4136.41025641 , 4137.43589744 , 4130.25641026 , 4129.23076923 , 4127.69230769 , 4133.33333333 , 4138.46153846 , 4137.94871795 , 4193.84615385 , 4913.33333333 , 4135.38461538 , 4142.05128205 , 2042.0 , 2038.0 , 131.048 , 0.0 , 0.0 , 0.0 , 0.0 , 

23.0 , 4133.33333333 , 4129.23076923 , 4135.38461538 , 4136.92307692 , 4132.30769231 , 4128.71794872 , 4131.28205128 , 4135.38461538 , 4134.87179487 , 4137.94871795 , 4193.33333333 , 4914.35897436 , 4137.43589744 , 4146.15384615 , 2041.0 , 2038.0 , 131.057 , 0.0 , 0.0 , 0.0 , 0.0 , 

24.0 , 4133.84615385 , 4131.28205128 , 4134.35897436 , 4137.43589744 , 4130.76923077 , 4128.71794872 , 4131.28205128 , 4135.8974359 , 4136.41025641 , 4140.0 , 4191.28205128 , 4910.25641026 , 4136.41025641 , 4143.07692308 , 2042.0 , 2037.0 , 131.063 , 0.0 , 0.0 , 0.0 , 0.0 , 

25.0 , 4134.87179487 , 4129.74358974 , 4133.33333333 , 4136.92307692 , 4129.23076923 , 4130.76923077 , 4126.66666667 , 4133.84615385 , 4139.48717949 , 4139.48717949 , 4194.35897436 , 4912.30769231 , 4136.92307692 , 4145.64102564 , 2041.0 , 2037.0 , 131.074 , 0.0 , 0.0 , 0.0 , 0.0 , 

26.0 , 4131.28205128 , 4129.74358974 , 4132.30769231 , 4136.41025641 , 4132.30769231 , 4132.30769231 , 4127.17948718 , 4134.35897436 , 4136.92307692 , 4137.43589744 , 4194.35897436 , 4913.84615385 , 4137.43589744 , 4141.02564103 , 2040.0 , 2038.0 , 131.079 , 0.0 , 0.0 , 0.0 , 0.0 , 

27.0 , 4132.82051282 , 4131.28205128 , 4133.33333333 , 4136.41025641 , 4133.84615385 , 4129.23076923 , 4126.15384615 , 4135.38461538 , 4133.33333333 , 4139.48717949 , 4190.25641026 , 4913.84615385 , 4135.8974359 , 4135.8974359 , 2042.0 , 2037.0 , 131.088 , 0.0 , 0.0 , 0.0 , 0.0 , 

28.0 , 4134.35897436 , 4131.79487179 , 4133.84615385 , 4137.94871795 , 4131.28205128 , 4130.25641026 , 4126.15384615 , 4134.87179487 , 4136.41025641 , 4142.05128205 , 4189.23076923 , 4914.35897436 , 4134.35897436 , 4137.43589744 , 2043.0 , 2037.0 , 131.095 , 0.0 , 0.0 , 0.0 , 0.0 , 

29.0 , 4131.79487179 , 4131.28205128 , 4135.38461538 , 4135.38461538 , 4130.76923077 , 4131.28205128 , 4126.66666667 , 4133.84615385 , 4140.51282051 , 4139.48717949 , 4192.82051282 , 4914.35897436 , 4135.8974359 , 4141.53846154 , 2042.0 , 2037.0 , 131.106 , 0.0 , 0.0 , 0.0 , 0.0 , 

30.0 , 4132.30769231 , 4128.71794872 , 4137.43589744 , 4134.35897436 , 4132.30769231 , 4128.71794872 , 4128.20512821 , 4136.41025641 , 4136.92307692 , 4136.92307692 , 4192.30769231 , 4913.84615385 , 4136.92307692 , 4139.48717949 , 2041.0 , 2037.0 , 131.11 , 0.0 , 0.0 , 0.0 , 0.0 , 

31.0 , 4136.41025641 , 4127.17948718 , 4135.8974359 , 4135.38461538 , 4130.76923077 , 4128.71794872 , 4129.74358974 , 4136.41025641 , 4132.82051282 , 4138.97435897 , 4192.82051282 , 4914.87179487 , 4136.41025641 , 4139.48717949 , 2043.0 , 2037.0 , 131.12 , 0.0 , 0.0 , 0.0 , 0.0 , 

32.0 , 4136.92307692 , 4129.23076923 , 4134.35897436 , 4134.35897436 , 4128.71794872 , 4130.76923077 , 4128.71794872 , 4133.33333333 , 4133.33333333 , 4138.97435897 , 4194.87179487 , 4914.87179487 , 4135.38461538 , 4143.58974359 , 2043.0 , 2036.0 , 131.126 , 0.0 , 0.0 , 0.0 , 0.0 , 

33.0 , 4134.87179487 , 4130.25641026 , 4134.87179487 , 4133.84615385 , 4130.25641026 , 4131.28205128 , 4128.20512821 , 4135.38461538 , 4137.94871795 , 4138.46153846 , 4192.82051282 , 4911.79487179 , 4134.87179487 , 4142.05128205 , 2043.0 , 2036.0 , 131.138 , 0.0 , 0.0 , 0.0 , 0.0 , 

34.0 , 4136.92307692 , 4125.64102564 , 4136.41025641 , 4134.87179487 , 4129.74358974 , 4129.74358974 , 4127.17948718 , 4135.38461538 , 4137.43589744 , 4140.0 , 4192.82051282 , 4912.82051282 , 4131.79487179 , 4140.0 , 2044.0 , 2035.0 , 131.141 , 0.0 , 0.0 , 0.0 , 0.0 , 

35.0 , 4134.87179487 , 4128.20512821 , 4134.87179487 , 4135.8974359 , 4128.71794872 , 4130.25641026 , 4129.23076923 , 4133.84615385 , 4135.8974359 , 4139.48717949 , 4195.38461538 , 4914.35897436 , 4133.33333333 , 4135.8974359 , 2043.0 , 2035.0 , 131.151 , 0.0 , 0.0 , 0.0 , 0.0 , 

36.0 , 4133.84615385 , 4133.84615385 , 4134.87179487 , 4132.82051282 , 4130.25641026 , 4130.25641026 , 4129.23076923 , 4136.41025641 , 4135.8974359 , 4137.94871795 , 4194.35897436 , 4915.38461538 , 4136.92307692 , 4138.46153846 , 2043.0 , 2035.0 , 131.158 , 0.0 , 0.0 , 0.0 , 0.0 , 

37.0 , 4132.82051282 , 4132.82051282 , 4135.38461538 , 4134.35897436 , 4131.79487179 , 4132.30769231 , 4129.74358974 , 4138.46153846 , 4138.97435897 , 4138.97435897 , 4192.30769231 , 4912.82051282 , 4136.92307692 , 4140.0 , 2044.0 , 2034.0 , 131.169 , 0.0 , 0.0 , 0.0 , 0.0 , 

38.0 , 4134.87179487 , 4127.17948718 , 4137.94871795 , 4136.41025641 , 4131.28205128 , 4132.30769231 , 4128.71794872 , 4134.35897436 , 4137.94871795 , 4139.48717949 , 4192.82051282 , 4914.35897436 , 4136.41025641 , 4144.1025641 , 2045.0 , 2033.0 , 131.174 , 0.0 , 0.0 , 0.0 , 0.0 , 

39.0 , 4135.38461538 , 4130.25641026 , 4135.38461538 , 4137.94871795 , 4131.79487179 , 4130.25641026 , 4131.28205128 , 4134.35897436 , 4133.84615385 , 4138.46153846 , 4192.82051282 , 4914.35897436 , 4138.97435897 , 4139.48717949 , 2043.0 , 2032.0 , 131.183 , 0.0 , 0.0 , 0.0 , 0.0 , 

40.0 , 4137.43589744 , 4132.82051282 , 4135.38461538 , 4135.38461538 , 4132.30769231 , 4128.20512821 , 4132.82051282 , 4134.35897436 , 4133.84615385 , 4137.43589744 , 4193.84615385 , 4913.84615385 , 4137.43589744 , 4142.56410256 , 2043.0 , 2034.0 , 131.189 , 0.0 , 0.0 , 0.0 , 0.0 , 

41.0 , 4132.30769231 , 4130.25641026 , 4138.46153846 , 4134.87179487 , 4131.79487179 , 4129.74358974 , 4131.79487179 , 4134.35897436 , 4136.92307692 , 4137.94871795 , 4194.35897436 , 4911.79487179 , 4134.35897436 , 4141.53846154 , 2044.0 , 2034.0 , 131.201 , 0.0 , 0.0 , 0.0 , 0.0 , 

42.0 , 4132.30769231 , 4129.23076923 , 4135.8974359 , 4134.87179487 , 4130.25641026 , 4128.20512821 , 4126.15384615 , 4134.87179487 , 4136.41025641 , 4140.51282051 , 4192.82051282 , 4914.87179487 , 4136.92307692 , 4142.05128205 , 2044.0 , 2035.0 , 131.204 , 0.0 , 0.0 , 0.0 , 0.0 , 

43.0 , 4133.33333333 , 4131.28205128 , 4129.74358974 , 4137.43589744 , 4132.82051282 , 4128.71794872 , 4125.64102564 , 4133.33333333 , 4137.43589744 , 4139.48717949 , 4191.28205128 , 4911.28205128 , 4138.97435897 , 4137.43589744 , 2044.0 , 2034.0 , 131.213 , 0.0 , 0.0 , 0.0 , 0.0 , 

44.0 , 4134.87179487 , 4130.25641026 , 4132.30769231 , 4137.94871795 , 4132.82051282 , 4130.76923077 , 4127.69230769 , 4130.25641026 , 4138.46153846 , 4134.87179487 , 4192.30769231 , 4910.76923077 , 4137.43589744 , 4139.48717949 , 2042.0 , 2035.0 , 131.221 , 0.0 , 0.0 , 0.0 , 0.0 , 

45.0 , 4133.84615385 , 4131.79487179 , 4135.38461538 , 4137.43589744 , 4131.28205128 , 4131.79487179 , 4129.23076923 , 4135.38461538 , 4137.94871795 , 4135.38461538 , 4191.79487179 , 4913.33333333 , 4137.43589744 , 4140.0 , 2041.0 , 2036.0 , 131.232 , 0.0 , 0.0 , 0.0 , 0.0 , 

46.0 , 4135.8974359 , 4133.33333333 , 4134.35897436 , 4133.33333333 , 4131.28205128 , 4129.74358974 , 4127.17948718 , 4137.94871795 , 4137.43589744 , 4138.97435897 , 4190.76923077 , 4912.82051282 , 4136.92307692 , 4140.51282051 , 2042.0 , 2037.0 , 131.237 , 0.0 , 0.0 , 0.0 , 0.0 , 

47.0 , 4135.8974359 , 4132.82051282 , 4132.82051282 , 4132.82051282 , 4131.28205128 , 4128.71794872 , 4127.69230769 , 4134.35897436 , 4138.97435897 , 4138.97435897 , 4191.79487179 , 4910.76923077 , 4133.33333333 , 4139.48717949 , 2043.0 , 2037.0 , 131.245 , 0.0 , 0.0 , 0.0 , 0.0 , 

48.0 , 4134.87179487 , 4131.79487179 , 4132.30769231 , 4135.38461538 , 4130.25641026 , 4127.17948718 , 4128.20512821 , 4132.82051282 , 4137.43589744 , 4137.43589744 , 4193.33333333 , 4911.28205128 , 4136.41025641 , 4139.48717949 , 2043.0 , 2037.0 , 131.253 , 0.0 , 0.0 , 0.0 , 0.0 , 

49.0 , 4134.87179487 , 4128.20512821 , 4133.84615385 , 4134.35897436 , 4131.79487179 , 4127.69230769 , 4128.71794872 , 4134.35897436 , 4136.92307692 , 4138.46153846 , 4193.84615385 , 4911.79487179 , 4141.02564103 , 4141.02564103 , 2043.0 , 2038.0 , 131.264 , 0.0 , 0.0 , 0.0 , 0.0 , 

50.0 , 4133.33333333 , 4127.17948718 , 4133.84615385 , 4131.79487179 , 4133.33333333 , 4131.79487179 , 4128.20512821 , 4134.35897436 , 4139.48717949 , 4138.46153846 , 4193.84615385 , 4913.84615385 , 4137.94871795 , 4141.02564103 , 2042.0 , 2037.0 , 131.268 , 0.0 , 0.0 , 0.0 , 0.0 , 

51.0 , 4132.30769231 , 4131.28205128 , 4132.82051282 , 4131.79487179 , 4133.33333333 , 4134.35897436 , 4126.66666667 , 4132.30769231 , 4136.41025641 , 4138.46153846 , 4192.82051282 , 4916.92307692 , 4133.33333333 , 4142.05128205 , 2043.0 , 2037.0 , 131.277 , 0.0 , 0.0 , 0.0 , 0.0 , 

52.0 , 4133.84615385 , 4132.82051282 , 4135.8974359 , 4134.35897436 , 4134.87179487 , 4132.82051282 , 4127.69230769 , 4132.82051282 , 4134.87179487 , 4138.46153846 , 4192.30769231 , 4913.84615385 , 4135.8974359 , 4138.97435897 , 2043.0 , 2036.0 , 131.284 , 0.0 , 0.0 , 0.0 , 0.0 , 

53.0 , 4136.92307692 , 4127.17948718 , 4137.94871795 , 4135.38461538 , 4135.8974359 , 4131.28205128 , 4128.71794872 , 4135.8974359 , 4136.92307692 , 4139.48717949 , 4194.35897436 , 4914.87179487 , 4136.41025641 , 4138.97435897 , 2043.0 , 2037.0 , 131.296 , 0.0 , 0.0 , 0.0 , 0.0 , 

54.0 , 4132.82051282 , 4127.69230769 , 4135.8974359 , 4136.41025641 , 4135.38461538 , 4131.79487179 , 4130.76923077 , 4137.94871795 , 4135.38461538 , 4139.48717949 , 4193.33333333 , 4914.87179487 , 4136.41025641 , 4137.43589744 , 2044.0 , 2037.0 , 131.3 , 0.0 , 0.0 , 0.0 , 0.0 , 

55.0 , 4129.74358974 , 4130.25641026 , 4136.41025641 , 4135.8974359 , 4133.84615385 , 4128.71794872 , 4128.20512821 , 4134.35897436 , 4134.87179487 , 4137.94871795 , 4190.76923077 , 4912.30769231 , 4136.41025641 , 4140.0 , 2042.0 , 2037.0 , 131.309 , 0.0 , 0.0 , 0.0 , 0.0 , 

56.0 , 4130.25641026 , 4131.28205128 , 4135.38461538 , 4137.94871795 , 4132.82051282 , 4127.69230769 , 4126.66666667 , 4133.33333333 , 4139.48717949 , 4137.94871795 , 4190.76923077 , 4909.23076923 , 4135.38461538 , 4133.84615385 , 2043.0 , 2038.0 , 131.317 , 0.0 , 0.0 , 0.0 , 0.0 , 

57.0 , 4134.87179487 , 4130.25641026 , 4130.76923077 , 4136.41025641 , 4131.79487179 , 4128.71794872 , 4127.17948718 , 4133.84615385 , 4137.43589744 , 4138.97435897 , 4193.84615385 , 4913.33333333 , 4134.35897436 , 4135.38461538 , 2043.0 , 2035.0 , 131.328 , 0.0 , 0.0 , 0.0 , 0.0 , 

58.0 , 4132.82051282 , 4128.20512821 , 4130.76923077 , 4134.87179487 , 4133.33333333 , 4131.79487179 , 4128.71794872 , 4134.87179487 , 4136.92307692 , 4138.46153846 , 4192.82051282 , 4911.28205128 , 4134.87179487 , 4137.43589744 , 2043.0 , 2036.0 , 131.33 , 0.0 , 0.0 , 0.0 , 0.0 , 

59.0 , 4133.33333333 , 4128.71794872 , 4137.94871795 , 4131.28205128 , 4132.30769231 , 4129.23076923 , 4123.58974359 , 4133.84615385 , 4137.94871795 , 4138.46153846 , 4190.76923077 , 4911.79487179 , 4133.84615385 , 4141.53846154 , 2043.0 , 2037.0 , 131.34 , 0.0 , 0.0 , 0.0 , 0.0 , 

60.0 , 4133.84615385 , 4133.33333333 , 4137.94871795 , 4131.28205128 , 4131.79487179 , 4128.20512821 , 4125.12820513 , 4134.87179487 , 4135.38461538 , 4138.97435897 , 4190.25641026 , 4911.79487179 , 4137.43589744 , 4138.46153846 , 2044.0 , 2037.0 , 131.347 , 0.0 , 0.0 , 0.0 , 0.0 , 

61.0 , 4137.94871795 , 4132.30769231 , 4135.38461538 , 4131.79487179 , 4132.82051282 , 4127.69230769 , 4129.23076923 , 4134.35897436 , 4133.33333333 , 4137.94871795 , 4192.30769231 , 4914.35897436 , 4138.97435897 , 4142.05128205 , 2044.0 , 2037.0 , 131.359 , 0.0 , 0.0 , 0.0 , 0.0 , 

62.0 , 4137.94871795 , 4129.23076923 , 4135.38461538 , 4131.79487179 , 4133.33333333 , 4129.74358974 , 4132.30769231 , 4132.82051282 , 4137.43589744 , 4137.94871795 , 4193.84615385 , 4913.33333333 , 4133.33333333 , 4140.51282051 , 2043.0 , 2037.0 , 131.362 , 0.0 , 0.0 , 0.0 , 0.0 , 

63.0 , 4135.38461538 , 4129.74358974 , 4136.92307692 , 4132.82051282 , 4131.79487179 , 4130.25641026 , 4131.79487179 , 4133.33333333 , 4136.92307692 , 4138.97435897 , 4194.35897436 , 4913.84615385 , 4134.87179487 , 4141.02564103 , 2042.0 , 2036.0 , 131.371 , 0.0 , 0.0 , 0.0 , 0.0 , 

64.0 , 4132.82051282 , 4132.30769231 , 4135.8974359 , 4135.38461538 , 4131.28205128 , 4131.28205128 , 4130.76923077 , 4134.87179487 , 4132.82051282 , 4137.94871795 , 4192.82051282 , 4912.82051282 , 4138.46153846 , 4140.0 , 2042.0 , 2036.0 , 131.38 , 0.0 , 0.0 , 0.0 , 0.0 , 

65.0 , 4133.84615385 , 4129.23076923 , 4134.87179487 , 4133.33333333 , 4132.82051282 , 4129.74358974 , 4127.17948718 , 4133.84615385 , 4133.84615385 , 4137.43589744 , 4191.28205128 , 4912.82051282 , 4133.33333333 , 4140.0 , 2042.0 , 2035.0 , 131.39 , 0.0 , 0.0 , 0.0 , 0.0 , 

66.0 , 4132.82051282 , 4128.71794872 , 4133.84615385 , 4132.30769231 , 4134.35897436 , 4128.71794872 , 4126.66666667 , 4133.33333333 , 4136.92307692 , 4138.46153846 , 4190.76923077 , 4911.79487179 , 4129.74358974 , 4137.94871795 , 2042.0 , 2036.0 , 131.393 , 0.0 , 0.0 , 0.0 , 0.0 , 

67.0 , 4129.23076923 , 4133.84615385 , 4134.87179487 , 4135.38461538 , 4133.84615385 , 4128.71794872 , 4128.20512821 , 4136.41025641 , 4134.35897436 , 4138.46153846 , 4190.25641026 , 4912.30769231 , 4135.38461538 , 4138.97435897 , 2042.0 , 2035.0 , 131.403 , 0.0 , 0.0 , 0.0 , 0.0 , 

68.0 , 4129.23076923 , 4133.84615385 , 4137.43589744 , 4135.38461538 , 4132.30769231 , 4128.20512821 , 4127.69230769 , 4136.41025641 , 4132.82051282 , 4137.43589744 , 4189.74358974 , 4913.84615385 , 4137.43589744 , 4142.56410256 , 2042.0 , 2035.0 , 131.411 , 0.0 , 0.0 , 0.0 , 0.0 , 

69.0 , 4132.30769231 , 4130.76923077 , 4136.92307692 , 4134.87179487 , 4132.30769231 , 4127.17948718 , 4126.66666667 , 4132.30769231 , 4137.94871795 , 4137.43589744 , 4191.28205128 , 4913.84615385 , 4134.35897436 , 4140.51282051 , 2042.0 , 2034.0 , 131.422 , 0.0 , 0.0 , 0.0 , 0.0 , 

70.0 , 4136.41025641 , 4131.79487179 , 4134.87179487 , 4135.8974359 , 4133.84615385 , 4128.71794872 , 4127.17948718 , 4131.28205128 , 4137.94871795 , 4138.46153846 , 4192.30769231 , 4912.30769231 , 4131.28205128 , 4139.48717949 , 2043.0 , 2034.0 , 131.425 , 0.0 , 0.0 , 0.0 , 0.0 , 

71.0 , 4136.92307692 , 4132.82051282 , 4135.38461538 , 4135.38461538 , 4133.33333333 , 4129.74358974 , 4128.71794872 , 4133.84615385 , 4133.33333333 , 4137.94871795 , 4191.28205128 , 4907.69230769 , 4134.35897436 , 4139.48717949 , 2044.0 , 2035.0 , 131.435 , 0.0 , 0.0 , 0.0 , 0.0 , 

72.0 , 4135.8974359 , 4132.30769231 , 4138.46153846 , 4131.79487179 , 4131.79487179 , 4124.61538462 , 4128.71794872 , 4134.87179487 , 4135.8974359 , 4137.94871795 , 4192.30769231 , 4909.23076923 , 4136.41025641 , 4142.56410256 , 2043.0 , 2035.0 , 131.443 , 0.0 , 0.0 , 0.0 , 0.0 , 

73.0 , 4133.33333333 , 4133.84615385 , 4136.41025641 , 4132.82051282 , 4131.79487179 , 4127.69230769 , 4130.25641026 , 4134.87179487 , 4141.53846154 , 4138.97435897 , 4192.82051282 , 4909.74358974 , 4137.43589744 , 4137.94871795 , 2043.0 , 2035.0 , 131.454 , 0.0 , 0.0 , 0.0 , 0.0 , 

74.0 , 4133.84615385 , 4131.79487179 , 4134.35897436 , 4132.30769231 , 4132.30769231 , 4133.33333333 , 4127.69230769 , 4133.84615385 , 4139.48717949 , 4138.46153846 , 4191.79487179 , 4912.30769231 , 4136.92307692 , 4140.51282051 , 2042.0 , 2035.0 , 131.458 , 0.0 , 0.0 , 0.0 , 0.0 , 

75.0 , 4131.79487179 , 4129.74358974 , 4134.35897436 , 4132.82051282 , 4133.33333333 , 4133.33333333 , 4126.66666667 , 4135.8974359 , 4135.8974359 , 4137.43589744 , 4190.76923077 , 4912.30769231 , 4137.43589744 , 4141.02564103 , 2044.0 , 2034.0 , 131.465 , 0.0 , 0.0 , 0.0 , 0.0 , 

76.0 , 4134.35897436 , 4130.76923077 , 4135.8974359 , 4133.33333333 , 4131.79487179 , 4130.76923077 , 4129.23076923 , 4135.38461538 , 4134.87179487 , 4137.94871795 , 4192.30769231 , 4912.82051282 , 4136.92307692 , 4143.58974359 , 2043.0 , 2035.0 , 131.473 , 0.0 , 0.0 , 0.0 , 0.0 , 

77.0 , 4133.84615385 , 4131.28205128 , 4132.82051282 , 4134.35897436 , 4133.33333333 , 4132.82051282 , 4131.28205128 , 4133.84615385 , 4134.87179487 , 4138.97435897 , 4193.84615385 , 4910.25641026 , 4137.94871795 , 4139.48717949 , 2042.0 , 2036.0 , 131.485 , 0.0 , 0.0 , 0.0 , 0.0 , 

78.0 , 4134.87179487 , 4128.71794872 , 4133.33333333 , 4131.28205128 , 4136.92307692 , 4131.28205128 , 4125.12820513 , 4132.30769231 , 4134.87179487 , 4138.97435897 , 4192.82051282 , 4911.79487179 , 4134.87179487 , 4142.56410256 , 2043.0 , 2036.0 , 131.489 , 0.0 , 0.0 , 0.0 , 0.0 , 

79.0 , 4134.87179487 , 4130.25641026 , 4133.84615385 , 4132.82051282 , 4135.38461538 , 4131.79487179 , 4125.12820513 , 4134.35897436 , 4137.94871795 , 4137.94871795 , 4191.79487179 , 4911.79487179 , 4133.33333333 , 4138.46153846 , 2044.0 , 2035.0 , 131.497 , 0.0 , 0.0 , 0.0 , 0.0 , 

80.0 , 4136.41025641 , 4131.79487179 , 4133.84615385 , 4135.38461538 , 4128.71794872 , 4131.28205128 , 4128.20512821 , 4133.84615385 , 4137.94871795 , 4136.41025641 , 4192.30769231 , 4913.33333333 , 4138.97435897 , 4137.94871795 , 2043.0 , 2037.0 , 131.505 , 0.0 , 0.0 , 0.0 , 0.0 , 

81.0 , 4133.33333333 , 4132.30769231 , 4134.87179487 , 4135.8974359 , 4130.25641026 , 4128.71794872 , 4129.23076923 , 4134.35897436 , 4135.38461538 , 4138.46153846 , 4190.25641026 , 4913.84615385 , 4136.92307692 , 4138.46153846 , 2042.0 , 2038.0 , 131.517 , 0.0 , 0.0 , 0.0 , 0.0 , 

82.0 , 4135.8974359 , 4132.82051282 , 4137.94871795 , 4132.82051282 , 4133.84615385 , 4128.20512821 , 4127.17948718 , 4134.87179487 , 4135.38461538 , 4139.48717949 , 4189.74358974 , 4915.38461538 , 4131.28205128 , 4142.05128205 , 2042.0 , 2037.0 , 131.522 , 0.0 , 0.0 , 0.0 , 0.0 , 

83.0 , 4135.8974359 , 4132.82051282 , 4136.41025641 , 4134.35897436 , 4130.76923077 , 4130.25641026 , 4127.17948718 , 4133.33333333 , 4138.46153846 , 4140.0 , 4191.28205128 , 4913.33333333 , 4134.87179487 , 4138.97435897 , 2042.0 , 2037.0 , 131.528 , 0.0 , 0.0 , 0.0 , 0.0 , 

84.0 , 4133.33333333 , 4129.23076923 , 4133.84615385 , 4137.94871795 , 4128.71794872 , 4128.71794872 , 4126.66666667 , 4131.79487179 , 4136.41025641 , 4138.97435897 , 4191.79487179 , 4913.33333333 , 4138.46153846 , 4137.43589744 , 2043.0 , 2037.0 , 131.537 , 0.0 , 0.0 , 0.0 , 0.0 , 

85.0 , 4133.33333333 , 4128.20512821 , 4133.33333333 , 4137.94871795 , 4132.30769231 , 4128.20512821 , 4126.66666667 , 4133.84615385 , 4136.41025641 , 4137.43589744 , 4191.28205128 , 4913.33333333 , 4136.41025641 , 4138.46153846 , 2042.0 , 2037.0 , 131.548 , 0.0 , 0.0 , 0.0 , 0.0 , 

86.0 , 4134.35897436 , 4131.28205128 , 4134.35897436 , 4134.87179487 , 4132.30769231 , 4129.74358974 , 4126.66666667 , 4135.8974359 , 4138.46153846 , 4138.97435897 , 4192.82051282 , 4913.33333333 , 4136.92307692 , 4140.51282051 , 2042.0 , 2036.0 , 131.552 , 0.0 , 0.0 , 0.0 , 0.0 , 

87.0 , 4133.33333333 , 4130.25641026 , 4135.8974359 , 4134.87179487 , 4130.76923077 , 4130.25641026 , 4124.1025641 , 4132.82051282 , 4135.38461538 , 4141.02564103 , 4192.30769231 , 4912.82051282 , 4134.87179487 , 4142.05128205 , 2042.0 , 2038.0 , 131.56 , 0.0 , 0.0 , 0.0 , 0.0 , 

88.0 , 4132.30769231 , 4128.71794872 , 4133.84615385 , 4136.92307692 , 4132.82051282 , 4129.23076923 , 4125.64102564 , 4131.28205128 , 4134.35897436 , 4139.48717949 , 4192.30769231 , 4911.79487179 , 4132.82051282 , 4141.02564103 , 2043.0 , 2038.0 , 131.569 , 0.0 , 0.0 , 0.0 , 0.0 , 

89.0 , 4135.38461538 , 4130.76923077 , 4132.30769231 , 4134.35897436 , 4133.84615385 , 4125.12820513 , 4129.74358974 , 4132.30769231 , 4137.43589744 , 4137.94871795 , 4193.33333333 , 4913.33333333 , 4133.84615385 , 4143.58974359 , 2041.0 , 2038.0 , 131.58 , 0.0 , 0.0 , 0.0 , 0.0 , 

90.0 , 4136.41025641 , 4132.30769231 , 4134.35897436 , 4134.87179487 , 4134.35897436 , 4125.64102564 , 4129.74358974 , 4134.35897436 , 4140.51282051 , 4138.97435897 , 4192.30769231 , 4914.35897436 , 4135.8974359 , 4142.56410256 , 2042.0 , 2037.0 , 131.584 , 0.0 , 0.0 , 0.0 , 0.0 , 

91.0 , 4135.8974359 , 4131.28205128 , 4137.43589744 , 4133.84615385 , 4132.30769231 , 4130.76923077 , 4127.17948718 , 4132.82051282 , 4136.92307692 , 4138.97435897 , 4191.28205128 , 4914.35897436 , 4134.35897436 , 4142.56410256 , 2043.0 , 2037.0 , 131.592 , 0.0 , 0.0 , 0.0 , 0.0 , 

92.0 , 4131.28205128 , 4130.76923077 , 4133.33333333 , 4132.30769231 , 4132.82051282 , 4132.82051282 , 4129.74358974 , 4132.82051282 , 4133.33333333 , 4140.0 , 4191.28205128 , 4912.30769231 , 4135.38461538 , 4136.92307692 , 2043.0 , 2038.0 , 131.6 , 0.0 , 0.0 , 0.0 , 0.0 , 

93.0 , 4133.33333333 , 4127.17948718 , 4130.76923077 , 4134.87179487 , 4134.35897436 , 4127.69230769 , 4129.23076923 , 4133.33333333 , 4133.84615385 , 4139.48717949 , 4192.30769231 , 4913.84615385 , 4135.8974359 , 4138.97435897 , 2043.0 , 2039.0 , 131.611 , 0.0 , 0.0 , 0.0 , 0.0 , 

94.0 , 4133.33333333 , 4126.66666667 , 4132.82051282 , 4138.46153846 , 4133.84615385 , 4129.23076923 , 4125.64102564 , 4132.82051282 , 4137.43589744 , 4139.48717949 , 4191.28205128 , 4909.23076923 , 4134.87179487 , 4137.94871795 , 2044.0 , 2037.0 , 131.614 , 0.0 , 0.0 , 0.0 , 0.0 , 

95.0 , 4134.35897436 , 4129.23076923 , 4136.92307692 , 4136.41025641 , 4131.79487179 , 4128.71794872 , 4124.1025641 , 4131.79487179 , 4136.41025641 , 4141.02564103 , 4190.76923077 , 4910.25641026 , 4133.84615385 , 4140.0 , 2044.0 , 2038.0 , 131.624 , 0.0 , 0.0 , 0.0 , 0.0 , 

96.0 , 4133.33333333 , 4130.25641026 , 4136.41025641 , 4137.94871795 , 4133.33333333 , 4126.15384615 , 4128.71794872 , 4134.87179487 , 4134.87179487 , 4139.48717949 , 4189.74358974 , 4913.33333333 , 4135.38461538 , 4137.43589744 , 2045.0 , 2037.0 , 131.632 , 0.0 , 0.0 , 0.0 , 0.0 , 

97.0 , 4136.41025641 , 4128.20512821 , 4135.8974359 , 4138.46153846 , 4133.84615385 , 4125.12820513 , 4129.23076923 , 4134.87179487 , 4136.41025641 , 4136.92307692 , 4191.79487179 , 4916.41025641 , 4137.43589744 , 4144.61538462 , 2044.0 , 2036.0 , 131.643 , 0.0 , 0.0 , 0.0 , 0.0 , 

98.0 , 4134.87179487 , 4130.76923077 , 4134.35897436 , 4136.92307692 , 4131.79487179 , 4128.71794872 , 4128.20512821 , 4132.82051282 , 4139.48717949 , 4138.97435897 , 4192.30769231 , 4911.28205128 , 4136.92307692 , 4143.58974359 , 2045.0 , 2037.0 , 131.646 , 0.0 , 0.0 , 0.0 , 0.0 , 

99.0 , 4134.87179487 , 4131.28205128 , 4135.38461538 , 4134.35897436 , 4131.28205128 , 4128.71794872 , 4127.69230769 , 4130.25641026 , 4137.94871795 , 4140.0 , 4190.76923077 , 4911.28205128 , 4137.43589744 , 4140.51282051 , 2044.0 , 2036.0 , 131.655 , 0.0 , 0.0 , 0.0 , 0.0 , 

100.0 , 4133.33333333 , 4129.23076923 , 4136.41025641 , 4134.87179487 , 4131.79487179 , 4130.25641026 , 4130.25641026 , 4130.76923077 , 4136.41025641 , 4137.94871795 , 4191.79487179 , 4913.33333333 , 4135.38461538 , 4138.46153846 , 2044.0 , 2036.0 , 131.662 , 0.0 , 0.0 , 0.0 , 0.0 , 

101.0 , 4133.33333333 , 4130.25641026 , 4136.92307692 , 4135.8974359 , 4131.28205128 , 4131.28205128 , 4128.20512821 , 4131.28205128 , 4137.94871795 , 4138.46153846 , 4194.35897436 , 4914.87179487 , 4133.84615385 , 4142.05128205 , 2044.0 , 2036.0 , 131.675 , 0.0 , 0.0 , 0.0 , 0.0 , 

102.0 , 4133.84615385 , 4134.87179487 , 4135.38461538 , 4138.46153846 , 4133.33333333 , 4132.30769231 , 4126.15384615 , 4132.82051282 , 4138.97435897 , 4140.51282051 , 4192.82051282 , 4913.84615385 , 4135.38461538 , 4141.02564103 , 2043.0 , 2035.0 , 131.677 , 0.0 , 0.0 , 0.0 , 0.0 , 

103.0 , 4134.35897436 , 4134.35897436 , 4135.38461538 , 4137.94871795 , 4131.79487179 , 4131.28205128 , 4127.17948718 , 4131.79487179 , 4134.87179487 , 4140.0 , 4191.79487179 , 4912.30769231 , 4133.33333333 , 4140.0 , 2044.0 , 2034.0 , 131.687 , 0.0 , 0.0 , 0.0 , 0.0 , 

104.0 , 4132.30769231 , 4130.25641026 , 4135.8974359 , 4135.38461538 , 4130.25641026 , 4130.76923077 , 4127.17948718 , 4130.25641026 , 4135.38461538 , 4138.46153846 , 4192.30769231 , 4911.28205128 , 4129.23076923 , 4138.97435897 , 2045.0 , 2033.0 , 131.694 , 0.0 , 0.0 , 0.0 , 0.0 , 

105.0 , 4130.76923077 , 4131.79487179 , 4135.8974359 , 4135.8974359 , 4132.82051282 , 4130.76923077 , 4126.15384615 , 4130.76923077 , 4140.51282051 , 4138.46153846 , 4191.28205128 , 4911.28205128 , 4132.82051282 , 4138.46153846 , 2042.0 , 2034.0 , 131.705 , 0.0 , 0.0 , 0.0 , 0.0 , 

106.0 , 4133.84615385 , 4131.28205128 , 4135.38461538 , 4135.38461538 , 4133.84615385 , 4128.20512821 , 4126.66666667 , 4129.74358974 , 4138.46153846 , 4138.97435897 , 4189.74358974 , 4913.33333333 , 4136.41025641 , 4140.0 , 2043.0 , 2035.0 , 131.708 , 0.0 , 0.0 , 0.0 , 0.0 , 

107.0 , 4134.87179487 , 4127.69230769 , 4132.30769231 , 4133.84615385 , 4128.20512821 , 4127.69230769 , 4127.69230769 , 4130.25641026 , 4134.35897436 , 4138.46153846 , 4191.28205128 , 4913.84615385 , 4132.82051282 , 4137.43589744 , 2042.0 , 2034.0 , 131.717 , 0.0 , 0.0 , 0.0 , 0.0 , 

108.0 , 4133.84615385 , 4130.25641026 , 4133.84615385 , 4134.35897436 , 4125.64102564 , 4128.71794872 , 4126.66666667 , 4133.33333333 , 4133.84615385 , 4135.38461538 , 4192.82051282 , 4915.8974359 , 4129.74358974 , 4137.94871795 , 2042.0 , 2033.0 , 131.725 , 0.0 , 0.0 , 0.0 , 0.0 , 

109.0 , 4132.82051282 , 4136.41025641 , 4139.48717949 , 4137.43589744 , 4130.25641026 , 4127.17948718 , 4127.17948718 , 4134.35897436 , 4135.8974359 , 4136.41025641 , 4192.82051282 , 4912.82051282 , 4135.38461538 , 4140.51282051 , 2042.0 , 2033.0 , 131.737 , 0.0 , 0.0 , 0.0 , 0.0 , 

110.0 , 4136.41025641 , 4132.82051282 , 4140.51282051 , 4134.87179487 , 4131.79487179 , 4126.66666667 , 4128.20512821 , 4132.30769231 , 4135.38461538 , 4140.0 , 4193.33333333 , 4910.76923077 , 4138.97435897 , 4144.1025641 , 2043.0 , 2032.0 , 131.741 , 0.0 , 0.0 , 0.0 , 0.0 , 

111.0 , 4134.35897436 , 4128.20512821 , 4135.38461538 , 4133.84615385 , 4130.76923077 , 4130.76923077 , 4129.74358974 , 4134.35897436 , 4134.87179487 , 4139.48717949 , 4192.82051282 , 4911.28205128 , 4134.35897436 , 4138.46153846 , 2041.0 , 2034.0 , 131.749 , 0.0 , 0.0 , 0.0 , 0.0 , 

112.0 , 4133.84615385 , 4128.71794872 , 4135.8974359 , 4134.35897436 , 4130.76923077 , 4127.69230769 , 4127.17948718 , 4134.35897436 , 4134.35897436 , 4136.92307692 , 4191.79487179 , 4916.41025641 , 4131.28205128 , 4141.53846154 , 2041.0 , 2032.0 , 131.757 , 0.0 , 0.0 , 0.0 , 0.0 , 

113.0 , 4132.82051282 , 4131.28205128 , 4137.94871795 , 4135.8974359 , 4132.82051282 , 4127.69230769 , 4126.15384615 , 4134.87179487 , 4136.92307692 , 4138.46153846 , 4192.30769231 , 4912.30769231 , 4134.87179487 , 4141.02564103 , 2041.0 , 2033.0 , 131.769 , 0.0 , 0.0 , 0.0 , 0.0 , 

114.0 , 4135.8974359 , 4130.76923077 , 4136.41025641 , 4135.38461538 , 4132.82051282 , 4130.25641026 , 4125.64102564 , 4133.84615385 , 4137.43589744 , 4138.97435897 , 4193.84615385 , 4910.76923077 , 4135.38461538 , 4144.1025641 , 2042.0 , 2033.0 , 131.772 , 0.0 , 0.0 , 0.0 , 0.0 , 

115.0 , 4133.33333333 , 4130.76923077 , 4134.87179487 , 4136.92307692 , 4133.84615385 , 4131.79487179 , 4127.69230769 , 4133.84615385 , 4135.8974359 , 4138.46153846 , 4192.82051282 , 4911.79487179 , 4135.38461538 , 4138.46153846 , 2042.0 , 2033.0 , 131.78 , 0.0 , 0.0 , 0.0 , 0.0 , 

116.0 , 4133.84615385 , 4129.74358974 , 4136.92307692 , 4135.8974359 , 4133.84615385 , 4129.23076923 , 4126.15384615 , 4131.28205128 , 4134.35897436 , 4137.94871795 , 4192.82051282 , 4913.84615385 , 4134.87179487 , 4140.51282051 , 2042.0 , 2033.0 , 131.789 , 0.0 , 0.0 , 0.0 , 0.0 , 

117.0 , 4134.87179487 , 4130.25641026 , 4135.38461538 , 4135.38461538 , 4131.79487179 , 4131.28205128 , 4124.61538462 , 4131.79487179 , 4136.92307692 , 4137.94871795 , 4191.79487179 , 4911.28205128 , 4133.84615385 , 4141.53846154 , 2043.0 , 2034.0 , 131.801 , 0.0 , 0.0 , 0.0 , 0.0 , 

118.0 , 4134.87179487 , 4130.25641026 , 4135.38461538 , 4135.8974359 , 4132.30769231 , 4129.23076923 , 4123.58974359 , 4132.82051282 , 4136.92307692 , 4137.43589744 , 4190.76923077 , 4913.33333333 , 4134.87179487 , 4143.58974359 , 2045.0 , 2035.0 , 131.804 , 0.0 , 0.0 , 0.0 , 0.0 , 

119.0 , 4130.76923077 , 4131.79487179 , 4136.41025641 , 4135.8974359 , 4134.35897436 , 4128.20512821 , 4124.1025641 , 4133.84615385 , 4134.35897436 , 4137.43589744 , 4191.28205128 , 4912.30769231 , 4136.92307692 , 4140.0 , 2044.0 , 2035.0 , 131.813 , 0.0 , 0.0 , 0.0 , 0.0 , 

120.0 , 4133.84615385 , 4133.33333333 , 4135.38461538 , 4133.84615385 , 4133.33333333 , 4129.74358974 , 4123.58974359 , 4133.33333333 , 4135.38461538 , 4139.48717949 , 4191.79487179 , 4911.28205128 , 4135.38461538 , 4139.48717949 , 2044.0 , 2035.0 , 131.82 , 0.0 , 0.0 , 0.0 , 0.0 , 

121.0 , 4137.43589744 , 4133.84615385 , 4134.87179487 , 4135.38461538 , 4131.79487179 , 4129.23076923 , 4124.61538462 , 4133.33333333 , 4139.48717949 , 4140.51282051 , 4190.25641026 , 4912.30769231 , 4133.84615385 , 4137.43589744 , 2043.0 , 2036.0 , 131.832 , 0.0 , 0.0 , 0.0 , 0.0 , 

122.0 , 4136.41025641 , 4134.87179487 , 4135.8974359 , 4136.41025641 , 4130.76923077 , 4128.20512821 , 4125.12820513 , 4132.30769231 , 4137.43589744 , 4138.97435897 , 4190.76923077 , 4913.33333333 , 4137.43589744 , 4140.0 , 2044.0 , 2036.0 , 131.836 , 0.0 , 0.0 , 0.0 , 0.0 , 

123.0 , 4135.8974359 , 4135.38461538 , 4136.41025641 , 4133.33333333 , 4130.76923077 , 4127.69230769 , 4127.17948718 , 4131.79487179 , 4133.33333333 , 4137.43589744 , 4192.30769231 , 4910.76923077 , 4137.94871795 , 4144.1025641 , 2044.0 , 2036.0 , 131.844 , 0.0 , 0.0 , 0.0 , 0.0 , 

124.0 , 4135.38461538 , 4134.35897436 , 4135.38461538 , 4134.35897436 , 4130.76923077 , 4125.12820513 , 4127.69230769 , 4133.33333333 , 4134.35897436 , 4137.94871795 , 4192.82051282 , 4911.28205128 , 4136.92307692 , 4141.53846154 , 2044.0 , 2036.0 , 131.851 , 0.0 , 0.0 , 0.0 , 0.0 , 

125.0 , 4133.33333333 , 4131.79487179 , 4134.35897436 , 4136.92307692 , 4131.79487179 , 4124.61538462 , 4125.12820513 , 4132.82051282 , 4134.87179487 , 4137.43589744 , 4193.33333333 , 4913.84615385 , 4134.87179487 , 4140.51282051 , 2044.0 , 2036.0 , 131.864 , 0.0 , 0.0 , 0.0 , 0.0 , 

126.0 , 4132.82051282 , 4129.74358974 , 4134.35897436 , 4135.8974359 , 4130.76923077 , 4130.25641026 , 4125.64102564 , 4132.82051282 , 4135.8974359 , 4137.43589744 , 4193.33333333 , 4914.35897436 , 4136.92307692 , 4143.07692308 , 2042.0 , 2039.0 , 131.867 , 0.0 , 0.0 , 0.0 , 0.0 , 

127.0 , 4134.87179487 , 4130.76923077 , 4135.8974359 , 4133.33333333 , 4130.25641026 , 4129.23076923 , 4127.69230769 , 4131.79487179 , 4137.94871795 , 4137.94871795 , 4192.82051282 , 4918.46153846 , 4137.43589744 , 4143.07692308 , 2041.0 , 2039.0 , 131.877 , 0.0 , 0.0 , 0.0 , 0.0 , 

128.0 , 4130.76923077 , 4132.82051282 , 4135.38461538 , 4136.92307692 , 4131.28205128 , 4126.66666667 , 4127.17948718 , 4130.76923077 , 4136.92307692 , 4138.97435897 , 4191.79487179 , 4914.35897436 , 4133.33333333 , 4136.92307692 , 2041.0 , 2036.0 , 131.883 , 0.0 , 0.0 , 0.0 , 0.0 , 

0.0 , 4132.82051282 , 4128.71794872 , 4136.41025641 , 4136.92307692 , 4132.30769231 , 4127.17948718 , 4123.07692308 , 4130.25641026 , 4135.8974359 , 4140.0 , 4190.25641026 , 4912.82051282 , 4130.25641026 , 4141.02564103 , 2041.0 , 2036.0 , 131.894 , 0.0 , 0.0 , 0.0 , 0.0 , 

1.0 , 4135.38461538 , 4128.20512821 , 4134.35897436 , 4136.92307692 , 4133.84615385 , 4129.74358974 , 4124.61538462 , 4133.84615385 , 4139.48717949 , 4138.97435897 , 4190.76923077 , 4911.79487179 , 4134.35897436 , 4138.97435897 , 2042.0 , 2039.0 , 131.899 , 0.0 , 0.0 , 0.0 , 0.0 , 

2.0 , 4134.87179487 , 4132.30769231 , 4133.33333333 , 4135.38461538 , 4131.79487179 , 4127.69230769 , 4125.64102564 , 4132.82051282 , 4138.46153846 , 4137.94871795 , 4192.30769231 , 4910.25641026 , 4137.43589744 , 4138.46153846 , 2042.0 , 2036.0 , 131.908 , 0.0 , 0.0 , 0.0 , 0.0 , 

3.0 , 4132.30769231 , 4131.79487179 , 4135.38461538 , 4134.87179487 , 4130.76923077 , 4126.66666667 , 4125.64102564 , 4131.28205128 , 4136.92307692 , 4138.46153846 , 4191.28205128 , 4907.17948718 , 4135.8974359 , 4135.8974359 , 2043.0 , 2037.0 , 131.914 , 0.0 , 0.0 , 0.0 , 0.0 , 

4.0 , 4138.46153846 , 4128.20512821 , 4139.48717949 , 4132.82051282 , 4129.74358974 , 4128.20512821 , 4125.64102564 , 4131.28205128 , 4135.8974359 , 4136.92307692 , 4189.74358974 , 4912.82051282 , 4133.84615385 , 4141.02564103 , 2042.0 , 2038.0 , 131.925 , 0.0 , 0.0 , 0.0 , 0.0 , 

5.0 , 4136.92307692 , 4132.82051282 , 4133.84615385 , 4132.30769231 , 4130.76923077 , 4131.28205128 , 4129.23076923 , 4134.87179487 , 4136.41025641 , 4136.92307692 , 4190.25641026 , 4914.35897436 , 4135.8974359 , 4140.0 , 2044.0 , 2037.0 , 131.93 , 0.0 , 0.0 , 0.0 , 0.0 , 

6.0 , 4136.92307692 , 4134.87179487 , 4134.35897436 , 4130.25641026 , 4134.87179487 , 4128.20512821 , 4128.20512821 , 4133.33333333 , 4135.38461538 , 4138.46153846 , 4192.30769231 , 4912.30769231 , 4135.38461538 , 4142.56410256 , 2043.0 , 2035.0 , 131.939 , 0.0 , 0.0 , 0.0 , 0.0 , 

7.0 , 4135.8974359 , 4130.76923077 , 4138.97435897 , 4132.82051282 , 4135.38461538 , 4129.23076923 , 4128.20512821 , 4131.28205128 , 4135.38461538 , 4138.97435897 , 4191.79487179 , 4909.74358974 , 4134.35897436 , 4141.53846154 , 2045.0 , 2036.0 , 131.947 , 0.0 , 0.0 , 0.0 , 0.0 , 

8.0 , 4135.8974359 , 4128.71794872 , 4127.69230769 , 4141.02564103 , 4131.79487179 , 4132.30769231 , 4129.23076923 , 4131.79487179 , 4135.38461538 , 4138.97435897 , 4190.25641026 , 4914.87179487 , 4137.43589744 , 4144.61538462 , 2044.0 , 2037.0 , 131.959 , 0.0 , 0.0 , 0.0 , 0.0 , 

9.0 , 4135.38461538 , 4129.74358974 , 4117.43589744 , 4145.12820513 , 4132.30769231 , 4132.30769231 , 4129.74358974 , 4134.35897436 , 4137.43589744 , 4139.48717949 , 4191.28205128 , 4916.92307692 , 4137.43589744 , 4142.56410256 , 2043.0 , 2036.0 , 131.962 , 0.0 , 0.0 , 0.0 , 0.0 , 

10.0 , 4135.8974359 , 4130.25641026 , 4129.23076923 , 4138.46153846 , 4136.41025641 , 4128.71794872 , 4129.23076923 , 4134.87179487 , 4136.92307692 , 4138.46153846 , 4191.79487179 , 4915.8974359 , 4132.82051282 , 4142.05128205 , 2044.0 , 2035.0 , 131.97 , 0.0 , 0.0 , 0.0 , 0.0 , 

11.0 , 4131.28205128 , 4129.74358974 , 4140.0 , 4134.35897436 , 4134.87179487 , 4129.23076923 , 4128.71794872 , 4134.87179487 , 4136.41025641 , 4137.43589744 , 4190.25641026 , 4914.35897436 , 4132.30769231 , 4142.05128205 , 2043.0 , 2035.0 , 131.978 , 0.0 , 0.0 , 0.0 , 0.0 , 

12.0 , 4131.28205128 , 4127.17948718 , 4132.82051282 , 4135.8974359 , 4131.28205128 , 4131.28205128 , 4127.69230769 , 4133.84615385 , 4138.46153846 , 4137.94871795 , 4191.79487179 , 4915.8974359 , 4136.41025641 , 4139.48717949 , 2044.0 , 2034.0 , 131.989 , 0.0 , 0.0 , 0.0 , 0.0 , 

13.0 , 4135.8974359 , 4127.69230769 , 4131.28205128 , 4134.35897436 , 4131.28205128 , 4130.25641026 , 4126.15384615 , 4132.82051282 , 4136.41025641 , 4137.43589744 , 4192.82051282 , 4913.84615385 , 4135.38461538 , 4136.92307692 , 2043.0 , 2034.0 , 131.993 , 0.0 , 0.0 , 0.0 , 0.0 , 

14.0 , 4133.84615385 , 4133.33333333 , 4137.94871795 , 4131.28205128 , 4131.28205128 , 4128.71794872 , 4126.15384615 , 4135.8974359 , 4134.87179487 , 4137.94871795 , 4191.28205128 , 4910.76923077 , 4135.38461538 , 4138.46153846 , 2043.0 , 2034.0 , 132.001 , 0.0 , 0.0 , 0.0 , 0.0 , 

15.0 , 4132.82051282 , 4132.82051282 , 4137.94871795 , 4131.28205128 , 4131.28205128 , 4128.20512821 , 4125.64102564 , 4135.38461538 , 4137.94871795 , 4139.48717949 , 4190.76923077 , 4912.82051282 , 4136.92307692 , 4142.56410256 , 2043.0 , 2035.0 , 132.01 , 0.0 , 0.0 , 0.0 , 0.0 , 

16.0 , 4132.30769231 , 4128.71794872 , 4133.84615385 , 4134.35897436 , 4132.30769231 , 4129.74358974 , 4126.15384615 , 4132.82051282 , 4138.97435897 , 4139.48717949 , 4190.76923077 , 4911.79487179 , 4135.38461538 , 4139.48717949 , 2043.0 , 2035.0 , 132.021 , 0.0 , 0.0 , 0.0 , 0.0 , 

17.0 , 4134.35897436 , 4131.28205128 , 4134.35897436 , 4137.43589744 , 4132.82051282 , 4128.20512821 , 4125.64102564 , 4130.76923077 , 4136.92307692 , 4138.97435897 , 4191.79487179 , 4911.79487179 , 4132.30769231 , 4137.94871795 , 2043.0 , 2037.0 , 132.026 , 0.0 , 0.0 , 0.0 , 0.0 , 

18.0 , 4136.41025641 , 4133.84615385 , 4134.35897436 , 4137.43589744 , 4131.79487179 , 4125.64102564 , 4126.66666667 , 4131.28205128 , 4138.97435897 , 4138.46153846 , 4192.82051282 , 4913.33333333 , 4134.35897436 , 4137.43589744 , 2043.0 , 2037.0 , 132.034 , 0.0 , 0.0 , 0.0 , 0.0 , 

19.0 , 4136.41025641 , 4128.20512821 , 4132.30769231 , 4134.35897436 , 4130.25641026 , 4126.15384615 , 4123.58974359 , 4131.79487179 , 4139.48717949 , 4139.48717949 , 4191.79487179 , 4915.8974359 , 4134.87179487 , 4142.56410256 , 2043.0 , 2037.0 , 132.042 , 0.0 , 0.0 , 0.0 , 0.0 , 

20.0 , 4130.25641026 , 4126.66666667 , 4132.82051282 , 4134.87179487 , 4131.28205128 , 4130.25641026 , 4122.56410256 , 4135.8974359 , 4137.94871795 , 4137.94871795 , 4189.74358974 , 4912.30769231 , 4135.8974359 , 4138.46153846 , 2042.0 , 2037.0 , 132.053 , 0.0 , 0.0 , 0.0 , 0.0 , 

21.0 , 4132.30769231 , 4130.25641026 , 4138.97435897 , 4134.35897436 , 4133.33333333 , 4129.74358974 , 4126.15384615 , 4134.87179487 , 4136.41025641 , 4136.41025641 , 4191.28205128 , 4913.33333333 , 4136.92307692 , 4141.53846154 , 2042.0 , 2037.0 , 132.056 , 0.0 , 0.0 , 0.0 , 0.0 , 

22.0 , 4135.38461538 , 4130.25641026 , 4136.41025641 , 4135.8974359 , 4131.28205128 , 4130.25641026 , 4128.20512821 , 4133.33333333 , 4135.8974359 , 4137.43589744 , 4193.33333333 , 4911.79487179 , 4135.38461538 , 4142.56410256 , 2043.0 , 2038.0 , 132.065 , 0.0 , 0.0 , 0.0 , 0.0 , 

23.0 , 4136.41025641 , 4126.66666667 , 4132.82051282 , 4136.41025641 , 4128.71794872 , 4127.69230769 , 4122.56410256 , 4134.87179487 , 4136.92307692 , 4138.46153846 , 4194.87179487 , 4911.79487179 , 4131.79487179 , 4145.12820513 , 2044.0 , 2038.0 , 132.072 , 0.0 , 0.0 , 0.0 , 0.0 , 

24.0 , 4133.84615385 , 4129.74358974 , 4135.38461538 , 4136.41025641 , 4132.30769231 , 4127.17948718 , 4124.1025641 , 4137.94871795 , 4138.97435897 , 4137.94871795 , 4193.33333333 , 4913.84615385 , 4132.30769231 , 4138.46153846 , 2042.0 , 2037.0 , 132.085 , 0.0 , 0.0 , 0.0 , 0.0 , 

25.0 , 4131.79487179 , 4131.28205128 , 4135.38461538 , 4132.30769231 , 4133.84615385 , 4129.74358974 , 4126.15384615 , 4132.82051282 , 4137.43589744 , 4138.97435897 , 4191.79487179 , 4916.41025641 , 4135.38461538 , 4141.02564103 , 2043.0 , 2036.0 , 132.088 , 0.0 , 0.0 , 0.0 , 0.0 , 

26.0 , 4129.23076923 , 4131.79487179 , 4131.79487179 , 4132.82051282 , 4130.76923077 , 4132.30769231 , 4124.1025641 , 4128.71794872 , 4136.92307692 , 4139.48717949 , 4191.79487179 , 4912.82051282 , 4136.92307692 , 4140.51282051 , 2043.0 , 2036.0 , 132.097 , 0.0 , 0.0 , 0.0 , 0.0 , 

27.0 , 4134.87179487 , 4133.33333333 , 4134.87179487 , 4134.35897436 , 4129.23076923 , 4128.20512821 , 4124.1025641 , 4131.28205128 , 4137.43589744 , 4138.97435897 , 4190.76923077 , 4913.33333333 , 4135.8974359 , 4140.0 , 2044.0 , 2035.0 , 132.105 , 0.0 , 0.0 , 0.0 , 0.0 , 

28.0 , 4136.41025641 , 4130.76923077 , 4137.94871795 , 4134.87179487 , 4131.79487179 , 4127.69230769 , 4130.25641026 , 4136.41025641 , 4136.41025641 , 4140.0 , 4189.23076923 , 4913.84615385 , 4133.84615385 , 4136.92307692 , 2044.0 , 2036.0 , 132.116 , 0.0 , 0.0 , 0.0 , 0.0 , 

29.0 , 4133.84615385 , 4129.23076923 , 4136.41025641 , 4136.41025641 , 4131.79487179 , 4129.74358974 , 4129.74358974 , 4136.92307692 , 4136.92307692 , 4138.97435897 , 4191.79487179 , 4913.33333333 , 4136.92307692 , 4135.8974359 , 2042.0 , 2037.0 , 132.119 , 0.0 , 0.0 , 0.0 , 0.0 , 

30.0 , 4135.8974359 , 4131.28205128 , 4135.8974359 , 4135.8974359 , 4131.28205128 , 4128.71794872 , 4125.64102564 , 4134.35897436 , 4136.92307692 , 4137.43589744 , 4192.30769231 , 4911.79487179 , 4138.46153846 , 4137.94871795 , 2042.0 , 2037.0 , 132.127 , 0.0 , 0.0 , 0.0 , 0.0 , 

31.0 , 4139.48717949 , 4129.74358974 , 4135.38461538 , 4134.87179487 , 4131.79487179 , 4126.66666667 , 4124.1025641 , 4134.35897436 , 4134.87179487 , 4139.48717949 , 4190.25641026 , 4912.30769231 , 4136.92307692 , 4140.0 , 2045.0 , 2037.0 , 132.136 , 0.0 , 0.0 , 0.0 , 0.0 , 

32.0 , 4135.8974359 , 4127.69230769 , 4135.38461538 , 4135.38461538 , 4129.74358974 , 4128.20512821 , 4123.07692308 , 4134.87179487 , 4134.35897436 , 4138.97435897 , 4192.82051282 , 4914.87179487 , 4135.38461538 , 4143.58974359 , 2044.0 , 2035.0 , 132.147 , 0.0 , 0.0 , 0.0 , 0.0 , 

33.0 , 4131.28205128 , 4131.79487179 , 4135.38461538 , 4134.87179487 , 4129.74358974 , 4130.25641026 , 4122.56410256 , 4132.30769231 , 4136.92307692 , 4136.92307692 , 4194.87179487 , 4914.35897436 , 4136.92307692 , 4143.07692308 , 2045.0 , 2036.0 , 132.151 , 0.0 , 0.0 , 0.0 , 0.0 , 

34.0 , 4136.41025641 , 4131.28205128 , 4133.84615385 , 4133.84615385 , 4132.30769231 , 4127.69230769 , 4126.15384615 , 4130.25641026 , 4136.41025641 , 4139.48717949 , 4192.30769231 , 4912.82051282 , 4135.8974359 , 4142.56410256 , 2044.0 , 2036.0 , 132.16 , 0.0 , 0.0 , 0.0 , 0.0 , 

35.0 , 4136.92307692 , 4128.20512821 , 4134.35897436 , 4136.41025641 , 4133.33333333 , 4127.17948718 , 4129.74358974 , 4132.82051282 , 4136.41025641 , 4140.0 , 4190.76923077 , 4912.82051282 , 4135.8974359 , 4140.0 , 2046.0 , 2036.0 , 132.168 , 0.0 , 0.0 , 0.0 , 0.0 , 

36.0 , 4131.79487179 , 4130.25641026 , 4136.92307692 , 4134.35897436 , 4131.28205128 , 4130.25641026 , 4125.64102564 , 4131.28205128 , 4135.8974359 , 4137.43589744 , 4190.76923077 , 4915.38461538 , 4134.87179487 , 4144.1025641 , 2043.0 , 2035.0 , 132.178 , 0.0 , 0.0 , 0.0 , 0.0 , 

37.0 , 4129.74358974 , 4131.79487179 , 4132.82051282 , 4133.33333333 , 4131.28205128 , 4132.30769231 , 4125.12820513 , 4129.74358974 , 4136.41025641 , 4138.46153846 , 4191.28205128 , 4912.82051282 , 4134.87179487 , 4137.43589744 , 2044.0 , 2035.0 , 132.182 , 0.0 , 0.0 , 0.0 , 0.0 , 

38.0 , 4137.43589744 , 4129.23076923 , 4132.82051282 , 4134.87179487 , 4130.76923077 , 4129.74358974 , 4128.20512821 , 4131.28205128 , 4136.41025641 , 4138.97435897 , 4192.30769231 , 4914.35897436 , 4134.87179487 , 4135.38461538 , 2044.0 , 2035.0 , 132.191 , 0.0 , 0.0 , 0.0 , 0.0 , 

39.0 , 4133.33333333 , 4129.74358974 , 4136.92307692 , 4135.38461538 , 4131.28205128 , 4131.79487179 , 4129.23076923 , 4133.33333333 , 4135.38461538 , 4137.94871795 , 4190.76923077 , 4910.76923077 , 4135.38461538 , 4138.46153846 , 2043.0 , 2036.0 , 132.198 , 0.0 , 0.0 , 0.0 , 0.0 , 

40.0 , 4131.28205128 , 4129.74358974 , 4136.92307692 , 4133.33333333 , 4132.82051282 , 4130.25641026 , 4126.15384615 , 4131.79487179 , 4133.33333333 , 4138.97435897 , 4190.76923077 , 4909.74358974 , 4133.84615385 , 4145.12820513 , 2043.0 , 2036.0 , 132.21 , 0.0 , 0.0 , 0.0 , 0.0 , 

41.0 , 4134.87179487 , 4131.79487179 , 4133.84615385 , 4136.41025641 , 4131.79487179 , 4128.20512821 , 4127.69230769 , 4133.84615385 , 4134.35897436 , 4139.48717949 , 4191.28205128 , 4912.30769231 , 4133.33333333 , 4136.92307692 , 2042.0 , 2034.0 , 132.214 , 0.0 , 0.0 , 0.0 , 0.0 , 

42.0 , 4137.94871795 , 4132.82051282 , 4135.38461538 , 4134.87179487 , 4129.23076923 , 4128.20512821 , 4124.61538462 , 4133.33333333 , 4136.41025641 , 4138.46153846 , 4191.79487179 , 4916.41025641 , 4134.35897436 , 4137.94871795 , 2041.0 , 2035.0 , 132.222 , 0.0 , 0.0 , 0.0 , 0.0 , 

43.0 , 4131.79487179 , 4131.79487179 , 4136.41025641 , 4133.33333333 , 4129.23076923 , 4128.71794872 , 4121.53846154 , 4133.33333333 , 4134.87179487 , 4138.46153846 , 4191.79487179 , 4912.30769231 , 4135.8974359 , 4140.0 , 2043.0 , 2034.0 , 132.23 , 0.0 , 0.0 , 0.0 , 0.0 , 

44.0 , 4133.84615385 , 4131.28205128 , 4138.46153846 , 4132.82051282 , 4128.20512821 , 4127.17948718 , 4120.0 , 4134.87179487 , 4133.33333333 , 4139.48717949 , 4192.30769231 , 4911.79487179 , 4136.92307692 , 4144.1025641 , 2044.0 , 2035.0 , 132.241 , 0.0 , 0.0 , 0.0 , 0.0 , 

45.0 , 4135.38461538 , 4133.84615385 , 4138.46153846 , 4132.82051282 , 4129.74358974 , 4130.76923077 , 4124.1025641 , 4136.41025641 , 4135.38461538 , 4139.48717949 , 4191.28205128 , 4912.82051282 , 4136.41025641 , 4141.53846154 , 2044.0 , 2035.0 , 132.245 , 0.0 , 0.0 , 0.0 , 0.0 , 

46.0 , 4133.84615385 , 4131.79487179 , 4136.41025641 , 4132.82051282 , 4131.79487179 , 4130.76923077 , 4125.64102564 , 4134.87179487 , 4138.46153846 , 4138.97435897 , 4193.84615385 , 4916.41025641 , 4136.41025641 , 4141.02564103 , 2045.0 , 2034.0 , 132.253 , 0.0 , 0.0 , 0.0 , 0.0 , 

47.0 , 4132.82051282 , 4131.28205128 , 4136.41025641 , 4136.92307692 , 4132.30769231 , 4129.23076923 , 4126.66666667 , 4132.82051282 , 4138.46153846 , 4137.94871795 , 4193.84615385 , 4914.87179487 , 4135.38461538 , 4141.53846154 , 2046.0 , 2034.0 , 132.261 , 0.0 , 0.0 , 0.0 , 0.0 , 

48.0 , 4134.87179487 , 4135.38461538 , 4138.97435897 , 4137.94871795 , 4133.33333333 , 4131.28205128 , 4126.66666667 , 4131.28205128 , 4137.43589744 , 4138.46153846 , 4191.28205128 , 4910.76923077 , 4134.35897436 , 4144.61538462 , 2044.0 , 2035.0 , 132.273 , 0.0 , 0.0 , 0.0 , 0.0 , 

49.0 , 4132.82051282 , 4134.35897436 , 4136.92307692 , 4135.38461538 , 4134.35897436 , 4131.79487179 , 4127.17948718 , 4131.79487179 , 4138.97435897 , 4139.48717949 , 4192.30769231 , 4910.25641026 , 4133.33333333 , 4142.56410256 , 2045.0 , 2034.0 , 132.277 , 0.0 , 0.0 , 0.0 , 0.0 , 

50.0 , 4131.28205128 , 4131.79487179 , 4134.35897436 , 4134.87179487 , 4133.84615385 , 4128.20512821 , 4125.12820513 , 4132.82051282 , 4139.48717949 , 4138.97435897 , 4193.84615385 , 4913.84615385 , 4135.38461538 , 4138.97435897 , 2043.0 , 2035.0 , 132.285 , 0.0 , 0.0 , 0.0 , 0.0 , 

51.0 , 4133.33333333 , 4132.30769231 , 4135.38461538 , 4135.38461538 , 4132.30769231 , 4127.17948718 , 4124.61538462 , 4132.30769231 , 4138.46153846 , 4138.46153846 , 4192.82051282 , 4914.87179487 , 4137.43589744 , 4141.02564103 , 2042.0 , 2035.0 , 132.293 , 0.0 , 0.0 , 0.0 , 0.0 , 

52.0 , 4131.79487179 , 4132.30769231 , 4135.8974359 , 4135.8974359 , 4131.79487179 , 4127.69230769 , 4128.71794872 , 4133.33333333 , 4139.48717949 , 4139.48717949 , 4191.79487179 , 4912.30769231 , 4135.38461538 , 4141.02564103 , 2043.0 , 2036.0 , 132.305 , 0.0 , 0.0 , 0.0 , 0.0 , 

53.0 , 4132.30769231 , 4131.28205128 , 4135.8974359 , 4136.41025641 , 4131.79487179 , 4126.66666667 , 4127.69230769 , 4133.84615385 , 4137.43589744 , 4138.97435897 , 4192.82051282 , 4911.79487179 , 4132.82051282 , 4140.51282051 , 2040.0 , 2036.0 , 132.309 , 0.0 , 0.0 , 0.0 , 0.0 , 

54.0 , 4132.30769231 , 4133.33333333 , 4133.84615385 , 4137.94871795 , 4131.28205128 , 4129.23076923 , 4123.07692308 , 4133.84615385 , 4134.87179487 , 4136.92307692 , 4192.82051282 , 4910.76923077 , 4137.94871795 , 4136.41025641 , 2042.0 , 2036.0 , 132.317 , 0.0 , 0.0 , 0.0 , 0.0 , 

55.0 , 4133.33333333 , 4131.79487179 , 4136.41025641 , 4136.92307692 , 4130.76923077 , 4131.79487179 , 4122.56410256 , 4133.33333333 , 4135.8974359 , 4137.94871795 , 4192.30769231 , 4913.33333333 , 4137.94871795 , 4138.97435897 , 2041.0 , 2038.0 , 132.324 , 0.0 , 0.0 , 0.0 , 0.0 , 

56.0 , 4131.28205128 , 4129.74358974 , 4136.92307692 , 4136.41025641 , 4132.82051282 , 4132.30769231 , 4127.17948718 , 4135.38461538 , 4138.97435897 , 4140.0 , 4191.79487179 , 4912.30769231 , 4132.30769231 , 4137.43589744 , 2041.0 , 2036.0 , 132.336 , 0.0 , 0.0 , 0.0 , 0.0 , 

57.0 , 4134.35897436 , 4130.25641026 , 4133.33333333 , 4133.84615385 , 4131.79487179 , 4129.74358974 , 4126.15384615 , 4136.41025641 , 4137.43589744 , 4138.46153846 , 4192.82051282 , 4914.87179487 , 4132.30769231 , 4140.51282051 , 2043.0 , 2036.0 , 132.339 , 0.0 , 0.0 , 0.0 , 0.0 , 

58.0 , 4133.84615385 , 4131.28205128 , 4132.82051282 , 4134.35897436 , 4128.71794872 , 4128.71794872 , 4125.64102564 , 4135.8974359 , 4137.94871795 , 4137.94871795 , 4192.30769231 , 4914.87179487 , 4137.43589744 , 4138.46153846 , 2041.0 , 2038.0 , 132.349 , 0.0 , 0.0 , 0.0 , 0.0 , 

59.0 , 4134.87179487 , 4130.25641026 , 4137.43589744 , 4135.8974359 , 4129.74358974 , 4127.17948718 , 4126.66666667 , 4133.33333333 , 4137.43589744 , 4139.48717949 , 4192.30769231 , 4915.38461538 , 4135.38461538 , 4142.56410256 , 2041.0 , 2037.0 , 132.357 , 0.0 , 0.0 , 0.0 , 0.0 , 

60.0 , 4132.30769231 , 4130.25641026 , 4136.41025641 , 4137.43589744 , 4132.82051282 , 4130.25641026 , 4126.15384615 , 4132.82051282 , 4136.92307692 , 4139.48717949 , 4191.79487179 , 4912.82051282 , 4132.30769231 , 4140.0 , 2041.0 , 2038.0 , 132.369 , 0.0 , 0.0 , 0.0 , 0.0 , 

61.0 , 4133.33333333 , 4131.79487179 , 4135.8974359 , 4134.87179487 , 4131.79487179 , 4131.28205128 , 4124.61538462 , 4132.30769231 , 4136.92307692 , 4138.46153846 , 4192.30769231 , 4912.30769231 , 4135.8974359 , 4142.56410256 , 2040.0 , 2035.0 , 132.371 , 0.0 , 0.0 , 0.0 , 0.0 , 

