['COUNTER', 'AF3', 'F7', 'F3', 'FC5', 'T7', 'P7', 'O1', 'O2', 'P8', 'T8', 'FC6', 'F4', 'F8', 'AF4', 'GYROX', 'GYROY', 'TIMESTAMP', 'FUNC_ID', 'FUNC_VALUE', 'MARKER', 'SYNC_SIGNAL']
18.0 , 4112.82051282 , 4121.53846154 , 4134.87179487 , 4131.79487179 , 4129.74358974 , 4109.74358974 , 4105.12820513 , 4142.56410256 , 4137.43589744 , 4139.48717949 , 4191.79487179 , 4919.48717949 , 4140.51282051 , 4142.05128205 , 2041.0 , 2036.0 , 73.066 , 0.0 , 0.0 , 0.0 , 0.0 , 

19.0 , 4112.82051282 , 4120.0 , 4139.48717949 , 4129.74358974 , 4130.76923077 , 4112.30769231 , 4105.64102564 , 4143.07692308 , 4135.8974359 , 4137.43589744 , 4191.28205128 , 4917.94871795 , 4141.53846154 , 4142.05128205 , 2040.0 , 2036.0 , 73.074 , 0.0 , 0.0 , 0.0 , 0.0 , 

20.0 , 4114.35897436 , 4117.94871795 , 4141.02564103 , 4128.71794872 , 4128.20512821 , 4114.35897436 , 4105.12820513 , 4142.05128205 , 4136.92307692 , 4135.8974359 , 4193.84615385 , 4915.8974359 , 4138.46153846 , 4144.1025641 , 2043.0 , 2036.0 , 73.081 , 0.0 , 0.0 , 0.0 , 0.0 , 

21.0 , 4114.87179487 , 4119.48717949 , 4143.07692308 , 4129.23076923 , 4130.25641026 , 4116.92307692 , 4109.23076923 , 4140.0 , 4138.97435897 , 4136.41025641 , 4193.84615385 , 4913.84615385 , 4135.38461538 , 4140.0 , 2043.0 , 2037.0 , 73.089 , 0.0 , 0.0 , 0.0 , 0.0 , 

22.0 , 4120.51282051 , 4121.53846154 , 4145.12820513 , 4125.12820513 , 4133.84615385 , 4122.05128205 , 4114.87179487 , 4137.43589744 , 4136.92307692 , 4137.94871795 , 4193.33333333 , 4916.92307692 , 4136.92307692 , 4141.53846154 , 2043.0 , 2037.0 , 73.097 , 0.0 , 0.0 , 0.0 , 0.0 , 

23.0 , 4120.0 , 4123.07692308 , 4138.97435897 , 4126.66666667 , 4133.33333333 , 4123.07692308 , 4119.48717949 , 4138.46153846 , 4136.41025641 , 4138.46153846 , 4194.35897436 , 4916.41025641 , 4138.97435897 , 4139.48717949 , 2044.0 , 2038.0 , 73.105 , 0.0 , 0.0 , 0.0 , 0.0 , 

24.0 , 4119.48717949 , 4123.58974359 , 4138.46153846 , 4130.25641026 , 4129.74358974 , 4121.02564103 , 4118.46153846 , 4137.94871795 , 4136.41025641 , 4139.48717949 , 4194.87179487 , 4915.38461538 , 4134.87179487 , 4137.94871795 , 2044.0 , 2038.0 , 73.113 , 0.0 , 0.0 , 0.0 , 0.0 , 

25.0 , 4121.53846154 , 4122.56410256 , 4141.02564103 , 4129.74358974 , 4128.71794872 , 4124.61538462 , 4119.48717949 , 4135.8974359 , 4136.92307692 , 4138.46153846 , 4191.79487179 , 4910.76923077 , 4131.79487179 , 4135.38461538 , 2045.0 , 2038.0 , 73.121 , 0.0 , 0.0 , 0.0 , 0.0 , 

26.0 , 4126.15384615 , 4124.61538462 , 4140.0 , 4128.71794872 , 4129.23076923 , 4128.20512821 , 4119.48717949 , 4134.87179487 , 4134.35897436 , 4136.41025641 , 4191.28205128 , 4910.25641026 , 4134.35897436 , 4140.0 , 2046.0 , 2038.0 , 73.129 , 0.0 , 0.0 , 0.0 , 0.0 , 

27.0 , 4125.64102564 , 4132.30769231 , 4134.35897436 , 4129.74358974 , 4130.76923077 , 4131.79487179 , 4122.56410256 , 4135.8974359 , 4135.38461538 , 4136.41025641 , 4191.79487179 , 4910.76923077 , 4137.94871795 , 4136.92307692 , 2046.0 , 2037.0 , 73.135 , 0.0 , 0.0 , 0.0 , 0.0 , 

28.0 , 4127.17948718 , 4133.33333333 , 4133.33333333 , 4128.71794872 , 4131.28205128 , 4130.25641026 , 4123.07692308 , 4134.35897436 , 4135.38461538 , 4137.94871795 , 4191.79487179 , 4910.76923077 , 4134.87179487 , 4137.43589744 , 2045.0 , 2038.0 , 73.143 , 0.0 , 0.0 , 0.0 , 0.0 , 

29.0 , 4132.30769231 , 4129.23076923 , 4135.38461538 , 4131.28205128 , 4131.28205128 , 4129.74358974 , 4123.07692308 , 4135.38461538 , 4133.84615385 , 4137.43589744 , 4189.23076923 , 4909.23076923 , 4130.25641026 , 4137.43589744 , 2045.0 , 2038.0 , 73.152 , 0.0 , 0.0 , 0.0 , 0.0 , 

30.0 , 4133.33333333 , 4131.28205128 , 4135.38461538 , 4133.33333333 , 4132.82051282 , 4132.30769231 , 4124.61538462 , 4136.41025641 , 4136.92307692 , 4136.41025641 , 4189.23076923 , 4910.25641026 , 4133.33333333 , 4139.48717949 , 2045.0 , 2036.0 , 73.16 , 0.0 , 0.0 , 0.0 , 0.0 , 

31.0 , 4130.25641026 , 4133.84615385 , 4134.35897436 , 4132.30769231 , 4133.84615385 , 4132.82051282 , 4126.66666667 , 4133.33333333 , 4137.43589744 , 4137.43589744 , 4192.30769231 , 4910.76923077 , 4134.35897436 , 4141.02564103 , 2045.0 , 2036.0 , 73.169 , 0.0 , 0.0 , 0.0 , 0.0 , 

32.0 , 4133.33333333 , 4131.28205128 , 4132.82051282 , 4130.76923077 , 4133.33333333 , 4129.74358974 , 4127.17948718 , 4129.74358974 , 4130.25641026 , 4140.0 , 4192.82051282 , 4912.30769231 , 4129.74358974 , 4141.02564103 , 2045.0 , 2036.0 , 73.175 , 0.0 , 0.0 , 0.0 , 0.0 , 

33.0 , 4137.94871795 , 4132.82051282 , 4132.30769231 , 4131.79487179 , 4132.30769231 , 4129.74358974 , 4128.20512821 , 4130.25641026 , 4127.17948718 , 4139.48717949 , 4190.76923077 , 4914.87179487 , 4129.23076923 , 4140.0 , 2045.0 , 2035.0 , 73.183 , 0.0 , 0.0 , 0.0 , 0.0 , 

34.0 , 4135.38461538 , 4133.84615385 , 4130.76923077 , 4133.33333333 , 4131.79487179 , 4132.82051282 , 4128.20512821 , 4132.30769231 , 4133.33333333 , 4137.43589744 , 4190.76923077 , 4911.28205128 , 4132.82051282 , 4137.94871795 , 2044.0 , 2034.0 , 73.25 , 0.0 , 0.0 , 0.0 , 0.0 , 

35.0 , 4135.8974359 , 4130.76923077 , 4131.28205128 , 4131.79487179 , 4131.79487179 , 4134.87179487 , 4127.69230769 , 4131.28205128 , 4133.33333333 , 4137.94871795 , 4191.79487179 , 4907.69230769 , 4129.23076923 , 4137.94871795 , 2042.0 , 2035.0 , 73.252 , 0.0 , 0.0 , 0.0 , 0.0 , 

36.0 , 4138.97435897 , 4132.30769231 , 4132.30769231 , 4130.25641026 , 4130.76923077 , 4136.41025641 , 4130.76923077 , 4131.28205128 , 4128.71794872 , 4138.46153846 , 4191.28205128 , 4909.23076923 , 4126.15384615 , 4134.35897436 , 2044.0 , 2036.0 , 73.252 , 0.0 , 0.0 , 0.0 , 0.0 , 

37.0 , 4138.46153846 , 4135.38461538 , 4132.82051282 , 4133.33333333 , 4130.76923077 , 4133.33333333 , 4129.74358974 , 4130.76923077 , 4129.23076923 , 4136.92307692 , 4191.79487179 , 4911.28205128 , 4128.20512821 , 4136.41025641 , 2043.0 , 2036.0 , 73.252 , 0.0 , 0.0 , 0.0 , 0.0 , 

38.0 , 4131.79487179 , 4133.84615385 , 4130.76923077 , 4136.41025641 , 4131.28205128 , 4132.82051282 , 4127.17948718 , 4132.30769231 , 4133.33333333 , 4135.8974359 , 4192.30769231 , 4908.20512821 , 4132.30769231 , 4134.35897436 , 2044.0 , 2036.0 , 73.252 , 0.0 , 0.0 , 0.0 , 0.0 , 

39.0 , 4131.28205128 , 4130.76923077 , 4130.76923077 , 4131.79487179 , 4129.74358974 , 4134.87179487 , 4125.64102564 , 4132.30769231 , 4133.33333333 , 4138.97435897 , 4191.79487179 , 4908.71794872 , 4132.30769231 , 4135.38461538 , 2043.0 , 2034.0 , 73.252 , 0.0 , 0.0 , 0.0 , 0.0 , 

40.0 , 4132.30769231 , 4134.35897436 , 4132.82051282 , 4132.82051282 , 4130.25641026 , 4134.35897436 , 4126.15384615 , 4130.76923077 , 4133.33333333 , 4138.97435897 , 4191.28205128 , 4907.69230769 , 4129.23076923 , 4133.33333333 , 2043.0 , 2036.0 , 73.252 , 0.0 , 0.0 , 0.0 , 0.0 , 

41.0 , 4135.38461538 , 4135.8974359 , 4134.35897436 , 4135.38461538 , 4132.82051282 , 4132.82051282 , 4126.15384615 , 4130.76923077 , 4134.35897436 , 4136.41025641 , 4192.82051282 , 4908.71794872 , 4129.23076923 , 4137.43589744 , 2043.0 , 2035.0 , 73.252 , 0.0 , 0.0 , 0.0 , 0.0 , 

42.0 , 4133.84615385 , 4132.82051282 , 4131.79487179 , 4135.38461538 , 4131.28205128 , 4135.38461538 , 4129.74358974 , 4133.33333333 , 4135.38461538 , 4136.41025641 , 4192.82051282 , 4911.28205128 , 4134.35897436 , 4136.92307692 , 2042.0 , 2036.0 , 73.257 , 0.0 , 0.0 , 0.0 , 0.0 , 

43.0 , 4134.87179487 , 4128.71794872 , 4131.79487179 , 4133.84615385 , 4127.69230769 , 4133.84615385 , 4129.23076923 , 4131.28205128 , 4135.8974359 , 4138.46153846 , 4191.79487179 , 4914.87179487 , 4133.33333333 , 4140.0 , 2043.0 , 2035.0 , 73.262 , 0.0 , 0.0 , 0.0 , 0.0 , 

44.0 , 4135.38461538 , 4131.79487179 , 4131.79487179 , 4136.41025641 , 4127.69230769 , 4133.84615385 , 4129.23076923 , 4129.74358974 , 4135.8974359 , 4137.94871795 , 4190.25641026 , 4911.28205128 , 4128.20512821 , 4139.48717949 , 2042.0 , 2035.0 , 73.269 , 0.0 , 0.0 , 0.0 , 0.0 , 

45.0 , 4138.46153846 , 4134.87179487 , 4133.84615385 , 4135.8974359 , 4128.20512821 , 4132.30769231 , 4128.71794872 , 4131.28205128 , 4134.87179487 , 4136.41025641 , 4192.30769231 , 4912.82051282 , 4129.74358974 , 4142.56410256 , 2043.0 , 2034.0 , 73.277 , 0.0 , 0.0 , 0.0 , 0.0 , 

46.0 , 4137.43589744 , 4133.33333333 , 4134.35897436 , 4133.33333333 , 4128.20512821 , 4131.28205128 , 4131.28205128 , 4132.30769231 , 4132.30769231 , 4137.94871795 , 4191.79487179 , 4913.33333333 , 4132.82051282 , 4140.0 , 2042.0 , 2035.0 , 73.285 , 0.0 , 0.0 , 0.0 , 0.0 , 

47.0 , 4135.38461538 , 4133.33333333 , 4133.84615385 , 4132.30769231 , 4128.20512821 , 4133.84615385 , 4129.74358974 , 4129.74358974 , 4130.76923077 , 4137.94871795 , 4191.79487179 , 4910.76923077 , 4132.82051282 , 4137.94871795 , 2043.0 , 2035.0 , 73.293 , 0.0 , 0.0 , 0.0 , 0.0 , 

48.0 , 4136.92307692 , 4136.41025641 , 4131.28205128 , 4134.35897436 , 4129.23076923 , 4136.41025641 , 4128.71794872 , 4127.69230769 , 4133.84615385 , 4136.41025641 , 4192.30769231 , 4908.71794872 , 4129.74358974 , 4137.94871795 , 2043.0 , 2035.0 , 73.301 , 0.0 , 0.0 , 0.0 , 0.0 , 

49.0 , 4140.0 , 4134.35897436 , 4130.25641026 , 4135.8974359 , 4130.76923077 , 4132.82051282 , 4129.23076923 , 4127.69230769 , 4134.35897436 , 4137.43589744 , 4190.76923077 , 4908.71794872 , 4129.74358974 , 4140.0 , 2042.0 , 2035.0 , 73.31 , 0.0 , 0.0 , 0.0 , 0.0 , 

50.0 , 4136.92307692 , 4131.28205128 , 4131.79487179 , 4133.84615385 , 4130.76923077 , 4129.74358974 , 4128.71794872 , 4128.71794872 , 4131.28205128 , 4138.46153846 , 4189.23076923 , 4908.20512821 , 4131.79487179 , 4138.46153846 , 2043.0 , 2034.0 , 73.319 , 0.0 , 0.0 , 0.0 , 0.0 , 

51.0 , 4135.8974359 , 4131.79487179 , 4131.28205128 , 4133.33333333 , 4129.74358974 , 4130.25641026 , 4127.69230769 , 4128.20512821 , 4133.84615385 , 4137.43589744 , 4191.28205128 , 4908.20512821 , 4131.79487179 , 4137.43589744 , 2043.0 , 2036.0 , 73.326 , 0.0 , 0.0 , 0.0 , 0.0 , 

52.0 , 4142.05128205 , 4132.30769231 , 4130.76923077 , 4133.33333333 , 4131.28205128 , 4132.82051282 , 4129.74358974 , 4127.17948718 , 4135.8974359 , 4136.41025641 , 4194.35897436 , 4907.69230769 , 4128.71794872 , 4140.0 , 2043.0 , 2035.0 , 73.333 , 0.0 , 0.0 , 0.0 , 0.0 , 

53.0 , 4141.02564103 , 4132.30769231 , 4130.25641026 , 4134.87179487 , 4131.79487179 , 4133.33333333 , 4130.25641026 , 4129.23076923 , 4130.76923077 , 4137.94871795 , 4192.30769231 , 4907.17948718 , 4128.20512821 , 4137.43589744 , 2044.0 , 2035.0 , 73.341 , 0.0 , 0.0 , 0.0 , 0.0 , 

54.0 , 4135.8974359 , 4131.79487179 , 4130.25641026 , 4134.87179487 , 4129.74358974 , 4130.25641026 , 4125.64102564 , 4130.76923077 , 4126.15384615 , 4137.43589744 , 4190.25641026 , 4911.28205128 , 4127.69230769 , 4138.97435897 , 2043.0 , 2034.0 , 73.35 , 0.0 , 0.0 , 0.0 , 0.0 , 

55.0 , 4136.41025641 , 4133.33333333 , 4130.25641026 , 4136.92307692 , 4130.25641026 , 4131.28205128 , 4127.17948718 , 4129.23076923 , 4130.25641026 , 4136.41025641 , 4190.76923077 , 4911.28205128 , 4127.69230769 , 4140.0 , 2044.0 , 2036.0 , 73.356 , 0.0 , 0.0 , 0.0 , 0.0 , 

56.0 , 4142.05128205 , 4132.82051282 , 4133.33333333 , 4136.41025641 , 4130.76923077 , 4133.33333333 , 4128.20512821 , 4128.71794872 , 4133.33333333 , 4136.92307692 , 4192.30769231 , 4909.74358974 , 4131.28205128 , 4140.0 , 2044.0 , 2034.0 , 73.366 , 0.0 , 0.0 , 0.0 , 0.0 , 

57.0 , 4137.43589744 , 4131.79487179 , 4132.30769231 , 4136.92307692 , 4130.76923077 , 4132.30769231 , 4126.15384615 , 4132.30769231 , 4133.33333333 , 4137.94871795 , 4192.82051282 , 4909.74358974 , 4133.84615385 , 4135.38461538 , 2045.0 , 2036.0 , 73.373 , 0.0 , 0.0 , 0.0 , 0.0 , 

58.0 , 4134.87179487 , 4130.76923077 , 4131.79487179 , 4137.94871795 , 4129.23076923 , 4130.25641026 , 4123.58974359 , 4129.74358974 , 4134.35897436 , 4137.43589744 , 4192.82051282 , 4912.82051282 , 4129.74358974 , 4140.51282051 , 2044.0 , 2036.0 , 73.382 , 0.0 , 0.0 , 0.0 , 0.0 , 

59.0 , 4134.87179487 , 4133.84615385 , 4133.84615385 , 4138.46153846 , 4128.71794872 , 4133.84615385 , 4125.64102564 , 4128.20512821 , 4137.43589744 , 4136.92307692 , 4192.30769231 , 4908.71794872 , 4129.23076923 , 4138.97435897 , 2044.0 , 2037.0 , 73.389 , 0.0 , 0.0 , 0.0 , 0.0 , 

60.0 , 4137.94871795 , 4135.38461538 , 4136.92307692 , 4134.35897436 , 4129.23076923 , 4131.28205128 , 4126.66666667 , 4130.25641026 , 4133.33333333 , 4136.92307692 , 4190.76923077 , 4908.20512821 , 4131.28205128 , 4139.48717949 , 2043.0 , 2037.0 , 73.396 , 0.0 , 0.0 , 0.0 , 0.0 , 

61.0 , 4135.8974359 , 4133.33333333 , 4135.8974359 , 4133.33333333 , 4130.76923077 , 4131.79487179 , 4127.17948718 , 4130.25641026 , 4127.69230769 , 4137.43589744 , 4190.25641026 , 4911.28205128 , 4130.25641026 , 4139.48717949 , 2044.0 , 2036.0 , 73.403 , 0.0 , 0.0 , 0.0 , 0.0 , 

62.0 , 4133.84615385 , 4129.74358974 , 4134.35897436 , 4137.43589744 , 4129.23076923 , 4132.82051282 , 4125.64102564 , 4128.20512821 , 4131.79487179 , 4137.43589744 , 4191.79487179 , 4914.87179487 , 4129.74358974 , 4143.07692308 , 2042.0 , 2037.0 , 73.412 , 0.0 , 0.0 , 0.0 , 0.0 , 

63.0 , 4131.79487179 , 4128.20512821 , 4131.79487179 , 4137.43589744 , 4129.23076923 , 4131.28205128 , 4123.58974359 , 4133.33333333 , 4137.94871795 , 4137.43589744 , 4191.79487179 , 4908.71794872 , 4133.33333333 , 4137.43589744 , 2042.0 , 2037.0 , 73.419 , 0.0 , 0.0 , 0.0 , 0.0 , 

64.0 , 4133.33333333 , 4128.71794872 , 4133.84615385 , 4131.79487179 , 4130.76923077 , 4128.71794872 , 4123.07692308 , 4134.35897436 , 4133.84615385 , 4137.94871795 , 4193.33333333 , 4908.71794872 , 4135.8974359 , 4136.92307692 , 2042.0 , 2039.0 , 73.428 , 0.0 , 0.0 , 0.0 , 0.0 , 

65.0 , 4132.30769231 , 4129.74358974 , 4134.87179487 , 4133.84615385 , 4130.76923077 , 4129.23076923 , 4126.66666667 , 4129.74358974 , 4132.30769231 , 4138.46153846 , 4194.35897436 , 4912.30769231 , 4133.84615385 , 4136.41025641 , 2041.0 , 2038.0 , 73.436 , 0.0 , 0.0 , 0.0 , 0.0 , 

66.0 , 4131.28205128 , 4129.23076923 , 4133.33333333 , 4136.41025641 , 4130.25641026 , 4129.74358974 , 4127.17948718 , 4130.76923077 , 4135.8974359 , 4138.46153846 , 4191.28205128 , 4913.33333333 , 4132.82051282 , 4136.41025641 , 2042.0 , 2036.0 , 73.444 , 0.0 , 0.0 , 0.0 , 0.0 , 

67.0 , 4133.84615385 , 4129.74358974 , 4133.84615385 , 4132.82051282 , 4131.79487179 , 4130.25641026 , 4126.66666667 , 4133.33333333 , 4134.87179487 , 4138.46153846 , 4187.69230769 , 4910.25641026 , 4133.84615385 , 4134.87179487 , 2043.0 , 2037.0 , 73.452 , 0.0 , 0.0 , 0.0 , 0.0 , 

68.0 , 4135.8974359 , 4131.28205128 , 4135.8974359 , 4131.79487179 , 4130.76923077 , 4130.76923077 , 4128.71794872 , 4130.25641026 , 4132.82051282 , 4138.46153846 , 4190.76923077 , 4908.71794872 , 4132.82051282 , 4136.41025641 , 2044.0 , 2038.0 , 73.46 , 0.0 , 0.0 , 0.0 , 0.0 , 

69.0 , 4134.35897436 , 4130.76923077 , 4134.87179487 , 4137.43589744 , 4129.74358974 , 4129.74358974 , 4130.25641026 , 4130.25641026 , 4132.30769231 , 4137.43589744 , 4192.82051282 , 4909.23076923 , 4129.74358974 , 4137.94871795 , 2042.0 , 2038.0 , 73.466 , 0.0 , 0.0 , 0.0 , 0.0 , 

70.0 , 4134.35897436 , 4129.23076923 , 4133.33333333 , 4135.8974359 , 4130.25641026 , 4127.69230769 , 4128.20512821 , 4133.33333333 , 4130.76923077 , 4137.43589744 , 4189.23076923 , 4911.28205128 , 4131.28205128 , 4137.43589744 , 2042.0 , 2038.0 , 73.474 , 0.0 , 0.0 , 0.0 , 0.0 , 

71.0 , 4134.87179487 , 4129.74358974 , 4134.35897436 , 4130.25641026 , 4129.23076923 , 4127.17948718 , 4128.20512821 , 4130.76923077 , 4132.30769231 , 4137.43589744 , 4188.71794872 , 4914.87179487 , 4133.33333333 , 4139.48717949 , 2043.0 , 2036.0 , 73.483 , 0.0 , 0.0 , 0.0 , 0.0 , 

72.0 , 4132.82051282 , 4130.25641026 , 4134.35897436 , 4131.79487179 , 4128.20512821 , 4131.79487179 , 4129.23076923 , 4128.71794872 , 4136.41025641 , 4137.94871795 , 4190.76923077 , 4913.33333333 , 4134.35897436 , 4136.92307692 , 2043.0 , 2036.0 , 73.49 , 0.0 , 0.0 , 0.0 , 0.0 , 

73.0 , 4135.38461538 , 4129.23076923 , 4136.41025641 , 4133.33333333 , 4129.23076923 , 4134.35897436 , 4129.23076923 , 4130.76923077 , 4134.35897436 , 4137.94871795 , 4190.76923077 , 4914.87179487 , 4132.30769231 , 4138.97435897 , 2044.0 , 2034.0 , 73.499 , 0.0 , 0.0 , 0.0 , 0.0 , 

74.0 , 4135.8974359 , 4129.74358974 , 4139.48717949 , 4132.30769231 , 4130.76923077 , 4132.82051282 , 4129.74358974 , 4133.33333333 , 4133.33333333 , 4137.94871795 , 4189.23076923 , 4916.41025641 , 4131.28205128 , 4137.43589744 , 2043.0 , 2034.0 , 73.507 , 0.0 , 0.0 , 0.0 , 0.0 , 

75.0 , 4135.38461538 , 4129.23076923 , 4141.02564103 , 4130.76923077 , 4131.28205128 , 4132.82051282 , 4129.23076923 , 4131.28205128 , 4135.8974359 , 4137.94871795 , 4190.76923077 , 4913.84615385 , 4132.82051282 , 4137.94871795 , 2043.0 , 2035.0 , 73.514 , 0.0 , 0.0 , 0.0 , 0.0 , 

76.0 , 4131.28205128 , 4129.23076923 , 4136.41025641 , 4132.82051282 , 4131.28205128 , 4134.35897436 , 4130.25641026 , 4133.33333333 , 4136.41025641 , 4137.94871795 , 4193.33333333 , 4908.71794872 , 4132.82051282 , 4137.43589744 , 2042.0 , 2034.0 , 73.522 , 0.0 , 0.0 , 0.0 , 0.0 , 

77.0 , 4131.28205128 , 4129.74358974 , 4134.35897436 , 4132.30769231 , 4128.71794872 , 4131.28205128 , 4129.23076923 , 4133.33333333 , 4132.82051282 , 4137.43589744 , 4193.33333333 , 4909.74358974 , 4129.74358974 , 4142.05128205 , 2042.0 , 2034.0 , 73.53 , 0.0 , 0.0 , 0.0 , 0.0 , 

78.0 , 4131.79487179 , 4128.71794872 , 4134.35897436 , 4133.33333333 , 4130.25641026 , 4131.28205128 , 4128.71794872 , 4130.76923077 , 4134.35897436 , 4137.43589744 , 4191.79487179 , 4908.71794872 , 4130.25641026 , 4137.94871795 , 2042.0 , 2033.0 , 73.538 , 0.0 , 0.0 , 0.0 , 0.0 , 

79.0 , 4134.87179487 , 4128.20512821 , 4133.33333333 , 4133.84615385 , 4132.30769231 , 4130.76923077 , 4127.69230769 , 4128.71794872 , 4135.38461538 , 4137.43589744 , 4192.82051282 , 4913.33333333 , 4131.28205128 , 4137.43589744 , 2043.0 , 2034.0 , 73.545 , 0.0 , 0.0 , 0.0 , 0.0 , 

80.0 , 4134.35897436 , 4130.76923077 , 4132.30769231 , 4134.35897436 , 4131.79487179 , 4129.23076923 , 4129.23076923 , 4133.33333333 , 4131.79487179 , 4136.41025641 , 4191.79487179 , 4913.33333333 , 4129.23076923 , 4135.38461538 , 2043.0 , 2034.0 , 73.554 , 0.0 , 0.0 , 0.0 , 0.0 , 

81.0 , 4135.8974359 , 4130.25641026 , 4136.41025641 , 4133.33333333 , 4131.28205128 , 4128.20512821 , 4128.71794872 , 4134.35897436 , 4130.25641026 , 4137.94871795 , 4191.28205128 , 4909.74358974 , 4128.71794872 , 4137.94871795 , 2044.0 , 2035.0 , 73.561 , 0.0 , 0.0 , 0.0 , 0.0 , 

82.0 , 4135.38461538 , 4130.25641026 , 4137.94871795 , 4131.79487179 , 4131.28205128 , 4128.71794872 , 4128.71794872 , 4133.33333333 , 4135.38461538 , 4138.97435897 , 4191.28205128 , 4909.23076923 , 4131.79487179 , 4138.97435897 , 2042.0 , 2035.0 , 73.57 , 0.0 , 0.0 , 0.0 , 0.0 , 

83.0 , 4134.87179487 , 4130.76923077 , 4135.38461538 , 4131.79487179 , 4128.20512821 , 4127.17948718 , 4125.64102564 , 4133.33333333 , 4134.35897436 , 4135.8974359 , 4192.30769231 , 4914.35897436 , 4135.8974359 , 4140.0 , 2043.0 , 2037.0 , 73.577 , 0.0 , 0.0 , 0.0 , 0.0 , 

84.0 , 4133.33333333 , 4129.74358974 , 4132.30769231 , 4132.30769231 , 4127.69230769 , 4130.25641026 , 4124.61538462 , 4131.79487179 , 4131.28205128 , 4135.38461538 , 4192.30769231 , 4911.79487179 , 4133.84615385 , 4136.41025641 , 2043.0 , 2037.0 , 73.585 , 0.0 , 0.0 , 0.0 , 0.0 , 

85.0 , 4133.84615385 , 4130.25641026 , 4131.79487179 , 4130.76923077 , 4130.25641026 , 4133.33333333 , 4126.66666667 , 4128.71794872 , 4134.87179487 , 4138.46153846 , 4192.30769231 , 4909.23076923 , 4130.76923077 , 4136.92307692 , 2043.0 , 2038.0 , 73.593 , 0.0 , 0.0 , 0.0 , 0.0 , 

86.0 , 4132.82051282 , 4134.87179487 , 4131.79487179 , 4132.82051282 , 4130.76923077 , 4131.28205128 , 4127.69230769 , 4129.74358974 , 4136.41025641 , 4139.48717949 , 4189.74358974 , 4909.74358974 , 4132.30769231 , 4138.97435897 , 2043.0 , 2038.0 , 73.603 , 0.0 , 0.0 , 0.0 , 0.0 , 

87.0 , 4130.76923077 , 4133.84615385 , 4134.35897436 , 4135.8974359 , 4130.76923077 , 4129.74358974 , 4125.64102564 , 4133.33333333 , 4133.33333333 , 4137.43589744 , 4191.28205128 , 4909.74358974 , 4132.30769231 , 4140.51282051 , 2042.0 , 2037.0 , 73.609 , 0.0 , 0.0 , 0.0 , 0.0 , 

88.0 , 4131.79487179 , 4128.71794872 , 4136.41025641 , 4133.84615385 , 4129.74358974 , 4132.30769231 , 4124.61538462 , 4133.33333333 , 4134.87179487 , 4136.41025641 , 4194.35897436 , 4911.28205128 , 4129.23076923 , 4141.53846154 , 2043.0 , 2039.0 , 73.617 , 0.0 , 0.0 , 0.0 , 0.0 , 

89.0 , 4133.84615385 , 4131.28205128 , 4131.28205128 , 4133.33333333 , 4127.69230769 , 4132.30769231 , 4126.15384615 , 4131.79487179 , 4135.8974359 , 4137.94871795 , 4192.30769231 , 4909.74358974 , 4131.79487179 , 4137.94871795 , 2043.0 , 2039.0 , 73.625 , 0.0 , 0.0 , 0.0 , 0.0 , 

90.0 , 4133.84615385 , 4133.33333333 , 4130.25641026 , 4134.87179487 , 4128.71794872 , 4128.71794872 , 4125.12820513 , 4128.20512821 , 4133.33333333 , 4138.97435897 , 4190.76923077 , 4909.23076923 , 4132.82051282 , 4138.46153846 , 2044.0 , 2038.0 , 73.633 , 0.0 , 0.0 , 0.0 , 0.0 , 

91.0 , 4130.76923077 , 4130.76923077 , 4132.82051282 , 4134.87179487 , 4129.23076923 , 4128.71794872 , 4123.58974359 , 4129.74358974 , 4134.87179487 , 4137.94871795 , 4193.33333333 , 4910.25641026 , 4131.79487179 , 4140.0 , 2044.0 , 2037.0 , 73.64 , 0.0 , 0.0 , 0.0 , 0.0 , 

92.0 , 4130.76923077 , 4128.71794872 , 4132.30769231 , 4131.28205128 , 4127.69230769 , 4128.20512821 , 4118.97435897 , 4132.30769231 , 4134.35897436 , 4137.94871795 , 4192.30769231 , 4911.79487179 , 4133.33333333 , 4142.56410256 , 2045.0 , 2036.0 , 73.649 , 0.0 , 0.0 , 0.0 , 0.0 , 

93.0 , 4128.71794872 , 4131.79487179 , 4130.25641026 , 4132.82051282 , 4129.23076923 , 4125.64102564 , 4120.51282051 , 4132.82051282 , 4131.79487179 , 4139.48717949 , 4190.25641026 , 4909.74358974 , 4133.33333333 , 4136.41025641 , 2045.0 , 2036.0 , 73.657 , 0.0 , 0.0 , 0.0 , 0.0 , 

94.0 , 4130.76923077 , 4132.30769231 , 4135.38461538 , 4131.28205128 , 4133.33333333 , 4123.58974359 , 4125.64102564 , 4131.28205128 , 4133.33333333 , 4137.94871795 , 4192.30769231 , 4908.71794872 , 4132.30769231 , 4136.92307692 , 2044.0 , 2038.0 , 73.666 , 0.0 , 0.0 , 0.0 , 0.0 , 

95.0 , 4131.28205128 , 4130.76923077 , 4137.43589744 , 4129.74358974 , 4132.82051282 , 4128.20512821 , 4126.66666667 , 4134.87179487 , 4137.94871795 , 4137.94871795 , 4192.30769231 , 4907.17948718 , 4135.8974359 , 4137.94871795 , 2045.0 , 2037.0 , 73.671 , 0.0 , 0.0 , 0.0 , 0.0 , 

96.0 , 4133.84615385 , 4128.71794872 , 4133.33333333 , 4130.25641026 , 4128.20512821 , 4126.66666667 , 4123.07692308 , 4134.87179487 , 4136.92307692 , 4138.97435897 , 4190.25641026 , 4910.76923077 , 4135.38461538 , 4140.51282051 , 2044.0 , 2036.0 , 73.68 , 0.0 , 0.0 , 0.0 , 0.0 , 

97.0 , 4131.79487179 , 4129.23076923 , 4131.28205128 , 4132.82051282 , 4128.71794872 , 4123.58974359 , 4127.17948718 , 4134.35897436 , 4136.41025641 , 4138.46153846 , 4190.76923077 , 4913.33333333 , 4132.82051282 , 4135.38461538 , 2043.0 , 2037.0 , 73.687 , 0.0 , 0.0 , 0.0 , 0.0 , 

98.0 , 4132.82051282 , 4131.28205128 , 4134.35897436 , 4131.28205128 , 4131.28205128 , 4125.12820513 , 4127.69230769 , 4133.84615385 , 4137.94871795 , 4137.94871795 , 4194.35897436 , 4913.33333333 , 4132.82051282 , 4140.0 , 2042.0 , 2037.0 , 73.696 , 0.0 , 0.0 , 0.0 , 0.0 , 

99.0 , 4130.76923077 , 4133.33333333 , 4134.35897436 , 4132.30769231 , 4131.28205128 , 4129.74358974 , 4124.1025641 , 4134.35897436 , 4137.43589744 , 4138.97435897 , 4193.84615385 , 4910.25641026 , 4131.79487179 , 4142.56410256 , 2043.0 , 2038.0 , 73.703 , 0.0 , 0.0 , 0.0 , 0.0 , 

100.0 , 4131.79487179 , 4131.28205128 , 4133.84615385 , 4134.35897436 , 4128.71794872 , 4127.69230769 , 4122.56410256 , 4133.33333333 , 4134.35897436 , 4138.97435897 , 4191.28205128 , 4913.33333333 , 4129.23076923 , 4143.07692308 , 2043.0 , 2037.0 , 73.712 , 0.0 , 0.0 , 0.0 , 0.0 , 

101.0 , 4129.74358974 , 4129.74358974 , 4132.82051282 , 4132.82051282 , 4130.76923077 , 4126.15384615 , 4124.61538462 , 4134.87179487 , 4133.84615385 , 4137.43589744 , 4191.28205128 , 4914.35897436 , 4130.76923077 , 4138.97435897 , 2041.0 , 2038.0 , 73.72 , 0.0 , 0.0 , 0.0 , 0.0 , 

102.0 , 4126.66666667 , 4129.23076923 , 4130.76923077 , 4129.23076923 , 4133.84615385 , 4126.15384615 , 4122.56410256 , 4134.35897436 , 4134.35897436 , 4136.92307692 , 4192.82051282 , 4911.28205128 , 4135.8974359 , 4137.94871795 , 2042.0 , 2038.0 , 73.728 , 0.0 , 0.0 , 0.0 , 0.0 , 

103.0 , 4125.64102564 , 4128.71794872 , 4129.74358974 , 4130.25641026 , 4132.30769231 , 4126.66666667 , 4123.58974359 , 4133.33333333 , 4134.35897436 , 4137.94871795 , 4192.82051282 , 4907.69230769 , 4137.43589744 , 4138.46153846 , 2041.0 , 2037.0 , 73.735 , 0.0 , 0.0 , 0.0 , 0.0 , 

104.0 , 4126.66666667 , 4128.20512821 , 4133.33333333 , 4131.79487179 , 4128.71794872 , 4126.15384615 , 4126.15384615 , 4132.82051282 , 4136.92307692 , 4140.51282051 , 4193.33333333 , 4913.84615385 , 4134.87179487 , 4140.0 , 2041.0 , 2037.0 , 73.742 , 0.0 , 0.0 , 0.0 , 0.0 , 

105.0 , 4126.15384615 , 4127.69230769 , 4133.84615385 , 4130.76923077 , 4129.23076923 , 4126.15384615 , 4126.15384615 , 4131.79487179 , 4138.46153846 , 4141.02564103 , 4192.82051282 , 4917.43589744 , 4132.82051282 , 4139.48717949 , 2040.0 , 2037.0 , 73.751 , 0.0 , 0.0 , 0.0 , 0.0 , 

106.0 , 4129.23076923 , 4127.69230769 , 4132.30769231 , 4129.74358974 , 4131.28205128 , 4126.66666667 , 4124.1025641 , 4131.79487179 , 4134.35897436 , 4138.97435897 , 4191.79487179 , 4913.33333333 , 4133.84615385 , 4138.46153846 , 2040.0 , 2036.0 , 73.759 , 0.0 , 0.0 , 0.0 , 0.0 , 

107.0 , 4130.25641026 , 4127.69230769 , 4135.8974359 , 4130.76923077 , 4131.79487179 , 4126.66666667 , 4123.58974359 , 4132.82051282 , 4131.79487179 , 4137.94871795 , 4190.76923077 , 4913.84615385 , 4133.33333333 , 4140.51282051 , 2041.0 , 2037.0 , 73.766 , 0.0 , 0.0 , 0.0 , 0.0 , 

108.0 , 4125.64102564 , 4128.71794872 , 4136.92307692 , 4132.30769231 , 4130.25641026 , 4124.1025641 , 4121.53846154 , 4132.82051282 , 4136.92307692 , 4138.97435897 , 4190.25641026 , 4915.38461538 , 4135.8974359 , 4139.48717949 , 2040.0 , 2035.0 , 73.774 , 0.0 , 0.0 , 0.0 , 0.0 , 

109.0 , 4125.12820513 , 4128.71794872 , 4134.35897436 , 4131.79487179 , 4129.74358974 , 4121.53846154 , 4116.92307692 , 4135.38461538 , 4137.94871795 , 4138.46153846 , 4190.25641026 , 4912.82051282 , 4135.38461538 , 4139.48717949 , 2042.0 , 2036.0 , 73.781 , 0.0 , 0.0 , 0.0 , 0.0 , 

110.0 , 4125.12820513 , 4126.66666667 , 4131.79487179 , 4132.30769231 , 4131.28205128 , 4125.64102564 , 4117.94871795 , 4136.92307692 , 4133.84615385 , 4136.92307692 , 4191.28205128 , 4910.25641026 , 4130.76923077 , 4139.48717949 , 2042.0 , 2036.0 , 73.789 , 0.0 , 0.0 , 0.0 , 0.0 , 

111.0 , 4124.1025641 , 4129.23076923 , 4134.87179487 , 4132.30769231 , 4129.74358974 , 4126.66666667 , 4120.51282051 , 4133.33333333 , 4134.87179487 , 4136.92307692 , 4193.33333333 , 4913.33333333 , 4131.79487179 , 4142.56410256 , 2043.0 , 2035.0 , 73.798 , 0.0 , 0.0 , 0.0 , 0.0 , 

112.0 , 4123.07692308 , 4133.33333333 , 4135.8974359 , 4133.33333333 , 4128.71794872 , 4125.12820513 , 4124.1025641 , 4131.79487179 , 4138.97435897 , 4138.46153846 , 4192.82051282 , 4913.33333333 , 4135.8974359 , 4140.51282051 , 2044.0 , 2033.0 , 73.806 , 0.0 , 0.0 , 0.0 , 0.0 , 

113.0 , 4129.23076923 , 4130.25641026 , 4136.41025641 , 4131.79487179 , 4129.74358974 , 4125.12820513 , 4122.56410256 , 4133.84615385 , 4134.35897436 , 4139.48717949 , 4190.76923077 , 4914.35897436 , 4134.35897436 , 4140.51282051 , 2044.0 , 2035.0 , 73.814 , 0.0 , 0.0 , 0.0 , 0.0 , 

114.0 , 4129.74358974 , 4127.69230769 , 4134.87179487 , 4129.74358974 , 4130.76923077 , 4127.69230769 , 4121.53846154 , 4136.41025641 , 4132.82051282 , 4138.46153846 , 4190.76923077 , 4910.25641026 , 4134.35897436 , 4136.92307692 , 2045.0 , 2035.0 , 73.823 , 0.0 , 0.0 , 0.0 , 0.0 , 

115.0 , 4132.30769231 , 4127.69230769 , 4134.87179487 , 4129.23076923 , 4129.23076923 , 4126.15384615 , 4122.05128205 , 4133.33333333 , 4136.92307692 , 4136.92307692 , 4192.82051282 , 4911.79487179 , 4134.87179487 , 4141.53846154 , 2044.0 , 2035.0 , 73.829 , 0.0 , 0.0 , 0.0 , 0.0 , 

116.0 , 4130.76923077 , 4128.20512821 , 4134.87179487 , 4131.28205128 , 4131.28205128 , 4125.64102564 , 4123.58974359 , 4133.33333333 , 4137.43589744 , 4137.94871795 , 4192.30769231 , 4913.33333333 , 4133.33333333 , 4141.53846154 , 2044.0 , 2034.0 , 73.838 , 0.0 , 0.0 , 0.0 , 0.0 , 

117.0 , 4129.23076923 , 4128.71794872 , 4131.79487179 , 4129.74358974 , 4132.30769231 , 4126.15384615 , 4123.07692308 , 4133.33333333 , 4133.84615385 , 4137.43589744 , 4190.25641026 , 4911.79487179 , 4132.82051282 , 4143.07692308 , 2045.0 , 2035.0 , 73.844 , 0.0 , 0.0 , 0.0 , 0.0 , 

118.0 , 4130.25641026 , 4128.71794872 , 4129.74358974 , 4131.79487179 , 4130.25641026 , 4130.25641026 , 4123.58974359 , 4133.33333333 , 4136.92307692 , 4136.92307692 , 4192.30769231 , 4907.69230769 , 4133.33333333 , 4140.51282051 , 2046.0 , 2034.0 , 73.853 , 0.0 , 0.0 , 0.0 , 0.0 , 

119.0 , 4134.87179487 , 4127.17948718 , 4133.33333333 , 4133.33333333 , 4130.25641026 , 4129.23076923 , 4121.53846154 , 4132.30769231 , 4136.92307692 , 4138.46153846 , 4194.87179487 , 4910.25641026 , 4132.30769231 , 4141.53846154 , 2044.0 , 2034.0 , 73.861 , 0.0 , 0.0 , 0.0 , 0.0 , 

120.0 , 4131.28205128 , 4129.74358974 , 4134.87179487 , 4132.82051282 , 4132.82051282 , 4126.66666667 , 4122.56410256 , 4134.35897436 , 4134.35897436 , 4137.94871795 , 4190.76923077 , 4909.23076923 , 4130.76923077 , 4138.97435897 , 2044.0 , 2033.0 , 73.869 , 0.0 , 0.0 , 0.0 , 0.0 , 

121.0 , 4130.76923077 , 4131.79487179 , 4132.30769231 , 4129.74358974 , 4130.76923077 , 4127.69230769 , 4125.64102564 , 4132.30769231 , 4137.43589744 , 4136.41025641 , 4189.23076923 , 4906.66666667 , 4131.79487179 , 4135.8974359 , 2042.0 , 2034.0 , 73.876 , 0.0 , 0.0 , 0.0 , 0.0 , 

122.0 , 4134.87179487 , 4131.28205128 , 4130.25641026 , 4131.28205128 , 4128.20512821 , 4130.25641026 , 4126.66666667 , 4129.23076923 , 4137.94871795 , 4136.41025641 , 4192.82051282 , 4907.17948718 , 4131.28205128 , 4134.87179487 , 2041.0 , 2035.0 , 73.886 , 0.0 , 0.0 , 0.0 , 0.0 , 

123.0 , 4132.82051282 , 4131.28205128 , 4132.82051282 , 4134.87179487 , 4130.76923077 , 4129.74358974 , 4125.12820513 , 4131.79487179 , 4132.82051282 , 4136.41025641 , 4192.82051282 , 4909.74358974 , 4133.33333333 , 4138.46153846 , 2042.0 , 2036.0 , 73.892 , 0.0 , 0.0 , 0.0 , 0.0 , 

124.0 , 4129.23076923 , 4129.23076923 , 4136.92307692 , 4133.33333333 , 4133.84615385 , 4128.20512821 , 4126.15384615 , 4132.82051282 , 4133.33333333 , 4136.41025641 , 4190.25641026 , 4910.25641026 , 4136.92307692 , 4140.51282051 , 2041.0 , 2035.0 , 73.9 , 0.0 , 0.0 , 0.0 , 0.0 , 

125.0 , 4131.28205128 , 4125.64102564 , 4136.41025641 , 4129.74358974 , 4129.23076923 , 4128.71794872 , 4127.69230769 , 4133.84615385 , 4137.43589744 , 4137.43589744 , 4191.28205128 , 4910.76923077 , 4137.43589744 , 4138.97435897 , 2042.0 , 2036.0 , 73.908 , 0.0 , 0.0 , 0.0 , 0.0 , 

126.0 , 4132.30769231 , 4128.20512821 , 4133.33333333 , 4129.74358974 , 4125.64102564 , 4129.23076923 , 4126.66666667 , 4133.33333333 , 4136.41025641 , 4139.48717949 , 4192.30769231 , 4915.8974359 , 4132.30769231 , 4142.05128205 , 2042.0 , 2036.0 , 73.916 , 0.0 , 0.0 , 0.0 , 0.0 , 

127.0 , 4131.79487179 , 4132.82051282 , 4132.30769231 , 4134.87179487 , 4128.20512821 , 4128.71794872 , 4126.15384615 , 4131.79487179 , 4136.41025641 , 4138.97435897 , 4192.30769231 , 4916.41025641 , 4132.30769231 , 4143.58974359 , 2043.0 , 2036.0 , 73.923 , 0.0 , 0.0 , 0.0 , 0.0 , 

128.0 , 4135.38461538 , 4130.76923077 , 4134.35897436 , 4132.82051282 , 4130.25641026 , 4127.17948718 , 4125.12820513 , 4132.30769231 , 4136.92307692 , 4138.46153846 , 4192.30769231 , 4915.38461538 , 4135.8974359 , 4143.07692308 , 2043.0 , 2036.0 , 73.932 , 0.0 , 0.0 , 0.0 , 0.0 , 

0.0 , 4133.84615385 , 4127.69230769 , 4136.41025641 , 4129.74358974 , 4130.25641026 , 4130.25641026 , 4126.15384615 , 4133.84615385 , 4136.41025641 , 4137.94871795 , 4193.33333333 , 4913.33333333 , 4135.38461538 , 4137.43589744 , 2044.0 , 2036.0 , 73.94 , 0.0 , 0.0 , 0.0 , 0.0 , 

1.0 , 4131.28205128 , 4126.15384615 , 4137.43589744 , 4131.79487179 , 4129.74358974 , 4132.30769231 , 4124.61538462 , 4130.25641026 , 4134.87179487 , 4136.92307692 , 4194.35897436 , 4911.79487179 , 4131.28205128 , 4139.48717949 , 2043.0 , 2037.0 , 73.948 , 0.0 , 0.0 , 0.0 , 0.0 , 

2.0 , 4131.28205128 , 4126.15384615 , 4133.84615385 , 4134.87179487 , 4128.20512821 , 4131.79487179 , 4123.07692308 , 4130.25641026 , 4134.35897436 , 4135.8974359 , 4191.79487179 , 4908.20512821 , 4131.79487179 , 4138.46153846 , 2043.0 , 2035.0 , 73.955 , 0.0 , 0.0 , 0.0 , 0.0 , 

3.0 , 4133.33333333 , 4126.15384615 , 4134.87179487 , 4133.33333333 , 4126.66666667 , 4128.20512821 , 4122.56410256 , 4130.76923077 , 4133.84615385 , 4136.41025641 , 4191.79487179 , 4911.28205128 , 4134.35897436 , 4138.46153846 , 2042.0 , 2035.0 , 73.963 , 0.0 , 0.0 , 0.0 , 0.0 , 

4.0 , 4130.25641026 , 4129.23076923 , 4135.8974359 , 4133.33333333 , 4130.25641026 , 4128.20512821 , 4125.64102564 , 4131.28205128 , 4136.92307692 , 4137.43589744 , 4192.30769231 , 4908.20512821 , 4135.38461538 , 4133.84615385 , 2043.0 , 2036.0 , 73.972 , 0.0 , 0.0 , 0.0 , 0.0 , 

5.0 , 4131.79487179 , 4130.25641026 , 4133.84615385 , 4132.82051282 , 4130.25641026 , 4128.20512821 , 4124.61538462 , 4133.33333333 , 4137.43589744 , 4137.43589744 , 4192.30769231 , 4907.17948718 , 4132.30769231 , 4136.92307692 , 2043.0 , 2036.0 , 73.98 , 0.0 , 0.0 , 0.0 , 0.0 , 

6.0 , 4131.79487179 , 4129.74358974 , 4132.82051282 , 4130.25641026 , 4128.71794872 , 4129.74358974 , 4126.15384615 , 4133.84615385 , 4137.43589744 , 4136.92307692 , 4191.79487179 , 4908.71794872 , 4132.30769231 , 4138.46153846 , 2044.0 , 2035.0 , 73.986 , 0.0 , 0.0 , 0.0 , 0.0 , 

7.0 , 4133.33333333 , 4128.20512821 , 4135.8974359 , 4129.23076923 , 4131.79487179 , 4127.17948718 , 4127.69230769 , 4131.28205128 , 4137.94871795 , 4137.94871795 , 4192.82051282 , 4910.76923077 , 4135.38461538 , 4138.97435897 , 2045.0 , 2034.0 , 73.994 , 0.0 , 0.0 , 0.0 , 0.0 , 

8.0 , 4132.30769231 , 4131.28205128 , 4136.92307692 , 4133.33333333 , 4132.82051282 , 4127.69230769 , 4127.69230769 , 4134.35897436 , 4135.8974359 , 4140.0 , 4192.30769231 , 4909.74358974 , 4133.33333333 , 4135.38461538 , 2044.0 , 2036.0 , 74.002 , 0.0 , 0.0 , 0.0 , 0.0 , 

9.0 , 4131.28205128 , 4133.33333333 , 4135.8974359 , 4134.35897436 , 4129.23076923 , 4131.79487179 , 4127.17948718 , 4133.84615385 , 4132.30769231 , 4137.94871795 , 4192.82051282 , 4913.33333333 , 4131.79487179 , 4140.51282051 , 2045.0 , 2037.0 , 74.009 , 0.0 , 0.0 , 0.0 , 0.0 , 

10.0 , 4129.74358974 , 4131.28205128 , 4134.87179487 , 4132.30769231 , 4129.23076923 , 4132.82051282 , 4127.17948718 , 4129.74358974 , 4130.76923077 , 4136.41025641 , 4191.79487179 , 4911.79487179 , 4133.84615385 , 4142.56410256 , 2045.0 , 2036.0 , 74.018 , 0.0 , 0.0 , 0.0 , 0.0 , 

11.0 , 4130.76923077 , 4128.20512821 , 4133.84615385 , 4131.79487179 , 4131.79487179 , 4126.15384615 , 4124.1025641 , 4130.25641026 , 4131.79487179 , 4138.46153846 , 4191.79487179 , 4910.25641026 , 4134.87179487 , 4140.0 , 2045.0 , 2036.0 , 74.026 , 0.0 , 0.0 , 0.0 , 0.0 , 

12.0 , 4130.76923077 , 4129.74358974 , 4133.84615385 , 4135.38461538 , 4132.30769231 , 4127.17948718 , 4126.15384615 , 4132.82051282 , 4133.84615385 , 4138.46153846 , 4193.33333333 , 4910.25641026 , 4134.35897436 , 4137.43589744 , 2043.0 , 2035.0 , 74.035 , 0.0 , 0.0 , 0.0 , 0.0 , 

13.0 , 4131.79487179 , 4132.82051282 , 4132.82051282 , 4135.8974359 , 4130.76923077 , 4131.28205128 , 4130.25641026 , 4129.74358974 , 4134.87179487 , 4137.43589744 , 4191.28205128 , 4910.76923077 , 4134.35897436 , 4140.51282051 , 2043.0 , 2035.0 , 74.043 , 0.0 , 0.0 , 0.0 , 0.0 , 

14.0 , 4132.82051282 , 4130.25641026 , 4132.30769231 , 4131.79487179 , 4127.69230769 , 4128.20512821 , 4126.66666667 , 4128.20512821 , 4133.33333333 , 4138.97435897 , 4188.71794872 , 4912.30769231 , 4132.82051282 , 4143.58974359 , 2045.0 , 2034.0 , 74.051 , 0.0 , 0.0 , 0.0 , 0.0 , 

15.0 , 4130.76923077 , 4127.69230769 , 4134.35897436 , 4130.76923077 , 4126.66666667 , 4128.20512821 , 4122.56410256 , 4132.30769231 , 4130.76923077 , 4138.97435897 , 4190.76923077 , 4911.28205128 , 4134.35897436 , 4140.51282051 , 2045.0 , 2034.0 , 74.057 , 0.0 , 0.0 , 0.0 , 0.0 , 

16.0 , 4130.76923077 , 4127.69230769 , 4136.41025641 , 4132.82051282 , 4131.28205128 , 4131.28205128 , 4123.58974359 , 4131.28205128 , 4130.76923077 , 4136.41025641 , 4191.28205128 , 4909.74358974 , 4134.87179487 , 4140.51282051 , 2043.0 , 2034.0 , 74.067 , 0.0 , 0.0 , 0.0 , 0.0 , 

17.0 , 4132.30769231 , 4129.74358974 , 4132.82051282 , 4133.84615385 , 4131.28205128 , 4129.74358974 , 4125.64102564 , 4127.69230769 , 4134.87179487 , 4135.8974359 , 4190.76923077 , 4909.74358974 , 4132.30769231 , 4138.97435897 , 2043.0 , 2035.0 , 74.075 , 0.0 , 0.0 , 0.0 , 0.0 , 

18.0 , 4131.79487179 , 4129.74358974 , 4129.74358974 , 4130.25641026 , 4126.66666667 , 4127.17948718 , 4126.15384615 , 4128.71794872 , 4136.41025641 , 4138.46153846 , 4192.82051282 , 4911.79487179 , 4132.30769231 , 4138.97435897 , 2043.0 , 2036.0 , 74.081 , 0.0 , 0.0 , 0.0 , 0.0 , 

19.0 , 4128.20512821 , 4130.76923077 , 4130.25641026 , 4131.79487179 , 4128.71794872 , 4128.71794872 , 4127.17948718 , 4132.82051282 , 4134.35897436 , 4139.48717949 , 4193.33333333 , 4908.20512821 , 4134.35897436 , 4135.8974359 , 2044.0 , 2034.0 , 74.089 , 0.0 , 0.0 , 0.0 , 0.0 , 

20.0 , 4130.76923077 , 4129.74358974 , 4133.84615385 , 4133.33333333 , 4131.79487179 , 4126.15384615 , 4127.17948718 , 4130.76923077 , 4132.30769231 , 4137.43589744 , 4191.79487179 , 4908.71794872 , 4130.76923077 , 4137.94871795 , 2043.0 , 2035.0 , 74.097 , 0.0 , 0.0 , 0.0 , 0.0 , 

21.0 , 4130.25641026 , 4129.23076923 , 4133.33333333 , 4132.82051282 , 4130.25641026 , 4127.17948718 , 4128.71794872 , 4131.79487179 , 4134.87179487 , 4136.92307692 , 4192.30769231 , 4909.74358974 , 4130.25641026 , 4134.87179487 , 2041.0 , 2034.0 , 74.105 , 0.0 , 0.0 , 0.0 , 0.0 , 

22.0 , 4131.28205128 , 4128.71794872 , 4132.82051282 , 4130.76923077 , 4128.71794872 , 4128.20512821 , 4125.64102564 , 4130.76923077 , 4136.41025641 , 4137.94871795 , 4193.33333333 , 4911.79487179 , 4133.33333333 , 4137.94871795 , 2042.0 , 2033.0 , 74.113 , 0.0 , 0.0 , 0.0 , 0.0 , 

23.0 , 4132.30769231 , 4128.71794872 , 4133.84615385 , 4131.79487179 , 4130.76923077 , 4128.71794872 , 4125.64102564 , 4128.20512821 , 4136.92307692 , 4137.43589744 , 4191.79487179 , 4910.76923077 , 4134.87179487 , 4141.02564103 , 2042.0 , 2033.0 , 74.12 , 0.0 , 0.0 , 0.0 , 0.0 , 

24.0 , 4135.38461538 , 4130.25641026 , 4135.38461538 , 4132.30769231 , 4130.25641026 , 4127.69230769 , 4128.20512821 , 4131.28205128 , 4134.35897436 , 4136.41025641 , 4191.79487179 , 4912.82051282 , 4134.87179487 , 4143.58974359 , 2042.0 , 2034.0 , 74.128 , 0.0 , 0.0 , 0.0 , 0.0 , 

25.0 , 4133.84615385 , 4132.30769231 , 4132.82051282 , 4133.33333333 , 4129.74358974 , 4127.69230769 , 4127.17948718 , 4134.35897436 , 4133.84615385 , 4136.92307692 , 4192.82051282 , 4914.35897436 , 4131.79487179 , 4136.92307692 , 2041.0 , 2034.0 , 74.137 , 0.0 , 0.0 , 0.0 , 0.0 , 

26.0 , 4131.79487179 , 4128.71794872 , 4132.30769231 , 4133.33333333 , 4129.23076923 , 4128.20512821 , 4124.1025641 , 4131.28205128 , 4134.87179487 , 4137.94871795 , 4194.35897436 , 4913.33333333 , 4131.28205128 , 4141.02564103 , 2042.0 , 2035.0 , 74.144 , 0.0 , 0.0 , 0.0 , 0.0 , 

27.0 , 4130.25641026 , 4127.69230769 , 4132.82051282 , 4133.33333333 , 4130.76923077 , 4130.25641026 , 4127.17948718 , 4131.79487179 , 4136.41025641 , 4137.94871795 , 4192.82051282 , 4910.25641026 , 4133.84615385 , 4144.61538462 , 2042.0 , 2036.0 , 74.152 , 0.0 , 0.0 , 0.0 , 0.0 , 

28.0 , 4132.82051282 , 4131.79487179 , 4133.84615385 , 4132.82051282 , 4129.74358974 , 4126.15384615 , 4127.69230769 , 4134.35897436 , 4137.43589744 , 4137.43589744 , 4191.28205128 , 4911.79487179 , 4134.87179487 , 4143.07692308 , 2041.0 , 2034.0 , 74.16 , 0.0 , 0.0 , 0.0 , 0.0 , 

29.0 , 4130.76923077 , 4131.79487179 , 4133.33333333 , 4134.35897436 , 4128.20512821 , 4126.66666667 , 4124.61538462 , 4132.30769231 , 4135.38461538 , 4136.92307692 , 4191.28205128 , 4913.33333333 , 4132.82051282 , 4137.43589744 , 2043.0 , 2033.0 , 74.17 , 0.0 , 0.0 , 0.0 , 0.0 , 

30.0 , 4128.20512821 , 4127.17948718 , 4132.30769231 , 4134.87179487 , 4128.71794872 , 4130.25641026 , 4123.58974359 , 4131.28205128 , 4133.33333333 , 4136.92307692 , 4192.82051282 , 4912.82051282 , 4130.76923077 , 4137.43589744 , 2042.0 , 2034.0 , 74.176 , 0.0 , 0.0 , 0.0 , 0.0 , 

31.0 , 4128.71794872 , 4126.66666667 , 4132.82051282 , 4133.33333333 , 4129.74358974 , 4126.66666667 , 4124.61538462 , 4132.30769231 , 4134.35897436 , 4136.92307692 , 4191.28205128 , 4910.76923077 , 4131.28205128 , 4136.92307692 , 2042.0 , 2036.0 , 74.185 , 0.0 , 0.0 , 0.0 , 0.0 , 

32.0 , 4130.76923077 , 4129.74358974 , 4132.82051282 , 4130.25641026 , 4129.74358974 , 4122.56410256 , 4125.12820513 , 4129.74358974 , 4134.35897436 , 4137.94871795 , 4189.23076923 , 4910.25641026 , 4133.33333333 , 4136.92307692 , 2043.0 , 2035.0 , 74.191 , 0.0 , 0.0 , 0.0 , 0.0 , 

33.0 , 4132.30769231 , 4127.69230769 , 4131.28205128 , 4129.74358974 , 4129.23076923 , 4125.12820513 , 4126.66666667 , 4128.20512821 , 4133.84615385 , 4138.46153846 , 4191.28205128 , 4911.79487179 , 4132.30769231 , 4140.51282051 , 2043.0 , 2035.0 , 74.199 , 0.0 , 0.0 , 0.0 , 0.0 , 

34.0 , 4133.84615385 , 4125.64102564 , 4131.79487179 , 4132.30769231 , 4131.28205128 , 4125.64102564 , 4127.17948718 , 4130.76923077 , 4134.35897436 , 4138.46153846 , 4193.33333333 , 4910.25641026 , 4132.82051282 , 4138.46153846 , 2043.0 , 2037.0 , 74.208 , 0.0 , 0.0 , 0.0 , 0.0 , 

35.0 , 4134.87179487 , 4125.64102564 , 4134.87179487 , 4131.28205128 , 4131.79487179 , 4125.64102564 , 4124.1025641 , 4131.28205128 , 4132.82051282 , 4138.46153846 , 4191.28205128 , 4909.23076923 , 4133.84615385 , 4140.51282051 , 2042.0 , 2036.0 , 74.216 , 0.0 , 0.0 , 0.0 , 0.0 , 

36.0 , 4131.79487179 , 4125.12820513 , 4132.82051282 , 4130.25641026 , 4129.74358974 , 4131.79487179 , 4124.61538462 , 4133.84615385 , 4134.35897436 , 4137.94871795 , 4189.74358974 , 4910.76923077 , 4132.82051282 , 4143.07692308 , 2041.0 , 2036.0 , 74.224 , 0.0 , 0.0 , 0.0 , 0.0 , 

37.0 , 4131.79487179 , 4126.66666667 , 4131.79487179 , 4129.74358974 , 4128.71794872 , 4129.74358974 , 4123.07692308 , 4134.87179487 , 4135.8974359 , 4137.94871795 , 4192.30769231 , 4914.35897436 , 4131.79487179 , 4144.61538462 , 2042.0 , 2036.0 , 74.232 , 0.0 , 0.0 , 0.0 , 0.0 , 

38.0 , 4129.74358974 , 4129.74358974 , 4133.33333333 , 4130.76923077 , 4130.76923077 , 4125.12820513 , 4121.53846154 , 4131.79487179 , 4135.38461538 , 4138.46153846 , 4193.84615385 , 4911.79487179 , 4133.33333333 , 4137.43589744 , 2043.0 , 2037.0 , 74.239 , 0.0 , 0.0 , 0.0 , 0.0 , 

39.0 , 4129.23076923 , 4128.20512821 , 4133.84615385 , 4131.28205128 , 4130.76923077 , 4125.64102564 , 4122.05128205 , 4130.25641026 , 4134.35897436 , 4136.92307692 , 4192.82051282 , 4912.30769231 , 4135.38461538 , 4137.94871795 , 2042.0 , 2038.0 , 74.247 , 0.0 , 0.0 , 0.0 , 0.0 , 

40.0 , 4126.66666667 , 4124.61538462 , 4132.82051282 , 4133.33333333 , 4128.20512821 , 4126.66666667 , 4125.64102564 , 4134.35897436 , 4134.87179487 , 4136.92307692 , 4192.30769231 , 4912.82051282 , 4137.43589744 , 4136.41025641 , 2042.0 , 2038.0 , 74.254 , 0.0 , 0.0 , 0.0 , 0.0 , 

41.0 , 4128.71794872 , 4125.64102564 , 4137.43589744 , 4131.79487179 , 4127.69230769 , 4123.58974359 , 4122.05128205 , 4135.38461538 , 4133.84615385 , 4141.02564103 , 4192.30769231 , 4915.38461538 , 4134.87179487 , 4139.48717949 , 2042.0 , 2038.0 , 74.263 , 0.0 , 0.0 , 0.0 , 0.0 , 

42.0 , 4128.20512821 , 4128.20512821 , 4138.97435897 , 4129.23076923 , 4129.74358974 , 4124.61538462 , 4119.48717949 , 4133.33333333 , 4135.38461538 , 4140.0 , 4191.28205128 , 4912.82051282 , 4131.28205128 , 4137.94871795 , 2044.0 , 2040.0 , 74.272 , 0.0 , 0.0 , 0.0 , 0.0 , 

43.0 , 4129.74358974 , 4128.20512821 , 4136.92307692 , 4129.74358974 , 4129.74358974 , 4123.07692308 , 4120.51282051 , 4132.30769231 , 4133.84615385 , 4135.8974359 , 4190.76923077 , 4914.35897436 , 4133.84615385 , 4138.97435897 , 2044.0 , 2039.0 , 74.279 , 0.0 , 0.0 , 0.0 , 0.0 , 

44.0 , 4127.69230769 , 4129.23076923 , 4135.8974359 , 4132.82051282 , 4129.74358974 , 4122.05128205 , 4123.58974359 , 4133.84615385 , 4134.35897436 , 4136.92307692 , 4191.79487179 , 4912.82051282 , 4134.35897436 , 4137.43589744 , 2046.0 , 2039.0 , 74.287 , 0.0 , 0.0 , 0.0 , 0.0 , 

45.0 , 4126.66666667 , 4129.23076923 , 4137.94871795 , 4131.28205128 , 4130.76923077 , 4124.61538462 , 4124.1025641 , 4131.79487179 , 4136.41025641 , 4137.94871795 , 4191.79487179 , 4912.30769231 , 4131.28205128 , 4141.02564103 , 2045.0 , 2039.0 , 74.295 , 0.0 , 0.0 , 0.0 , 0.0 , 

46.0 , 4129.23076923 , 4128.20512821 , 4136.92307692 , 4130.25641026 , 4131.79487179 , 4125.64102564 , 4126.15384615 , 4132.30769231 , 4135.8974359 , 4136.92307692 , 4191.79487179 , 4913.33333333 , 4132.82051282 , 4140.51282051 , 2045.0 , 2037.0 , 74.303 , 0.0 , 0.0 , 0.0 , 0.0 , 

47.0 , 4132.82051282 , 4127.69230769 , 4136.41025641 , 4131.28205128 , 4130.25641026 , 4124.1025641 , 4124.61538462 , 4133.33333333 , 4134.87179487 , 4137.43589744 , 4191.79487179 , 4912.82051282 , 4134.35897436 , 4138.46153846 , 2045.0 , 2036.0 , 74.311 , 0.0 , 0.0 , 0.0 , 0.0 , 

48.0 , 4128.20512821 , 4128.20512821 , 4136.92307692 , 4129.23076923 , 4130.76923077 , 4128.20512821 , 4124.61538462 , 4133.33333333 , 4135.38461538 , 4138.46153846 , 4191.79487179 , 4907.69230769 , 4132.82051282 , 4135.8974359 , 2045.0 , 2038.0 , 74.319 , 0.0 , 0.0 , 0.0 , 0.0 , 

49.0 , 4127.17948718 , 4129.23076923 , 4137.43589744 , 4126.66666667 , 4130.76923077 , 4130.25641026 , 4126.66666667 , 4133.84615385 , 4132.30769231 , 4137.43589744 , 4191.28205128 , 4909.23076923 , 4134.87179487 , 4140.0 , 2042.0 , 2036.0 , 74.327 , 0.0 , 0.0 , 0.0 , 0.0 , 

50.0 , 4131.28205128 , 4128.20512821 , 4135.8974359 , 4127.69230769 , 4129.74358974 , 4126.66666667 , 4128.20512821 , 4132.30769231 , 4130.76923077 , 4137.94871795 , 4191.79487179 , 4916.41025641 , 4136.41025641 , 4142.05128205 , 2042.0 , 2037.0 , 74.334 , 0.0 , 0.0 , 0.0 , 0.0 , 

51.0 , 4127.69230769 , 4125.12820513 , 4133.84615385 , 4130.25641026 , 4130.76923077 , 4126.66666667 , 4127.17948718 , 4131.28205128 , 4136.92307692 , 4138.46153846 , 4192.82051282 , 4917.94871795 , 4134.35897436 , 4140.0 , 2044.0 , 2035.0 , 74.341 , 0.0 , 0.0 , 0.0 , 0.0 , 

52.0 , 4127.69230769 , 4128.20512821 , 4134.87179487 , 4129.23076923 , 4129.74358974 , 4128.71794872 , 4126.15384615 , 4131.28205128 , 4139.48717949 , 4137.94871795 , 4191.28205128 , 4916.92307692 , 4132.82051282 , 4141.02564103 , 2041.0 , 2035.0 , 74.35 , 0.0 , 0.0 , 0.0 , 0.0 , 

53.0 , 4132.30769231 , 4133.84615385 , 4135.38461538 , 4129.23076923 , 4127.69230769 , 4127.69230769 , 4124.1025641 , 4134.35897436 , 4136.92307692 , 4138.46153846 , 4191.28205128 , 4914.87179487 , 4135.38461538 , 4140.0 , 2041.0 , 2035.0 , 74.358 , 0.0 , 0.0 , 0.0 , 0.0 , 

54.0 , 4133.33333333 , 4132.30769231 , 4134.87179487 , 4129.74358974 , 4128.71794872 , 4125.64102564 , 4122.56410256 , 4133.33333333 , 4133.33333333 , 4138.97435897 , 4192.82051282 , 4915.38461538 , 4136.92307692 , 4142.56410256 , 2042.0 , 2034.0 , 74.366 , 0.0 , 0.0 , 0.0 , 0.0 , 

55.0 , 4130.76923077 , 4132.30769231 , 4132.82051282 , 4131.79487179 , 4130.25641026 , 4126.15384615 , 4126.15384615 , 4132.30769231 , 4135.38461538 , 4138.46153846 , 4190.76923077 , 4911.28205128 , 4136.92307692 , 4142.05128205 , 2041.0 , 2034.0 , 74.374 , 0.0 , 0.0 , 0.0 , 0.0 , 

56.0 , 4131.28205128 , 4133.33333333 , 4133.33333333 , 4130.76923077 , 4128.71794872 , 4123.07692308 , 4124.1025641 , 4133.33333333 , 4138.97435897 , 4137.94871795 , 4190.76923077 , 4910.25641026 , 4135.38461538 , 4143.58974359 , 2042.0 , 2035.0 , 74.381 , 0.0 , 0.0 , 0.0 , 0.0 , 

57.0 , 4127.17948718 , 4130.76923077 , 4133.84615385 , 4130.76923077 , 4129.23076923 , 4123.58974359 , 4120.0 , 4135.38461538 , 4139.48717949 , 4138.46153846 , 4193.84615385 , 4909.74358974 , 4135.8974359 , 4139.48717949 , 2041.0 , 2035.0 , 74.39 , 0.0 , 0.0 , 0.0 , 0.0 , 

58.0 , 4127.69230769 , 4128.20512821 , 4135.38461538 , 4132.30769231 , 4130.25641026 , 4125.12820513 , 4120.51282051 , 4133.84615385 , 4133.33333333 , 4138.97435897 , 4194.87179487 , 4911.28205128 , 4135.8974359 , 4141.02564103 , 2044.0 , 2037.0 , 74.396 , 0.0 , 0.0 , 0.0 , 0.0 , 

59.0 , 4128.71794872 , 4132.30769231 , 4134.87179487 , 4133.33333333 , 4130.76923077 , 4125.64102564 , 4122.56410256 , 4132.82051282 , 4131.28205128 , 4138.46153846 , 4191.28205128 , 4909.74358974 , 4135.38461538 , 4136.92307692 , 2042.0 , 2036.0 , 74.405 , 0.0 , 0.0 , 0.0 , 0.0 , 

60.0 , 4130.76923077 , 4132.30769231 , 4133.84615385 , 4131.28205128 , 4129.74358974 , 4125.12820513 , 4116.92307692 , 4130.25641026 , 4134.87179487 , 4136.41025641 , 4191.28205128 , 4911.28205128 , 4134.35897436 , 4137.43589744 , 2042.0 , 2037.0 , 74.413 , 0.0 , 0.0 , 0.0 , 0.0 , 

61.0 , 4129.23076923 , 4128.71794872 , 4132.30769231 , 4132.30769231 , 4129.74358974 , 4126.15384615 , 4116.92307692 , 4129.74358974 , 4136.92307692 , 4136.41025641 , 4193.33333333 , 4910.25641026 , 4133.33333333 , 4137.94871795 , 2043.0 , 2037.0 , 74.421 , 0.0 , 0.0 , 0.0 , 0.0 , 

62.0 , 4129.74358974 , 4125.12820513 , 4134.87179487 , 4132.30769231 , 4129.23076923 , 4124.61538462 , 4121.02564103 , 4132.30769231 , 4136.41025641 , 4139.48717949 , 4193.33333333 , 4910.25641026 , 4134.87179487 , 4141.02564103 , 2044.0 , 2037.0 , 74.428 , 0.0 , 0.0 , 0.0 , 0.0 , 

63.0 , 4129.74358974 , 4130.25641026 , 4135.38461538 , 4131.79487179 , 4128.20512821 , 4125.64102564 , 4120.0 , 4135.8974359 , 4135.38461538 , 4138.97435897 , 4191.28205128 , 4911.28205128 , 4136.41025641 , 4141.02564103 , 2043.0 , 2038.0 , 74.437 , 0.0 , 0.0 , 0.0 , 0.0 , 

64.0 , 4132.82051282 , 4131.79487179 , 4131.79487179 , 4133.33333333 , 4128.71794872 , 4128.20512821 , 4117.94871795 , 4132.30769231 , 4133.84615385 , 4137.43589744 , 4190.25641026 , 4913.84615385 , 4136.41025641 , 4143.07692308 , 2043.0 , 2037.0 , 74.445 , 0.0 , 0.0 , 0.0 , 0.0 , 

65.0 , 4131.79487179 , 4124.61538462 , 4129.74358974 , 4134.35897436 , 4131.79487179 , 4127.69230769 , 4120.0 , 4129.23076923 , 4133.84615385 , 4138.97435897 , 4189.74358974 , 4912.30769231 , 4134.87179487 , 4138.97435897 , 2045.0 , 2038.0 , 74.453 , 0.0 , 0.0 , 0.0 , 0.0 , 

66.0 , 4131.28205128 , 4124.1025641 , 4134.35897436 , 4131.28205128 , 4131.28205128 , 4126.66666667 , 4121.53846154 , 4132.30769231 , 4133.84615385 , 4139.48717949 , 4189.74358974 , 4910.76923077 , 4135.38461538 , 4137.43589744 , 2046.0 , 2038.0 , 74.46 , 0.0 , 0.0 , 0.0 , 0.0 , 

67.0 , 4131.28205128 , 4130.25641026 , 4136.41025641 , 4130.76923077 , 4128.71794872 , 4129.74358974 , 4125.12820513 , 4133.84615385 , 4132.82051282 , 4138.46153846 , 4189.74358974 , 4910.76923077 , 4135.8974359 , 4139.48717949 , 2044.0 , 2037.0 , 74.467 , 0.0 , 0.0 , 0.0 , 0.0 , 

68.0 , 4129.74358974 , 4130.76923077 , 4133.84615385 , 4133.33333333 , 4130.76923077 , 4129.23076923 , 4127.69230769 , 4131.28205128 , 4131.28205128 , 4137.94871795 , 4192.30769231 , 4911.79487179 , 4134.87179487 , 4142.05128205 , 2044.0 , 2038.0 , 74.474 , 0.0 , 0.0 , 0.0 , 0.0 , 

69.0 , 4129.23076923 , 4129.23076923 , 4135.38461538 , 4133.33333333 , 4133.33333333 , 4126.66666667 , 4125.64102564 , 4129.74358974 , 4129.74358974 , 4137.43589744 , 4193.33333333 , 4912.30769231 , 4132.30769231 , 4142.56410256 , 2044.0 , 2036.0 , 74.483 , 0.0 , 0.0 , 0.0 , 0.0 , 

70.0 , 4131.79487179 , 4130.25641026 , 4135.38461538 , 4130.76923077 , 4131.79487179 , 4128.71794872 , 4126.66666667 , 4131.79487179 , 4131.28205128 , 4137.43589744 , 4189.74358974 , 4910.76923077 , 4135.38461538 , 4138.97435897 , 2044.0 , 2036.0 , 74.491 , 0.0 , 0.0 , 0.0 , 0.0 , 

71.0 , 4133.84615385 , 4128.71794872 , 4133.33333333 , 4130.76923077 , 4130.76923077 , 4130.76923077 , 4129.74358974 , 4132.30769231 , 4134.35897436 , 4136.41025641 , 4189.74358974 , 4910.76923077 , 4136.92307692 , 4139.48717949 , 2043.0 , 2037.0 , 74.499 , 0.0 , 0.0 , 0.0 , 0.0 , 

72.0 , 4134.35897436 , 4130.25641026 , 4132.82051282 , 4133.33333333 , 4131.28205128 , 4130.25641026 , 4129.23076923 , 4131.79487179 , 4135.38461538 , 4136.41025641 , 4192.30769231 , 4910.25641026 , 4131.79487179 , 4139.48717949 , 2043.0 , 2036.0 , 74.507 , 0.0 , 0.0 , 0.0 , 0.0 , 

73.0 , 4135.38461538 , 4132.30769231 , 4134.35897436 , 4131.79487179 , 4129.23076923 , 4129.23076923 , 4128.20512821 , 4132.82051282 , 4134.35897436 , 4138.46153846 , 4189.74358974 , 4910.25641026 , 4129.74358974 , 4140.51282051 , 2042.0 , 2036.0 , 74.515 , 0.0 , 0.0 , 0.0 , 0.0 , 

74.0 , 4133.33333333 , 4129.23076923 , 4134.87179487 , 4130.25641026 , 4128.71794872 , 4132.30769231 , 4129.23076923 , 4133.84615385 , 4132.30769231 , 4139.48717949 , 4189.23076923 , 4906.15384615 , 4134.35897436 , 4134.87179487 , 2041.0 , 2036.0 , 74.524 , 0.0 , 0.0 , 0.0 , 0.0 , 

75.0 , 4134.87179487 , 4128.71794872 , 4135.8974359 , 4130.76923077 , 4129.23076923 , 4133.84615385 , 4127.69230769 , 4130.76923077 , 4128.71794872 , 4138.97435897 , 4192.82051282 , 4905.64102564 , 4134.35897436 , 4135.38461538 , 2042.0 , 2038.0 , 74.531 , 0.0 , 0.0 , 0.0 , 0.0 , 

76.0 , 4135.38461538 , 4130.76923077 , 4134.35897436 , 4132.82051282 , 4129.74358974 , 4132.30769231 , 4128.20512821 , 4130.76923077 , 4132.82051282 , 4138.97435897 , 4189.74358974 , 4907.17948718 , 4131.79487179 , 4135.38461538 , 2042.0 , 2037.0 , 74.538 , 0.0 , 0.0 , 0.0 , 0.0 , 

77.0 , 4134.87179487 , 4127.69230769 , 4132.82051282 , 4130.76923077 , 4129.23076923 , 4129.23076923 , 4128.71794872 , 4131.79487179 , 4136.92307692 , 4136.92307692 , 4187.17948718 , 4910.76923077 , 4132.30769231 , 4140.0 , 2042.0 , 2037.0 , 74.547 , 0.0 , 0.0 , 0.0 , 0.0 , 

78.0 , 4133.33333333 , 4129.74358974 , 4132.82051282 , 4131.79487179 , 4129.74358974 , 4131.79487179 , 4129.74358974 , 4130.76923077 , 4133.33333333 , 4136.41025641 , 4190.76923077 , 4909.74358974 , 4131.79487179 , 4138.46153846 , 2042.0 , 2038.0 , 74.554 , 0.0 , 0.0 , 0.0 , 0.0 , 

79.0 , 4136.92307692 , 4133.33333333 , 4135.38461538 , 4131.28205128 , 4130.25641026 , 4134.35897436 , 4128.71794872 , 4128.71794872 , 4129.74358974 , 4137.43589744 , 4191.28205128 , 4912.30769231 , 4130.25641026 , 4140.0 , 2042.0 , 2036.0 , 74.563 , 0.0 , 0.0 , 0.0 , 0.0 , 

80.0 , 4134.87179487 , 4129.23076923 , 4135.38461538 , 4128.71794872 , 4130.25641026 , 4134.35897436 , 4130.76923077 , 4130.76923077 , 4132.82051282 , 4137.43589744 , 4188.71794872 , 4911.28205128 , 4132.30769231 , 4138.97435897 , 2042.0 , 2036.0 , 74.569 , 0.0 , 0.0 , 0.0 , 0.0 , 

81.0 , 4133.84615385 , 4126.66666667 , 4135.38461538 , 4129.74358974 , 4128.20512821 , 4131.28205128 , 4134.35897436 , 4131.28205128 , 4133.33333333 , 4137.94871795 , 4190.76923077 , 4910.76923077 , 4133.33333333 , 4142.56410256 , 2041.0 , 2037.0 , 74.578 , 0.0 , 0.0 , 0.0 , 0.0 , 

82.0 , 4133.33333333 , 4131.79487179 , 4136.92307692 , 4132.30769231 , 4129.23076923 , 4131.28205128 , 4134.35897436 , 4129.74358974 , 4132.30769231 , 4137.94871795 , 4191.28205128 , 4910.76923077 , 4131.28205128 , 4139.48717949 , 2042.0 , 2037.0 , 74.586 , 0.0 , 0.0 , 0.0 , 0.0 , 

83.0 , 4133.84615385 , 4131.28205128 , 4137.94871795 , 4131.79487179 , 4130.76923077 , 4132.30769231 , 4129.74358974 , 4128.71794872 , 4133.84615385 , 4136.92307692 , 4190.25641026 , 4912.30769231 , 4130.25641026 , 4138.97435897 , 2042.0 , 2037.0 , 74.593 , 0.0 , 0.0 , 0.0 , 0.0 , 

84.0 , 4132.82051282 , 4129.74358974 , 4133.84615385 , 4131.79487179 , 4130.76923077 , 4135.38461538 , 4129.74358974 , 4129.74358974 , 4136.92307692 , 4138.97435897 , 4188.71794872 , 4909.74358974 , 4133.33333333 , 4138.97435897 , 2043.0 , 2037.0 , 74.601 , 0.0 , 0.0 , 0.0 , 0.0 , 

85.0 , 4132.30769231 , 4132.82051282 , 4130.76923077 , 4132.82051282 , 4129.23076923 , 4130.76923077 , 4129.23076923 , 4131.79487179 , 4137.94871795 , 4140.0 , 4186.66666667 , 4908.20512821 , 4135.38461538 , 4138.46153846 , 2042.0 , 2037.0 , 74.611 , 0.0 , 0.0 , 0.0 , 0.0 , 

86.0 , 4131.79487179 , 4130.76923077 , 4134.87179487 , 4132.30769231 , 4129.23076923 , 4127.17948718 , 4126.66666667 , 4132.82051282 , 4136.92307692 , 4139.48717949 , 4186.15384615 , 4910.25641026 , 4132.82051282 , 4135.38461538 , 2044.0 , 2035.0 , 74.617 , 0.0 , 0.0 , 0.0 , 0.0 , 

87.0 , 4132.82051282 , 4127.69230769 , 4134.87179487 , 4132.30769231 , 4129.23076923 , 4132.82051282 , 4128.20512821 , 4134.87179487 , 4135.38461538 , 4138.46153846 , 4189.74358974 , 4910.76923077 , 4132.82051282 , 4134.35897436 , 2044.0 , 2034.0 , 74.625 , 0.0 , 0.0 , 0.0 , 0.0 , 

88.0 , 4134.87179487 , 4128.20512821 , 4132.30769231 , 4132.30769231 , 4129.23076923 , 4134.87179487 , 4131.28205128 , 4133.84615385 , 4135.8974359 , 4135.8974359 , 4190.25641026 , 4907.17948718 , 4133.84615385 , 4136.41025641 , 2046.0 , 2037.0 , 74.634 , 0.0 , 0.0 , 0.0 , 0.0 , 

89.0 , 4133.84615385 , 4128.71794872 , 4133.33333333 , 4132.30769231 , 4130.76923077 , 4130.25641026 , 4130.25641026 , 4131.28205128 , 4136.41025641 , 4136.41025641 , 4189.74358974 , 4907.17948718 , 4134.87179487 , 4135.38461538 , 2045.0 , 2036.0 , 74.642 , 0.0 , 0.0 , 0.0 , 0.0 , 

90.0 , 4134.87179487 , 4126.15384615 , 4135.38461538 , 4131.28205128 , 4128.71794872 , 4129.74358974 , 4127.17948718 , 4130.25641026 , 4133.33333333 , 4139.48717949 , 4190.76923077 , 4914.35897436 , 4131.79487179 , 4141.53846154 , 2044.0 , 2035.0 , 74.65 , 0.0 , 0.0 , 0.0 , 0.0 , 

91.0 , 4134.35897436 , 4125.64102564 , 4134.35897436 , 4133.84615385 , 4127.17948718 , 4134.35897436 , 4126.66666667 , 4132.30769231 , 4131.28205128 , 4138.97435897 , 4191.28205128 , 4911.28205128 , 4129.74358974 , 4141.53846154 , 2044.0 , 2035.0 , 74.656 , 0.0 , 0.0 , 0.0 , 0.0 , 

92.0 , 4133.33333333 , 4128.20512821 , 4133.33333333 , 4134.87179487 , 4129.23076923 , 4131.79487179 , 4128.71794872 , 4130.25641026 , 4131.28205128 , 4136.92307692 , 4190.76923077 , 4907.69230769 , 4130.25641026 , 4141.53846154 , 2044.0 , 2036.0 , 74.665 , 0.0 , 0.0 , 0.0 , 0.0 , 

93.0 , 4131.79487179 , 4132.82051282 , 4132.30769231 , 4135.38461538 , 4131.79487179 , 4129.74358974 , 4132.30769231 , 4131.28205128 , 4133.33333333 , 4136.92307692 , 4189.23076923 , 4910.25641026 , 4132.30769231 , 4140.51282051 , 2044.0 , 2034.0 , 74.673 , 0.0 , 0.0 , 0.0 , 0.0 , 

94.0 , 4135.8974359 , 4133.33333333 , 4134.87179487 , 4132.82051282 , 4129.74358974 , 4129.23076923 , 4129.23076923 , 4132.82051282 , 4133.84615385 , 4136.92307692 , 4188.71794872 , 4914.35897436 , 4134.35897436 , 4141.02564103 , 2045.0 , 2035.0 , 74.68 , 0.0 , 0.0 , 0.0 , 0.0 , 

95.0 , 4132.30769231 , 4128.71794872 , 4135.8974359 , 4132.82051282 , 4129.74358974 , 4131.79487179 , 4127.17948718 , 4131.79487179 , 4133.33333333 , 4135.8974359 , 4190.25641026 , 4910.25641026 , 4134.35897436 , 4135.8974359 , 2043.0 , 2034.0 , 74.689 , 0.0 , 0.0 , 0.0 , 0.0 , 

96.0 , 4130.76923077 , 4128.20512821 , 4133.33333333 , 4131.79487179 , 4131.79487179 , 4130.76923077 , 4126.15384615 , 4129.23076923 , 4131.79487179 , 4135.8974359 , 4193.33333333 , 4908.71794872 , 4130.76923077 , 4140.51282051 , 2043.0 , 2035.0 , 74.697 , 0.0 , 0.0 , 0.0 , 0.0 , 

97.0 , 4134.35897436 , 4132.82051282 , 4130.76923077 , 4132.82051282 , 4131.28205128 , 4128.71794872 , 4128.20512821 , 4130.76923077 , 4134.87179487 , 4137.43589744 , 4192.30769231 , 4909.23076923 , 4129.23076923 , 4142.56410256 , 2044.0 , 2036.0 , 74.706 , 0.0 , 0.0 , 0.0 , 0.0 , 

98.0 , 4136.41025641 , 4132.82051282 , 4133.84615385 , 4133.84615385 , 4129.23076923 , 4129.74358974 , 4128.20512821 , 4130.76923077 , 4135.38461538 , 4137.94871795 , 4192.30769231 , 4914.87179487 , 4133.33333333 , 4145.12820513 , 2043.0 , 2037.0 , 74.712 , 0.0 , 0.0 , 0.0 , 0.0 , 

99.0 , 4131.28205128 , 4131.28205128 , 4134.35897436 , 4133.84615385 , 4130.76923077 , 4132.82051282 , 4126.66666667 , 4130.76923077 , 4132.82051282 , 4137.43589744 , 4192.82051282 , 4915.38461538 , 4135.8974359 , 4140.0 , 2043.0 , 2036.0 , 74.72 , 0.0 , 0.0 , 0.0 , 0.0 , 

100.0 , 4133.84615385 , 4130.76923077 , 4132.30769231 , 4132.30769231 , 4129.23076923 , 4129.74358974 , 4124.1025641 , 4130.76923077 , 4133.33333333 , 4138.46153846 , 4190.76923077 , 4910.25641026 , 4133.84615385 , 4136.92307692 , 2042.0 , 2036.0 , 74.728 , 0.0 , 0.0 , 0.0 , 0.0 , 

101.0 , 4134.35897436 , 4131.28205128 , 4130.76923077 , 4132.30769231 , 4126.66666667 , 4129.23076923 , 4126.66666667 , 4130.76923077 , 4135.8974359 , 4138.97435897 , 4188.20512821 , 4907.69230769 , 4133.33333333 , 4134.87179487 , 2042.0 , 2037.0 , 74.736 , 0.0 , 0.0 , 0.0 , 0.0 , 

102.0 , 4131.28205128 , 4129.74358974 , 4132.30769231 , 4134.87179487 , 4128.71794872 , 4130.25641026 , 4128.20512821 , 4128.71794872 , 4134.35897436 , 4140.0 , 4188.71794872 , 4912.30769231 , 4133.33333333 , 4138.46153846 , 2043.0 , 2037.0 , 74.743 , 0.0 , 0.0 , 0.0 , 0.0 , 

103.0 , 4132.30769231 , 4128.71794872 , 4132.82051282 , 4136.92307692 , 4131.28205128 , 4128.71794872 , 4127.69230769 , 4130.76923077 , 4132.82051282 , 4140.51282051 , 4189.74358974 , 4911.28205128 , 4132.30769231 , 4137.43589744 , 2043.0 , 2037.0 , 74.751 , 0.0 , 0.0 , 0.0 , 0.0 , 

104.0 , 4135.8974359 , 4128.20512821 , 4131.79487179 , 4134.87179487 , 4130.25641026 , 4129.74358974 , 4127.17948718 , 4134.35897436 , 4131.79487179 , 4138.97435897 , 4189.23076923 , 4907.17948718 , 4133.33333333 , 4138.97435897 , 2044.0 , 2039.0 , 74.759 , 0.0 , 0.0 , 0.0 , 0.0 , 

105.0 , 4133.84615385 , 4130.25641026 , 4133.84615385 , 4131.28205128 , 4129.23076923 , 4130.76923077 , 4126.66666667 , 4133.84615385 , 4131.28205128 , 4136.41025641 , 4190.25641026 , 4908.20512821 , 4132.82051282 , 4143.07692308 , 2044.0 , 2040.0 , 74.767 , 0.0 , 0.0 , 0.0 , 0.0 , 

106.0 , 4134.35897436 , 4132.82051282 , 4134.35897436 , 4131.79487179 , 4131.79487179 , 4128.71794872 , 4124.61538462 , 4133.33333333 , 4132.30769231 , 4137.43589744 , 4192.30769231 , 4910.76923077 , 4131.28205128 , 4141.02564103 , 2044.0 , 2037.0 , 74.776 , 0.0 , 0.0 , 0.0 , 0.0 , 

107.0 , 4137.94871795 , 4132.30769231 , 4131.28205128 , 4134.35897436 , 4133.33333333 , 4126.66666667 , 4123.58974359 , 4134.35897436 , 4132.30769231 , 4139.48717949 , 4192.82051282 , 4911.79487179 , 4129.74358974 , 4140.0 , 2044.0 , 2037.0 , 74.784 , 0.0 , 0.0 , 0.0 , 0.0 , 

108.0 , 4132.82051282 , 4132.82051282 , 4130.25641026 , 4136.92307692 , 4130.76923077 , 4128.20512821 , 4126.15384615 , 4131.79487179 , 4131.28205128 , 4138.46153846 , 4191.79487179 , 4912.82051282 , 4130.25641026 , 4141.02564103 , 2045.0 , 2038.0 , 74.79 , 0.0 , 0.0 , 0.0 , 0.0 , 

109.0 , 4128.71794872 , 4129.74358974 , 4133.84615385 , 4135.8974359 , 4128.20512821 , 4127.69230769 , 4125.64102564 , 4129.23076923 , 4131.79487179 , 4138.46153846 , 4190.25641026 , 4914.35897436 , 4130.76923077 , 4143.07692308 , 2044.0 , 2037.0 , 74.798 , 0.0 , 0.0 , 0.0 , 0.0 , 

110.0 , 4131.28205128 , 4127.69230769 , 4134.35897436 , 4135.38461538 , 4130.25641026 , 4128.20512821 , 4122.56410256 , 4132.30769231 , 4135.8974359 , 4138.46153846 , 4190.25641026 , 4911.28205128 , 4133.33333333 , 4137.94871795 , 2044.0 , 2037.0 , 74.807 , 0.0 , 0.0 , 0.0 , 0.0 , 

111.0 , 4136.41025641 , 4129.74358974 , 4131.28205128 , 4136.41025641 , 4131.79487179 , 4126.15384615 , 4123.07692308 , 4131.28205128 , 4135.8974359 , 4136.41025641 , 4191.28205128 , 4911.79487179 , 4135.8974359 , 4139.48717949 , 2045.0 , 2037.0 , 74.814 , 0.0 , 0.0 , 0.0 , 0.0 , 

112.0 , 4132.82051282 , 4130.25641026 , 4131.28205128 , 4136.41025641 , 4131.28205128 , 4124.1025641 , 4127.69230769 , 4131.28205128 , 4135.38461538 , 4136.41025641 , 4192.30769231 , 4911.28205128 , 4136.41025641 , 4140.51282051 , 2044.0 , 2035.0 , 74.823 , 0.0 , 0.0 , 0.0 , 0.0 , 

113.0 , 4132.82051282 , 4127.17948718 , 4137.94871795 , 4131.79487179 , 4131.79487179 , 4125.12820513 , 4125.64102564 , 4133.84615385 , 4135.8974359 , 4138.46153846 , 4192.82051282 , 4911.79487179 , 4134.87179487 , 4140.51282051 , 2045.0 , 2037.0 , 74.831 , 0.0 , 0.0 , 0.0 , 0.0 , 

114.0 , 4132.30769231 , 4128.71794872 , 4137.43589744 , 4133.33333333 , 4133.33333333 , 4128.20512821 , 4125.12820513 , 4132.82051282 , 4134.87179487 , 4137.94871795 , 4190.25641026 , 4910.76923077 , 4134.35897436 , 4137.94871795 , 2044.0 , 2037.0 , 74.838 , 0.0 , 0.0 , 0.0 , 0.0 , 

115.0 , 4133.84615385 , 4131.79487179 , 4133.33333333 , 4135.38461538 , 4130.25641026 , 4128.20512821 , 4124.61538462 , 4128.20512821 , 4133.33333333 , 4135.8974359 , 4188.71794872 , 4913.84615385 , 4133.84615385 , 4141.02564103 , 2044.0 , 2036.0 , 74.845 , 0.0 , 0.0 , 0.0 , 0.0 , 

116.0 , 4131.79487179 , 4129.74358974 , 4131.28205128 , 4132.82051282 , 4129.74358974 , 4129.23076923 , 4123.58974359 , 4133.33333333 , 4136.41025641 , 4136.92307692 , 4189.74358974 , 4912.30769231 , 4133.84615385 , 4137.43589744 , 2044.0 , 2036.0 , 74.854 , 0.0 , 0.0 , 0.0 , 0.0 , 

117.0 , 4131.79487179 , 4128.20512821 , 4133.84615385 , 4129.74358974 , 4131.28205128 , 4128.71794872 , 4122.05128205 , 4134.35897436 , 4135.8974359 , 4137.94871795 , 4192.30769231 , 4911.28205128 , 4133.33333333 , 4139.48717949 , 2044.0 , 2035.0 , 74.862 , 0.0 , 0.0 , 0.0 , 0.0 , 

118.0 , 4131.28205128 , 4129.74358974 , 4134.35897436 , 4132.82051282 , 4130.76923077 , 4128.71794872 , 4124.1025641 , 4130.25641026 , 4134.87179487 , 4137.43589744 , 4192.82051282 , 4911.79487179 , 4132.30769231 , 4140.51282051 , 2044.0 , 2034.0 , 74.87 , 0.0 , 0.0 , 0.0 , 0.0 , 

119.0 , 4132.30769231 , 4129.74358974 , 4133.33333333 , 4132.30769231 , 4128.20512821 , 4127.17948718 , 4125.12820513 , 4132.30769231 , 4137.43589744 , 4136.92307692 , 4192.82051282 , 4912.82051282 , 4133.84615385 , 4143.07692308 , 2044.0 , 2035.0 , 74.878 , 0.0 , 0.0 , 0.0 , 0.0 , 

120.0 , 4131.79487179 , 4131.28205128 , 4131.79487179 , 4131.28205128 , 4130.76923077 , 4128.71794872 , 4126.15384615 , 4135.38461538 , 4137.94871795 , 4138.97435897 , 4191.28205128 , 4910.76923077 , 4135.8974359 , 4140.51282051 , 2044.0 , 2035.0 , 74.886 , 0.0 , 0.0 , 0.0 , 0.0 , 

121.0 , 4133.84615385 , 4134.35897436 , 4133.84615385 , 4132.30769231 , 4131.28205128 , 4128.20512821 , 4127.17948718 , 4130.25641026 , 4136.41025641 , 4140.0 , 4191.28205128 , 4911.79487179 , 4136.41025641 , 4140.0 , 2042.0 , 2034.0 , 74.894 , 0.0 , 0.0 , 0.0 , 0.0 , 

122.0 , 4132.82051282 , 4131.79487179 , 4134.35897436 , 4131.28205128 , 4128.20512821 , 4127.17948718 , 4125.12820513 , 4129.74358974 , 4135.8974359 , 4138.46153846 , 4191.79487179 , 4915.8974359 , 4133.84615385 , 4138.46153846 , 2043.0 , 2034.0 , 74.902 , 0.0 , 0.0 , 0.0 , 0.0 , 

123.0 , 4129.23076923 , 4126.66666667 , 4133.84615385 , 4131.79487179 , 4126.15384615 , 4126.66666667 , 4122.05128205 , 4135.8974359 , 4132.82051282 , 4137.94871795 , 4190.76923077 , 4914.35897436 , 4132.82051282 , 4140.51282051 , 2044.0 , 2034.0 , 74.91 , 0.0 , 0.0 , 0.0 , 0.0 , 

124.0 , 4131.28205128 , 4128.20512821 , 4135.8974359 , 4133.84615385 , 4127.69230769 , 4126.15384615 , 4124.61538462 , 4134.87179487 , 4129.74358974 , 4140.51282051 , 4190.76923077 , 4909.74358974 , 4133.84615385 , 4141.53846154 , 2042.0 , 2034.0 , 74.917 , 0.0 , 0.0 , 0.0 , 0.0 , 

125.0 , 4133.33333333 , 4131.79487179 , 4135.38461538 , 4133.33333333 , 4130.25641026 , 4126.15384615 , 4126.15384615 , 4130.76923077 , 4134.35897436 , 4138.97435897 , 4192.82051282 , 4912.82051282 , 4135.8974359 , 4138.97435897 , 2042.0 , 2034.0 , 74.926 , 0.0 , 0.0 , 0.0 , 0.0 , 

126.0 , 4129.23076923 , 4130.25641026 , 4133.33333333 , 4131.28205128 , 4129.23076923 , 4126.66666667 , 4123.58974359 , 4131.79487179 , 4137.94871795 , 4135.8974359 , 4193.84615385 , 4917.94871795 , 4136.41025641 , 4141.02564103 , 2043.0 , 2035.0 , 74.933 , 0.0 , 0.0 , 0.0 , 0.0 , 

127.0 , 4127.69230769 , 4127.69230769 , 4131.28205128 , 4133.84615385 , 4128.20512821 , 4128.71794872 , 4126.15384615 , 4135.38461538 , 4135.8974359 , 4136.41025641 , 4191.28205128 , 4913.84615385 , 4135.8974359 , 4137.43589744 , 2042.0 , 2035.0 , 74.941 , 0.0 , 0.0 , 0.0 , 0.0 , 

128.0 , 4133.33333333 , 4128.71794872 , 4132.30769231 , 4133.33333333 , 4129.74358974 , 4128.20512821 , 4127.69230769 , 4134.35897436 , 4133.84615385 , 4138.46153846 , 4190.76923077 , 4912.82051282 , 4134.87179487 , 4134.87179487 , 2043.0 , 2035.0 , 74.948 , 0.0 , 0.0 , 0.0 , 0.0 , 

0.0 , 4130.76923077 , 4131.28205128 , 4134.87179487 , 4132.30769231 , 4133.33333333 , 4128.20512821 , 4125.12820513 , 4131.79487179 , 4136.41025641 , 4137.43589744 , 4192.82051282 , 4912.82051282 , 4136.92307692 , 4135.8974359 , 2042.0 , 2036.0 , 74.957 , 0.0 , 0.0 , 0.0 , 0.0 , 

1.0 , 4129.23076923 , 4129.74358974 , 4134.35897436 , 4131.28205128 , 4131.28205128 , 4126.66666667 , 4124.61538462 , 4131.79487179 , 4136.92307692 , 4136.92307692 , 4191.79487179 , 4911.28205128 , 4136.92307692 , 4142.05128205 , 2041.0 , 2034.0 , 74.963 , 0.0 , 0.0 , 0.0 , 0.0 , 

2.0 , 4131.28205128 , 4128.20512821 , 4132.30769231 , 4132.30769231 , 4127.69230769 , 4126.66666667 , 4127.17948718 , 4134.87179487 , 4137.43589744 , 4136.92307692 , 4189.23076923 , 4906.15384615 , 4135.38461538 , 4136.92307692 , 2042.0 , 2035.0 , 74.973 , 0.0 , 0.0 , 0.0 , 0.0 , 

3.0 , 4133.84615385 , 4128.20512821 , 4136.41025641 , 4132.82051282 , 4127.17948718 , 4125.12820513 , 4123.07692308 , 4132.30769231 , 4135.38461538 , 4136.41025641 , 4190.25641026 , 4908.20512821 , 4134.87179487 , 4136.92307692 , 2042.0 , 2033.0 , 74.979 , 0.0 , 0.0 , 0.0 , 0.0 , 

4.0 , 4128.20512821 , 4129.74358974 , 4136.92307692 , 4133.33333333 , 4128.71794872 , 4127.17948718 , 4125.64102564 , 4130.76923077 , 4133.33333333 , 4136.92307692 , 4192.30769231 , 4912.30769231 , 4135.8974359 , 4137.94871795 , 2043.0 , 2035.0 , 74.988 , 0.0 , 0.0 , 0.0 , 0.0 , 

5.0 , 4128.20512821 , 4129.74358974 , 4134.35897436 , 4130.76923077 , 4130.25641026 , 4127.69230769 , 4127.17948718 , 4133.33333333 , 4131.28205128 , 4138.97435897 , 4192.30769231 , 4914.87179487 , 4135.38461538 , 4143.58974359 , 2043.0 , 2034.0 , 74.995 , 0.0 , 0.0 , 0.0 , 0.0 , 

6.0 , 4130.25641026 , 4128.20512821 , 4134.87179487 , 4131.79487179 , 4129.74358974 , 4127.17948718 , 4123.58974359 , 4135.8974359 , 4131.79487179 , 4138.97435897 , 4191.79487179 , 4910.76923077 , 4136.41025641 , 4143.07692308 , 2043.0 , 2037.0 , 75.004 , 0.0 , 0.0 , 0.0 , 0.0 , 

7.0 , 4131.28205128 , 4127.69230769 , 4136.41025641 , 4131.79487179 , 4127.69230769 , 4126.15384615 , 4123.58974359 , 4132.30769231 , 4133.84615385 , 4136.92307692 , 4192.30769231 , 4912.30769231 , 4138.97435897 , 4145.12820513 , 2044.0 , 2036.0 , 75.011 , 0.0 , 0.0 , 0.0 , 0.0 , 

8.0 , 4128.71794872 , 4129.23076923 , 4134.35897436 , 4131.28205128 , 4129.74358974 , 4126.15384615 , 4125.12820513 , 4133.84615385 , 4136.41025641 , 4136.92307692 , 4192.82051282 , 4914.35897436 , 4138.97435897 , 4142.05128205 , 2044.0 , 2035.0 , 75.02 , 0.0 , 0.0 , 0.0 , 0.0 , 

9.0 , 4125.64102564 , 4127.69230769 , 4135.8974359 , 4130.25641026 , 4130.76923077 , 4122.05128205 , 4118.97435897 , 4136.92307692 , 4138.46153846 , 4137.43589744 , 4192.82051282 , 4912.30769231 , 4137.43589744 , 4141.02564103 , 2044.0 , 2034.0 , 75.027 , 0.0 , 0.0 , 0.0 , 0.0 , 

10.0 , 4122.56410256 , 4127.69230769 , 4141.02564103 , 4130.25641026 , 4128.20512821 , 4119.48717949 , 4117.94871795 , 4135.8974359 , 4137.94871795 , 4135.8974359 , 4190.76923077 , 4912.30769231 , 4137.94871795 , 4140.0 , 2044.0 , 2035.0 , 75.036 , 0.0 , 0.0 , 0.0 , 0.0 , 

11.0 , 4123.58974359 , 4130.76923077 , 4140.0 , 4130.76923077 , 4128.20512821 , 4120.51282051 , 4121.02564103 , 4135.38461538 , 4136.92307692 , 4137.43589744 , 4192.82051282 , 4916.92307692 , 4141.02564103 , 4137.94871795 , 2044.0 , 2036.0 , 75.043 , 0.0 , 0.0 , 0.0 , 0.0 , 

12.0 , 4124.61538462 , 4128.20512821 , 4135.38461538 , 4132.30769231 , 4128.71794872 , 4122.05128205 , 4117.94871795 , 4137.43589744 , 4137.43589744 , 4139.48717949 , 4195.38461538 , 4913.84615385 , 4138.46153846 , 4138.46153846 , 2043.0 , 2035.0 , 75.051 , 0.0 , 0.0 , 0.0 , 0.0 , 

13.0 , 4123.58974359 , 4124.1025641 , 4135.8974359 , 4133.33333333 , 4127.17948718 , 4124.1025641 , 4116.41025641 , 4136.92307692 , 4134.87179487 , 4138.46153846 , 4192.30769231 , 4909.23076923 , 4135.38461538 , 4142.56410256 , 2043.0 , 2036.0 , 75.058 , 0.0 , 0.0 , 0.0 , 0.0 , 

14.0 , 4124.1025641 , 4125.64102564 , 4137.94871795 , 4132.30769231 , 4129.23076923 , 4126.15384615 , 4119.48717949 , 4135.38461538 , 4130.25641026 , 4136.92307692 , 4189.74358974 , 4912.30769231 , 4135.8974359 , 4143.58974359 , 2044.0 , 2038.0 , 75.067 , 0.0 , 0.0 , 0.0 , 0.0 , 

15.0 , 4124.1025641 , 4129.74358974 , 4136.92307692 , 4131.28205128 , 4131.28205128 , 4125.64102564 , 4121.02564103 , 4134.87179487 , 4131.28205128 , 4137.43589744 , 4191.28205128 , 4914.87179487 , 4137.43589744 , 4140.0 , 2043.0 , 2040.0 , 75.075 , 0.0 , 0.0 , 0.0 , 0.0 , 

16.0 , 4125.12820513 , 4126.66666667 , 4137.43589744 , 4130.25641026 , 4130.25641026 , 4124.61538462 , 4117.43589744 , 4133.84615385 , 4134.87179487 , 4136.92307692 , 4192.30769231 , 4915.38461538 , 4135.38461538 , 4144.1025641 , 2043.0 , 2039.0 , 75.083 , 0.0 , 0.0 , 0.0 , 0.0 , 

17.0 , 4125.12820513 , 4123.07692308 , 4136.41025641 , 4131.79487179 , 4130.76923077 , 4127.17948718 , 4118.46153846 , 4137.43589744 , 4136.41025641 , 4136.92307692 , 4192.30769231 , 4911.79487179 , 4134.87179487 , 4145.12820513 , 2042.0 , 2038.0 , 75.09 , 0.0 , 0.0 , 0.0 , 0.0 , 

18.0 , 4126.66666667 , 4126.66666667 , 4132.82051282 , 4132.30769231 , 4128.71794872 , 4128.20512821 , 4120.51282051 , 4137.94871795 , 4136.41025641 , 4138.46153846 , 4192.82051282 , 4909.74358974 , 4135.38461538 , 4141.02564103 , 2043.0 , 2039.0 , 75.098 , 0.0 , 0.0 , 0.0 , 0.0 , 

19.0 , 4126.66666667 , 4130.76923077 , 4131.28205128 , 4132.82051282 , 4126.66666667 , 4127.17948718 , 4122.05128205 , 4132.82051282 , 4137.43589744 , 4138.46153846 , 4191.79487179 , 4909.23076923 , 4134.87179487 , 4134.87179487 , 2043.0 , 2039.0 , 75.107 , 0.0 , 0.0 , 0.0 , 0.0 , 

20.0 , 4131.28205128 , 4128.20512821 , 4135.38461538 , 4132.30769231 , 4129.74358974 , 4126.15384615 , 4125.64102564 , 4130.25641026 , 4136.92307692 , 4136.92307692 , 4191.28205128 , 4911.79487179 , 4132.30769231 , 4141.02564103 , 2043.0 , 2039.0 , 75.115 , 0.0 , 0.0 , 0.0 , 0.0 , 

21.0 , 4131.79487179 , 4129.23076923 , 4134.35897436 , 4132.30769231 , 4133.33333333 , 4129.23076923 , 4128.20512821 , 4135.38461538 , 4138.46153846 , 4137.94871795 , 4192.82051282 , 4911.79487179 , 4132.82051282 , 4142.05128205 , 2042.0 , 2038.0 , 75.121 , 0.0 , 0.0 , 0.0 , 0.0 , 

22.0 , 4134.35897436 , 4133.84615385 , 4133.33333333 , 4132.30769231 , 4130.25641026 , 4128.71794872 , 4126.66666667 , 4133.84615385 , 4134.87179487 , 4138.46153846 , 4193.84615385 , 4915.8974359 , 4134.35897436 , 4142.56410256 , 2042.0 , 2037.0 , 75.13 , 0.0 , 0.0 , 0.0 , 0.0 , 

23.0 , 4134.35897436 , 4132.82051282 , 4133.84615385 , 4134.87179487 , 4129.74358974 , 4129.23076923 , 4129.23076923 , 4130.76923077 , 4131.79487179 , 4136.92307692 , 4191.28205128 , 4913.33333333 , 4133.33333333 , 4137.43589744 , 2043.0 , 2038.0 , 75.137 , 0.0 , 0.0 , 0.0 , 0.0 , 

24.0 , 4133.33333333 , 4130.25641026 , 4136.92307692 , 4135.8974359 , 4131.79487179 , 4130.25641026 , 4130.25641026 , 4132.30769231 , 4133.33333333 , 4138.97435897 , 4189.74358974 , 4909.23076923 , 4132.82051282 , 4137.94871795 , 2041.0 , 2037.0 , 75.146 , 0.0 , 0.0 , 0.0 , 0.0 , 

25.0 , 4132.82051282 , 4132.82051282 , 4137.43589744 , 4133.84615385 , 4132.30769231 , 4130.76923077 , 4129.74358974 , 4134.87179487 , 4133.84615385 , 4140.51282051 , 4190.25641026 , 4906.66666667 , 4133.33333333 , 4136.92307692 , 2042.0 , 2037.0 , 75.153 , 0.0 , 0.0 , 0.0 , 0.0 , 

26.0 , 4137.43589744 , 4132.30769231 , 4133.84615385 , 4131.28205128 , 4129.23076923 , 4128.20512821 , 4130.25641026 , 4131.28205128 , 4131.79487179 , 4137.43589744 , 4190.25641026 , 4910.76923077 , 4132.30769231 , 4139.48717949 , 2042.0 , 2038.0 , 75.161 , 0.0 , 0.0 , 0.0 , 0.0 , 

27.0 , 4136.41025641 , 4131.79487179 , 4132.30769231 , 4133.33333333 , 4129.23076923 , 4129.23076923 , 4132.30769231 , 4130.76923077 , 4133.33333333 , 4135.8974359 , 4187.69230769 , 4912.30769231 , 4131.28205128 , 4136.41025641 , 2043.0 , 2037.0 , 75.169 , 0.0 , 0.0 , 0.0 , 0.0 , 

28.0 , 4134.35897436 , 4131.28205128 , 4133.33333333 , 4133.84615385 , 4130.76923077 , 4130.25641026 , 4128.20512821 , 4132.82051282 , 4135.38461538 , 4137.43589744 , 4189.23076923 , 4911.28205128 , 4129.74358974 , 4133.84615385 , 2043.0 , 2036.0 , 75.177 , 0.0 , 0.0 , 0.0 , 0.0 , 

29.0 , 4134.87179487 , 4132.30769231 , 4131.79487179 , 4132.30769231 , 4129.74358974 , 4131.28205128 , 4126.66666667 , 4132.82051282 , 4132.30769231 , 4138.46153846 , 4191.28205128 , 4907.69230769 , 4128.71794872 , 4135.38461538 , 2043.0 , 2035.0 , 75.184 , 0.0 , 0.0 , 0.0 , 0.0 , 

30.0 , 4135.38461538 , 4131.79487179 , 4131.79487179 , 4131.28205128 , 4127.69230769 , 4131.28205128 , 4128.20512821 , 4131.79487179 , 4130.25641026 , 4137.43589744 , 4190.25641026 , 4908.20512821 , 4132.82051282 , 4139.48717949 , 2043.0 , 2034.0 , 75.192 , 0.0 , 0.0 , 0.0 , 0.0 , 

31.0 , 4133.33333333 , 4130.25641026 , 4134.87179487 , 4133.33333333 , 4128.71794872 , 4128.71794872 , 4128.20512821 , 4130.25641026 , 4131.79487179 , 4136.41025641 , 4189.23076923 , 4910.76923077 , 4132.30769231 , 4139.48717949 , 2044.0 , 2035.0 , 75.2 , 0.0 , 0.0 , 0.0 , 0.0 , 

32.0 , 4134.35897436 , 4131.79487179 , 4134.35897436 , 4134.87179487 , 4130.76923077 , 4127.69230769 , 4129.23076923 , 4129.23076923 , 4137.43589744 , 4136.92307692 , 4191.28205128 , 4909.74358974 , 4128.20512821 , 4137.43589744 , 2046.0 , 2034.0 , 75.209 , 0.0 , 0.0 , 0.0 , 0.0 , 

33.0 , 4135.38461538 , 4132.82051282 , 4133.33333333 , 4131.79487179 , 4130.76923077 , 4130.25641026 , 4130.25641026 , 4128.71794872 , 4137.43589744 , 4137.94871795 , 4191.28205128 , 4909.23076923 , 4130.76923077 , 4142.05128205 , 2044.0 , 2033.0 , 75.216 , 0.0 , 0.0 , 0.0 , 0.0 , 

34.0 , 4130.76923077 , 4133.33333333 , 4132.82051282 , 4133.33333333 , 4129.74358974 , 4133.33333333 , 4129.74358974 , 4129.23076923 , 4132.30769231 , 4137.43589744 , 4189.74358974 , 4909.23076923 , 4135.8974359 , 4142.56410256 , 2044.0 , 2034.0 , 75.224 , 0.0 , 0.0 , 0.0 , 0.0 , 

35.0 , 4129.23076923 , 4132.30769231 , 4132.82051282 , 4136.41025641 , 4129.23076923 , 4132.82051282 , 4127.69230769 , 4128.71794872 , 4131.79487179 , 4137.94871795 , 4191.79487179 , 4910.76923077 , 4135.8974359 , 4142.05128205 , 2044.0 , 2036.0 , 75.232 , 0.0 , 0.0 , 0.0 , 0.0 , 

36.0 , 4130.25641026 , 4132.30769231 , 4132.30769231 , 4135.38461538 , 4129.74358974 , 4132.30769231 , 4128.71794872 , 4131.28205128 , 4134.35897436 , 4138.97435897 , 4191.79487179 , 4910.25641026 , 4134.87179487 , 4138.46153846 , 2044.0 , 2037.0 , 75.24 , 0.0 , 0.0 , 0.0 , 0.0 , 

37.0 , 4132.82051282 , 4131.28205128 , 4132.82051282 , 4131.79487179 , 4128.71794872 , 4131.79487179 , 4127.17948718 , 4131.28205128 , 4132.82051282 , 4137.94871795 , 4191.28205128 , 4910.25641026 , 4133.84615385 , 4140.51282051 , 2044.0 , 2037.0 , 75.247 , 0.0 , 0.0 , 0.0 , 0.0 , 

38.0 , 4130.25641026 , 4130.25641026 , 4133.33333333 , 4134.87179487 , 4129.74358974 , 4132.30769231 , 4127.69230769 , 4128.71794872 , 4132.82051282 , 4135.8974359 , 4192.30769231 , 4906.15384615 , 4133.33333333 , 4136.41025641 , 2043.0 , 2036.0 , 75.255 , 0.0 , 0.0 , 0.0 , 0.0 , 

39.0 , 4130.25641026 , 4127.17948718 , 4135.8974359 , 4135.38461538 , 4130.25641026 , 4130.76923077 , 4129.23076923 , 4128.20512821 , 4131.28205128 , 4135.8974359 , 4190.76923077 , 4905.12820513 , 4131.28205128 , 4136.92307692 , 2043.0 , 2037.0 , 75.263 , 0.0 , 0.0 , 0.0 , 0.0 , 

40.0 , 4129.74358974 , 4127.17948718 , 4134.35897436 , 4135.38461538 , 4129.23076923 , 4129.74358974 , 4130.25641026 , 4130.76923077 , 4130.76923077 , 4137.43589744 , 4188.20512821 , 4905.64102564 , 4129.23076923 , 4133.84615385 , 2041.0 , 2039.0 , 75.272 , 0.0 , 0.0 , 0.0 , 0.0 , 

41.0 , 4132.30769231 , 4130.25641026 , 4134.35897436 , 4133.84615385 , 4127.69230769 , 4128.71794872 , 4128.20512821 , 4130.76923077 , 4132.30769231 , 4137.43589744 , 4188.20512821 , 4911.28205128 , 4129.23076923 , 4137.43589744 , 2042.0 , 2037.0 , 75.28 , 0.0 , 0.0 , 0.0 , 0.0 , 

42.0 , 4131.28205128 , 4132.30769231 , 4136.41025641 , 4131.28205128 , 4128.71794872 , 4130.25641026 , 4129.74358974 , 4131.79487179 , 4134.35897436 , 4136.92307692 , 4191.28205128 , 4912.30769231 , 4132.30769231 , 4136.41025641 , 2044.0 , 2039.0 , 75.288 , 0.0 , 0.0 , 0.0 , 0.0 , 

43.0 , 4130.25641026 , 4131.28205128 , 4135.8974359 , 4130.25641026 , 4129.23076923 , 4128.71794872 , 4127.17948718 , 4132.82051282 , 4133.84615385 , 4136.92307692 , 4192.82051282 , 4912.30769231 , 4135.8974359 , 4138.46153846 , 2043.0 , 2037.0 , 75.295 , 0.0 , 0.0 , 0.0 , 0.0 , 

44.0 , 4130.25641026 , 4132.30769231 , 4133.84615385 , 4134.87179487 , 4129.74358974 , 4127.17948718 , 4125.12820513 , 4132.82051282 , 4135.38461538 , 4136.92307692 , 4190.25641026 , 4910.25641026 , 4137.43589744 , 4140.0 , 2042.0 , 2037.0 , 75.303 , 0.0 , 0.0 , 0.0 , 0.0 , 

45.0 , 4134.35897436 , 4131.28205128 , 4133.33333333 , 4134.35897436 , 4130.25641026 , 4127.17948718 , 4125.12820513 , 4130.76923077 , 4136.92307692 , 4137.43589744 , 4190.25641026 , 4910.76923077 , 4136.92307692 , 4145.64102564 , 2042.0 , 2037.0 , 75.31 , 0.0 , 0.0 , 0.0 , 0.0 , 

46.0 , 4133.84615385 , 4130.25641026 , 4132.82051282 , 4131.79487179 , 4130.76923077 , 4128.20512821 , 4125.12820513 , 4132.82051282 , 4137.94871795 , 4137.43589744 , 4191.79487179 , 4908.71794872 , 4135.38461538 , 4144.1025641 , 2042.0 , 2037.0 , 75.318 , 0.0 , 0.0 , 0.0 , 0.0 , 

47.0 , 4131.79487179 , 4130.76923077 , 4134.87179487 , 4131.28205128 , 4130.25641026 , 4125.64102564 , 4123.58974359 , 4135.38461538 , 4136.41025641 , 4137.43589744 , 4191.79487179 , 4907.69230769 , 4135.8974359 , 4142.56410256 , 2043.0 , 2038.0 , 75.327 , 0.0 , 0.0 , 0.0 , 0.0 , 

48.0 , 4130.76923077 , 4132.30769231 , 4136.92307692 , 4133.84615385 , 4131.28205128 , 4122.05128205 , 4120.51282051 , 4134.35897436 , 4133.84615385 , 4136.92307692 , 4191.28205128 , 4909.23076923 , 4136.41025641 , 4143.58974359 , 2042.0 , 2037.0 , 75.335 , 0.0 , 0.0 , 0.0 , 0.0 , 

49.0 , 4130.76923077 , 4131.28205128 , 4134.35897436 , 4135.8974359 , 4131.28205128 , 4122.05128205 , 4121.02564103 , 4132.30769231 , 4133.84615385 , 4136.92307692 , 4192.82051282 , 4910.25641026 , 4135.8974359 , 4143.07692308 , 2045.0 , 2038.0 , 75.343 , 0.0 , 0.0 , 0.0 , 0.0 , 

50.0 , 4132.30769231 , 4129.74358974 , 4132.30769231 , 4135.8974359 , 4130.76923077 , 4123.58974359 , 4123.58974359 , 4133.33333333 , 4133.84615385 , 4137.43589744 , 4191.28205128 , 4908.71794872 , 4134.35897436 , 4143.58974359 , 2044.0 , 2036.0 , 75.35 , 0.0 , 0.0 , 0.0 , 0.0 , 

51.0 , 4132.82051282 , 4129.23076923 , 4133.33333333 , 4134.35897436 , 4129.74358974 , 4125.12820513 , 4123.58974359 , 4134.35897436 , 4134.35897436 , 4138.46153846 , 4191.28205128 , 4910.25641026 , 4136.41025641 , 4141.02564103 , 2043.0 , 2036.0 , 75.358 , 0.0 , 0.0 , 0.0 , 0.0 , 

52.0 , 4129.74358974 , 4128.71794872 , 4134.35897436 , 4131.79487179 , 4129.23076923 , 4126.66666667 , 4122.05128205 , 4133.33333333 , 4135.38461538 , 4138.97435897 , 4193.84615385 , 4913.84615385 , 4136.92307692 , 4141.53846154 , 2043.0 , 2036.0 , 75.367 , 0.0 , 0.0 , 0.0 , 0.0 , 

53.0 , 4126.15384615 , 4127.69230769 , 4133.84615385 , 4132.82051282 , 4129.23076923 , 4128.71794872 , 4123.07692308 , 4132.30769231 , 4136.92307692 , 4137.94871795 , 4191.79487179 , 4910.25641026 , 4135.38461538 , 4142.05128205 , 2043.0 , 2037.0 , 75.375 , 0.0 , 0.0 , 0.0 , 0.0 , 

54.0 , 4130.76923077 , 4127.17948718 , 4133.33333333 , 4133.33333333 , 4128.71794872 , 4125.64102564 , 4121.53846154 , 4129.74358974 , 4136.41025641 , 4137.43589744 , 4188.71794872 , 4907.69230769 , 4134.35897436 , 4140.51282051 , 2045.0 , 2036.0 , 75.381 , 0.0 , 0.0 , 0.0 , 0.0 , 

55.0 , 4133.33333333 , 4129.74358974 , 4133.33333333 , 4132.82051282 , 4130.25641026 , 4126.66666667 , 4120.0 , 4129.74358974 , 4137.43589744 , 4138.46153846 , 4191.79487179 , 4908.20512821 , 4136.92307692 , 4133.84615385 , 2044.0 , 2037.0 , 75.39 , 0.0 , 0.0 , 0.0 , 0.0 , 

56.0 , 4133.84615385 , 4131.79487179 , 4137.43589744 , 4131.28205128 , 4130.76923077 , 4130.25641026 , 4120.51282051 , 4131.28205128 , 4135.8974359 , 4137.43589744 , 4194.87179487 , 4909.23076923 , 4136.92307692 , 4139.48717949 , 2043.0 , 2037.0 , 75.398 , 0.0 , 0.0 , 0.0 , 0.0 , 

57.0 , 4131.28205128 , 4132.82051282 , 4136.41025641 , 4131.79487179 , 4129.23076923 , 4128.71794872 , 4124.1025641 , 4130.76923077 , 4135.38461538 , 4135.8974359 , 4191.28205128 , 4906.66666667 , 4132.82051282 , 4140.0 , 2044.0 , 2037.0 , 75.406 , 0.0 , 0.0 , 0.0 , 0.0 , 

58.0 , 4132.82051282 , 4132.82051282 , 4134.35897436 , 4132.30769231 , 4130.25641026 , 4124.61538462 , 4126.15384615 , 4129.74358974 , 4136.92307692 , 4138.97435897 , 4188.71794872 , 4911.28205128 , 4130.25641026 , 4142.05128205 , 2043.0 , 2036.0 , 75.413 , 0.0 , 0.0 , 0.0 , 0.0 , 

59.0 , 4134.87179487 , 4131.79487179 , 4135.38461538 , 4133.84615385 , 4131.79487179 , 4128.71794872 , 4128.71794872 , 4133.33333333 , 4138.97435897 , 4141.02564103 , 4191.79487179 , 4912.82051282 , 4132.82051282 , 4142.56410256 , 2043.0 , 2037.0 , 75.423 , 0.0 , 0.0 , 0.0 , 0.0 , 

60.0 , 4137.43589744 , 4130.25641026 , 4137.94871795 , 4133.84615385 , 4129.74358974 , 4129.74358974 , 4126.15384615 , 4134.35897436 , 4137.43589744 , 4138.46153846 , 4194.35897436 , 4910.25641026 , 4133.33333333 , 4145.64102564 , 2043.0 , 2036.0 , 75.431 , 0.0 , 0.0 , 0.0 , 0.0 , 

61.0 , 4133.33333333 , 4132.82051282 , 4135.38461538 , 4133.33333333 , 4129.74358974 , 4128.20512821 , 4125.12820513 , 4131.79487179 , 4135.38461538 , 4137.43589744 , 4192.30769231 , 4908.20512821 , 4132.30769231 , 4140.0 , 2044.0 , 2037.0 , 75.437 , 0.0 , 0.0 , 0.0 , 0.0 , 

62.0 , 4132.82051282 , 4132.30769231 , 4134.87179487 , 4131.79487179 , 4130.25641026 , 4127.17948718 , 4126.15384615 , 4132.30769231 , 4135.8974359 , 4137.43589744 , 4191.28205128 , 4913.33333333 , 4132.82051282 , 4143.07692308 , 2045.0 , 2036.0 , 75.444 , 0.0 , 0.0 , 0.0 , 0.0 , 

63.0 , 4135.38461538 , 4131.28205128 , 4136.41025641 , 4133.33333333 , 4127.69230769 , 4129.23076923 , 4128.20512821 , 4133.33333333 , 4135.38461538 , 4136.41025641 , 4192.82051282 , 4910.76923077 , 4134.35897436 , 4141.53846154 , 2045.0 , 2034.0 , 75.452 , 0.0 , 0.0 , 0.0 , 0.0 , 

64.0 , 4135.38461538 , 4131.28205128 , 4135.8974359 , 4133.84615385 , 4127.17948718 , 4129.74358974 , 4125.12820513 , 4130.76923077 , 4131.79487179 , 4137.43589744 , 4193.84615385 , 4908.20512821 , 4134.87179487 , 4136.92307692 , 2045.0 , 2035.0 , 75.46 , 0.0 , 0.0 , 0.0 , 0.0 , 

65.0 , 4129.74358974 , 4131.28205128 , 4134.87179487 , 4134.35897436 , 4129.74358974 , 4129.23076923 , 4126.66666667 , 4131.28205128 , 4133.33333333 , 4137.43589744 , 4191.28205128 , 4911.79487179 , 4133.84615385 , 4137.94871795 , 2043.0 , 2033.0 , 75.468 , 0.0 , 0.0 , 0.0 , 0.0 , 

66.0 , 4129.74358974 , 4131.79487179 , 4135.38461538 , 4134.35897436 , 4130.76923077 , 4129.23076923 , 4130.25641026 , 4132.30769231 , 4136.92307692 , 4138.46153846 , 4189.23076923 , 4912.82051282 , 4132.82051282 , 4142.56410256 , 2045.0 , 2033.0 , 75.475 , 0.0 , 0.0 , 0.0 , 0.0 , 

67.0 , 4132.82051282 , 4131.28205128 , 4133.84615385 , 4133.84615385 , 4131.28205128 , 4131.79487179 , 4130.25641026 , 4131.28205128 , 4135.38461538 , 4140.0 , 4189.74358974 , 4911.79487179 , 4132.30769231 , 4137.94871795 , 2044.0 , 2035.0 , 75.484 , 0.0 , 0.0 , 0.0 , 0.0 , 

68.0 , 4132.82051282 , 4131.28205128 , 4132.30769231 , 4133.33333333 , 4131.28205128 , 4131.28205128 , 4127.69230769 , 4131.28205128 , 4132.30769231 , 4138.97435897 , 4191.79487179 , 4912.30769231 , 4132.30769231 , 4133.33333333 , 2042.0 , 2034.0 , 75.493 , 0.0 , 0.0 , 0.0 , 0.0 , 

69.0 , 4131.28205128 , 4134.35897436 , 4136.41025641 , 4133.33333333 , 4129.74358974 , 4128.71794872 , 4126.66666667 , 4130.76923077 , 4133.84615385 , 4138.46153846 , 4192.30769231 , 4911.79487179 , 4132.30769231 , 4137.43589744 , 2044.0 , 2035.0 , 75.5 , 0.0 , 0.0 , 0.0 , 0.0 , 

70.0 , 4132.82051282 , 4133.84615385 , 4134.87179487 , 4133.33333333 , 4129.23076923 , 4128.71794872 , 4127.69230769 , 4131.28205128 , 4136.41025641 , 4138.97435897 , 4190.76923077 , 4907.17948718 , 4135.38461538 , 4137.94871795 , 2041.0 , 2035.0 , 75.508 , 0.0 , 0.0 , 0.0 , 0.0 , 

71.0 , 4137.43589744 , 4129.74358974 , 4131.28205128 , 4132.82051282 , 4129.74358974 , 4129.23076923 , 4127.17948718 , 4130.76923077 , 4133.84615385 , 4137.94871795 , 4190.76923077 , 4908.71794872 , 4134.35897436 , 4137.43589744 , 2042.0 , 2037.0 , 75.515 , 0.0 , 0.0 , 0.0 , 0.0 , 

72.0 , 4134.87179487 , 4131.79487179 , 4133.84615385 , 4133.33333333 , 4130.76923077 , 4128.71794872 , 4127.69230769 , 4130.25641026 , 4132.82051282 , 4136.92307692 , 4191.79487179 , 4909.23076923 , 4131.28205128 , 4137.94871795 , 2042.0 , 2037.0 , 75.611 , 0.0 , 0.0 , 0.0 , 0.0 , 

73.0 , 4132.82051282 , 4133.33333333 , 4136.41025641 , 4132.30769231 , 4130.25641026 , 4127.17948718 , 4129.74358974 , 4129.23076923 , 4132.30769231 , 4135.8974359 , 4191.79487179 , 4910.25641026 , 4131.79487179 , 4142.05128205 , 2041.0 , 2036.0 , 75.613 , 0.0 , 0.0 , 0.0 , 0.0 , 

74.0 , 4132.82051282 , 4129.74358974 , 4133.33333333 , 4133.33333333 , 4129.74358974 , 4131.28205128 , 4130.76923077 , 4132.30769231 , 4131.28205128 , 4136.92307692 , 4190.25641026 , 4910.25641026 , 4132.30769231 , 4138.46153846 , 2043.0 , 2035.0 , 75.613 , 0.0 , 0.0 , 0.0 , 0.0 , 

75.0 , 4133.33333333 , 4129.23076923 , 4134.87179487 , 4132.82051282 , 4130.76923077 , 4131.79487179 , 4127.69230769 , 4131.28205128 , 4131.28205128 , 4138.97435897 , 4190.25641026 , 4911.28205128 , 4131.28205128 , 4140.51282051 , 2043.0 , 2037.0 , 75.613 , 0.0 , 0.0 , 0.0 , 0.0 , 

76.0 , 4130.76923077 , 4131.79487179 , 4135.8974359 , 4132.82051282 , 4131.79487179 , 4132.30769231 , 4127.69230769 , 4130.76923077 , 4134.87179487 , 4138.97435897 , 4190.25641026 , 4912.30769231 , 4135.8974359 , 4142.05128205 , 2043.0 , 2037.0 , 75.613 , 0.0 , 0.0 , 0.0 , 0.0 , 

77.0 , 4131.28205128 , 4130.25641026 , 4134.35897436 , 4133.84615385 , 4129.23076923 , 4132.30769231 , 4128.71794872 , 4132.30769231 , 4136.41025641 , 4137.94871795 , 4190.76923077 , 4913.84615385 , 4137.43589744 , 4147.17948718 , 2042.0 , 2039.0 , 75.613 , 0.0 , 0.0 , 0.0 , 0.0 , 

78.0 , 4127.17948718 , 4129.74358974 , 4133.33333333 , 4135.8974359 , 4129.23076923 , 4132.82051282 , 4129.23076923 , 4132.30769231 , 4136.92307692 , 4138.97435897 , 4191.28205128 , 4909.23076923 , 4131.79487179 , 4141.53846154 , 2042.0 , 2039.0 , 75.613 , 0.0 , 0.0 , 0.0 , 0.0 , 

79.0 , 4128.71794872 , 4130.76923077 , 4134.35897436 , 4133.84615385 , 4130.76923077 , 4129.74358974 , 4125.64102564 , 4128.20512821 , 4135.8974359 , 4138.97435897 , 4191.28205128 , 4910.25641026 , 4128.71794872 , 4138.46153846 , 2041.0 , 2039.0 , 75.613 , 0.0 , 0.0 , 0.0 , 0.0 , 

80.0 , 4132.82051282 , 4131.79487179 , 4132.82051282 , 4133.33333333 , 4131.28205128 , 4128.71794872 , 4123.58974359 , 4130.76923077 , 4133.33333333 , 4138.46153846 , 4190.25641026 , 4913.33333333 , 4132.82051282 , 4140.51282051 , 2042.0 , 2038.0 , 75.613 , 0.0 , 0.0 , 0.0 , 0.0 , 

81.0 , 4133.84615385 , 4132.30769231 , 4132.82051282 , 4132.30769231 , 4130.76923077 , 4125.64102564 , 4125.64102564 , 4132.30769231 , 4133.84615385 , 4137.94871795 , 4191.79487179 , 4913.84615385 , 4133.84615385 , 4145.64102564 , 2043.0 , 2037.0 , 75.613 , 0.0 , 0.0 , 0.0 , 0.0 , 

82.0 , 4130.76923077 , 4133.84615385 , 4132.82051282 , 4130.76923077 , 4129.74358974 , 4124.61538462 , 4128.20512821 , 4130.76923077 , 4136.92307692 , 4136.92307692 , 4191.79487179 , 4907.17948718 , 4131.79487179 , 4137.94871795 , 2043.0 , 2038.0 , 75.613 , 0.0 , 0.0 , 0.0 , 0.0 , 

83.0 , 4131.28205128 , 4132.82051282 , 4132.30769231 , 4133.33333333 , 4129.74358974 , 4128.20512821 , 4125.12820513 , 4130.76923077 , 4134.87179487 , 4136.41025641 , 4191.28205128 , 4907.69230769 , 4131.28205128 , 4134.87179487 , 2041.0 , 2037.0 , 75.613 , 0.0 , 0.0 , 0.0 , 0.0 , 

84.0 , 4131.79487179 , 4129.23076923 , 4132.30769231 , 4135.38461538 , 4130.25641026 , 4127.69230769 , 4124.1025641 , 4132.30769231 , 4134.35897436 , 4137.43589744 , 4191.79487179 , 4910.76923077 , 4132.82051282 , 4137.43589744 , 2043.0 , 2039.0 , 75.621 , 0.0 , 0.0 , 0.0 , 0.0 , 

85.0 , 4130.76923077 , 4128.20512821 , 4131.28205128 , 4132.30769231 , 4127.69230769 , 4123.58974359 , 4121.02564103 , 4131.28205128 , 4137.43589744 , 4139.48717949 , 4191.79487179 , 4910.76923077 , 4134.35897436 , 4142.05128205 , 2043.0 , 2038.0 , 75.627 , 0.0 , 0.0 , 0.0 , 0.0 , 

86.0 , 4131.79487179 , 4131.28205128 , 4131.28205128 , 4132.82051282 , 4128.71794872 , 4125.12820513 , 4116.41025641 , 4131.28205128 , 4135.8974359 , 4141.02564103 , 4189.74358974 , 4910.25641026 , 4133.33333333 , 4142.56410256 , 2044.0 , 2038.0 , 75.634 , 0.0 , 0.0 , 0.0 , 0.0 , 

87.0 , 4132.30769231 , 4130.76923077 , 4131.79487179 , 4137.43589744 , 4131.79487179 , 4126.66666667 , 4118.97435897 , 4134.35897436 , 4134.35897436 , 4141.53846154 , 4189.74358974 , 4908.71794872 , 4133.84615385 , 4140.0 , 2043.0 , 2038.0 , 75.643 , 0.0 , 0.0 , 0.0 , 0.0 , 

88.0 , 4132.30769231 , 4125.64102564 , 4132.30769231 , 4134.87179487 , 4127.69230769 , 4124.61538462 , 4122.56410256 , 4136.92307692 , 4134.35897436 , 4140.51282051 , 4192.82051282 , 4909.23076923 , 4134.87179487 , 4142.56410256 , 2043.0 , 2037.0 , 75.65 , 0.0 , 0.0 , 0.0 , 0.0 , 

89.0 , 4131.28205128 , 4128.20512821 , 4132.30769231 , 4131.28205128 , 4125.12820513 , 4125.64102564 , 4122.05128205 , 4136.92307692 , 4132.82051282 , 4137.94871795 , 4193.84615385 , 4909.74358974 , 4134.87179487 , 4143.07692308 , 2044.0 , 2038.0 , 75.657 , 0.0 , 0.0 , 0.0 , 0.0 , 

90.0 , 4131.79487179 , 4132.82051282 , 4134.87179487 , 4130.76923077 , 4129.23076923 , 4126.15384615 , 4118.46153846 , 4134.87179487 , 4131.28205128 , 4136.92307692 , 4192.82051282 , 4912.82051282 , 4134.35897436 , 4143.07692308 , 2043.0 , 2036.0 , 75.666 , 0.0 , 0.0 , 0.0 , 0.0 , 

91.0 , 4127.69230769 , 4128.71794872 , 4135.8974359 , 4133.84615385 , 4131.28205128 , 4125.64102564 , 4119.48717949 , 4133.84615385 , 4133.33333333 , 4138.46153846 , 4192.30769231 , 4910.76923077 , 4135.38461538 , 4136.92307692 , 2043.0 , 2036.0 , 75.673 , 0.0 , 0.0 , 0.0 , 0.0 , 

92.0 , 4125.64102564 , 4123.58974359 , 4137.94871795 , 4132.30769231 , 4129.74358974 , 4125.64102564 , 4123.07692308 , 4134.87179487 , 4133.33333333 , 4138.97435897 , 4194.35897436 , 4910.25641026 , 4135.38461538 , 4138.46153846 , 2044.0 , 2035.0 , 75.682 , 0.0 , 0.0 , 0.0 , 0.0 , 

93.0 , 4126.15384615 , 4127.17948718 , 4137.43589744 , 4129.23076923 , 4131.79487179 , 4126.15384615 , 4127.17948718 , 4135.8974359 , 4134.87179487 , 4137.94871795 , 4193.84615385 , 4912.30769231 , 4136.92307692 , 4138.46153846 , 2044.0 , 2035.0 , 75.689 , 0.0 , 0.0 , 0.0 , 0.0 , 

94.0 , 4130.25641026 , 4129.23076923 , 4136.92307692 , 4128.71794872 , 4133.84615385 , 4126.15384615 , 4126.15384615 , 4133.84615385 , 4137.43589744 , 4137.43589744 , 4189.74358974 , 4917.43589744 , 4133.84615385 , 4141.53846154 , 2043.0 , 2035.0 , 75.697 , 0.0 , 0.0 , 0.0 , 0.0 , 

95.0 , 4128.71794872 , 4128.71794872 , 4135.38461538 , 4133.33333333 , 4133.33333333 , 4126.66666667 , 4125.64102564 , 4134.87179487 , 4138.97435897 , 4137.43589744 , 4190.25641026 , 4914.87179487 , 4132.82051282 , 4136.92307692 , 2043.0 , 2036.0 , 75.704 , 0.0 , 0.0 , 0.0 , 0.0 , 

96.0 , 4129.23076923 , 4128.71794872 , 4133.33333333 , 4131.28205128 , 4130.76923077 , 4123.07692308 , 4123.58974359 , 4135.8974359 , 4137.43589744 , 4136.92307692 , 4195.8974359 , 4910.76923077 , 4135.38461538 , 4137.43589744 , 2042.0 , 2035.0 , 75.712 , 0.0 , 0.0 , 0.0 , 0.0 , 

97.0 , 4130.76923077 , 4129.74358974 , 4129.23076923 , 4129.74358974 , 4130.25641026 , 4124.61538462 , 4123.07692308 , 4135.38461538 , 4136.41025641 , 4137.43589744 , 4194.87179487 , 4909.23076923 , 4134.35897436 , 4136.92307692 , 2043.0 , 2035.0 , 75.72 , 0.0 , 0.0 , 0.0 , 0.0 , 

98.0 , 4135.38461538 , 4129.23076923 , 4132.30769231 , 4135.38461538 , 4130.25641026 , 4127.69230769 , 4123.58974359 , 4132.30769231 , 4135.38461538 , 4137.43589744 , 4190.76923077 , 4912.82051282 , 4130.76923077 , 4137.94871795 , 2043.0 , 2037.0 , 75.728 , 0.0 , 0.0 , 0.0 , 0.0 , 

99.0 , 4133.33333333 , 4128.20512821 , 4133.84615385 , 4138.46153846 , 4129.74358974 , 4127.17948718 , 4122.05128205 , 4133.84615385 , 4136.41025641 , 4136.41025641 , 4190.76923077 , 4910.76923077 , 4130.25641026 , 4137.43589744 , 2044.0 , 2036.0 , 75.737 , 0.0 , 0.0 , 0.0 , 0.0 , 

100.0 , 4131.28205128 , 4128.71794872 , 4129.23076923 , 4131.79487179 , 4131.28205128 , 4126.15384615 , 4121.53846154 , 4133.84615385 , 4135.38461538 , 4137.43589744 , 4192.30769231 , 4909.23076923 , 4133.84615385 , 4142.56410256 , 2041.0 , 2036.0 , 75.746 , 0.0 , 0.0 , 0.0 , 0.0 , 

101.0 , 4130.76923077 , 4131.79487179 , 4129.74358974 , 4130.76923077 , 4133.33333333 , 4130.25641026 , 4126.15384615 , 4133.33333333 , 4135.8974359 , 4139.48717949 , 4190.25641026 , 4908.71794872 , 4135.8974359 , 4140.0 , 2043.0 , 2035.0 , 75.752 , 0.0 , 0.0 , 0.0 , 0.0 , 

102.0 , 4132.82051282 , 4132.30769231 , 4132.82051282 , 4133.33333333 , 4130.25641026 , 4131.79487179 , 4126.15384615 , 4133.33333333 , 4136.92307692 , 4139.48717949 , 4189.23076923 , 4910.25641026 , 4133.33333333 , 4137.94871795 , 2042.0 , 2035.0 , 75.761 , 0.0 , 0.0 , 0.0 , 0.0 , 

103.0 , 4132.30769231 , 4132.30769231 , 4132.30769231 , 4132.30769231 , 4129.74358974 , 4129.23076923 , 4125.12820513 , 4132.30769231 , 4136.92307692 , 4137.43589744 , 4190.25641026 , 4911.28205128 , 4131.79487179 , 4141.02564103 , 2044.0 , 2037.0 , 75.768 , 0.0 , 0.0 , 0.0 , 0.0 , 

104.0 , 4131.79487179 , 4132.82051282 , 4132.82051282 , 4133.33333333 , 4132.30769231 , 4127.17948718 , 4128.20512821 , 4133.33333333 , 4137.94871795 , 4137.94871795 , 4190.76923077 , 4913.84615385 , 4135.38461538 , 4143.07692308 , 2043.0 , 2036.0 , 75.776 , 0.0 , 0.0 , 0.0 , 0.0 , 

105.0 , 4133.33333333 , 4131.28205128 , 4133.33333333 , 4136.41025641 , 4130.76923077 , 4127.69230769 , 4127.69230769 , 4134.87179487 , 4137.94871795 , 4138.97435897 , 4190.76923077 , 4913.84615385 , 4132.82051282 , 4143.58974359 , 2042.0 , 2036.0 , 75.784 , 0.0 , 0.0 , 0.0 , 0.0 , 

106.0 , 4132.82051282 , 4130.25641026 , 4130.76923077 , 4133.84615385 , 4129.74358974 , 4130.25641026 , 4125.64102564 , 4135.38461538 , 4136.41025641 , 4138.97435897 , 4191.79487179 , 4908.71794872 , 4128.71794872 , 4144.1025641 , 2042.0 , 2037.0 , 75.791 , 0.0 , 0.0 , 0.0 , 0.0 , 

107.0 , 4133.33333333 , 4131.79487179 , 4132.82051282 , 4132.30769231 , 4131.28205128 , 4130.25641026 , 4126.15384615 , 4134.35897436 , 4134.87179487 , 4138.97435897 , 4193.33333333 , 4908.71794872 , 4132.82051282 , 4144.61538462 , 2041.0 , 2036.0 , 75.799 , 0.0 , 0.0 , 0.0 , 0.0 , 

108.0 , 4132.82051282 , 4131.79487179 , 4133.84615385 , 4133.84615385 , 4131.79487179 , 4127.69230769 , 4128.20512821 , 4134.87179487 , 4137.94871795 , 4138.97435897 , 4191.79487179 , 4909.74358974 , 4136.92307692 , 4138.46153846 , 2041.0 , 2035.0 , 75.809 , 0.0 , 0.0 , 0.0 , 0.0 , 

109.0 , 4133.84615385 , 4130.25641026 , 4131.28205128 , 4132.82051282 , 4129.23076923 , 4125.12820513 , 4129.23076923 , 4132.30769231 , 4138.46153846 , 4136.92307692 , 4190.25641026 , 4909.23076923 , 4131.79487179 , 4136.41025641 , 2043.0 , 2034.0 , 75.815 , 0.0 , 0.0 , 0.0 , 0.0 , 

110.0 , 4132.30769231 , 4132.82051282 , 4131.28205128 , 4133.84615385 , 4130.76923077 , 4128.20512821 , 4127.69230769 , 4132.30769231 , 4135.8974359 , 4136.41025641 , 4188.71794872 , 4905.64102564 , 4129.74358974 , 4133.84615385 , 2042.0 , 2035.0 , 75.824 , 0.0 , 0.0 , 0.0 , 0.0 , 

111.0 , 4135.8974359 , 4131.79487179 , 4133.84615385 , 4134.87179487 , 4133.33333333 , 4129.23076923 , 4124.61538462 , 4131.79487179 , 4132.30769231 , 4138.46153846 , 4188.71794872 , 4907.17948718 , 4130.25641026 , 4135.8974359 , 2043.0 , 2034.0 , 75.831 , 0.0 , 0.0 , 0.0 , 0.0 , 

112.0 , 4135.38461538 , 4129.74358974 , 4133.33333333 , 4133.33333333 , 4132.30769231 , 4131.28205128 , 4126.66666667 , 4131.28205128 , 4134.87179487 , 4138.97435897 , 4189.74358974 , 4907.69230769 , 4130.76923077 , 4134.35897436 , 2043.0 , 2035.0 , 75.839 , 0.0 , 0.0 , 0.0 , 0.0 , 

113.0 , 4133.33333333 , 4129.74358974 , 4134.35897436 , 4129.23076923 , 4129.23076923 , 4130.25641026 , 4127.17948718 , 4129.74358974 , 4137.94871795 , 4138.46153846 , 4188.71794872 , 4909.74358974 , 4130.76923077 , 4139.48717949 , 2043.0 , 2036.0 , 75.846 , 0.0 , 0.0 , 0.0 , 0.0 , 

114.0 , 4132.82051282 , 4131.79487179 , 4134.87179487 , 4133.33333333 , 4129.74358974 , 4128.71794872 , 4127.17948718 , 4131.79487179 , 4135.8974359 , 4138.46153846 , 4190.25641026 , 4908.20512821 , 4132.30769231 , 4140.0 , 2043.0 , 2037.0 , 75.854 , 0.0 , 0.0 , 0.0 , 0.0 , 

115.0 , 4137.94871795 , 4130.25641026 , 4132.82051282 , 4135.8974359 , 4130.76923077 , 4128.20512821 , 4127.17948718 , 4133.84615385 , 4132.82051282 , 4138.46153846 , 4193.33333333 , 4911.28205128 , 4130.76923077 , 4143.07692308 , 2044.0 , 2037.0 , 75.863 , 0.0 , 0.0 , 0.0 , 0.0 , 

116.0 , 4135.38461538 , 4128.20512821 , 4130.76923077 , 4132.82051282 , 4129.74358974 , 4130.76923077 , 4128.71794872 , 4134.35897436 , 4134.87179487 , 4138.97435897 , 4191.79487179 , 4911.28205128 , 4129.74358974 , 4141.53846154 , 2043.0 , 2037.0 , 75.871 , 0.0 , 0.0 , 0.0 , 0.0 , 

117.0 , 4133.84615385 , 4129.74358974 , 4133.84615385 , 4130.76923077 , 4129.23076923 , 4131.79487179 , 4128.71794872 , 4131.79487179 , 4135.38461538 , 4137.43589744 , 4190.76923077 , 4910.25641026 , 4130.76923077 , 4142.56410256 , 2043.0 , 2038.0 , 75.879 , 0.0 , 0.0 , 0.0 , 0.0 , 

118.0 , 4134.35897436 , 4132.30769231 , 4134.35897436 , 4133.33333333 , 4130.25641026 , 4131.79487179 , 4130.25641026 , 4133.33333333 , 4133.33333333 , 4136.41025641 , 4192.82051282 , 4908.20512821 , 4131.79487179 , 4142.05128205 , 2043.0 , 2039.0 , 75.887 , 0.0 , 0.0 , 0.0 , 0.0 , 

119.0 , 4134.35897436 , 4132.82051282 , 4132.82051282 , 4133.33333333 , 4129.74358974 , 4129.74358974 , 4125.64102564 , 4135.38461538 , 4134.87179487 , 4137.43589744 , 4193.33333333 , 4911.28205128 , 4132.30769231 , 4144.61538462 , 2044.0 , 2037.0 , 75.895 , 0.0 , 0.0 , 0.0 , 0.0 , 

120.0 , 4129.74358974 , 4131.28205128 , 4131.79487179 , 4131.79487179 , 4129.23076923 , 4126.66666667 , 4126.15384615 , 4132.82051282 , 4136.92307692 , 4137.43589744 , 4191.79487179 , 4912.30769231 , 4132.30769231 , 4143.07692308 , 2043.0 , 2038.0 , 75.904 , 0.0 , 0.0 , 0.0 , 0.0 , 

121.0 , 4131.28205128 , 4130.25641026 , 4131.79487179 , 4133.33333333 , 4129.23076923 , 4125.64102564 , 4129.23076923 , 4131.79487179 , 4136.41025641 , 4136.41025641 , 4192.82051282 , 4909.74358974 , 4132.82051282 , 4141.02564103 , 2043.0 , 2039.0 , 75.909 , 0.0 , 0.0 , 0.0 , 0.0 , 

122.0 , 4132.82051282 , 4131.79487179 , 4133.33333333 , 4134.87179487 , 4130.76923077 , 4129.23076923 , 4127.69230769 , 4133.33333333 , 4134.35897436 , 4136.92307692 , 4191.28205128 , 4907.69230769 , 4131.28205128 , 4136.41025641 , 2043.0 , 2038.0 , 75.917 , 0.0 , 0.0 , 0.0 , 0.0 , 

123.0 , 4131.28205128 , 4133.33333333 , 4133.33333333 , 4133.84615385 , 4131.28205128 , 4130.76923077 , 4127.69230769 , 4131.79487179 , 4132.82051282 , 4137.94871795 , 4188.71794872 , 4908.71794872 , 4129.74358974 , 4134.35897436 , 2041.0 , 2039.0 , 75.925 , 0.0 , 0.0 , 0.0 , 0.0 , 

124.0 , 4131.79487179 , 4131.28205128 , 4132.82051282 , 4131.79487179 , 4129.23076923 , 4127.17948718 , 4129.23076923 , 4131.79487179 , 4133.84615385 , 4137.43589744 , 4190.76923077 , 4911.28205128 , 4130.76923077 , 4137.94871795 , 2040.0 , 2038.0 , 75.933 , 0.0 , 0.0 , 0.0 , 0.0 , 

125.0 , 4133.33333333 , 4130.25641026 , 4131.79487179 , 4131.28205128 , 4128.71794872 , 4125.64102564 , 4127.69230769 , 4135.8974359 , 4135.38461538 , 4137.94871795 , 4193.84615385 , 4910.25641026 , 4134.35897436 , 4137.94871795 , 2040.0 , 2040.0 , 75.941 , 0.0 , 0.0 , 0.0 , 0.0 , 

126.0 , 4134.35897436 , 4132.30769231 , 4133.33333333 , 4131.79487179 , 4129.23076923 , 4125.64102564 , 4124.1025641 , 4132.82051282 , 4134.87179487 , 4138.46153846 , 4192.30769231 , 4910.76923077 , 4131.79487179 , 4137.43589744 , 2041.0 , 2040.0 , 75.949 , 0.0 , 0.0 , 0.0 , 0.0 , 

127.0 , 4130.76923077 , 4130.76923077 , 4133.84615385 , 4133.33333333 , 4129.74358974 , 4125.64102564 , 4125.64102564 , 4130.25641026 , 4135.38461538 , 4138.97435897 , 4189.23076923 , 4910.25641026 , 4130.76923077 , 4137.43589744 , 2041.0 , 2041.0 , 75.957 , 0.0 , 0.0 , 0.0 , 0.0 , 

128.0 , 4131.79487179 , 4128.20512821 , 4134.35897436 , 4133.33333333 , 4128.71794872 , 4125.64102564 , 4124.61538462 , 4132.30769231 , 4133.84615385 , 4138.46153846 , 4190.25641026 , 4911.79487179 , 4132.82051282 , 4141.02564103 , 2040.0 , 2038.0 , 75.965 , 0.0 , 0.0 , 0.0 , 0.0 , 

0.0 , 4131.28205128 , 4132.82051282 , 4134.87179487 , 4134.87179487 , 4130.25641026 , 4128.20512821 , 4125.12820513 , 4134.35897436 , 4135.8974359 , 4136.92307692 , 4190.76923077 , 4909.23076923 , 4133.33333333 , 4139.48717949 , 2040.0 , 2038.0 , 75.972 , 0.0 , 0.0 , 0.0 , 0.0 , 

1.0 , 4132.82051282 , 4133.84615385 , 4134.87179487 , 4133.84615385 , 4129.74358974 , 4125.12820513 , 4127.17948718 , 4132.30769231 , 4136.92307692 , 4136.92307692 , 4189.23076923 , 4911.79487179 , 4130.76923077 , 4144.61538462 , 2039.0 , 2037.0 , 75.981 , 0.0 , 0.0 , 0.0 , 0.0 , 

2.0 , 4131.28205128 , 4129.74358974 , 4133.33333333 , 4131.28205128 , 4131.28205128 , 4124.1025641 , 4130.25641026 , 4133.84615385 , 4136.92307692 , 4137.43589744 , 4191.79487179 , 4913.84615385 , 4132.82051282 , 4142.56410256 , 2041.0 , 2038.0 , 75.988 , 0.0 , 0.0 , 0.0 , 0.0 , 

3.0 , 4130.76923077 , 4130.25641026 , 4134.35897436 , 4129.74358974 , 4131.28205128 , 4124.61538462 , 4130.76923077 , 4134.87179487 , 4135.38461538 , 4136.92307692 , 4193.84615385 , 4913.84615385 , 4135.8974359 , 4143.58974359 , 2041.0 , 2035.0 , 75.997 , 0.0 , 0.0 , 0.0 , 0.0 , 

4.0 , 4129.74358974 , 4133.84615385 , 4134.35897436 , 4133.33333333 , 4129.74358974 , 4127.17948718 , 4128.71794872 , 4133.33333333 , 4135.8974359 , 4136.92307692 , 4190.76923077 , 4910.25641026 , 4136.41025641 , 4141.02564103 , 2040.0 , 2035.0 , 76.004 , 0.0 , 0.0 , 0.0 , 0.0 , 

5.0 , 4133.33333333 , 4130.25641026 , 4132.30769231 , 4133.84615385 , 4129.23076923 , 4129.23076923 , 4124.61538462 , 4132.30769231 , 4135.8974359 , 4138.46153846 , 4189.74358974 , 4914.87179487 , 4135.8974359 , 4141.02564103 , 2041.0 , 2035.0 , 76.012 , 0.0 , 0.0 , 0.0 , 0.0 , 

6.0 , 4131.79487179 , 4127.69230769 , 4131.79487179 , 4129.74358974 , 4127.69230769 , 4130.76923077 , 4125.12820513 , 4134.35897436 , 4135.8974359 , 4138.97435897 , 4190.76923077 , 4917.43589744 , 4133.33333333 , 4138.46153846 , 2042.0 , 2035.0 , 76.021 , 0.0 , 0.0 , 0.0 , 0.0 , 

7.0 , 4130.76923077 , 4129.23076923 , 4136.92307692 , 4128.20512821 , 4126.66666667 , 4128.20512821 , 4125.64102564 , 4133.33333333 , 4134.87179487 , 4137.43589744 , 4190.25641026 , 4913.84615385 , 4132.82051282 , 4140.51282051 , 2041.0 , 2035.0 , 76.029 , 0.0 , 0.0 , 0.0 , 0.0 , 

8.0 , 4130.76923077 , 4131.28205128 , 4134.35897436 , 4133.84615385 , 4130.25641026 , 4128.20512821 , 4126.66666667 , 4132.82051282 , 4135.8974359 , 4136.41025641 , 4191.79487179 , 4908.71794872 , 4132.82051282 , 4136.92307692 , 2042.0 , 2034.0 , 76.035 , 0.0 , 0.0 , 0.0 , 0.0 , 

9.0 , 4132.30769231 , 4133.33333333 , 4130.25641026 , 4134.35897436 , 4131.79487179 , 4129.23076923 , 4127.17948718 , 4134.35897436 , 4137.43589744 , 4137.94871795 , 4192.82051282 , 4907.17948718 , 4133.33333333 , 4135.38461538 , 2043.0 , 2034.0 , 76.043 , 0.0 , 0.0 , 0.0 , 0.0 , 

10.0 , 4130.25641026 , 4132.82051282 , 4135.8974359 , 4130.25641026 , 4127.69230769 , 4129.74358974 , 4127.69230769 , 4133.84615385 , 4135.38461538 , 4138.97435897 , 4190.76923077 , 4904.61538462 , 4134.87179487 , 4138.97435897 , 2044.0 , 2033.0 , 76.052 , 0.0 , 0.0 , 0.0 , 0.0 , 

11.0 , 4128.20512821 , 4128.71794872 , 4136.92307692 , 4130.25641026 , 4128.20512821 , 4129.74358974 , 4128.20512821 , 4132.30769231 , 4136.41025641 , 4138.97435897 , 4191.28205128 , 4906.15384615 , 4135.38461538 , 4141.02564103 , 2045.0 , 2033.0 , 76.06 , 0.0 , 0.0 , 0.0 , 0.0 , 

12.0 , 4131.79487179 , 4128.20512821 , 4130.76923077 , 4132.30769231 , 4130.76923077 , 4128.20512821 , 4127.69230769 , 4134.35897436 , 4138.46153846 , 4138.46153846 , 4192.82051282 , 4910.76923077 , 4132.82051282 , 4138.97435897 , 2045.0 , 2033.0 , 76.067 , 0.0 , 0.0 , 0.0 , 0.0 , 

13.0 , 4135.8974359 , 4131.79487179 , 4133.33333333 , 4131.79487179 , 4128.71794872 , 4126.66666667 , 4127.17948718 , 4135.8974359 , 4135.8974359 , 4137.94871795 , 4192.82051282 , 4911.28205128 , 4134.35897436 , 4140.0 , 2045.0 , 2032.0 , 76.076 , 0.0 , 0.0 , 0.0 , 0.0 , 

14.0 , 4134.35897436 , 4132.30769231 , 4138.46153846 , 4131.79487179 , 4126.66666667 , 4128.20512821 , 4128.20512821 , 4130.25641026 , 4134.87179487 , 4138.46153846 , 4191.28205128 , 4908.71794872 , 4135.38461538 , 4143.07692308 , 2045.0 , 2034.0 , 76.085 , 0.0 , 0.0 , 0.0 , 0.0 , 

15.0 , 4131.28205128 , 4131.28205128 , 4133.84615385 , 4134.35897436 , 4127.69230769 , 4128.71794872 , 4129.74358974 , 4127.17948718 , 4135.8974359 , 4138.97435897 , 4191.28205128 , 4907.69230769 , 4132.30769231 , 4138.46153846 , 2046.0 , 2032.0 , 76.093 , 0.0 , 0.0 , 0.0 , 0.0 , 

16.0 , 4133.84615385 , 4129.74358974 , 4132.82051282 , 4133.84615385 , 4129.74358974 , 4126.66666667 , 4129.23076923 , 4130.25641026 , 4132.82051282 , 4137.94871795 , 4193.33333333 , 4909.74358974 , 4129.74358974 , 4142.56410256 , 2045.0 , 2033.0 , 76.098 , 0.0 , 0.0 , 0.0 , 0.0 , 

17.0 , 4132.82051282 , 4130.76923077 , 4135.38461538 , 4133.84615385 , 4131.28205128 , 4130.76923077 , 4130.25641026 , 4135.8974359 , 4133.84615385 , 4136.92307692 , 4190.25641026 , 4909.23076923 , 4132.30769231 , 4143.58974359 , 2045.0 , 2034.0 , 76.106 , 0.0 , 0.0 , 0.0 , 0.0 , 

18.0 , 4133.84615385 , 4131.79487179 , 4133.33333333 , 4132.30769231 , 4130.76923077 , 4131.28205128 , 4126.66666667 , 4131.79487179 , 4135.8974359 , 4137.94871795 , 4188.20512821 , 4910.76923077 , 4135.38461538 , 4141.53846154 , 2045.0 , 2034.0 , 76.114 , 0.0 , 0.0 , 0.0 , 0.0 , 

19.0 , 4133.33333333 , 4131.79487179 , 4131.79487179 , 4131.79487179 , 4130.76923077 , 4128.20512821 , 4123.07692308 , 4126.66666667 , 4134.87179487 , 4140.0 , 4191.79487179 , 4908.71794872 , 4136.92307692 , 4138.97435897 , 2047.0 , 2034.0 , 76.124 , 0.0 , 0.0 , 0.0 , 0.0 , 

20.0 , 4133.33333333 , 4130.25641026 , 4133.33333333 , 4133.84615385 , 4131.79487179 , 4124.61538462 , 4122.05128205 , 4129.23076923 , 4132.30769231 , 4139.48717949 , 4193.33333333 , 4908.71794872 , 4133.33333333 , 4141.53846154 , 2044.0 , 2034.0 , 76.13 , 0.0 , 0.0 , 0.0 , 0.0 , 

21.0 , 4130.76923077 , 4131.79487179 , 4132.30769231 , 4136.92307692 , 4132.30769231 , 4127.17948718 , 4124.61538462 , 4132.82051282 , 4131.79487179 , 4138.46153846 , 4189.74358974 , 4910.25641026 , 4132.82051282 , 4134.87179487 , 2043.0 , 2034.0 , 76.139 , 0.0 , 0.0 , 0.0 , 0.0 , 

22.0 , 4131.79487179 , 4132.82051282 , 4133.84615385 , 4133.33333333 , 4129.23076923 , 4129.23076923 , 4125.12820513 , 4130.25641026 , 4132.30769231 , 4138.46153846 , 4189.74358974 , 4913.84615385 , 4134.35897436 , 4138.97435897 , 2044.0 , 2035.0 , 76.147 , 0.0 , 0.0 , 0.0 , 0.0 , 

23.0 , 4131.79487179 , 4130.76923077 , 4133.33333333 , 4130.76923077 , 4129.74358974 , 4129.23076923 , 4126.66666667 , 4132.30769231 , 4136.92307692 , 4138.46153846 , 4189.74358974 , 4911.79487179 , 4133.33333333 , 4142.05128205 , 2044.0 , 2034.0 , 76.154 , 0.0 , 0.0 , 0.0 , 0.0 , 

24.0 , 4135.8974359 , 4127.69230769 , 4132.82051282 , 4130.25641026 , 4132.30769231 , 4126.66666667 , 4127.17948718 , 4135.38461538 , 4136.92307692 , 4136.41025641 , 4190.76923077 , 4911.28205128 , 4133.84615385 , 4142.05128205 , 2043.0 , 2035.0 , 76.161 , 0.0 , 0.0 , 0.0 , 0.0 , 

25.0 , 4133.33333333 , 4129.74358974 , 4134.35897436 , 4131.79487179 , 4131.28205128 , 4129.23076923 , 4129.23076923 , 4134.35897436 , 4133.84615385 , 4136.41025641 , 4191.79487179 , 4910.76923077 , 4136.92307692 , 4138.97435897 , 2043.0 , 2036.0 , 76.169 , 0.0 , 0.0 , 0.0 , 0.0 , 

26.0 , 4128.71794872 , 4130.76923077 , 4134.35897436 , 4133.84615385 , 4126.66666667 , 4132.30769231 , 4129.74358974 , 4134.35897436 , 4135.8974359 , 4138.46153846 , 4191.79487179 , 4912.30769231 , 4135.8974359 , 4142.56410256 , 2042.0 , 2035.0 , 76.176 , 0.0 , 0.0 , 0.0 , 0.0 , 

27.0 , 4129.74358974 , 4128.71794872 , 4131.28205128 , 4132.82051282 , 4128.71794872 , 4131.28205128 , 4128.71794872 , 4137.94871795 , 4135.38461538 , 4139.48717949 , 4191.79487179 , 4910.76923077 , 4133.33333333 , 4140.0 , 2043.0 , 2036.0 , 76.185 , 0.0 , 0.0 , 0.0 , 0.0 , 

28.0 , 4133.84615385 , 4128.71794872 , 4132.30769231 , 4130.25641026 , 4133.33333333 , 4127.69230769 , 4127.17948718 , 4136.92307692 , 4131.79487179 , 4137.43589744 , 4193.33333333 , 4909.74358974 , 4135.8974359 , 4138.46153846 , 2043.0 , 2037.0 , 76.193 , 0.0 , 0.0 , 0.0 , 0.0 , 

29.0 , 4134.35897436 , 4132.82051282 , 4133.84615385 , 4132.82051282 , 4131.28205128 , 4129.23076923 , 4127.69230769 , 4132.30769231 , 4134.35897436 , 4136.41025641 , 4191.79487179 , 4909.74358974 , 4136.41025641 , 4140.0 , 2043.0 , 2038.0 , 76.201 , 0.0 , 0.0 , 0.0 , 0.0 , 

30.0 , 4134.87179487 , 4133.84615385 , 4131.79487179 , 4134.87179487 , 4129.23076923 , 4132.30769231 , 4127.69230769 , 4132.30769231 , 4135.38461538 , 4138.46153846 , 4190.76923077 , 4911.28205128 , 4133.84615385 , 4143.07692308 , 2042.0 , 2037.0 , 76.209 , 0.0 , 0.0 , 0.0 , 0.0 , 

31.0 , 4137.43589744 , 4131.28205128 , 4132.82051282 , 4132.30769231 , 4130.25641026 , 4132.30769231 , 4129.74358974 , 4133.84615385 , 4131.79487179 , 4140.0 , 4193.84615385 , 4912.82051282 , 4132.30769231 , 4143.58974359 , 2042.0 , 2037.0 , 76.218 , 0.0 , 0.0 , 0.0 , 0.0 , 

32.0 , 4133.84615385 , 4131.28205128 , 4134.35897436 , 4133.33333333 , 4129.74358974 , 4129.74358974 , 4129.74358974 , 4133.33333333 , 4135.38461538 , 4140.0 , 4194.87179487 , 4912.82051282 , 4134.87179487 , 4136.92307692 , 2042.0 , 2037.0 , 76.226 , 0.0 , 0.0 , 0.0 , 0.0 , 

33.0 , 4131.79487179 , 4131.79487179 , 4133.33333333 , 4134.35897436 , 4127.17948718 , 4129.74358974 , 4127.17948718 , 4131.79487179 , 4136.41025641 , 4138.46153846 , 4192.82051282 , 4911.28205128 , 4134.87179487 , 4137.94871795 , 2044.0 , 2038.0 , 76.232 , 0.0 , 0.0 , 0.0 , 0.0 , 

34.0 , 4132.82051282 , 4128.71794872 , 4129.74358974 , 4132.30769231 , 4127.69230769 , 4131.79487179 , 4127.69230769 , 4132.82051282 , 4131.79487179 , 4137.94871795 , 4193.33333333 , 4910.76923077 , 4133.33333333 , 4140.51282051 , 2043.0 , 2038.0 , 76.241 , 0.0 , 0.0 , 0.0 , 0.0 , 

35.0 , 4133.33333333 , 4127.17948718 , 4131.28205128 , 4130.76923077 , 4129.23076923 , 4128.71794872 , 4129.74358974 , 4131.79487179 , 4134.35897436 , 4140.0 , 4194.35897436 , 4914.87179487 , 4132.82051282 , 4141.02564103 , 2043.0 , 2038.0 , 76.249 , 0.0 , 0.0 , 0.0 , 0.0 , 

36.0 , 4129.74358974 , 4130.76923077 , 4133.84615385 , 4134.87179487 , 4130.76923077 , 4128.71794872 , 4130.76923077 , 4133.84615385 , 4139.48717949 , 4140.0 , 4191.28205128 , 4912.30769231 , 4132.82051282 , 4138.46153846 , 2042.0 , 2037.0 , 76.256 , 0.0 , 0.0 , 0.0 , 0.0 , 

37.0 , 4129.74358974 , 4132.82051282 , 4133.33333333 , 4134.87179487 , 4130.76923077 , 4129.74358974 , 4129.74358974 , 4134.87179487 , 4131.79487179 , 4137.43589744 , 4191.79487179 , 4906.66666667 , 4132.82051282 , 4141.53846154 , 2042.0 , 2038.0 , 76.264 , 0.0 , 0.0 , 0.0 , 0.0 , 

38.0 , 4130.76923077 , 4131.28205128 , 4131.28205128 , 4133.33333333 , 4129.74358974 , 4129.74358974 , 4130.76923077 , 4133.84615385 , 4127.17948718 , 4136.92307692 , 4192.30769231 , 4907.69230769 , 4134.87179487 , 4137.43589744 , 2043.0 , 2036.0 , 76.272 , 0.0 , 0.0 , 0.0 , 0.0 , 

39.0 , 4134.35897436 , 4129.23076923 , 4133.33333333 , 4132.82051282 , 4129.23076923 , 4127.69230769 , 4128.71794872 , 4130.76923077 , 4132.82051282 , 4138.46153846 , 4189.74358974 , 4916.41025641 , 4135.38461538 , 4139.48717949 , 2042.0 , 2037.0 , 76.28 , 0.0 , 0.0 , 0.0 , 0.0 , 

40.0 , 4133.84615385 , 4131.79487179 , 4133.84615385 , 4132.82051282 , 4130.76923077 , 4129.74358974 , 4127.69230769 , 4132.30769231 , 4137.94871795 , 4138.97435897 , 4187.69230769 , 4913.84615385 , 4134.35897436 , 4140.0 , 2041.0 , 2037.0 , 76.288 , 0.0 , 0.0 , 0.0 , 0.0 , 

41.0 , 4134.87179487 , 4132.30769231 , 4134.87179487 , 4131.79487179 , 4129.74358974 , 4129.23076923 , 4127.17948718 , 4132.82051282 , 4136.41025641 , 4137.94871795 , 4188.71794872 , 4907.69230769 , 4134.35897436 , 4143.07692308 , 2041.0 , 2036.0 , 76.295 , 0.0 , 0.0 , 0.0 , 0.0 , 

42.0 , 4132.30769231 , 4129.23076923 , 4136.41025641 , 4133.33333333 , 4130.25641026 , 4129.74358974 , 4130.25641026 , 4133.33333333 , 4135.8974359 , 4137.94871795 , 4189.74358974 , 4908.71794872 , 4135.38461538 , 4142.56410256 , 2041.0 , 2038.0 , 76.303 , 0.0 , 0.0 , 0.0 , 0.0 , 

43.0 , 4132.30769231 , 4128.71794872 , 4135.8974359 , 4131.79487179 , 4130.76923077 , 4131.28205128 , 4127.69230769 , 4133.33333333 , 4135.8974359 , 4136.92307692 , 4191.28205128 , 4914.87179487 , 4134.87179487 , 4144.61538462 , 2041.0 , 2036.0 , 76.312 , 0.0 , 0.0 , 0.0 , 0.0 , 

44.0 , 4132.82051282 , 4132.82051282 , 4132.82051282 , 4132.82051282 , 4131.28205128 , 4130.76923077 , 4124.61538462 , 4133.33333333 , 4134.87179487 , 4137.43589744 , 4191.79487179 , 4914.35897436 , 4133.84615385 , 4140.51282051 , 2041.0 , 2036.0 , 76.32 , 0.0 , 0.0 , 0.0 , 0.0 , 

45.0 , 4132.82051282 , 4131.28205128 , 4132.30769231 , 4135.8974359 , 4131.28205128 , 4130.25641026 , 4126.66666667 , 4131.28205128 , 4134.35897436 , 4137.94871795 , 4191.79487179 , 4912.82051282 , 4135.38461538 , 4141.02564103 , 2042.0 , 2037.0 , 76.329 , 0.0 , 0.0 , 0.0 , 0.0 , 

46.0 , 4130.76923077 , 4127.17948718 , 4131.79487179 , 4132.82051282 , 4131.28205128 , 4130.76923077 , 4128.71794872 , 4132.30769231 , 4136.41025641 , 4137.94871795 , 4193.33333333 , 4910.25641026 , 4133.33333333 , 4142.05128205 , 2042.0 , 2036.0 , 76.336 , 0.0 , 0.0 , 0.0 , 0.0 , 

47.0 , 4131.79487179 , 4128.20512821 , 4132.30769231 , 4130.76923077 , 4130.25641026 , 4128.20512821 , 4126.15384615 , 4133.33333333 , 4137.43589744 , 4137.43589744 , 4193.84615385 , 4911.28205128 , 4133.33333333 , 4140.0 , 2042.0 , 2037.0 , 76.345 , 0.0 , 0.0 , 0.0 , 0.0 , 

48.0 , 4133.33333333 , 4128.71794872 , 4133.33333333 , 4133.84615385 , 4130.76923077 , 4128.71794872 , 4126.66666667 , 4130.25641026 , 4136.41025641 , 4137.43589744 , 4191.79487179 , 4912.30769231 , 4134.35897436 , 4138.97435897 , 2043.0 , 2038.0 , 76.351 , 0.0 , 0.0 , 0.0 , 0.0 , 

49.0 , 4131.28205128 , 4128.71794872 , 4134.87179487 , 4133.33333333 , 4132.30769231 , 4130.76923077 , 4128.71794872 , 4128.71794872 , 4136.92307692 , 4137.43589744 , 4190.25641026 , 4911.79487179 , 4131.79487179 , 4138.97435897 , 2043.0 , 2036.0 , 76.359 , 0.0 , 0.0 , 0.0 , 0.0 , 

50.0 , 4133.33333333 , 4129.23076923 , 4137.43589744 , 4130.25641026 , 4131.28205128 , 4130.25641026 , 4127.69230769 , 4131.28205128 , 4137.43589744 , 4136.41025641 , 4189.23076923 , 4912.30769231 , 4131.28205128 , 4138.46153846 , 2043.0 , 2037.0 , 76.367 , 0.0 , 0.0 , 0.0 , 0.0 , 

51.0 , 4135.8974359 , 4128.20512821 , 4135.8974359 , 4130.76923077 , 4129.23076923 , 4130.25641026 , 4128.20512821 , 4131.79487179 , 4135.8974359 , 4136.92307692 , 4189.23076923 , 4913.33333333 , 4135.8974359 , 4136.41025641 , 2043.0 , 2035.0 , 76.375 , 0.0 , 0.0 , 0.0 , 0.0 , 

52.0 , 4135.8974359 , 4127.69230769 , 4132.30769231 , 4132.30769231 , 4129.23076923 , 4129.74358974 , 4127.69230769 , 4130.25641026 , 4132.82051282 , 4138.97435897 , 4191.28205128 , 4914.35897436 , 4135.38461538 , 4136.92307692 , 2041.0 , 2033.0 , 76.382 , 0.0 , 0.0 , 0.0 , 0.0 , 

53.0 , 4132.30769231 , 4132.30769231 , 4131.79487179 , 4133.33333333 , 4130.76923077 , 4128.20512821 , 4127.17948718 , 4133.84615385 , 4134.35897436 , 4138.97435897 , 4192.30769231 , 4913.84615385 , 4134.35897436 , 4135.38461538 , 2041.0 , 2035.0 , 76.391 , 0.0 , 0.0 , 0.0 , 0.0 , 

