['COUNTER', 'AF3', 'F7', 'F3', 'FC5', 'T7', 'P7', 'O1', 'O2', 'P8', 'T8', 'FC6', 'F4', 'F8', 'AF4', 'GYROX', 'GYROY', 'TIMESTAMP', 'FUNC_ID', 'FUNC_VALUE', 'MARKER', 'SYNC_SIGNAL']
79.0 , 4132.30769231 , 4130.25641026 , 4132.30769231 , 4133.84615385 , 4132.30769231 , 4128.20512821 , 4126.66666667 , 4131.79487179 , 4135.38461538 , 4137.43589744 , 4191.79487179 , 4912.30769231 , 4135.38461538 , 4134.87179487 , 2043.0 , 2038.0 , 109.133 , 0.0 , 0.0 , 0.0 , 0.0 , 

80.0 , 4132.30769231 , 4130.76923077 , 4133.84615385 , 4132.82051282 , 4132.30769231 , 4128.20512821 , 4125.64102564 , 4134.87179487 , 4133.84615385 , 4137.94871795 , 4190.76923077 , 4913.84615385 , 4133.33333333 , 4134.87179487 , 2044.0 , 2037.0 , 109.141 , 0.0 , 0.0 , 0.0 , 0.0 , 

81.0 , 4133.33333333 , 4133.33333333 , 4134.35897436 , 4131.79487179 , 4131.28205128 , 4128.71794872 , 4124.1025641 , 4134.35897436 , 4130.76923077 , 4138.97435897 , 4192.30769231 , 4911.79487179 , 4132.82051282 , 4137.43589744 , 2043.0 , 2037.0 , 109.148 , 0.0 , 0.0 , 0.0 , 0.0 , 

82.0 , 4133.84615385 , 4131.28205128 , 4134.35897436 , 4131.79487179 , 4131.79487179 , 4128.20512821 , 4125.64102564 , 4133.33333333 , 4132.82051282 , 4137.94871795 , 4191.79487179 , 4911.79487179 , 4133.84615385 , 4141.53846154 , 2043.0 , 2037.0 , 109.156 , 0.0 , 0.0 , 0.0 , 0.0 , 

83.0 , 4132.82051282 , 4130.76923077 , 4135.38461538 , 4132.30769231 , 4130.76923077 , 4128.20512821 , 4127.17948718 , 4134.87179487 , 4136.41025641 , 4138.97435897 , 4192.30769231 , 4914.35897436 , 4136.41025641 , 4140.0 , 2042.0 , 2036.0 , 109.164 , 0.0 , 0.0 , 0.0 , 0.0 , 

84.0 , 4134.87179487 , 4132.82051282 , 4136.41025641 , 4133.33333333 , 4128.20512821 , 4129.23076923 , 4125.64102564 , 4132.82051282 , 4135.8974359 , 4140.0 , 4193.33333333 , 4914.35897436 , 4133.84615385 , 4140.0 , 2042.0 , 2036.0 , 109.172 , 0.0 , 0.0 , 0.0 , 0.0 , 

85.0 , 4134.35897436 , 4133.33333333 , 4134.35897436 , 4135.38461538 , 4131.79487179 , 4129.23076923 , 4126.66666667 , 4132.82051282 , 4135.8974359 , 4138.97435897 , 4191.79487179 , 4910.76923077 , 4133.33333333 , 4139.48717949 , 2041.0 , 2037.0 , 109.18 , 0.0 , 0.0 , 0.0 , 0.0 , 

86.0 , 4134.35897436 , 4132.30769231 , 4133.33333333 , 4134.87179487 , 4133.33333333 , 4128.71794872 , 4127.17948718 , 4133.84615385 , 4134.35897436 , 4137.94871795 , 4191.28205128 , 4913.84615385 , 4134.87179487 , 4144.61538462 , 2044.0 , 2037.0 , 109.188 , 0.0 , 0.0 , 0.0 , 0.0 , 

87.0 , 4132.82051282 , 4133.84615385 , 4134.35897436 , 4134.35897436 , 4130.76923077 , 4132.30769231 , 4127.69230769 , 4131.79487179 , 4134.87179487 , 4137.94871795 , 4191.79487179 , 4915.38461538 , 4137.43589744 , 4142.05128205 , 2043.0 , 2037.0 , 109.196 , 0.0 , 0.0 , 0.0 , 0.0 , 

88.0 , 4134.35897436 , 4132.30769231 , 4135.8974359 , 4134.35897436 , 4131.28205128 , 4130.76923077 , 4125.64102564 , 4129.23076923 , 4135.8974359 , 4137.94871795 , 4192.82051282 , 4913.84615385 , 4138.97435897 , 4141.02564103 , 2043.0 , 2039.0 , 109.204 , 0.0 , 0.0 , 0.0 , 0.0 , 

89.0 , 4133.84615385 , 4130.25641026 , 4135.38461538 , 4134.87179487 , 4133.33333333 , 4127.17948718 , 4126.15384615 , 4133.84615385 , 4135.8974359 , 4137.94871795 , 4190.76923077 , 4910.76923077 , 4138.97435897 , 4138.97435897 , 2041.0 , 2037.0 , 109.211 , 0.0 , 0.0 , 0.0 , 0.0 , 

90.0 , 4134.87179487 , 4130.25641026 , 4134.87179487 , 4132.30769231 , 4131.28205128 , 4126.66666667 , 4125.64102564 , 4135.38461538 , 4134.87179487 , 4138.46153846 , 4190.76923077 , 4914.35897436 , 4136.92307692 , 4141.53846154 , 2043.0 , 2036.0 , 109.22 , 0.0 , 0.0 , 0.0 , 0.0 , 

91.0 , 4132.30769231 , 4129.74358974 , 4133.84615385 , 4133.33333333 , 4130.25641026 , 4130.25641026 , 4128.20512821 , 4133.33333333 , 4136.41025641 , 4140.0 , 4192.30769231 , 4915.38461538 , 4135.38461538 , 4138.97435897 , 2043.0 , 2034.0 , 109.227 , 0.0 , 0.0 , 0.0 , 0.0 , 

92.0 , 4134.35897436 , 4127.69230769 , 4135.38461538 , 4135.38461538 , 4132.30769231 , 4129.74358974 , 4128.20512821 , 4130.76923077 , 4135.38461538 , 4137.94871795 , 4194.35897436 , 4915.8974359 , 4134.35897436 , 4141.53846154 , 2042.0 , 2035.0 , 109.235 , 0.0 , 0.0 , 0.0 , 0.0 , 

93.0 , 4134.87179487 , 4130.76923077 , 4136.41025641 , 4135.8974359 , 4131.79487179 , 4128.71794872 , 4127.17948718 , 4133.33333333 , 4134.87179487 , 4135.8974359 , 4192.82051282 , 4913.84615385 , 4134.87179487 , 4139.48717949 , 2044.0 , 2036.0 , 109.243 , 0.0 , 0.0 , 0.0 , 0.0 , 

94.0 , 4134.35897436 , 4133.84615385 , 4137.94871795 , 4133.33333333 , 4129.74358974 , 4128.20512821 , 4126.66666667 , 4134.35897436 , 4135.8974359 , 4138.46153846 , 4190.25641026 , 4911.79487179 , 4137.43589744 , 4138.46153846 , 2044.0 , 2035.0 , 109.251 , 0.0 , 0.0 , 0.0 , 0.0 , 

95.0 , 4134.35897436 , 4132.30769231 , 4135.38461538 , 4133.84615385 , 4130.76923077 , 4128.71794872 , 4128.20512821 , 4132.30769231 , 4136.92307692 , 4140.0 , 4190.76923077 , 4910.25641026 , 4136.41025641 , 4138.46153846 , 2044.0 , 2037.0 , 109.26 , 0.0 , 0.0 , 0.0 , 0.0 , 

96.0 , 4134.35897436 , 4130.76923077 , 4130.76923077 , 4135.38461538 , 4130.25641026 , 4128.71794872 , 4127.17948718 , 4131.28205128 , 4136.41025641 , 4138.46153846 , 4193.33333333 , 4913.84615385 , 4135.38461538 , 4141.02564103 , 2042.0 , 2035.0 , 109.268 , 0.0 , 0.0 , 0.0 , 0.0 , 

97.0 , 4133.33333333 , 4132.30769231 , 4130.76923077 , 4134.87179487 , 4129.74358974 , 4130.76923077 , 4128.20512821 , 4132.30769231 , 4133.33333333 , 4140.0 , 4191.79487179 , 4915.38461538 , 4135.8974359 , 4138.97435897 , 2043.0 , 2036.0 , 109.275 , 0.0 , 0.0 , 0.0 , 0.0 , 

98.0 , 4135.38461538 , 4133.33333333 , 4134.35897436 , 4132.30769231 , 4130.76923077 , 4130.76923077 , 4128.71794872 , 4131.28205128 , 4131.28205128 , 4138.97435897 , 4190.76923077 , 4913.33333333 , 4136.92307692 , 4137.94871795 , 2045.0 , 2038.0 , 109.283 , 0.0 , 0.0 , 0.0 , 0.0 , 

99.0 , 4135.38461538 , 4133.33333333 , 4133.84615385 , 4132.30769231 , 4130.25641026 , 4128.20512821 , 4127.69230769 , 4130.76923077 , 4133.84615385 , 4135.8974359 , 4193.84615385 , 4914.87179487 , 4135.8974359 , 4141.53846154 , 2043.0 , 2038.0 , 109.29 , 0.0 , 0.0 , 0.0 , 0.0 , 

100.0 , 4132.82051282 , 4132.82051282 , 4133.33333333 , 4135.8974359 , 4130.25641026 , 4126.66666667 , 4126.15384615 , 4132.30769231 , 4138.46153846 , 4139.48717949 , 4194.35897436 , 4914.87179487 , 4136.41025641 , 4144.1025641 , 2043.0 , 2037.0 , 109.298 , 0.0 , 0.0 , 0.0 , 0.0 , 

101.0 , 4131.28205128 , 4129.74358974 , 4137.94871795 , 4135.8974359 , 4132.30769231 , 4128.20512821 , 4126.66666667 , 4132.30769231 , 4137.43589744 , 4142.56410256 , 4192.30769231 , 4913.84615385 , 4136.41025641 , 4143.07692308 , 2042.0 , 2038.0 , 109.306 , 0.0 , 0.0 , 0.0 , 0.0 , 

102.0 , 4131.79487179 , 4128.71794872 , 4135.8974359 , 4134.35897436 , 4132.30769231 , 4131.28205128 , 4127.17948718 , 4132.82051282 , 4135.38461538 , 4142.05128205 , 4192.30769231 , 4914.87179487 , 4137.43589744 , 4141.53846154 , 2042.0 , 2037.0 , 109.314 , 0.0 , 0.0 , 0.0 , 0.0 , 

103.0 , 4136.41025641 , 4130.76923077 , 4131.28205128 , 4133.33333333 , 4132.82051282 , 4130.25641026 , 4124.1025641 , 4132.30769231 , 4135.38461538 , 4141.02564103 , 4192.82051282 , 4915.8974359 , 4136.41025641 , 4144.61538462 , 2043.0 , 2038.0 , 109.323 , 0.0 , 0.0 , 0.0 , 0.0 , 

104.0 , 4136.92307692 , 4131.79487179 , 4132.82051282 , 4133.84615385 , 4133.33333333 , 4129.23076923 , 4123.07692308 , 4132.82051282 , 4137.43589744 , 4139.48717949 , 4192.82051282 , 4912.30769231 , 4135.8974359 , 4136.92307692 , 2042.0 , 2038.0 , 109.33 , 0.0 , 0.0 , 0.0 , 0.0 , 

105.0 , 4135.38461538 , 4130.25641026 , 4136.92307692 , 4132.82051282 , 4129.74358974 , 4127.69230769 , 4126.66666667 , 4132.30769231 , 4135.38461538 , 4138.97435897 , 4191.79487179 , 4914.87179487 , 4135.8974359 , 4133.84615385 , 2043.0 , 2038.0 , 109.337 , 0.0 , 0.0 , 0.0 , 0.0 , 

106.0 , 4132.30769231 , 4131.28205128 , 4133.84615385 , 4133.33333333 , 4128.71794872 , 4129.23076923 , 4131.28205128 , 4133.33333333 , 4132.30769231 , 4139.48717949 , 4191.79487179 , 4914.35897436 , 4136.41025641 , 4134.35897436 , 2042.0 , 2039.0 , 109.346 , 0.0 , 0.0 , 0.0 , 0.0 , 

107.0 , 4133.33333333 , 4131.28205128 , 4130.76923077 , 4132.82051282 , 4130.25641026 , 4129.23076923 , 4127.17948718 , 4131.79487179 , 4133.33333333 , 4137.94871795 , 4192.30769231 , 4911.79487179 , 4133.33333333 , 4136.92307692 , 2043.0 , 2038.0 , 109.354 , 0.0 , 0.0 , 0.0 , 0.0 , 

108.0 , 4131.79487179 , 4129.74358974 , 4132.30769231 , 4134.35897436 , 4129.74358974 , 4130.76923077 , 4127.17948718 , 4131.79487179 , 4137.43589744 , 4138.46153846 , 4191.79487179 , 4909.23076923 , 4132.30769231 , 4135.8974359 , 2044.0 , 2038.0 , 109.362 , 0.0 , 0.0 , 0.0 , 0.0 , 

109.0 , 4133.84615385 , 4129.23076923 , 4136.41025641 , 4134.35897436 , 4129.74358974 , 4129.74358974 , 4128.20512821 , 4132.30769231 , 4135.8974359 , 4140.0 , 4191.28205128 , 4911.79487179 , 4136.41025641 , 4140.51282051 , 2044.0 , 2037.0 , 109.369 , 0.0 , 0.0 , 0.0 , 0.0 , 

110.0 , 4132.82051282 , 4132.82051282 , 4136.41025641 , 4132.30769231 , 4131.79487179 , 4129.23076923 , 4127.17948718 , 4133.84615385 , 4134.87179487 , 4137.94871795 , 4191.28205128 , 4911.28205128 , 4140.0 , 4139.48717949 , 2044.0 , 2038.0 , 109.377 , 0.0 , 0.0 , 0.0 , 0.0 , 

111.0 , 4132.82051282 , 4133.33333333 , 4135.8974359 , 4131.79487179 , 4130.76923077 , 4128.71794872 , 4126.15384615 , 4131.79487179 , 4136.41025641 , 4135.8974359 , 4190.76923077 , 4914.35897436 , 4135.8974359 , 4141.53846154 , 2044.0 , 2037.0 , 109.385 , 0.0 , 0.0 , 0.0 , 0.0 , 

112.0 , 4132.30769231 , 4132.30769231 , 4135.8974359 , 4135.38461538 , 4129.23076923 , 4129.23076923 , 4127.69230769 , 4131.79487179 , 4137.94871795 , 4137.94871795 , 4191.28205128 , 4913.84615385 , 4132.82051282 , 4138.97435897 , 2045.0 , 2037.0 , 109.393 , 0.0 , 0.0 , 0.0 , 0.0 , 

113.0 , 4133.33333333 , 4132.30769231 , 4134.87179487 , 4135.8974359 , 4129.74358974 , 4128.20512821 , 4125.64102564 , 4133.84615385 , 4134.87179487 , 4137.94871795 , 4193.84615385 , 4911.79487179 , 4134.87179487 , 4138.97435897 , 2045.0 , 2036.0 , 109.401 , 0.0 , 0.0 , 0.0 , 0.0 , 

114.0 , 4132.82051282 , 4133.33333333 , 4133.33333333 , 4133.84615385 , 4130.76923077 , 4129.23076923 , 4126.15384615 , 4132.30769231 , 4133.84615385 , 4136.92307692 , 4193.33333333 , 4910.25641026 , 4135.38461538 , 4138.97435897 , 2045.0 , 2038.0 , 109.408 , 0.0 , 0.0 , 0.0 , 0.0 , 

115.0 , 4131.79487179 , 4133.84615385 , 4136.92307692 , 4134.87179487 , 4128.71794872 , 4131.28205128 , 4127.17948718 , 4130.25641026 , 4134.35897436 , 4138.46153846 , 4190.76923077 , 4914.35897436 , 4134.87179487 , 4141.53846154 , 2044.0 , 2037.0 , 109.416 , 0.0 , 0.0 , 0.0 , 0.0 , 

116.0 , 4130.76923077 , 4133.33333333 , 4137.94871795 , 4135.38461538 , 4129.23076923 , 4130.76923077 , 4127.17948718 , 4132.30769231 , 4133.33333333 , 4138.46153846 , 4191.28205128 , 4914.35897436 , 4134.35897436 , 4141.53846154 , 2044.0 , 2037.0 , 109.424 , 0.0 , 0.0 , 0.0 , 0.0 , 

117.0 , 4131.79487179 , 4132.30769231 , 4131.79487179 , 4133.33333333 , 4129.74358974 , 4128.20512821 , 4127.17948718 , 4133.84615385 , 4135.8974359 , 4138.97435897 , 4192.82051282 , 4911.79487179 , 4134.87179487 , 4140.51282051 , 2044.0 , 2037.0 , 109.432 , 0.0 , 0.0 , 0.0 , 0.0 , 

118.0 , 4132.82051282 , 4131.79487179 , 4129.74358974 , 4132.30769231 , 4129.23076923 , 4128.71794872 , 4126.66666667 , 4132.82051282 , 4137.94871795 , 4140.51282051 , 4191.79487179 , 4911.79487179 , 4135.38461538 , 4140.0 , 2044.0 , 2037.0 , 109.441 , 0.0 , 0.0 , 0.0 , 0.0 , 

119.0 , 4134.35897436 , 4131.79487179 , 4133.33333333 , 4133.33333333 , 4128.71794872 , 4130.25641026 , 4126.15384615 , 4131.28205128 , 4133.84615385 , 4138.97435897 , 4190.76923077 , 4911.28205128 , 4135.8974359 , 4139.48717949 , 2043.0 , 2036.0 , 109.448 , 0.0 , 0.0 , 0.0 , 0.0 , 

120.0 , 4134.35897436 , 4130.76923077 , 4134.87179487 , 4131.79487179 , 4128.71794872 , 4129.74358974 , 4125.12820513 , 4129.74358974 , 4131.28205128 , 4137.43589744 , 4192.30769231 , 4909.23076923 , 4133.84615385 , 4141.02564103 , 2043.0 , 2038.0 , 109.456 , 0.0 , 0.0 , 0.0 , 0.0 , 

121.0 , 4131.79487179 , 4130.76923077 , 4133.33333333 , 4132.82051282 , 4130.25641026 , 4130.25641026 , 4125.12820513 , 4131.28205128 , 4136.41025641 , 4138.97435897 , 4192.30769231 , 4909.74358974 , 4134.87179487 , 4137.43589744 , 2044.0 , 2036.0 , 109.464 , 0.0 , 0.0 , 0.0 , 0.0 , 

122.0 , 4131.28205128 , 4131.79487179 , 4133.33333333 , 4133.33333333 , 4129.23076923 , 4130.25641026 , 4126.66666667 , 4132.30769231 , 4135.8974359 , 4140.0 , 4192.30769231 , 4914.35897436 , 4136.41025641 , 4139.48717949 , 2043.0 , 2036.0 , 109.472 , 0.0 , 0.0 , 0.0 , 0.0 , 

123.0 , 4129.74358974 , 4133.84615385 , 4133.84615385 , 4133.84615385 , 4128.71794872 , 4130.76923077 , 4128.71794872 , 4132.82051282 , 4130.76923077 , 4138.46153846 , 4194.35897436 , 4912.82051282 , 4136.41025641 , 4140.0 , 2044.0 , 2035.0 , 109.48 , 0.0 , 0.0 , 0.0 , 0.0 , 

124.0 , 4132.30769231 , 4135.38461538 , 4136.41025641 , 4132.82051282 , 4130.76923077 , 4130.25641026 , 4125.64102564 , 4133.33333333 , 4132.30769231 , 4137.43589744 , 4193.33333333 , 4911.79487179 , 4133.84615385 , 4141.02564103 , 2044.0 , 2036.0 , 109.487 , 0.0 , 0.0 , 0.0 , 0.0 , 

125.0 , 4132.30769231 , 4132.82051282 , 4136.41025641 , 4132.30769231 , 4132.30769231 , 4129.74358974 , 4126.15384615 , 4133.84615385 , 4137.94871795 , 4137.43589744 , 4190.76923077 , 4912.30769231 , 4134.35897436 , 4136.41025641 , 2042.0 , 2037.0 , 109.495 , 0.0 , 0.0 , 0.0 , 0.0 , 

126.0 , 4133.84615385 , 4128.20512821 , 4134.35897436 , 4131.79487179 , 4128.20512821 , 4128.20512821 , 4128.71794872 , 4132.82051282 , 4136.41025641 , 4137.43589744 , 4192.30769231 , 4915.38461538 , 4135.38461538 , 4140.51282051 , 2043.0 , 2036.0 , 109.504 , 0.0 , 0.0 , 0.0 , 0.0 , 

127.0 , 4132.82051282 , 4130.25641026 , 4133.33333333 , 4134.87179487 , 4129.23076923 , 4128.71794872 , 4128.20512821 , 4134.35897436 , 4134.87179487 , 4138.46153846 , 4193.84615385 , 4914.35897436 , 4135.8974359 , 4140.51282051 , 2043.0 , 2036.0 , 109.512 , 0.0 , 0.0 , 0.0 , 0.0 , 

128.0 , 4132.82051282 , 4131.28205128 , 4136.92307692 , 4133.84615385 , 4133.84615385 , 4128.71794872 , 4124.61538462 , 4131.79487179 , 4133.84615385 , 4138.46153846 , 4193.84615385 , 4913.84615385 , 4134.35897436 , 4141.53846154 , 2043.0 , 2035.0 , 109.519 , 0.0 , 0.0 , 0.0 , 0.0 , 

0.0 , 4130.76923077 , 4129.74358974 , 4136.41025641 , 4132.82051282 , 4132.82051282 , 4130.25641026 , 4125.12820513 , 4130.76923077 , 4132.30769231 , 4137.43589744 , 4193.33333333 , 4911.79487179 , 4134.35897436 , 4138.97435897 , 2042.0 , 2036.0 , 109.528 , 0.0 , 0.0 , 0.0 , 0.0 , 

1.0 , 4133.84615385 , 4130.76923077 , 4135.38461538 , 4132.82051282 , 4130.76923077 , 4131.28205128 , 4125.64102564 , 4133.33333333 , 4131.79487179 , 4137.43589744 , 4193.33333333 , 4913.33333333 , 4135.38461538 , 4142.05128205 , 2043.0 , 2036.0 , 109.534 , 0.0 , 0.0 , 0.0 , 0.0 , 

2.0 , 4133.33333333 , 4131.28205128 , 4134.87179487 , 4132.82051282 , 4133.33333333 , 4131.28205128 , 4127.17948718 , 4134.35897436 , 4134.35897436 , 4139.48717949 , 4193.84615385 , 4913.33333333 , 4135.38461538 , 4141.53846154 , 2042.0 , 2035.0 , 109.543 , 0.0 , 0.0 , 0.0 , 0.0 , 

3.0 , 4133.33333333 , 4129.74358974 , 4135.8974359 , 4131.79487179 , 4130.76923077 , 4129.74358974 , 4126.66666667 , 4132.82051282 , 4132.30769231 , 4138.46153846 , 4193.33333333 , 4911.79487179 , 4136.41025641 , 4141.53846154 , 2043.0 , 2038.0 , 109.551 , 0.0 , 0.0 , 0.0 , 0.0 , 

4.0 , 4133.84615385 , 4131.79487179 , 4134.87179487 , 4132.82051282 , 4128.20512821 , 4128.71794872 , 4127.17948718 , 4133.84615385 , 4130.76923077 , 4138.46153846 , 4192.30769231 , 4910.25641026 , 4137.94871795 , 4139.48717949 , 2042.0 , 2037.0 , 109.558 , 0.0 , 0.0 , 0.0 , 0.0 , 

5.0 , 4132.30769231 , 4132.82051282 , 4135.38461538 , 4133.84615385 , 4131.28205128 , 4126.15384615 , 4128.20512821 , 4133.84615385 , 4133.84615385 , 4139.48717949 , 4192.82051282 , 4911.79487179 , 4136.92307692 , 4140.0 , 2044.0 , 2037.0 , 109.567 , 0.0 , 0.0 , 0.0 , 0.0 , 

6.0 , 4131.79487179 , 4131.79487179 , 4136.92307692 , 4132.82051282 , 4132.82051282 , 4127.69230769 , 4128.71794872 , 4131.79487179 , 4135.8974359 , 4138.97435897 , 4192.82051282 , 4910.76923077 , 4133.33333333 , 4139.48717949 , 2045.0 , 2037.0 , 109.575 , 0.0 , 0.0 , 0.0 , 0.0 , 

7.0 , 4132.82051282 , 4130.76923077 , 4134.35897436 , 4132.82051282 , 4130.25641026 , 4130.25641026 , 4126.15384615 , 4132.82051282 , 4136.41025641 , 4138.97435897 , 4192.82051282 , 4909.74358974 , 4134.35897436 , 4137.94871795 , 2044.0 , 2036.0 , 109.583 , 0.0 , 0.0 , 0.0 , 0.0 , 

8.0 , 4133.84615385 , 4130.25641026 , 4132.82051282 , 4132.82051282 , 4128.71794872 , 4130.25641026 , 4123.58974359 , 4132.30769231 , 4136.92307692 , 4138.46153846 , 4193.33333333 , 4910.76923077 , 4137.43589744 , 4138.97435897 , 2042.0 , 2036.0 , 109.591 , 0.0 , 0.0 , 0.0 , 0.0 , 

9.0 , 4131.79487179 , 4131.28205128 , 4134.87179487 , 4133.33333333 , 4128.20512821 , 4130.76923077 , 4126.15384615 , 4131.28205128 , 4135.38461538 , 4137.94871795 , 4193.33333333 , 4912.82051282 , 4138.97435897 , 4140.51282051 , 2042.0 , 2037.0 , 109.599 , 0.0 , 0.0 , 0.0 , 0.0 , 

10.0 , 4132.82051282 , 4132.82051282 , 4137.43589744 , 4132.30769231 , 4129.74358974 , 4130.25641026 , 4126.66666667 , 4132.82051282 , 4133.33333333 , 4137.94871795 , 4192.82051282 , 4914.35897436 , 4135.8974359 , 4140.51282051 , 2043.0 , 2035.0 , 109.605 , 0.0 , 0.0 , 0.0 , 0.0 , 

11.0 , 4132.30769231 , 4132.30769231 , 4135.8974359 , 4132.82051282 , 4131.79487179 , 4128.71794872 , 4125.64102564 , 4134.87179487 , 4136.92307692 , 4139.48717949 , 4191.28205128 , 4910.76923077 , 4134.87179487 , 4135.8974359 , 2043.0 , 2034.0 , 109.613 , 0.0 , 0.0 , 0.0 , 0.0 , 

12.0 , 4133.84615385 , 4130.25641026 , 4134.87179487 , 4133.33333333 , 4131.79487179 , 4129.23076923 , 4125.12820513 , 4133.33333333 , 4140.0 , 4138.46153846 , 4190.76923077 , 4910.76923077 , 4136.92307692 , 4140.51282051 , 2043.0 , 2035.0 , 109.621 , 0.0 , 0.0 , 0.0 , 0.0 , 

13.0 , 4131.79487179 , 4131.79487179 , 4134.87179487 , 4132.30769231 , 4131.28205128 , 4132.82051282 , 4127.69230769 , 4134.35897436 , 4137.94871795 , 4137.94871795 , 4193.33333333 , 4912.82051282 , 4136.41025641 , 4142.05128205 , 2043.0 , 2035.0 , 109.629 , 0.0 , 0.0 , 0.0 , 0.0 , 

14.0 , 4132.82051282 , 4133.84615385 , 4136.41025641 , 4131.28205128 , 4131.79487179 , 4131.79487179 , 4127.17948718 , 4134.35897436 , 4134.87179487 , 4138.97435897 , 4193.84615385 , 4915.38461538 , 4134.35897436 , 4143.07692308 , 2043.0 , 2034.0 , 109.637 , 0.0 , 0.0 , 0.0 , 0.0 , 

15.0 , 4132.82051282 , 4133.84615385 , 4135.38461538 , 4136.41025641 , 4131.79487179 , 4131.28205128 , 4127.69230769 , 4131.28205128 , 4135.38461538 , 4139.48717949 , 4191.28205128 , 4913.33333333 , 4134.87179487 , 4137.94871795 , 2043.0 , 2035.0 , 109.645 , 0.0 , 0.0 , 0.0 , 0.0 , 

16.0 , 4131.79487179 , 4130.76923077 , 4134.35897436 , 4133.84615385 , 4130.25641026 , 4130.76923077 , 4127.17948718 , 4129.74358974 , 4135.8974359 , 4139.48717949 , 4191.79487179 , 4914.35897436 , 4134.35897436 , 4140.51282051 , 2044.0 , 2036.0 , 109.653 , 0.0 , 0.0 , 0.0 , 0.0 , 

17.0 , 4128.71794872 , 4129.74358974 , 4134.35897436 , 4131.28205128 , 4130.25641026 , 4129.74358974 , 4125.64102564 , 4132.82051282 , 4135.8974359 , 4138.97435897 , 4193.84615385 , 4914.35897436 , 4133.33333333 , 4140.51282051 , 2046.0 , 2035.0 , 109.662 , 0.0 , 0.0 , 0.0 , 0.0 , 

18.0 , 4133.84615385 , 4130.76923077 , 4135.38461538 , 4132.30769231 , 4129.74358974 , 4126.66666667 , 4124.1025641 , 4133.33333333 , 4135.8974359 , 4137.94871795 , 4191.28205128 , 4916.92307692 , 4133.33333333 , 4141.53846154 , 2044.0 , 2036.0 , 109.669 , 0.0 , 0.0 , 0.0 , 0.0 , 

19.0 , 4134.35897436 , 4131.79487179 , 4134.87179487 , 4131.28205128 , 4130.25641026 , 4128.20512821 , 4125.12820513 , 4132.82051282 , 4137.94871795 , 4137.43589744 , 4188.71794872 , 4913.84615385 , 4133.84615385 , 4137.94871795 , 2045.0 , 2035.0 , 109.677 , 0.0 , 0.0 , 0.0 , 0.0 , 

20.0 , 4132.82051282 , 4131.28205128 , 4136.41025641 , 4129.74358974 , 4130.25641026 , 4130.76923077 , 4124.61538462 , 4131.28205128 , 4136.41025641 , 4138.46153846 , 4190.76923077 , 4910.25641026 , 4135.38461538 , 4137.43589744 , 2045.0 , 2036.0 , 109.684 , 0.0 , 0.0 , 0.0 , 0.0 , 

21.0 , 4132.30769231 , 4132.30769231 , 4136.41025641 , 4133.33333333 , 4130.76923077 , 4130.76923077 , 4128.20512821 , 4131.28205128 , 4134.35897436 , 4138.97435897 , 4191.79487179 , 4909.74358974 , 4135.8974359 , 4135.38461538 , 2044.0 , 2036.0 , 109.693 , 0.0 , 0.0 , 0.0 , 0.0 , 

22.0 , 4134.87179487 , 4132.30769231 , 4133.84615385 , 4132.82051282 , 4131.28205128 , 4128.20512821 , 4128.71794872 , 4133.33333333 , 4136.92307692 , 4138.46153846 , 4191.79487179 , 4909.74358974 , 4135.38461538 , 4137.94871795 , 2044.0 , 2036.0 , 109.7 , 0.0 , 0.0 , 0.0 , 0.0 , 

23.0 , 4134.35897436 , 4132.82051282 , 4132.30769231 , 4133.33333333 , 4132.30769231 , 4128.20512821 , 4127.17948718 , 4134.87179487 , 4139.48717949 , 4138.97435897 , 4192.82051282 , 4909.23076923 , 4135.8974359 , 4138.46153846 , 2044.0 , 2037.0 , 109.709 , 0.0 , 0.0 , 0.0 , 0.0 , 

24.0 , 4135.38461538 , 4131.79487179 , 4132.30769231 , 4136.92307692 , 4131.79487179 , 4129.74358974 , 4127.17948718 , 4133.84615385 , 4137.43589744 , 4138.97435897 , 4192.30769231 , 4911.79487179 , 4137.43589744 , 4137.94871795 , 2042.0 , 2036.0 , 109.716 , 0.0 , 0.0 , 0.0 , 0.0 , 

25.0 , 4135.38461538 , 4131.79487179 , 4133.33333333 , 4135.8974359 , 4131.79487179 , 4129.23076923 , 4128.20512821 , 4132.82051282 , 4135.38461538 , 4139.48717949 , 4192.82051282 , 4912.30769231 , 4135.8974359 , 4141.02564103 , 2043.0 , 2037.0 , 109.725 , 0.0 , 0.0 , 0.0 , 0.0 , 

26.0 , 4132.82051282 , 4133.33333333 , 4134.35897436 , 4133.84615385 , 4130.76923077 , 4128.71794872 , 4126.66666667 , 4131.79487179 , 4135.8974359 , 4139.48717949 , 4193.33333333 , 4911.28205128 , 4135.38461538 , 4145.12820513 , 2043.0 , 2037.0 , 109.733 , 0.0 , 0.0 , 0.0 , 0.0 , 

27.0 , 4132.30769231 , 4132.30769231 , 4135.38461538 , 4134.87179487 , 4129.23076923 , 4130.25641026 , 4125.12820513 , 4130.76923077 , 4135.38461538 , 4138.46153846 , 4192.82051282 , 4915.8974359 , 4134.35897436 , 4144.1025641 , 2043.0 , 2038.0 , 109.74 , 0.0 , 0.0 , 0.0 , 0.0 , 

28.0 , 4132.82051282 , 4130.25641026 , 4134.87179487 , 4133.84615385 , 4130.76923077 , 4129.74358974 , 4125.64102564 , 4132.30769231 , 4136.41025641 , 4138.46153846 , 4192.30769231 , 4916.92307692 , 4135.38461538 , 4138.97435897 , 2041.0 , 2037.0 , 109.747 , 0.0 , 0.0 , 0.0 , 0.0 , 

29.0 , 4135.38461538 , 4130.76923077 , 4135.8974359 , 4132.30769231 , 4128.20512821 , 4129.74358974 , 4123.07692308 , 4133.84615385 , 4137.43589744 , 4139.48717949 , 4193.33333333 , 4915.38461538 , 4134.87179487 , 4142.05128205 , 2042.0 , 2037.0 , 109.755 , 0.0 , 0.0 , 0.0 , 0.0 , 

30.0 , 4132.82051282 , 4134.35897436 , 4135.38461538 , 4133.84615385 , 4125.12820513 , 4132.82051282 , 4122.56410256 , 4133.84615385 , 4137.43589744 , 4139.48717949 , 4190.76923077 , 4914.87179487 , 4132.82051282 , 4141.53846154 , 2042.0 , 2038.0 , 109.764 , 0.0 , 0.0 , 0.0 , 0.0 , 

31.0 , 4131.28205128 , 4131.79487179 , 4134.87179487 , 4131.79487179 , 4128.20512821 , 4130.76923077 , 4124.61538462 , 4131.28205128 , 4137.43589744 , 4137.43589744 , 4189.23076923 , 4916.41025641 , 4133.84615385 , 4142.56410256 , 2041.0 , 2039.0 , 109.771 , 0.0 , 0.0 , 0.0 , 0.0 , 

32.0 , 4130.25641026 , 4128.20512821 , 4132.82051282 , 4131.79487179 , 4131.79487179 , 4129.23076923 , 4130.25641026 , 4133.84615385 , 4138.46153846 , 4138.46153846 , 4192.82051282 , 4910.25641026 , 4136.41025641 , 4139.48717949 , 2042.0 , 2038.0 , 109.779 , 0.0 , 0.0 , 0.0 , 0.0 , 

33.0 , 4131.79487179 , 4128.71794872 , 4132.82051282 , 4132.30769231 , 4131.28205128 , 4129.23076923 , 4130.25641026 , 4135.38461538 , 4137.94871795 , 4140.51282051 , 4194.35897436 , 4907.69230769 , 4136.41025641 , 4139.48717949 , 2041.0 , 2037.0 , 109.788 , 0.0 , 0.0 , 0.0 , 0.0 , 

34.0 , 4133.33333333 , 4131.79487179 , 4136.41025641 , 4134.35897436 , 4131.28205128 , 4128.71794872 , 4127.17948718 , 4134.35897436 , 4137.94871795 , 4140.0 , 4191.28205128 , 4908.71794872 , 4136.41025641 , 4136.92307692 , 2042.0 , 2038.0 , 109.795 , 0.0 , 0.0 , 0.0 , 0.0 , 

35.0 , 4136.92307692 , 4132.30769231 , 4138.97435897 , 4133.84615385 , 4129.23076923 , 4128.20512821 , 4126.15384615 , 4131.79487179 , 4137.94871795 , 4138.46153846 , 4191.79487179 , 4913.84615385 , 4135.38461538 , 4140.0 , 2041.0 , 2037.0 , 109.803 , 0.0 , 0.0 , 0.0 , 0.0 , 

36.0 , 4135.38461538 , 4130.25641026 , 4135.8974359 , 4131.28205128 , 4128.71794872 , 4130.25641026 , 4130.25641026 , 4135.38461538 , 4138.97435897 , 4138.46153846 , 4194.87179487 , 4912.82051282 , 4133.84615385 , 4136.92307692 , 2042.0 , 2036.0 , 109.81 , 0.0 , 0.0 , 0.0 , 0.0 , 

37.0 , 4135.38461538 , 4127.69230769 , 4135.8974359 , 4130.25641026 , 4132.30769231 , 4128.71794872 , 4129.23076923 , 4137.43589744 , 4138.97435897 , 4137.43589744 , 4194.35897436 , 4913.33333333 , 4135.38461538 , 4137.94871795 , 2042.0 , 2036.0 , 109.819 , 0.0 , 0.0 , 0.0 , 0.0 , 

38.0 , 4133.84615385 , 4129.23076923 , 4137.94871795 , 4132.30769231 , 4131.79487179 , 4128.71794872 , 4126.66666667 , 4135.38461538 , 4137.43589744 , 4136.92307692 , 4191.79487179 , 4913.84615385 , 4136.41025641 , 4140.51282051 , 2042.0 , 2035.0 , 109.827 , 0.0 , 0.0 , 0.0 , 0.0 , 

39.0 , 4136.92307692 , 4130.25641026 , 4136.92307692 , 4131.79487179 , 4128.20512821 , 4130.76923077 , 4125.64102564 , 4132.82051282 , 4135.8974359 , 4140.0 , 4193.33333333 , 4912.82051282 , 4135.8974359 , 4143.07692308 , 2044.0 , 2035.0 , 109.835 , 0.0 , 0.0 , 0.0 , 0.0 , 

40.0 , 4136.92307692 , 4129.74358974 , 4134.35897436 , 4131.79487179 , 4131.28205128 , 4130.76923077 , 4126.66666667 , 4133.33333333 , 4137.43589744 , 4139.48717949 , 4193.33333333 , 4911.79487179 , 4136.41025641 , 4139.48717949 , 2043.0 , 2035.0 , 109.843 , 0.0 , 0.0 , 0.0 , 0.0 , 

41.0 , 4133.84615385 , 4133.84615385 , 4133.84615385 , 4132.30769231 , 4132.82051282 , 4128.71794872 , 4126.66666667 , 4134.35897436 , 4136.41025641 , 4138.46153846 , 4192.82051282 , 4913.84615385 , 4138.46153846 , 4141.53846154 , 2043.0 , 2035.0 , 109.85 , 0.0 , 0.0 , 0.0 , 0.0 , 

42.0 , 4129.74358974 , 4136.92307692 , 4132.82051282 , 4131.79487179 , 4130.76923077 , 4127.17948718 , 4127.69230769 , 4135.38461538 , 4136.41025641 , 4139.48717949 , 4193.84615385 , 4912.82051282 , 4136.92307692 , 4142.56410256 , 2044.0 , 2034.0 , 109.858 , 0.0 , 0.0 , 0.0 , 0.0 , 

43.0 , 4130.25641026 , 4132.30769231 , 4135.38461538 , 4133.33333333 , 4129.23076923 , 4125.64102564 , 4128.71794872 , 4136.41025641 , 4137.94871795 , 4139.48717949 , 4194.87179487 , 4912.30769231 , 4137.43589744 , 4138.97435897 , 2044.0 , 2035.0 , 109.866 , 0.0 , 0.0 , 0.0 , 0.0 , 

44.0 , 4133.84615385 , 4129.74358974 , 4137.94871795 , 4134.35897436 , 4130.25641026 , 4127.69230769 , 4127.17948718 , 4133.84615385 , 4135.8974359 , 4137.43589744 , 4192.82051282 , 4914.35897436 , 4137.43589744 , 4137.94871795 , 2044.0 , 2035.0 , 109.873 , 0.0 , 0.0 , 0.0 , 0.0 , 

45.0 , 4132.82051282 , 4132.30769231 , 4133.84615385 , 4132.82051282 , 4130.25641026 , 4129.74358974 , 4126.66666667 , 4131.28205128 , 4136.41025641 , 4136.92307692 , 4192.82051282 , 4915.38461538 , 4134.87179487 , 4140.51282051 , 2043.0 , 2035.0 , 109.881 , 0.0 , 0.0 , 0.0 , 0.0 , 

46.0 , 4131.79487179 , 4130.25641026 , 4131.28205128 , 4132.82051282 , 4129.23076923 , 4127.69230769 , 4125.64102564 , 4131.28205128 , 4137.43589744 , 4136.92307692 , 4195.38461538 , 4914.87179487 , 4135.8974359 , 4141.53846154 , 2042.0 , 2035.0 , 109.889 , 0.0 , 0.0 , 0.0 , 0.0 , 

47.0 , 4132.82051282 , 4129.23076923 , 4132.30769231 , 4133.84615385 , 4129.23076923 , 4127.69230769 , 4123.58974359 , 4132.30769231 , 4133.33333333 , 4137.43589744 , 4193.33333333 , 4912.82051282 , 4138.46153846 , 4137.94871795 , 2043.0 , 2035.0 , 109.897 , 0.0 , 0.0 , 0.0 , 0.0 , 

48.0 , 4134.35897436 , 4129.74358974 , 4134.87179487 , 4133.84615385 , 4129.23076923 , 4129.74358974 , 4122.56410256 , 4133.33333333 , 4132.30769231 , 4137.94871795 , 4189.74358974 , 4913.33333333 , 4134.35897436 , 4142.56410256 , 2042.0 , 2036.0 , 109.905 , 0.0 , 0.0 , 0.0 , 0.0 , 

49.0 , 4129.74358974 , 4128.20512821 , 4131.28205128 , 4137.43589744 , 4129.74358974 , 4130.25641026 , 4125.64102564 , 4136.41025641 , 4137.94871795 , 4136.92307692 , 4191.79487179 , 4910.76923077 , 4132.82051282 , 4141.53846154 , 2042.0 , 2038.0 , 109.913 , 0.0 , 0.0 , 0.0 , 0.0 , 

50.0 , 4130.76923077 , 4127.69230769 , 4132.30769231 , 4135.8974359 , 4129.23076923 , 4128.71794872 , 4127.69230769 , 4134.35897436 , 4137.43589744 , 4138.97435897 , 4193.33333333 , 4910.25641026 , 4135.8974359 , 4140.51282051 , 2044.0 , 2037.0 , 109.921 , 0.0 , 0.0 , 0.0 , 0.0 , 

51.0 , 4132.82051282 , 4130.25641026 , 4134.35897436 , 4131.28205128 , 4130.76923077 , 4130.76923077 , 4128.71794872 , 4133.84615385 , 4135.38461538 , 4140.0 , 4191.79487179 , 4910.76923077 , 4136.92307692 , 4136.41025641 , 2043.0 , 2038.0 , 109.929 , 0.0 , 0.0 , 0.0 , 0.0 , 

52.0 , 4132.30769231 , 4128.20512821 , 4133.33333333 , 4131.79487179 , 4130.25641026 , 4128.20512821 , 4126.15384615 , 4133.33333333 , 4136.41025641 , 4136.92307692 , 4193.33333333 , 4914.35897436 , 4135.38461538 , 4141.02564103 , 2042.0 , 2039.0 , 109.937 , 0.0 , 0.0 , 0.0 , 0.0 , 

53.0 , 4131.28205128 , 4128.20512821 , 4131.79487179 , 4134.87179487 , 4129.74358974 , 4126.15384615 , 4126.66666667 , 4132.82051282 , 4137.94871795 , 4137.43589744 , 4192.82051282 , 4914.35897436 , 4136.41025641 , 4143.07692308 , 2043.0 , 2037.0 , 109.944 , 0.0 , 0.0 , 0.0 , 0.0 , 

54.0 , 4135.8974359 , 4130.25641026 , 4134.35897436 , 4130.76923077 , 4131.79487179 , 4127.69230769 , 4126.66666667 , 4132.30769231 , 4137.94871795 , 4139.48717949 , 4189.74358974 , 4915.38461538 , 4135.8974359 , 4144.1025641 , 2043.0 , 2037.0 , 109.953 , 0.0 , 0.0 , 0.0 , 0.0 , 

55.0 , 4133.84615385 , 4132.30769231 , 4135.8974359 , 4132.30769231 , 4132.82051282 , 4132.30769231 , 4127.17948718 , 4134.87179487 , 4138.97435897 , 4138.97435897 , 4190.76923077 , 4913.84615385 , 4134.87179487 , 4139.48717949 , 2044.0 , 2036.0 , 109.961 , 0.0 , 0.0 , 0.0 , 0.0 , 

56.0 , 4133.84615385 , 4133.33333333 , 4135.8974359 , 4135.38461538 , 4130.25641026 , 4131.79487179 , 4125.64102564 , 4133.33333333 , 4136.41025641 , 4138.46153846 , 4194.35897436 , 4911.79487179 , 4136.41025641 , 4140.0 , 2043.0 , 2036.0 , 109.968 , 0.0 , 0.0 , 0.0 , 0.0 , 

57.0 , 4135.8974359 , 4133.84615385 , 4135.38461538 , 4131.79487179 , 4129.74358974 , 4132.30769231 , 4126.66666667 , 4133.84615385 , 4134.87179487 , 4140.51282051 , 4194.35897436 , 4911.28205128 , 4135.38461538 , 4140.51282051 , 2043.0 , 2036.0 , 109.977 , 0.0 , 0.0 , 0.0 , 0.0 , 

58.0 , 4133.84615385 , 4133.33333333 , 4137.43589744 , 4127.69230769 , 4131.79487179 , 4132.82051282 , 4127.17948718 , 4136.92307692 , 4137.43589744 , 4140.0 , 4194.35897436 , 4911.28205128 , 4134.87179487 , 4141.53846154 , 2044.0 , 2036.0 , 109.984 , 0.0 , 0.0 , 0.0 , 0.0 , 

59.0 , 4129.23076923 , 4133.33333333 , 4137.94871795 , 4131.79487179 , 4131.79487179 , 4131.28205128 , 4126.66666667 , 4134.87179487 , 4137.94871795 , 4138.46153846 , 4193.33333333 , 4910.25641026 , 4136.92307692 , 4141.53846154 , 2043.0 , 2035.0 , 109.992 , 0.0 , 0.0 , 0.0 , 0.0 , 

60.0 , 4132.30769231 , 4131.79487179 , 4135.8974359 , 4135.8974359 , 4130.76923077 , 4128.20512821 , 4125.64102564 , 4131.79487179 , 4134.87179487 , 4138.46153846 , 4193.33333333 , 4914.87179487 , 4137.43589744 , 4140.51282051 , 2044.0 , 2037.0 , 109.999 , 0.0 , 0.0 , 0.0 , 0.0 , 

61.0 , 4134.35897436 , 4132.30769231 , 4132.82051282 , 4133.84615385 , 4131.79487179 , 4128.71794872 , 4126.15384615 , 4132.82051282 , 4133.84615385 , 4138.97435897 , 4192.82051282 , 4916.41025641 , 4135.38461538 , 4135.8974359 , 2045.0 , 2037.0 , 110.008 , 0.0 , 0.0 , 0.0 , 0.0 , 

62.0 , 4131.28205128 , 4132.82051282 , 4133.33333333 , 4134.35897436 , 4129.74358974 , 4129.74358974 , 4128.20512821 , 4132.82051282 , 4134.87179487 , 4138.46153846 , 4192.82051282 , 4912.30769231 , 4134.87179487 , 4133.33333333 , 2044.0 , 2037.0 , 110.015 , 0.0 , 0.0 , 0.0 , 0.0 , 

63.0 , 4132.30769231 , 4130.25641026 , 4136.92307692 , 4138.97435897 , 4128.20512821 , 4128.71794872 , 4128.20512821 , 4129.74358974 , 4135.38461538 , 4138.46153846 , 4194.87179487 , 4913.33333333 , 4134.87179487 , 4135.38461538 , 2043.0 , 2035.0 , 110.023 , 0.0 , 0.0 , 0.0 , 0.0 , 

64.0 , 4134.35897436 , 4130.76923077 , 4135.38461538 , 4136.92307692 , 4129.74358974 , 4129.74358974 , 4127.17948718 , 4132.30769231 , 4136.41025641 , 4139.48717949 , 4193.33333333 , 4913.84615385 , 4134.87179487 , 4137.43589744 , 2042.0 , 2036.0 , 110.032 , 0.0 , 0.0 , 0.0 , 0.0 , 

65.0 , 4135.38461538 , 4132.82051282 , 4132.82051282 , 4131.28205128 , 4129.74358974 , 4130.25641026 , 4126.15384615 , 4134.35897436 , 4136.92307692 , 4138.97435897 , 4189.74358974 , 4912.82051282 , 4132.82051282 , 4139.48717949 , 2041.0 , 2035.0 , 110.04 , 0.0 , 0.0 , 0.0 , 0.0 , 

66.0 , 4135.8974359 , 4130.76923077 , 4134.35897436 , 4134.35897436 , 4130.76923077 , 4129.23076923 , 4126.66666667 , 4132.30769231 , 4135.8974359 , 4137.43589744 , 4191.28205128 , 4911.79487179 , 4135.38461538 , 4138.97435897 , 2041.0 , 2038.0 , 110.047 , 0.0 , 0.0 , 0.0 , 0.0 , 

67.0 , 4134.87179487 , 4129.74358974 , 4137.43589744 , 4137.94871795 , 4133.33333333 , 4127.69230769 , 4128.20512821 , 4130.76923077 , 4133.84615385 , 4138.46153846 , 4193.84615385 , 4913.33333333 , 4138.97435897 , 4141.53846154 , 2041.0 , 2038.0 , 110.055 , 0.0 , 0.0 , 0.0 , 0.0 , 

68.0 , 4130.76923077 , 4131.79487179 , 4135.38461538 , 4136.41025641 , 4131.28205128 , 4129.23076923 , 4130.25641026 , 4133.33333333 , 4135.38461538 , 4140.0 , 4192.82051282 , 4911.28205128 , 4140.51282051 , 4138.97435897 , 2042.0 , 2038.0 , 110.062 , 0.0 , 0.0 , 0.0 , 0.0 , 

69.0 , 4134.35897436 , 4130.76923077 , 4135.38461538 , 4135.38461538 , 4129.74358974 , 4128.20512821 , 4128.71794872 , 4134.87179487 , 4136.92307692 , 4138.46153846 , 4192.30769231 , 4913.33333333 , 4136.41025641 , 4142.56410256 , 2041.0 , 2038.0 , 110.071 , 0.0 , 0.0 , 0.0 , 0.0 , 

70.0 , 4134.87179487 , 4128.20512821 , 4136.41025641 , 4136.41025641 , 4132.30769231 , 4127.69230769 , 4128.20512821 , 4134.87179487 , 4137.43589744 , 4137.43589744 , 4192.82051282 , 4910.25641026 , 4134.35897436 , 4139.48717949 , 2041.0 , 2036.0 , 110.079 , 0.0 , 0.0 , 0.0 , 0.0 , 

71.0 , 4131.28205128 , 4130.25641026 , 4137.94871795 , 4134.35897436 , 4131.28205128 , 4127.69230769 , 4123.58974359 , 4133.84615385 , 4135.38461538 , 4140.0 , 4192.30769231 , 4908.71794872 , 4135.38461538 , 4137.94871795 , 2041.0 , 2036.0 , 110.087 , 0.0 , 0.0 , 0.0 , 0.0 , 

72.0 , 4129.23076923 , 4133.84615385 , 4137.94871795 , 4135.8974359 , 4130.25641026 , 4129.74358974 , 4121.53846154 , 4135.38461538 , 4135.38461538 , 4142.05128205 , 4192.30769231 , 4911.79487179 , 4136.41025641 , 4136.92307692 , 2043.0 , 2036.0 , 110.094 , 0.0 , 0.0 , 0.0 , 0.0 , 

73.0 , 4136.41025641 , 4130.76923077 , 4135.38461538 , 4135.8974359 , 4130.76923077 , 4128.71794872 , 4125.64102564 , 4136.41025641 , 4137.43589744 , 4141.02564103 , 4193.33333333 , 4915.38461538 , 4136.41025641 , 4142.05128205 , 2041.0 , 2036.0 , 110.102 , 0.0 , 0.0 , 0.0 , 0.0 , 

74.0 , 4136.41025641 , 4130.25641026 , 4132.82051282 , 4134.87179487 , 4131.28205128 , 4127.69230769 , 4128.20512821 , 4136.41025641 , 4138.97435897 , 4139.48717949 , 4192.30769231 , 4914.87179487 , 4135.8974359 , 4141.02564103 , 2043.0 , 2035.0 , 110.109 , 0.0 , 0.0 , 0.0 , 0.0 , 

75.0 , 4133.33333333 , 4132.82051282 , 4137.43589744 , 4132.82051282 , 4130.25641026 , 4127.17948718 , 4125.12820513 , 4133.84615385 , 4136.92307692 , 4138.97435897 , 4191.79487179 , 4916.41025641 , 4135.38461538 , 4141.53846154 , 2044.0 , 2035.0 , 110.118 , 0.0 , 0.0 , 0.0 , 0.0 , 

76.0 , 4133.33333333 , 4131.79487179 , 4138.46153846 , 4135.38461538 , 4131.79487179 , 4128.71794872 , 4128.20512821 , 4134.87179487 , 4134.35897436 , 4137.94871795 , 4193.33333333 , 4914.87179487 , 4133.33333333 , 4139.48717949 , 2043.0 , 2034.0 , 110.125 , 0.0 , 0.0 , 0.0 , 0.0 , 

77.0 , 4136.92307692 , 4128.20512821 , 4135.8974359 , 4136.92307692 , 4131.28205128 , 4129.23076923 , 4131.79487179 , 4136.41025641 , 4136.41025641 , 4137.94871795 , 4194.35897436 , 4911.79487179 , 4136.41025641 , 4136.92307692 , 2044.0 , 2035.0 , 110.133 , 0.0 , 0.0 , 0.0 , 0.0 , 

78.0 , 4135.8974359 , 4127.69230769 , 4133.84615385 , 4134.35897436 , 4130.25641026 , 4129.74358974 , 4129.23076923 , 4133.84615385 , 4139.48717949 , 4138.46153846 , 4192.30769231 , 4911.28205128 , 4137.94871795 , 4135.8974359 , 2043.0 , 2034.0 , 110.142 , 0.0 , 0.0 , 0.0 , 0.0 , 

79.0 , 4133.84615385 , 4129.23076923 , 4133.84615385 , 4132.30769231 , 4130.76923077 , 4129.23076923 , 4127.69230769 , 4132.30769231 , 4135.8974359 , 4138.97435897 , 4190.76923077 , 4913.33333333 , 4135.38461538 , 4136.92307692 , 2042.0 , 2035.0 , 110.15 , 0.0 , 0.0 , 0.0 , 0.0 , 

80.0 , 4134.35897436 , 4129.74358974 , 4137.94871795 , 4134.87179487 , 4132.30769231 , 4130.25641026 , 4130.25641026 , 4133.33333333 , 4133.84615385 , 4138.97435897 , 4192.82051282 , 4913.84615385 , 4133.33333333 , 4137.94871795 , 2044.0 , 2036.0 , 110.157 , 0.0 , 0.0 , 0.0 , 0.0 , 

81.0 , 4133.84615385 , 4129.23076923 , 4140.51282051 , 4135.38461538 , 4132.82051282 , 4129.74358974 , 4128.71794872 , 4132.82051282 , 4135.38461538 , 4138.97435897 , 4193.84615385 , 4913.84615385 , 4136.41025641 , 4137.43589744 , 2043.0 , 2035.0 , 110.166 , 0.0 , 0.0 , 0.0 , 0.0 , 

82.0 , 4133.33333333 , 4127.69230769 , 4141.53846154 , 4130.76923077 , 4131.79487179 , 4130.25641026 , 4125.64102564 , 4129.23076923 , 4135.8974359 , 4138.46153846 , 4193.33333333 , 4914.35897436 , 4136.92307692 , 4140.0 , 2042.0 , 2035.0 , 110.173 , 0.0 , 0.0 , 0.0 , 0.0 , 

83.0 , 4134.35897436 , 4129.23076923 , 4141.53846154 , 4131.28205128 , 4131.28205128 , 4131.79487179 , 4126.66666667 , 4131.79487179 , 4136.41025641 , 4139.48717949 , 4192.82051282 , 4913.33333333 , 4135.38461538 , 4142.05128205 , 2043.0 , 2037.0 , 110.181 , 0.0 , 0.0 , 0.0 , 0.0 , 

84.0 , 4136.41025641 , 4128.71794872 , 4142.56410256 , 4131.79487179 , 4129.74358974 , 4129.74358974 , 4126.66666667 , 4133.84615385 , 4136.92307692 , 4140.51282051 , 4193.33333333 , 4913.84615385 , 4135.8974359 , 4144.1025641 , 2043.0 , 2037.0 , 110.189 , 0.0 , 0.0 , 0.0 , 0.0 , 

85.0 , 4136.41025641 , 4126.66666667 , 4141.02564103 , 4131.79487179 , 4130.25641026 , 4130.25641026 , 4127.17948718 , 4131.28205128 , 4136.41025641 , 4140.51282051 , 4191.79487179 , 4911.79487179 , 4135.8974359 , 4138.46153846 , 2042.0 , 2035.0 , 110.197 , 0.0 , 0.0 , 0.0 , 0.0 , 

86.0 , 4137.43589744 , 4126.66666667 , 4141.02564103 , 4131.79487179 , 4130.76923077 , 4131.79487179 , 4127.69230769 , 4130.25641026 , 4135.38461538 , 4140.0 , 4190.25641026 , 4912.82051282 , 4133.84615385 , 4138.97435897 , 2044.0 , 2036.0 , 110.204 , 0.0 , 0.0 , 0.0 , 0.0 , 

87.0 , 4132.82051282 , 4130.25641026 , 4139.48717949 , 4132.82051282 , 4131.79487179 , 4130.25641026 , 4128.20512821 , 4132.82051282 , 4137.43589744 , 4139.48717949 , 4191.79487179 , 4912.82051282 , 4133.84615385 , 4139.48717949 , 2044.0 , 2037.0 , 110.212 , 0.0 , 0.0 , 0.0 , 0.0 , 

88.0 , 4130.76923077 , 4129.74358974 , 4137.43589744 , 4131.79487179 , 4129.74358974 , 4126.15384615 , 4126.66666667 , 4133.33333333 , 4136.41025641 , 4138.97435897 , 4193.84615385 , 4916.41025641 , 4135.38461538 , 4142.05128205 , 2044.0 , 2038.0 , 110.221 , 0.0 , 0.0 , 0.0 , 0.0 , 

89.0 , 4132.82051282 , 4129.23076923 , 4133.84615385 , 4131.79487179 , 4130.76923077 , 4128.71794872 , 4128.71794872 , 4133.84615385 , 4136.41025641 , 4139.48717949 , 4193.33333333 , 4913.33333333 , 4136.41025641 , 4138.46153846 , 2043.0 , 2037.0 , 110.228 , 0.0 , 0.0 , 0.0 , 0.0 , 

90.0 , 4135.8974359 , 4133.33333333 , 4133.33333333 , 4133.33333333 , 4131.79487179 , 4129.74358974 , 4128.20512821 , 4133.84615385 , 4135.8974359 , 4141.02564103 , 4193.84615385 , 4911.28205128 , 4134.87179487 , 4142.05128205 , 2043.0 , 2037.0 , 110.237 , 0.0 , 0.0 , 0.0 , 0.0 , 

91.0 , 4132.82051282 , 4133.84615385 , 4133.84615385 , 4134.35897436 , 4130.76923077 , 4129.23076923 , 4127.69230769 , 4134.87179487 , 4136.41025641 , 4138.97435897 , 4192.82051282 , 4910.25641026 , 4133.84615385 , 4138.46153846 , 2043.0 , 2038.0 , 110.245 , 0.0 , 0.0 , 0.0 , 0.0 , 

92.0 , 4136.41025641 , 4128.71794872 , 4133.84615385 , 4133.33333333 , 4128.71794872 , 4128.71794872 , 4127.69230769 , 4136.41025641 , 4138.97435897 , 4136.92307692 , 4192.30769231 , 4912.30769231 , 4135.8974359 , 4137.43589744 , 2042.0 , 2037.0 , 110.252 , 0.0 , 0.0 , 0.0 , 0.0 , 

93.0 , 4137.94871795 , 4128.20512821 , 4131.79487179 , 4134.35897436 , 4129.23076923 , 4129.23076923 , 4127.69230769 , 4136.41025641 , 4138.46153846 , 4137.94871795 , 4192.82051282 , 4910.25641026 , 4136.41025641 , 4137.94871795 , 2043.0 , 2037.0 , 110.26 , 0.0 , 0.0 , 0.0 , 0.0 , 

94.0 , 4133.33333333 , 4132.82051282 , 4133.84615385 , 4135.8974359 , 4131.28205128 , 4128.71794872 , 4125.64102564 , 4132.82051282 , 4137.43589744 , 4136.92307692 , 4192.82051282 , 4910.25641026 , 4136.92307692 , 4141.53846154 , 2043.0 , 2037.0 , 110.268 , 0.0 , 0.0 , 0.0 , 0.0 , 

95.0 , 4131.79487179 , 4134.87179487 , 4136.92307692 , 4133.84615385 , 4131.28205128 , 4130.76923077 , 4127.17948718 , 4134.35897436 , 4138.97435897 , 4136.92307692 , 4193.33333333 , 4911.28205128 , 4137.94871795 , 4138.46153846 , 2045.0 , 2037.0 , 110.275 , 0.0 , 0.0 , 0.0 , 0.0 , 

96.0 , 4135.38461538 , 4131.28205128 , 4137.43589744 , 4129.74358974 , 4129.23076923 , 4131.79487179 , 4128.20512821 , 4134.87179487 , 4138.46153846 , 4137.43589744 , 4193.84615385 , 4911.79487179 , 4137.94871795 , 4137.94871795 , 2045.0 , 2036.0 , 110.283 , 0.0 , 0.0 , 0.0 , 0.0 , 

97.0 , 4132.82051282 , 4128.71794872 , 4136.92307692 , 4132.30769231 , 4128.20512821 , 4132.82051282 , 4125.12820513 , 4132.82051282 , 4134.87179487 , 4137.43589744 , 4192.82051282 , 4910.76923077 , 4136.41025641 , 4140.51282051 , 2045.0 , 2036.0 , 110.291 , 0.0 , 0.0 , 0.0 , 0.0 , 

98.0 , 4131.79487179 , 4127.17948718 , 4138.46153846 , 4133.33333333 , 4129.23076923 , 4131.28205128 , 4125.64102564 , 4132.82051282 , 4137.43589744 , 4138.46153846 , 4192.30769231 , 4911.79487179 , 4135.38461538 , 4143.58974359 , 2043.0 , 2036.0 , 110.299 , 0.0 , 0.0 , 0.0 , 0.0 , 

99.0 , 4134.87179487 , 4127.17948718 , 4138.97435897 , 4128.71794872 , 4130.25641026 , 4128.20512821 , 4129.23076923 , 4133.33333333 , 4139.48717949 , 4138.46153846 , 4192.82051282 , 4914.87179487 , 4132.82051282 , 4145.12820513 , 2043.0 , 2036.0 , 110.308 , 0.0 , 0.0 , 0.0 , 0.0 , 

100.0 , 4134.87179487 , 4129.23076923 , 4135.8974359 , 4130.25641026 , 4130.76923077 , 4130.25641026 , 4127.69230769 , 4133.33333333 , 4137.43589744 , 4138.46153846 , 4192.82051282 , 4915.8974359 , 4134.35897436 , 4142.05128205 , 2044.0 , 2036.0 , 110.315 , 0.0 , 0.0 , 0.0 , 0.0 , 

101.0 , 4136.92307692 , 4129.74358974 , 4134.35897436 , 4134.35897436 , 4132.30769231 , 4131.79487179 , 4124.61538462 , 4132.30769231 , 4136.92307692 , 4138.97435897 , 4192.30769231 , 4914.35897436 , 4137.94871795 , 4141.53846154 , 2043.0 , 2037.0 , 110.324 , 0.0 , 0.0 , 0.0 , 0.0 , 

102.0 , 4134.87179487 , 4127.17948718 , 4134.87179487 , 4133.33333333 , 4131.79487179 , 4129.74358974 , 4126.66666667 , 4133.33333333 , 4138.46153846 , 4139.48717949 , 4191.28205128 , 4911.28205128 , 4135.8974359 , 4140.0 , 2044.0 , 2036.0 , 110.33 , 0.0 , 0.0 , 0.0 , 0.0 , 

103.0 , 4132.82051282 , 4127.69230769 , 4136.41025641 , 4130.76923077 , 4130.76923077 , 4127.69230769 , 4127.69230769 , 4131.79487179 , 4137.94871795 , 4137.43589744 , 4191.79487179 , 4912.82051282 , 4133.33333333 , 4141.53846154 , 2044.0 , 2034.0 , 110.339 , 0.0 , 0.0 , 0.0 , 0.0 , 

104.0 , 4131.79487179 , 4131.79487179 , 4134.35897436 , 4133.33333333 , 4131.28205128 , 4130.76923077 , 4129.23076923 , 4132.82051282 , 4135.38461538 , 4136.41025641 , 4192.82051282 , 4912.30769231 , 4135.38461538 , 4136.41025641 , 2043.0 , 2035.0 , 110.346 , 0.0 , 0.0 , 0.0 , 0.0 , 

105.0 , 4133.84615385 , 4130.76923077 , 4132.82051282 , 4132.82051282 , 4129.74358974 , 4128.71794872 , 4128.71794872 , 4132.82051282 , 4134.35897436 , 4138.46153846 , 4192.82051282 , 4913.33333333 , 4135.8974359 , 4135.38461538 , 2042.0 , 2035.0 , 110.354 , 0.0 , 0.0 , 0.0 , 0.0 , 

106.0 , 4130.76923077 , 4128.71794872 , 4133.84615385 , 4132.82051282 , 4129.23076923 , 4127.69230769 , 4128.20512821 , 4133.33333333 , 4136.41025641 , 4141.02564103 , 4190.76923077 , 4912.82051282 , 4133.84615385 , 4133.84615385 , 2042.0 , 2037.0 , 110.362 , 0.0 , 0.0 , 0.0 , 0.0 , 

107.0 , 4133.84615385 , 4129.23076923 , 4136.92307692 , 4134.87179487 , 4127.69230769 , 4128.20512821 , 4126.15384615 , 4134.35897436 , 4136.41025641 , 4138.46153846 , 4192.30769231 , 4911.79487179 , 4134.35897436 , 4139.48717949 , 2042.0 , 2035.0 , 110.37 , 0.0 , 0.0 , 0.0 , 0.0 , 

108.0 , 4136.41025641 , 4128.71794872 , 4135.8974359 , 4136.41025641 , 4126.15384615 , 4130.25641026 , 4127.69230769 , 4136.41025641 , 4136.41025641 , 4136.92307692 , 4194.35897436 , 4907.69230769 , 4135.38461538 , 4138.97435897 , 2042.0 , 2035.0 , 110.379 , 0.0 , 0.0 , 0.0 , 0.0 , 

109.0 , 4135.38461538 , 4128.20512821 , 4134.87179487 , 4133.84615385 , 4128.71794872 , 4128.20512821 , 4127.69230769 , 4133.84615385 , 4136.41025641 , 4140.0 , 4194.87179487 , 4910.25641026 , 4134.35897436 , 4141.02564103 , 2042.0 , 2036.0 , 110.388 , 0.0 , 0.0 , 0.0 , 0.0 , 

110.0 , 4132.82051282 , 4132.82051282 , 4134.35897436 , 4132.30769231 , 4131.28205128 , 4128.20512821 , 4127.69230769 , 4132.30769231 , 4136.41025641 , 4141.02564103 , 4192.82051282 , 4912.82051282 , 4134.87179487 , 4140.0 , 2042.0 , 2035.0 , 110.393 , 0.0 , 0.0 , 0.0 , 0.0 , 

111.0 , 4134.87179487 , 4130.76923077 , 4133.84615385 , 4132.30769231 , 4129.23076923 , 4128.71794872 , 4125.12820513 , 4132.82051282 , 4133.84615385 , 4138.46153846 , 4191.79487179 , 4913.33333333 , 4136.92307692 , 4143.07692308 , 2043.0 , 2036.0 , 110.401 , 0.0 , 0.0 , 0.0 , 0.0 , 

112.0 , 4135.38461538 , 4128.20512821 , 4134.87179487 , 4135.8974359 , 4129.23076923 , 4130.25641026 , 4124.61538462 , 4133.84615385 , 4135.8974359 , 4137.94871795 , 4191.79487179 , 4913.84615385 , 4136.41025641 , 4141.53846154 , 2042.0 , 2034.0 , 110.409 , 0.0 , 0.0 , 0.0 , 0.0 , 

113.0 , 4132.30769231 , 4131.79487179 , 4136.41025641 , 4136.92307692 , 4131.79487179 , 4132.82051282 , 4128.20512821 , 4132.30769231 , 4138.97435897 , 4138.97435897 , 4193.33333333 , 4916.41025641 , 4135.8974359 , 4140.51282051 , 2043.0 , 2033.0 , 110.418 , 0.0 , 0.0 , 0.0 , 0.0 , 

114.0 , 4130.76923077 , 4129.74358974 , 4134.35897436 , 4134.87179487 , 4131.28205128 , 4133.84615385 , 4128.20512821 , 4133.33333333 , 4136.41025641 , 4138.97435897 , 4193.84615385 , 4913.84615385 , 4137.43589744 , 4140.51282051 , 2043.0 , 2035.0 , 110.425 , 0.0 , 0.0 , 0.0 , 0.0 , 

115.0 , 4134.35897436 , 4125.64102564 , 4135.38461538 , 4132.82051282 , 4129.74358974 , 4129.74358974 , 4123.07692308 , 4133.84615385 , 4131.28205128 , 4140.0 , 4193.33333333 , 4912.30769231 , 4135.38461538 , 4141.53846154 , 2042.0 , 2033.0 , 110.433 , 0.0 , 0.0 , 0.0 , 0.0 , 

116.0 , 4132.82051282 , 4129.23076923 , 4139.48717949 , 4131.28205128 , 4129.74358974 , 4127.69230769 , 4123.58974359 , 4135.38461538 , 4132.82051282 , 4140.0 , 4193.33333333 , 4912.82051282 , 4131.79487179 , 4140.0 , 2042.0 , 2034.0 , 110.441 , 0.0 , 0.0 , 0.0 , 0.0 , 

117.0 , 4130.25641026 , 4132.30769231 , 4138.97435897 , 4130.76923077 , 4129.74358974 , 4128.71794872 , 4126.66666667 , 4136.41025641 , 4136.92307692 , 4138.46153846 , 4193.84615385 , 4912.30769231 , 4133.84615385 , 4138.97435897 , 2042.0 , 2035.0 , 110.45 , 0.0 , 0.0 , 0.0 , 0.0 , 

118.0 , 4132.30769231 , 4128.20512821 , 4136.92307692 , 4130.76923077 , 4130.76923077 , 4129.23076923 , 4126.66666667 , 4131.79487179 , 4133.84615385 , 4138.97435897 , 4193.33333333 , 4911.79487179 , 4134.35897436 , 4140.51282051 , 2042.0 , 2032.0 , 110.457 , 0.0 , 0.0 , 0.0 , 0.0 , 

119.0 , 4130.25641026 , 4128.20512821 , 4136.92307692 , 4132.82051282 , 4130.76923077 , 4128.71794872 , 4127.17948718 , 4130.76923077 , 4133.84615385 , 4138.97435897 , 4192.30769231 , 4913.84615385 , 4133.33333333 , 4139.48717949 , 2043.0 , 2035.0 , 110.465 , 0.0 , 0.0 , 0.0 , 0.0 , 

120.0 , 4127.69230769 , 4128.71794872 , 4135.8974359 , 4133.84615385 , 4128.71794872 , 4128.20512821 , 4127.69230769 , 4132.82051282 , 4137.43589744 , 4138.46153846 , 4191.79487179 , 4917.43589744 , 4133.84615385 , 4140.0 , 2043.0 , 2036.0 , 110.472 , 0.0 , 0.0 , 0.0 , 0.0 , 

121.0 , 4130.25641026 , 4127.69230769 , 4135.38461538 , 4132.30769231 , 4130.76923077 , 4128.20512821 , 4127.17948718 , 4133.84615385 , 4138.97435897 , 4137.43589744 , 4191.28205128 , 4911.28205128 , 4135.38461538 , 4138.46153846 , 2044.0 , 2035.0 , 110.481 , 0.0 , 0.0 , 0.0 , 0.0 , 

122.0 , 4134.87179487 , 4127.17948718 , 4140.0 , 4130.25641026 , 4131.79487179 , 4128.20512821 , 4126.15384615 , 4131.28205128 , 4138.46153846 , 4137.43589744 , 4191.79487179 , 4908.71794872 , 4133.84615385 , 4138.46153846 , 2043.0 , 2036.0 , 110.489 , 0.0 , 0.0 , 0.0 , 0.0 , 

123.0 , 4130.25641026 , 4127.17948718 , 4138.46153846 , 4131.28205128 , 4129.74358974 , 4130.76923077 , 4127.17948718 , 4131.28205128 , 4138.46153846 , 4138.97435897 , 4191.79487179 , 4910.76923077 , 4134.35897436 , 4136.41025641 , 2043.0 , 2035.0 , 110.496 , 0.0 , 0.0 , 0.0 , 0.0 , 

124.0 , 4129.74358974 , 4126.66666667 , 4136.92307692 , 4129.23076923 , 4129.23076923 , 4127.69230769 , 4126.15384615 , 4130.25641026 , 4137.43589744 , 4138.46153846 , 4190.76923077 , 4913.33333333 , 4133.84615385 , 4142.05128205 , 2043.0 , 2036.0 , 110.504 , 0.0 , 0.0 , 0.0 , 0.0 , 

125.0 , 4131.79487179 , 4128.20512821 , 4140.0 , 4128.71794872 , 4131.28205128 , 4126.15384615 , 4127.69230769 , 4131.79487179 , 4136.92307692 , 4138.46153846 , 4191.28205128 , 4911.28205128 , 4133.33333333 , 4141.02564103 , 2043.0 , 2035.0 , 110.513 , 0.0 , 0.0 , 0.0 , 0.0 , 

126.0 , 4135.8974359 , 4129.23076923 , 4142.05128205 , 4131.28205128 , 4130.76923077 , 4126.15384615 , 4128.20512821 , 4131.79487179 , 4135.38461538 , 4140.51282051 , 4194.35897436 , 4913.84615385 , 4134.35897436 , 4142.05128205 , 2044.0 , 2036.0 , 110.52 , 0.0 , 0.0 , 0.0 , 0.0 , 

127.0 , 4132.82051282 , 4129.74358974 , 4137.43589744 , 4132.30769231 , 4130.25641026 , 4126.66666667 , 4127.17948718 , 4131.79487179 , 4135.38461538 , 4139.48717949 , 4195.8974359 , 4916.41025641 , 4134.87179487 , 4141.53846154 , 2043.0 , 2036.0 , 110.529 , 0.0 , 0.0 , 0.0 , 0.0 , 

128.0 , 4131.28205128 , 4128.20512821 , 4138.46153846 , 4128.20512821 , 4131.28205128 , 4125.64102564 , 4123.07692308 , 4133.33333333 , 4135.38461538 , 4137.43589744 , 4193.84615385 , 4917.43589744 , 4135.38461538 , 4144.61538462 , 2043.0 , 2036.0 , 110.535 , 0.0 , 0.0 , 0.0 , 0.0 , 

0.0 , 4131.79487179 , 4131.79487179 , 4141.02564103 , 4128.20512821 , 4131.28205128 , 4129.23076923 , 4123.58974359 , 4135.38461538 , 4135.38461538 , 4138.46153846 , 4190.76923077 , 4913.84615385 , 4136.41025641 , 4139.48717949 , 2043.0 , 2036.0 , 110.544 , 0.0 , 0.0 , 0.0 , 0.0 , 

1.0 , 4133.33333333 , 4134.87179487 , 4136.41025641 , 4132.30769231 , 4129.74358974 , 4133.33333333 , 4127.17948718 , 4132.82051282 , 4135.8974359 , 4138.97435897 , 4191.28205128 , 4915.38461538 , 4135.38461538 , 4140.0 , 2045.0 , 2038.0 , 110.551 , 0.0 , 0.0 , 0.0 , 0.0 , 

2.0 , 4130.76923077 , 4130.76923077 , 4133.84615385 , 4134.87179487 , 4130.76923077 , 4132.30769231 , 4126.66666667 , 4134.35897436 , 4136.92307692 , 4137.43589744 , 4192.82051282 , 4915.38461538 , 4133.84615385 , 4140.51282051 , 2044.0 , 2038.0 , 110.559 , 0.0 , 0.0 , 0.0 , 0.0 , 

3.0 , 4132.82051282 , 4126.66666667 , 4137.43589744 , 4132.82051282 , 4131.28205128 , 4128.20512821 , 4123.58974359 , 4134.35897436 , 4136.92307692 , 4138.46153846 , 4192.30769231 , 4913.33333333 , 4134.35897436 , 4136.92307692 , 2044.0 , 2038.0 , 110.567 , 0.0 , 0.0 , 0.0 , 0.0 , 

4.0 , 4135.38461538 , 4128.71794872 , 4135.8974359 , 4131.28205128 , 4130.76923077 , 4129.23076923 , 4128.20512821 , 4133.33333333 , 4135.8974359 , 4140.0 , 4189.74358974 , 4914.35897436 , 4135.38461538 , 4135.38461538 , 2043.0 , 2039.0 , 110.575 , 0.0 , 0.0 , 0.0 , 0.0 , 

5.0 , 4133.84615385 , 4130.76923077 , 4133.33333333 , 4132.30769231 , 4131.28205128 , 4129.74358974 , 4129.23076923 , 4133.84615385 , 4135.38461538 , 4137.94871795 , 4192.30769231 , 4916.92307692 , 4135.38461538 , 4142.05128205 , 2042.0 , 2038.0 , 110.583 , 0.0 , 0.0 , 0.0 , 0.0 , 

6.0 , 4130.76923077 , 4130.25641026 , 4136.92307692 , 4132.30769231 , 4132.30769231 , 4128.20512821 , 4124.1025641 , 4132.30769231 , 4134.87179487 , 4136.41025641 , 4193.33333333 , 4913.84615385 , 4133.84615385 , 4141.53846154 , 2042.0 , 2038.0 , 110.591 , 0.0 , 0.0 , 0.0 , 0.0 , 

7.0 , 4130.25641026 , 4130.25641026 , 4137.94871795 , 4131.28205128 , 4130.76923077 , 4126.66666667 , 4124.1025641 , 4129.74358974 , 4135.8974359 , 4138.46153846 , 4190.76923077 , 4909.23076923 , 4134.35897436 , 4136.41025641 , 2043.0 , 2038.0 , 110.598 , 0.0 , 0.0 , 0.0 , 0.0 , 

8.0 , 4132.82051282 , 4131.28205128 , 4135.38461538 , 4132.82051282 , 4130.25641026 , 4127.69230769 , 4128.20512821 , 4130.25641026 , 4135.38461538 , 4140.0 , 4191.28205128 , 4910.76923077 , 4135.38461538 , 4141.02564103 , 2041.0 , 2038.0 , 110.606 , 0.0 , 0.0 , 0.0 , 0.0 , 

9.0 , 4132.82051282 , 4132.30769231 , 4135.38461538 , 4133.84615385 , 4130.76923077 , 4128.20512821 , 4129.23076923 , 4132.30769231 , 4134.35897436 , 4138.97435897 , 4192.30769231 , 4913.33333333 , 4136.92307692 , 4144.61538462 , 2042.0 , 2038.0 , 110.614 , 0.0 , 0.0 , 0.0 , 0.0 , 

10.0 , 4132.82051282 , 4131.28205128 , 4135.38461538 , 4131.28205128 , 4129.23076923 , 4126.66666667 , 4124.61538462 , 4131.28205128 , 4134.87179487 , 4138.46153846 , 4192.82051282 , 4915.38461538 , 4136.92307692 , 4145.12820513 , 2042.0 , 2038.0 , 110.623 , 0.0 , 0.0 , 0.0 , 0.0 , 

11.0 , 4131.28205128 , 4131.79487179 , 4134.35897436 , 4132.82051282 , 4129.23076923 , 4127.17948718 , 4121.02564103 , 4134.35897436 , 4136.41025641 , 4138.97435897 , 4194.35897436 , 4911.79487179 , 4136.41025641 , 4142.56410256 , 2043.0 , 2038.0 , 110.63 , 0.0 , 0.0 , 0.0 , 0.0 , 

12.0 , 4134.87179487 , 4131.28205128 , 4136.41025641 , 4133.84615385 , 4129.23076923 , 4128.20512821 , 4121.02564103 , 4133.33333333 , 4134.35897436 , 4138.46153846 , 4193.84615385 , 4912.82051282 , 4133.84615385 , 4143.58974359 , 2043.0 , 2039.0 , 110.639 , 0.0 , 0.0 , 0.0 , 0.0 , 

13.0 , 4132.82051282 , 4131.79487179 , 4133.33333333 , 4134.35897436 , 4129.74358974 , 4129.23076923 , 4125.64102564 , 4130.25641026 , 4133.33333333 , 4138.46153846 , 4191.79487179 , 4914.35897436 , 4134.35897436 , 4139.48717949 , 2044.0 , 2037.0 , 110.647 , 0.0 , 0.0 , 0.0 , 0.0 , 

14.0 , 4131.79487179 , 4134.35897436 , 4130.76923077 , 4132.82051282 , 4130.25641026 , 4126.15384615 , 4126.66666667 , 4131.28205128 , 4135.8974359 , 4138.46153846 , 4194.35897436 , 4915.8974359 , 4136.41025641 , 4142.05128205 , 2043.0 , 2038.0 , 110.654 , 0.0 , 0.0 , 0.0 , 0.0 , 

15.0 , 4131.79487179 , 4134.35897436 , 4131.79487179 , 4133.84615385 , 4131.79487179 , 4129.23076923 , 4126.66666667 , 4133.84615385 , 4136.92307692 , 4137.94871795 , 4194.87179487 , 4914.35897436 , 4134.87179487 , 4140.0 , 2043.0 , 2038.0 , 110.661 , 0.0 , 0.0 , 0.0 , 0.0 , 

16.0 , 4135.38461538 , 4129.74358974 , 4133.84615385 , 4132.82051282 , 4131.79487179 , 4130.25641026 , 4125.12820513 , 4131.79487179 , 4135.38461538 , 4138.97435897 , 4191.79487179 , 4917.43589744 , 4132.30769231 , 4141.02564103 , 2044.0 , 2036.0 , 110.671 , 0.0 , 0.0 , 0.0 , 0.0 , 

17.0 , 4134.87179487 , 4131.28205128 , 4132.82051282 , 4133.84615385 , 4130.76923077 , 4126.66666667 , 4127.17948718 , 4132.82051282 , 4137.43589744 , 4140.0 , 4192.30769231 , 4916.41025641 , 4132.82051282 , 4139.48717949 , 2044.0 , 2034.0 , 110.677 , 0.0 , 0.0 , 0.0 , 0.0 , 

18.0 , 4135.38461538 , 4134.35897436 , 4132.82051282 , 4133.84615385 , 4131.28205128 , 4124.1025641 , 4129.23076923 , 4134.35897436 , 4136.92307692 , 4138.46153846 , 4194.35897436 , 4916.41025641 , 4132.82051282 , 4141.02564103 , 2044.0 , 2035.0 , 110.685 , 0.0 , 0.0 , 0.0 , 0.0 , 

19.0 , 4133.33333333 , 4130.76923077 , 4134.35897436 , 4134.87179487 , 4131.79487179 , 4127.17948718 , 4128.20512821 , 4134.35897436 , 4134.87179487 , 4136.92307692 , 4191.79487179 , 4914.87179487 , 4132.82051282 , 4137.94871795 , 2044.0 , 2035.0 , 110.693 , 0.0 , 0.0 , 0.0 , 0.0 , 

20.0 , 4132.82051282 , 4128.20512821 , 4134.35897436 , 4134.35897436 , 4128.71794872 , 4129.23076923 , 4125.12820513 , 4132.82051282 , 4135.8974359 , 4138.97435897 , 4191.79487179 , 4911.28205128 , 4135.38461538 , 4138.97435897 , 2044.0 , 2035.0 , 110.702 , 0.0 , 0.0 , 0.0 , 0.0 , 

21.0 , 4131.79487179 , 4131.28205128 , 4133.33333333 , 4131.28205128 , 4128.71794872 , 4129.74358974 , 4127.17948718 , 4134.35897436 , 4137.43589744 , 4140.0 , 4193.33333333 , 4909.23076923 , 4136.41025641 , 4140.0 , 2044.0 , 2035.0 , 110.71 , 0.0 , 0.0 , 0.0 , 0.0 , 

22.0 , 4132.30769231 , 4132.82051282 , 4132.82051282 , 4131.79487179 , 4132.30769231 , 4128.71794872 , 4128.20512821 , 4135.8974359 , 4138.46153846 , 4138.97435897 , 4191.79487179 , 4910.25641026 , 4135.38461538 , 4140.0 , 2043.0 , 2036.0 , 110.717 , 0.0 , 0.0 , 0.0 , 0.0 , 

23.0 , 4132.82051282 , 4133.33333333 , 4132.30769231 , 4135.8974359 , 4131.79487179 , 4129.23076923 , 4125.64102564 , 4135.38461538 , 4137.43589744 , 4136.92307692 , 4189.74358974 , 4910.25641026 , 4134.35897436 , 4137.94871795 , 2044.0 , 2035.0 , 110.725 , 0.0 , 0.0 , 0.0 , 0.0 , 

24.0 , 4132.30769231 , 4134.35897436 , 4132.82051282 , 4137.43589744 , 4129.23076923 , 4129.23076923 , 4125.12820513 , 4134.35897436 , 4135.38461538 , 4137.43589744 , 4191.79487179 , 4911.28205128 , 4134.35897436 , 4138.46153846 , 2044.0 , 2035.0 , 110.733 , 0.0 , 0.0 , 0.0 , 0.0 , 

25.0 , 4130.76923077 , 4133.84615385 , 4134.35897436 , 4136.41025641 , 4130.76923077 , 4128.20512821 , 4126.66666667 , 4132.82051282 , 4134.35897436 , 4139.48717949 , 4191.79487179 , 4913.33333333 , 4133.33333333 , 4143.58974359 , 2043.0 , 2035.0 , 110.741 , 0.0 , 0.0 , 0.0 , 0.0 , 

26.0 , 4132.82051282 , 4134.87179487 , 4131.28205128 , 4137.43589744 , 4132.82051282 , 4127.69230769 , 4127.69230769 , 4130.76923077 , 4135.38461538 , 4138.46153846 , 4191.28205128 , 4912.30769231 , 4133.33333333 , 4144.61538462 , 2044.0 , 2036.0 , 110.748 , 0.0 , 0.0 , 0.0 , 0.0 , 

27.0 , 4135.8974359 , 4136.41025641 , 4129.23076923 , 4138.97435897 , 4132.82051282 , 4129.23076923 , 4126.66666667 , 4129.23076923 , 4134.35897436 , 4136.41025641 , 4192.30769231 , 4916.41025641 , 4134.35897436 , 4145.64102564 , 2042.0 , 2035.0 , 110.756 , 0.0 , 0.0 , 0.0 , 0.0 , 

28.0 , 4133.33333333 , 4133.33333333 , 4128.71794872 , 4143.58974359 , 4132.30769231 , 4131.79487179 , 4126.15384615 , 4132.30769231 , 4135.38461538 , 4137.43589744 , 4193.84615385 , 4915.8974359 , 4135.38461538 , 4143.07692308 , 2041.0 , 2037.0 , 110.765 , 0.0 , 0.0 , 0.0 , 0.0 , 

29.0 , 4133.33333333 , 4130.25641026 , 4127.69230769 , 4144.61538462 , 4130.25641026 , 4129.74358974 , 4125.64102564 , 4132.82051282 , 4136.41025641 , 4138.46153846 , 4194.35897436 , 4911.28205128 , 4132.82051282 , 4143.58974359 , 2041.0 , 2037.0 , 110.773 , 0.0 , 0.0 , 0.0 , 0.0 , 

30.0 , 4134.87179487 , 4133.33333333 , 4126.66666667 , 4141.02564103 , 4130.76923077 , 4129.23076923 , 4125.12820513 , 4132.82051282 , 4134.35897436 , 4137.43589744 , 4191.79487179 , 4910.76923077 , 4133.33333333 , 4141.02564103 , 2040.0 , 2037.0 , 110.78 , 0.0 , 0.0 , 0.0 , 0.0 , 

31.0 , 4137.43589744 , 4133.84615385 , 4129.23076923 , 4137.43589744 , 4132.30769231 , 4129.74358974 , 4124.61538462 , 4131.28205128 , 4132.82051282 , 4138.97435897 , 4190.76923077 , 4914.87179487 , 4135.38461538 , 4142.56410256 , 2042.0 , 2038.0 , 110.788 , 0.0 , 0.0 , 0.0 , 0.0 , 

32.0 , 4135.38461538 , 4133.33333333 , 4129.74358974 , 4140.0 , 4131.79487179 , 4129.23076923 , 4126.15384615 , 4131.28205128 , 4134.87179487 , 4140.0 , 4192.30769231 , 4910.25641026 , 4132.82051282 , 4137.94871795 , 2043.0 , 2038.0 , 110.796 , 0.0 , 0.0 , 0.0 , 0.0 , 

33.0 , 4137.94871795 , 4134.35897436 , 4125.64102564 , 4142.05128205 , 4128.71794872 , 4126.15384615 , 4124.61538462 , 4131.28205128 , 4134.87179487 , 4138.97435897 , 4192.30769231 , 4909.23076923 , 4129.23076923 , 4136.92307692 , 2043.0 , 2038.0 , 110.804 , 0.0 , 0.0 , 0.0 , 0.0 , 

34.0 , 4136.41025641 , 4133.33333333 , 4124.1025641 , 4142.05128205 , 4130.25641026 , 4129.23076923 , 4125.12820513 , 4133.84615385 , 4134.87179487 , 4140.0 , 4190.25641026 , 4909.74358974 , 4132.30769231 , 4137.43589744 , 2046.0 , 2039.0 , 110.813 , 0.0 , 0.0 , 0.0 , 0.0 , 

35.0 , 4136.92307692 , 4131.79487179 , 4132.30769231 , 4137.94871795 , 4131.79487179 , 4129.74358974 , 4125.64102564 , 4134.35897436 , 4135.38461538 , 4139.48717949 , 4190.76923077 , 4910.25641026 , 4134.87179487 , 4142.56410256 , 2044.0 , 2037.0 , 110.819 , 0.0 , 0.0 , 0.0 , 0.0 , 

36.0 , 4135.38461538 , 4133.84615385 , 4135.38461538 , 4136.41025641 , 4131.79487179 , 4127.17948718 , 4127.69230769 , 4133.84615385 , 4135.8974359 , 4137.43589744 , 4193.33333333 , 4910.25641026 , 4133.33333333 , 4138.46153846 , 2044.0 , 2035.0 , 110.827 , 0.0 , 0.0 , 0.0 , 0.0 , 

37.0 , 4135.8974359 , 4134.35897436 , 4131.79487179 , 4136.92307692 , 4129.74358974 , 4127.69230769 , 4127.69230769 , 4133.84615385 , 4137.43589744 , 4137.43589744 , 4193.33333333 , 4912.82051282 , 4135.38461538 , 4139.48717949 , 2045.0 , 2036.0 , 110.835 , 0.0 , 0.0 , 0.0 , 0.0 , 

38.0 , 4134.87179487 , 4133.84615385 , 4132.82051282 , 4133.84615385 , 4129.74358974 , 4132.82051282 , 4129.23076923 , 4133.84615385 , 4138.97435897 , 4137.94871795 , 4191.28205128 , 4912.30769231 , 4137.94871795 , 4140.0 , 2044.0 , 2037.0 , 110.843 , 0.0 , 0.0 , 0.0 , 0.0 , 

39.0 , 4135.38461538 , 4132.82051282 , 4138.97435897 , 4131.28205128 , 4132.82051282 , 4130.76923077 , 4127.69230769 , 4133.84615385 , 4137.43589744 , 4137.94871795 , 4192.82051282 , 4912.30769231 , 4134.87179487 , 4142.56410256 , 2043.0 , 2036.0 , 110.851 , 0.0 , 0.0 , 0.0 , 0.0 , 

40.0 , 4132.82051282 , 4131.79487179 , 4135.8974359 , 4133.84615385 , 4132.82051282 , 4127.17948718 , 4125.12820513 , 4134.35897436 , 4135.38461538 , 4137.43589744 , 4193.84615385 , 4912.30769231 , 4131.79487179 , 4142.56410256 , 2042.0 , 2036.0 , 110.858 , 0.0 , 0.0 , 0.0 , 0.0 , 

41.0 , 4131.79487179 , 4134.35897436 , 4132.30769231 , 4134.87179487 , 4128.71794872 , 4127.17948718 , 4126.15384615 , 4133.33333333 , 4136.92307692 , 4138.46153846 , 4192.82051282 , 4913.84615385 , 4133.84615385 , 4141.53846154 , 2044.0 , 2036.0 , 110.867 , 0.0 , 0.0 , 0.0 , 0.0 , 

42.0 , 4133.84615385 , 4136.92307692 , 4131.79487179 , 4134.35897436 , 4129.23076923 , 4129.74358974 , 4127.69230769 , 4131.28205128 , 4137.43589744 , 4138.46153846 , 4191.28205128 , 4912.30769231 , 4136.92307692 , 4142.05128205 , 2042.0 , 2036.0 , 110.875 , 0.0 , 0.0 , 0.0 , 0.0 , 

43.0 , 4133.84615385 , 4132.30769231 , 4130.25641026 , 4134.87179487 , 4130.76923077 , 4130.76923077 , 4126.15384615 , 4132.30769231 , 4134.35897436 , 4137.43589744 , 4190.76923077 , 4909.23076923 , 4136.41025641 , 4143.58974359 , 2041.0 , 2036.0 , 110.882 , 0.0 , 0.0 , 0.0 , 0.0 , 

44.0 , 4137.43589744 , 4128.20512821 , 4129.74358974 , 4134.35897436 , 4129.74358974 , 4127.69230769 , 4124.61538462 , 4132.82051282 , 4133.84615385 , 4138.46153846 , 4191.28205128 , 4911.28205128 , 4133.84615385 , 4144.1025641 , 2042.0 , 2035.0 , 110.891 , 0.0 , 0.0 , 0.0 , 0.0 , 

45.0 , 4129.74358974 , 4135.8974359 , 4131.79487179 , 4133.33333333 , 4130.76923077 , 4126.66666667 , 4125.12820513 , 4132.30769231 , 4136.41025641 , 4138.97435897 , 4192.30769231 , 4912.30769231 , 4133.84615385 , 4141.02564103 , 2043.0 , 2036.0 , 110.899 , 0.0 , 0.0 , 0.0 , 0.0 , 

46.0 , 4135.8974359 , 4132.30769231 , 4133.84615385 , 4134.35897436 , 4131.28205128 , 4127.17948718 , 4125.12820513 , 4131.28205128 , 4137.43589744 , 4136.41025641 , 4192.30769231 , 4908.71794872 , 4132.82051282 , 4141.02564103 , 2042.0 , 2037.0 , 110.906 , 0.0 , 0.0 , 0.0 , 0.0 , 

47.0 , 4161.53846154 , 4115.8974359 , 4133.33333333 , 4136.92307692 , 4129.23076923 , 4126.15384615 , 4124.61538462 , 4130.76923077 , 4136.41025641 , 4136.41025641 , 4190.25641026 , 4907.17948718 , 4132.30769231 , 4137.94871795 , 2042.0 , 2035.0 , 110.915 , 0.0 , 0.0 , 0.0 , 0.0 , 

48.0 , 4158.97435897 , 4119.48717949 , 4133.84615385 , 4135.38461538 , 4129.74358974 , 4124.1025641 , 4124.1025641 , 4131.28205128 , 4134.35897436 , 4138.97435897 , 4191.28205128 , 4912.82051282 , 4132.82051282 , 4140.51282051 , 2042.0 , 2037.0 , 110.921 , 0.0 , 0.0 , 0.0 , 0.0 , 

49.0 , 4129.23076923 , 4134.87179487 , 4133.84615385 , 4134.87179487 , 4131.28205128 , 4129.23076923 , 4128.20512821 , 4135.38461538 , 4135.38461538 , 4138.46153846 , 4191.79487179 , 4911.28205128 , 4134.87179487 , 4139.48717949 , 2043.0 , 2036.0 , 110.93 , 0.0 , 0.0 , 0.0 , 0.0 , 

50.0 , 4129.23076923 , 4134.87179487 , 4134.87179487 , 4133.84615385 , 4129.74358974 , 4129.74358974 , 4128.71794872 , 4134.87179487 , 4136.41025641 , 4138.97435897 , 4191.79487179 , 4912.30769231 , 4132.82051282 , 4140.51282051 , 2043.0 , 2034.0 , 110.938 , 0.0 , 0.0 , 0.0 , 0.0 , 

51.0 , 4140.0 , 4131.28205128 , 4134.35897436 , 4134.35897436 , 4130.25641026 , 4127.69230769 , 4127.69230769 , 4135.8974359 , 4137.43589744 , 4141.02564103 , 4193.84615385 , 4913.84615385 , 4132.30769231 , 4140.0 , 2043.0 , 2035.0 , 110.945 , 0.0 , 0.0 , 0.0 , 0.0 , 

52.0 , 4134.35897436 , 4132.30769231 , 4135.8974359 , 4133.84615385 , 4129.74358974 , 4127.17948718 , 4126.15384615 , 4136.41025641 , 4137.43589744 , 4138.97435897 , 4194.35897436 , 4913.84615385 , 4134.35897436 , 4142.56410256 , 2043.0 , 2036.0 , 110.954 , 0.0 , 0.0 , 0.0 , 0.0 , 

53.0 , 4130.25641026 , 4131.79487179 , 4135.38461538 , 4134.87179487 , 4128.71794872 , 4127.17948718 , 4127.69230769 , 4135.38461538 , 4140.0 , 4137.94871795 , 4191.79487179 , 4911.79487179 , 4136.41025641 , 4136.92307692 , 2043.0 , 2035.0 , 110.961 , 0.0 , 0.0 , 0.0 , 0.0 , 

54.0 , 4137.43589744 , 4131.28205128 , 4136.41025641 , 4133.84615385 , 4130.76923077 , 4127.17948718 , 4126.15384615 , 4132.30769231 , 4140.51282051 , 4138.97435897 , 4192.82051282 , 4913.84615385 , 4136.92307692 , 4138.46153846 , 2044.0 , 2034.0 , 110.969 , 0.0 , 0.0 , 0.0 , 0.0 , 

55.0 , 4134.87179487 , 4132.30769231 , 4135.8974359 , 4134.87179487 , 4132.82051282 , 4131.28205128 , 4125.12820513 , 4132.30769231 , 4140.0 , 4138.46153846 , 4193.33333333 , 4912.82051282 , 4135.8974359 , 4141.53846154 , 2044.0 , 2034.0 , 110.977 , 0.0 , 0.0 , 0.0 , 0.0 , 

56.0 , 4133.33333333 , 4130.76923077 , 4136.92307692 , 4134.35897436 , 4132.82051282 , 4131.28205128 , 4126.15384615 , 4131.79487179 , 4137.94871795 , 4137.94871795 , 4190.25641026 , 4913.33333333 , 4137.43589744 , 4142.56410256 , 2045.0 , 2034.0 , 110.984 , 0.0 , 0.0 , 0.0 , 0.0 , 

57.0 , 4130.76923077 , 4132.82051282 , 4137.43589744 , 4133.33333333 , 4132.82051282 , 4130.76923077 , 4127.17948718 , 4131.79487179 , 4135.38461538 , 4138.46153846 , 4189.23076923 , 4913.84615385 , 4137.43589744 , 4137.43589744 , 2047.0 , 2034.0 , 110.992 , 0.0 , 0.0 , 0.0 , 0.0 , 

58.0 , 4131.28205128 , 4133.84615385 , 4135.38461538 , 4134.87179487 , 4132.30769231 , 4129.74358974 , 4126.15384615 , 4133.33333333 , 4135.8974359 , 4136.41025641 , 4193.84615385 , 4913.33333333 , 4135.8974359 , 4137.94871795 , 2046.0 , 2033.0 , 111.0 , 0.0 , 0.0 , 0.0 , 0.0 , 

59.0 , 4132.82051282 , 4131.28205128 , 4134.35897436 , 4134.87179487 , 4131.28205128 , 4129.23076923 , 4127.69230769 , 4131.79487179 , 4137.94871795 , 4135.38461538 , 4195.38461538 , 4911.28205128 , 4133.33333333 , 4141.02564103 , 2044.0 , 2033.0 , 111.008 , 0.0 , 0.0 , 0.0 , 0.0 , 

60.0 , 4133.84615385 , 4131.28205128 , 4136.92307692 , 4131.28205128 , 4129.74358974 , 4128.71794872 , 4129.23076923 , 4129.74358974 , 4136.92307692 , 4137.43589744 , 4193.33333333 , 4913.84615385 , 4132.82051282 , 4140.51282051 , 2045.0 , 2034.0 , 111.016 , 0.0 , 0.0 , 0.0 , 0.0 , 

61.0 , 4133.33333333 , 4130.76923077 , 4138.97435897 , 4129.74358974 , 4131.79487179 , 4128.71794872 , 4126.66666667 , 4131.28205128 , 4135.8974359 , 4136.92307692 , 4193.33333333 , 4917.43589744 , 4132.82051282 , 4138.46153846 , 2045.0 , 2035.0 , 111.024 , 0.0 , 0.0 , 0.0 , 0.0 , 

62.0 , 4131.28205128 , 4132.30769231 , 4136.92307692 , 4132.82051282 , 4132.30769231 , 4128.71794872 , 4125.12820513 , 4133.84615385 , 4136.41025641 , 4137.94871795 , 4195.38461538 , 4911.79487179 , 4133.84615385 , 4139.48717949 , 2044.0 , 2035.0 , 111.032 , 0.0 , 0.0 , 0.0 , 0.0 , 

63.0 , 4132.30769231 , 4133.84615385 , 4135.8974359 , 4133.33333333 , 4130.76923077 , 4127.69230769 , 4124.61538462 , 4131.28205128 , 4136.41025641 , 4139.48717949 , 4194.35897436 , 4905.64102564 , 4133.84615385 , 4141.02564103 , 2044.0 , 2035.0 , 111.041 , 0.0 , 0.0 , 0.0 , 0.0 , 

64.0 , 4134.87179487 , 4131.79487179 , 4134.35897436 , 4131.28205128 , 4130.76923077 , 4128.71794872 , 4126.15384615 , 4131.28205128 , 4138.97435897 , 4139.48717949 , 4192.30769231 , 4908.20512821 , 4134.35897436 , 4136.92307692 , 2043.0 , 2037.0 , 111.049 , 0.0 , 0.0 , 0.0 , 0.0 , 

65.0 , 4136.41025641 , 4129.74358974 , 4134.35897436 , 4130.76923077 , 4130.76923077 , 4129.23076923 , 4127.69230769 , 4133.33333333 , 4140.0 , 4138.97435897 , 4192.82051282 , 4915.38461538 , 4137.43589744 , 4140.51282051 , 2041.0 , 2036.0 , 111.056 , 0.0 , 0.0 , 0.0 , 0.0 , 

66.0 , 4132.30769231 , 4132.30769231 , 4134.87179487 , 4132.82051282 , 4131.28205128 , 4129.23076923 , 4128.20512821 , 4132.82051282 , 4137.94871795 , 4138.97435897 , 4192.82051282 , 4912.82051282 , 4138.46153846 , 4142.05128205 , 2042.0 , 2037.0 , 111.063 , 0.0 , 0.0 , 0.0 , 0.0 , 

67.0 , 4131.28205128 , 4130.25641026 , 4136.92307692 , 4132.30769231 , 4131.28205128 , 4127.69230769 , 4127.17948718 , 4131.28205128 , 4135.38461538 , 4140.0 , 4192.30769231 , 4912.30769231 , 4132.82051282 , 4142.56410256 , 2042.0 , 2038.0 , 111.071 , 0.0 , 0.0 , 0.0 , 0.0 , 

68.0 , 4132.82051282 , 4126.66666667 , 4137.43589744 , 4132.30769231 , 4131.79487179 , 4127.17948718 , 4127.69230769 , 4134.35897436 , 4136.41025641 , 4141.53846154 , 4192.30769231 , 4911.79487179 , 4133.33333333 , 4140.51282051 , 2041.0 , 2036.0 , 111.079 , 0.0 , 0.0 , 0.0 , 0.0 , 

69.0 , 4132.30769231 , 4128.20512821 , 4137.94871795 , 4131.28205128 , 4131.79487179 , 4127.17948718 , 4126.66666667 , 4133.84615385 , 4137.43589744 , 4138.97435897 , 4192.82051282 , 4912.82051282 , 4134.35897436 , 4145.12820513 , 2042.0 , 2037.0 , 111.087 , 0.0 , 0.0 , 0.0 , 0.0 , 

70.0 , 4125.12820513 , 4131.28205128 , 4136.92307692 , 4130.76923077 , 4133.33333333 , 4128.20512821 , 4128.71794872 , 4132.82051282 , 4138.97435897 , 4137.43589744 , 4192.82051282 , 4912.30769231 , 4130.25641026 , 4140.51282051 , 2042.0 , 2037.0 , 111.095 , 0.0 , 0.0 , 0.0 , 0.0 , 

71.0 , 4129.74358974 , 4128.20512821 , 4139.48717949 , 4130.25641026 , 4132.82051282 , 4127.17948718 , 4127.69230769 , 4132.82051282 , 4137.94871795 , 4141.53846154 , 4193.84615385 , 4915.8974359 , 4130.76923077 , 4141.02564103 , 2043.0 , 2037.0 , 111.104 , 0.0 , 0.0 , 0.0 , 0.0 , 

72.0 , 4134.87179487 , 4128.20512821 , 4138.46153846 , 4133.33333333 , 4131.79487179 , 4131.28205128 , 4125.64102564 , 4133.33333333 , 4135.8974359 , 4143.07692308 , 4193.84615385 , 4912.30769231 , 4135.8974359 , 4140.51282051 , 2044.0 , 2037.0 , 111.112 , 0.0 , 0.0 , 0.0 , 0.0 , 

73.0 , 4134.87179487 , 4130.76923077 , 4136.92307692 , 4132.82051282 , 4130.25641026 , 4133.33333333 , 4126.15384615 , 4132.82051282 , 4136.41025641 , 4140.0 , 4192.30769231 , 4910.76923077 , 4134.87179487 , 4143.07692308 , 2044.0 , 2038.0 , 111.119 , 0.0 , 0.0 , 0.0 , 0.0 , 

74.0 , 4131.79487179 , 4130.76923077 , 4137.94871795 , 4131.79487179 , 4128.71794872 , 4132.30769231 , 4128.71794872 , 4132.82051282 , 4138.97435897 , 4138.97435897 , 4192.82051282 , 4910.25641026 , 4133.33333333 , 4140.51282051 , 2043.0 , 2037.0 , 111.126 , 0.0 , 0.0 , 0.0 , 0.0 , 

75.0 , 4131.28205128 , 4127.17948718 , 4139.48717949 , 4130.25641026 , 4129.23076923 , 4130.76923077 , 4128.20512821 , 4131.79487179 , 4138.46153846 , 4140.0 , 4193.33333333 , 4910.25641026 , 4134.35897436 , 4138.46153846 , 2044.0 , 2038.0 , 111.134 , 0.0 , 0.0 , 0.0 , 0.0 , 

76.0 , 4128.71794872 , 4128.20512821 , 4137.43589744 , 4130.76923077 , 4129.74358974 , 4129.74358974 , 4127.17948718 , 4131.79487179 , 4136.92307692 , 4138.97435897 , 4192.82051282 , 4909.23076923 , 4132.82051282 , 4135.8974359 , 2044.0 , 2038.0 , 111.142 , 0.0 , 0.0 , 0.0 , 0.0 , 

77.0 , 4127.17948718 , 4131.28205128 , 4137.43589744 , 4131.28205128 , 4129.74358974 , 4126.66666667 , 4125.12820513 , 4134.35897436 , 4137.43589744 , 4138.46153846 , 4192.30769231 , 4910.25641026 , 4133.84615385 , 4135.38461538 , 2045.0 , 2038.0 , 111.15 , 0.0 , 0.0 , 0.0 , 0.0 , 

78.0 , 4127.69230769 , 4129.74358974 , 4140.0 , 4132.30769231 , 4131.28205128 , 4127.69230769 , 4127.17948718 , 4134.35897436 , 4137.94871795 , 4139.48717949 , 4191.28205128 , 4912.82051282 , 4135.38461538 , 4137.43589744 , 2044.0 , 2038.0 , 111.158 , 0.0 , 0.0 , 0.0 , 0.0 , 

79.0 , 4128.20512821 , 4127.17948718 , 4138.46153846 , 4132.82051282 , 4130.25641026 , 4130.76923077 , 4129.74358974 , 4133.84615385 , 4137.94871795 , 4138.46153846 , 4191.79487179 , 4912.30769231 , 4134.87179487 , 4141.53846154 , 2045.0 , 2037.0 , 111.167 , 0.0 , 0.0 , 0.0 , 0.0 , 

80.0 , 4129.23076923 , 4130.25641026 , 4135.38461538 , 4130.76923077 , 4129.23076923 , 4128.71794872 , 4125.64102564 , 4134.35897436 , 4138.46153846 , 4136.41025641 , 4192.82051282 , 4911.79487179 , 4134.35897436 , 4144.1025641 , 2044.0 , 2038.0 , 111.175 , 0.0 , 0.0 , 0.0 , 0.0 , 

81.0 , 4132.30769231 , 4133.84615385 , 4135.38461538 , 4130.76923077 , 4131.28205128 , 4127.69230769 , 4124.1025641 , 4133.84615385 , 4138.97435897 , 4137.43589744 , 4194.35897436 , 4910.76923077 , 4135.8974359 , 4142.05128205 , 2045.0 , 2037.0 , 111.183 , 0.0 , 0.0 , 0.0 , 0.0 , 

82.0 , 4134.35897436 , 4129.74358974 , 4141.02564103 , 4132.30769231 , 4132.30769231 , 4128.20512821 , 4128.20512821 , 4132.30769231 , 4136.92307692 , 4140.51282051 , 4194.35897436 , 4911.79487179 , 4133.33333333 , 4143.58974359 , 2045.0 , 2038.0 , 111.191 , 0.0 , 0.0 , 0.0 , 0.0 , 

83.0 , 4132.82051282 , 4127.17948718 , 4140.0 , 4132.82051282 , 4131.28205128 , 4130.25641026 , 4129.23076923 , 4133.33333333 , 4135.8974359 , 4140.51282051 , 4192.82051282 , 4911.28205128 , 4133.33333333 , 4141.02564103 , 2046.0 , 2038.0 , 111.197 , 0.0 , 0.0 , 0.0 , 0.0 , 

84.0 , 4134.35897436 , 4130.25641026 , 4135.8974359 , 4129.74358974 , 4130.25641026 , 4129.23076923 , 4126.15384615 , 4132.30769231 , 4137.43589744 , 4136.92307692 , 4192.30769231 , 4912.82051282 , 4136.41025641 , 4142.56410256 , 2045.0 , 2037.0 , 111.206 , 0.0 , 0.0 , 0.0 , 0.0 , 

85.0 , 4133.84615385 , 4132.82051282 , 4134.35897436 , 4131.28205128 , 4131.28205128 , 4130.25641026 , 4127.17948718 , 4132.82051282 , 4137.43589744 , 4137.43589744 , 4192.82051282 , 4910.76923077 , 4135.8974359 , 4142.05128205 , 2043.0 , 2036.0 , 111.214 , 0.0 , 0.0 , 0.0 , 0.0 , 

86.0 , 4135.38461538 , 4131.79487179 , 4135.38461538 , 4131.79487179 , 4131.28205128 , 4131.79487179 , 4127.17948718 , 4133.33333333 , 4134.35897436 , 4138.97435897 , 4193.84615385 , 4909.23076923 , 4132.82051282 , 4144.1025641 , 2044.0 , 2036.0 , 111.221 , 0.0 , 0.0 , 0.0 , 0.0 , 

87.0 , 4131.79487179 , 4130.25641026 , 4133.84615385 , 4130.76923077 , 4131.79487179 , 4132.82051282 , 4126.66666667 , 4133.33333333 , 4134.35897436 , 4138.46153846 , 4191.79487179 , 4911.79487179 , 4133.84615385 , 4141.53846154 , 2043.0 , 2038.0 , 111.229 , 0.0 , 0.0 , 0.0 , 0.0 , 

88.0 , 4131.79487179 , 4127.69230769 , 4135.38461538 , 4130.25641026 , 4131.28205128 , 4128.71794872 , 4125.64102564 , 4130.76923077 , 4134.87179487 , 4138.46153846 , 4190.25641026 , 4918.46153846 , 4134.87179487 , 4143.58974359 , 2044.0 , 2036.0 , 111.238 , 0.0 , 0.0 , 0.0 , 0.0 , 

89.0 , 4130.76923077 , 4127.69230769 , 4137.94871795 , 4130.76923077 , 4130.76923077 , 4129.74358974 , 4127.17948718 , 4131.28205128 , 4136.41025641 , 4139.48717949 , 4190.25641026 , 4912.82051282 , 4136.41025641 , 4140.51282051 , 2044.0 , 2037.0 , 111.246 , 0.0 , 0.0 , 0.0 , 0.0 , 

90.0 , 4132.82051282 , 4129.23076923 , 4137.94871795 , 4129.23076923 , 4130.25641026 , 4128.20512821 , 4126.66666667 , 4132.30769231 , 4136.92307692 , 4139.48717949 , 4192.30769231 , 4911.28205128 , 4137.43589744 , 4142.56410256 , 2043.0 , 2036.0 , 111.253 , 0.0 , 0.0 , 0.0 , 0.0 , 

91.0 , 4130.76923077 , 4129.23076923 , 4135.38461538 , 4130.76923077 , 4131.28205128 , 4125.64102564 , 4127.69230769 , 4133.84615385 , 4136.41025641 , 4139.48717949 , 4192.30769231 , 4913.84615385 , 4135.38461538 , 4141.53846154 , 2045.0 , 2036.0 , 111.26 , 0.0 , 0.0 , 0.0 , 0.0 , 

92.0 , 4131.28205128 , 4128.20512821 , 4137.43589744 , 4132.82051282 , 4131.79487179 , 4126.66666667 , 4127.69230769 , 4134.87179487 , 4134.87179487 , 4138.97435897 , 4192.30769231 , 4913.33333333 , 4134.35897436 , 4143.58974359 , 2044.0 , 2035.0 , 111.269 , 0.0 , 0.0 , 0.0 , 0.0 , 

93.0 , 4131.79487179 , 4129.23076923 , 4138.97435897 , 4132.82051282 , 4131.28205128 , 4131.28205128 , 4127.17948718 , 4135.8974359 , 4137.43589744 , 4137.94871795 , 4192.82051282 , 4910.25641026 , 4134.35897436 , 4143.58974359 , 2045.0 , 2035.0 , 111.277 , 0.0 , 0.0 , 0.0 , 0.0 , 

94.0 , 4131.79487179 , 4130.25641026 , 4136.92307692 , 4131.79487179 , 4130.76923077 , 4128.71794872 , 4125.12820513 , 4134.87179487 , 4138.46153846 , 4137.94871795 , 4193.33333333 , 4912.30769231 , 4134.87179487 , 4143.58974359 , 2044.0 , 2036.0 , 111.285 , 0.0 , 0.0 , 0.0 , 0.0 , 

95.0 , 4131.79487179 , 4131.28205128 , 4135.38461538 , 4131.79487179 , 4132.30769231 , 4124.1025641 , 4125.12820513 , 4134.87179487 , 4135.8974359 , 4137.94871795 , 4191.79487179 , 4912.30769231 , 4135.38461538 , 4140.0 , 2044.0 , 2035.0 , 111.292 , 0.0 , 0.0 , 0.0 , 0.0 , 

96.0 , 4133.84615385 , 4130.25641026 , 4138.46153846 , 4131.79487179 , 4132.30769231 , 4126.66666667 , 4126.66666667 , 4135.38461538 , 4135.8974359 , 4136.92307692 , 4190.76923077 , 4911.28205128 , 4136.92307692 , 4141.53846154 , 2043.0 , 2036.0 , 111.3 , 0.0 , 0.0 , 0.0 , 0.0 , 

97.0 , 4132.30769231 , 4128.71794872 , 4137.94871795 , 4130.76923077 , 4130.76923077 , 4131.28205128 , 4128.71794872 , 4133.33333333 , 4136.41025641 , 4137.43589744 , 4192.30769231 , 4914.35897436 , 4134.87179487 , 4144.1025641 , 2044.0 , 2036.0 , 111.308 , 0.0 , 0.0 , 0.0 , 0.0 , 

98.0 , 4127.69230769 , 4129.74358974 , 4136.41025641 , 4129.74358974 , 4130.76923077 , 4128.71794872 , 4128.20512821 , 4131.28205128 , 4136.41025641 , 4140.51282051 , 4192.82051282 , 4914.87179487 , 4133.33333333 , 4141.53846154 , 2043.0 , 2037.0 , 111.316 , 0.0 , 0.0 , 0.0 , 0.0 , 

99.0 , 4130.76923077 , 4130.76923077 , 4140.51282051 , 4130.25641026 , 4130.76923077 , 4124.1025641 , 4125.64102564 , 4133.84615385 , 4136.41025641 , 4141.53846154 , 4191.79487179 , 4912.82051282 , 4134.87179487 , 4142.56410256 , 2045.0 , 2038.0 , 111.323 , 0.0 , 0.0 , 0.0 , 0.0 , 

100.0 , 4133.33333333 , 4130.25641026 , 4140.0 , 4131.79487179 , 4132.30769231 , 4126.15384615 , 4124.61538462 , 4135.8974359 , 4135.8974359 , 4137.94871795 , 4192.82051282 , 4912.82051282 , 4135.8974359 , 4143.58974359 , 2046.0 , 2037.0 , 111.331 , 0.0 , 0.0 , 0.0 , 0.0 , 

101.0 , 4132.30769231 , 4128.20512821 , 4137.94871795 , 4130.25641026 , 4132.30769231 , 4128.20512821 , 4125.12820513 , 4133.33333333 , 4134.87179487 , 4136.92307692 , 4193.84615385 , 4914.87179487 , 4134.35897436 , 4144.61538462 , 2045.0 , 2038.0 , 111.339 , 0.0 , 0.0 , 0.0 , 0.0 , 

102.0 , 4131.28205128 , 4127.69230769 , 4138.97435897 , 4130.76923077 , 4131.28205128 , 4127.17948718 , 4125.64102564 , 4133.33333333 , 4136.41025641 , 4138.97435897 , 4190.25641026 , 4912.30769231 , 4134.87179487 , 4140.0 , 2045.0 , 2037.0 , 111.347 , 0.0 , 0.0 , 0.0 , 0.0 , 

103.0 , 4132.82051282 , 4128.20512821 , 4137.94871795 , 4132.30769231 , 4131.79487179 , 4125.64102564 , 4126.15384615 , 4134.35897436 , 4135.38461538 , 4138.46153846 , 4189.74358974 , 4909.74358974 , 4135.38461538 , 4140.51282051 , 2046.0 , 2038.0 , 111.356 , 0.0 , 0.0 , 0.0 , 0.0 , 

104.0 , 4129.23076923 , 4130.76923077 , 4134.87179487 , 4133.33333333 , 4132.82051282 , 4127.69230769 , 4126.66666667 , 4135.38461538 , 4133.33333333 , 4138.97435897 , 4192.30769231 , 4909.23076923 , 4134.87179487 , 4140.51282051 , 2046.0 , 2037.0 , 111.363 , 0.0 , 0.0 , 0.0 , 0.0 , 

105.0 , 4130.76923077 , 4130.76923077 , 4137.43589744 , 4133.33333333 , 4131.79487179 , 4127.69230769 , 4124.1025641 , 4134.87179487 , 4133.33333333 , 4140.51282051 , 4191.28205128 , 4913.33333333 , 4135.38461538 , 4142.05128205 , 2046.0 , 2037.0 , 111.372 , 0.0 , 0.0 , 0.0 , 0.0 , 

106.0 , 4132.30769231 , 4129.23076923 , 4137.43589744 , 4133.33333333 , 4131.28205128 , 4129.23076923 , 4125.64102564 , 4133.84615385 , 4134.87179487 , 4140.0 , 4190.76923077 , 4911.79487179 , 4136.41025641 , 4136.92307692 , 2044.0 , 2037.0 , 111.379 , 0.0 , 0.0 , 0.0 , 0.0 , 

107.0 , 4132.82051282 , 4130.25641026 , 4136.92307692 , 4130.76923077 , 4130.25641026 , 4128.20512821 , 4126.15384615 , 4132.30769231 , 4135.8974359 , 4140.51282051 , 4192.82051282 , 4913.84615385 , 4137.43589744 , 4138.97435897 , 2044.0 , 2037.0 , 111.386 , 0.0 , 0.0 , 0.0 , 0.0 , 

108.0 , 4131.79487179 , 4131.28205128 , 4136.92307692 , 4130.76923077 , 4130.76923077 , 4129.23076923 , 4124.61538462 , 4134.35897436 , 4137.94871795 , 4141.53846154 , 4193.33333333 , 4912.30769231 , 4137.43589744 , 4137.43589744 , 2045.0 , 2037.0 , 111.394 , 0.0 , 0.0 , 0.0 , 0.0 , 

109.0 , 4134.87179487 , 4128.71794872 , 4137.94871795 , 4132.30769231 , 4133.33333333 , 4128.20512821 , 4124.1025641 , 4134.87179487 , 4137.43589744 , 4139.48717949 , 4193.33333333 , 4912.82051282 , 4136.92307692 , 4140.0 , 2044.0 , 2037.0 , 111.403 , 0.0 , 0.0 , 0.0 , 0.0 , 

110.0 , 4133.84615385 , 4129.74358974 , 4138.46153846 , 4133.84615385 , 4132.82051282 , 4127.17948718 , 4128.71794872 , 4134.35897436 , 4136.92307692 , 4138.97435897 , 4191.28205128 , 4913.33333333 , 4135.8974359 , 4142.56410256 , 2044.0 , 2038.0 , 111.41 , 0.0 , 0.0 , 0.0 , 0.0 , 

111.0 , 4133.84615385 , 4130.25641026 , 4138.97435897 , 4131.79487179 , 4128.20512821 , 4129.23076923 , 4129.74358974 , 4132.82051282 , 4137.94871795 , 4139.48717949 , 4190.76923077 , 4912.30769231 , 4135.38461538 , 4145.12820513 , 2045.0 , 2038.0 , 111.418 , 0.0 , 0.0 , 0.0 , 0.0 , 

112.0 , 4132.30769231 , 4127.69230769 , 4137.43589744 , 4131.79487179 , 4129.23076923 , 4130.76923077 , 4128.71794872 , 4132.82051282 , 4138.46153846 , 4137.94871795 , 4192.30769231 , 4908.71794872 , 4134.35897436 , 4141.53846154 , 2045.0 , 2038.0 , 111.426 , 0.0 , 0.0 , 0.0 , 0.0 , 

113.0 , 4130.25641026 , 4129.74358974 , 4136.92307692 , 4133.84615385 , 4132.30769231 , 4127.17948718 , 4127.17948718 , 4134.87179487 , 4137.43589744 , 4137.43589744 , 4193.33333333 , 4913.84615385 , 4133.33333333 , 4142.05128205 , 2047.0 , 2039.0 , 111.434 , 0.0 , 0.0 , 0.0 , 0.0 , 

114.0 , 4130.25641026 , 4133.84615385 , 4135.8974359 , 4135.8974359 , 4131.28205128 , 4125.64102564 , 4126.15384615 , 4134.35897436 , 4135.8974359 , 4139.48717949 , 4192.82051282 , 4917.43589744 , 4131.79487179 , 4143.07692308 , 2045.0 , 2039.0 , 111.442 , 0.0 , 0.0 , 0.0 , 0.0 , 

115.0 , 4130.76923077 , 4132.82051282 , 4133.33333333 , 4137.43589744 , 4129.74358974 , 4130.25641026 , 4125.64102564 , 4131.79487179 , 4135.8974359 , 4138.97435897 , 4191.28205128 , 4913.33333333 , 4132.82051282 , 4143.58974359 , 2044.0 , 2040.0 , 111.449 , 0.0 , 0.0 , 0.0 , 0.0 , 

116.0 , 4129.74358974 , 4132.30769231 , 4133.84615385 , 4136.92307692 , 4130.76923077 , 4132.30769231 , 4125.12820513 , 4130.76923077 , 4136.41025641 , 4137.94871795 , 4191.28205128 , 4914.35897436 , 4134.87179487 , 4144.1025641 , 2044.0 , 2039.0 , 111.458 , 0.0 , 0.0 , 0.0 , 0.0 , 

117.0 , 4130.25641026 , 4133.84615385 , 4135.8974359 , 4134.87179487 , 4131.28205128 , 4129.23076923 , 4124.61538462 , 4133.84615385 , 4137.43589744 , 4139.48717949 , 4191.28205128 , 4914.87179487 , 4135.38461538 , 4142.05128205 , 2045.0 , 2040.0 , 111.465 , 0.0 , 0.0 , 0.0 , 0.0 , 

118.0 , 4134.35897436 , 4132.30769231 , 4136.92307692 , 4131.79487179 , 4129.74358974 , 4128.20512821 , 4126.15384615 , 4134.35897436 , 4136.92307692 , 4140.51282051 , 4191.28205128 , 4909.74358974 , 4133.33333333 , 4141.53846154 , 2045.0 , 2040.0 , 111.473 , 0.0 , 0.0 , 0.0 , 0.0 , 

119.0 , 4136.41025641 , 4129.74358974 , 4134.35897436 , 4133.33333333 , 4130.25641026 , 4130.25641026 , 4126.66666667 , 4132.30769231 , 4136.41025641 , 4138.46153846 , 4191.79487179 , 4906.66666667 , 4133.84615385 , 4136.92307692 , 2044.0 , 2040.0 , 111.481 , 0.0 , 0.0 , 0.0 , 0.0 , 

120.0 , 4137.43589744 , 4131.28205128 , 4132.82051282 , 4133.84615385 , 4131.28205128 , 4129.74358974 , 4123.07692308 , 4131.79487179 , 4136.92307692 , 4136.92307692 , 4193.33333333 , 4911.28205128 , 4135.8974359 , 4137.94871795 , 2044.0 , 2041.0 , 111.49 , 0.0 , 0.0 , 0.0 , 0.0 , 

121.0 , 4132.82051282 , 4133.84615385 , 4131.79487179 , 4133.84615385 , 4128.71794872 , 4129.23076923 , 4123.07692308 , 4135.8974359 , 4138.46153846 , 4137.43589744 , 4192.30769231 , 4912.30769231 , 4136.41025641 , 4140.0 , 2044.0 , 2041.0 , 111.497 , 0.0 , 0.0 , 0.0 , 0.0 , 

122.0 , 4130.25641026 , 4130.76923077 , 4131.28205128 , 4133.84615385 , 4128.71794872 , 4128.71794872 , 4125.64102564 , 4135.8974359 , 4136.41025641 , 4138.46153846 , 4190.25641026 , 4913.84615385 , 4134.35897436 , 4142.05128205 , 2046.0 , 2040.0 , 111.505 , 0.0 , 0.0 , 0.0 , 0.0 , 

123.0 , 4130.76923077 , 4128.71794872 , 4131.28205128 , 4135.38461538 , 4133.33333333 , 4128.71794872 , 4128.20512821 , 4132.82051282 , 4135.8974359 , 4137.94871795 , 4192.30769231 , 4911.79487179 , 4135.38461538 , 4137.94871795 , 2046.0 , 2040.0 , 111.512 , 0.0 , 0.0 , 0.0 , 0.0 , 

124.0 , 4133.84615385 , 4129.23076923 , 4135.38461538 , 4133.84615385 , 4132.82051282 , 4127.69230769 , 4127.17948718 , 4132.30769231 , 4137.94871795 , 4136.92307692 , 4193.33333333 , 4911.79487179 , 4135.8974359 , 4142.05128205 , 2045.0 , 2039.0 , 111.521 , 0.0 , 0.0 , 0.0 , 0.0 , 

125.0 , 4130.76923077 , 4128.71794872 , 4134.87179487 , 4131.79487179 , 4129.74358974 , 4129.74358974 , 4128.71794872 , 4134.87179487 , 4139.48717949 , 4137.94871795 , 4191.28205128 , 4913.84615385 , 4133.84615385 , 4141.53846154 , 2044.0 , 2038.0 , 111.529 , 0.0 , 0.0 , 0.0 , 0.0 , 

126.0 , 4134.35897436 , 4126.15384615 , 4132.30769231 , 4130.25641026 , 4131.79487179 , 4128.71794872 , 4128.71794872 , 4133.33333333 , 4135.8974359 , 4139.48717949 , 4192.30769231 , 4916.92307692 , 4134.87179487 , 4145.12820513 , 2044.0 , 2038.0 , 111.538 , 0.0 , 0.0 , 0.0 , 0.0 , 

127.0 , 4135.8974359 , 4128.71794872 , 4134.35897436 , 4132.82051282 , 4133.84615385 , 4128.71794872 , 4129.23076923 , 4135.38461538 , 4134.87179487 , 4139.48717949 , 4192.30769231 , 4912.82051282 , 4135.8974359 , 4143.58974359 , 2045.0 , 2036.0 , 111.544 , 0.0 , 0.0 , 0.0 , 0.0 , 

128.0 , 4132.30769231 , 4130.76923077 , 4138.97435897 , 4134.87179487 , 4131.79487179 , 4128.71794872 , 4127.17948718 , 4137.43589744 , 4136.41025641 , 4138.46153846 , 4191.79487179 , 4911.79487179 , 4135.38461538 , 4143.58974359 , 2045.0 , 2036.0 , 111.552 , 0.0 , 0.0 , 0.0 , 0.0 , 

0.0 , 4130.25641026 , 4131.79487179 , 4134.87179487 , 4136.41025641 , 4131.79487179 , 4128.71794872 , 4130.25641026 , 4133.33333333 , 4134.35897436 , 4139.48717949 , 4192.30769231 , 4912.30769231 , 4136.92307692 , 4143.07692308 , 2044.0 , 2037.0 , 111.56 , 0.0 , 0.0 , 0.0 , 0.0 , 

1.0 , 4133.33333333 , 4132.30769231 , 4131.28205128 , 4135.38461538 , 4129.74358974 , 4127.69230769 , 4132.30769231 , 4129.74358974 , 4130.25641026 , 4140.51282051 , 4192.30769231 , 4915.8974359 , 4135.8974359 , 4143.07692308 , 2044.0 , 2036.0 , 111.568 , 0.0 , 0.0 , 0.0 , 0.0 , 

2.0 , 4130.25641026 , 4131.79487179 , 4134.35897436 , 4135.38461538 , 4128.71794872 , 4129.74358974 , 4129.74358974 , 4133.84615385 , 4132.30769231 , 4138.46153846 , 4190.76923077 , 4915.8974359 , 4130.76923077 , 4140.51282051 , 2044.0 , 2037.0 , 111.575 , 0.0 , 0.0 , 0.0 , 0.0 , 

3.0 , 4126.66666667 , 4131.28205128 , 4135.8974359 , 4135.8974359 , 4129.74358974 , 4131.28205128 , 4126.66666667 , 4135.8974359 , 4137.43589744 , 4137.94871795 , 4190.25641026 , 4912.82051282 , 4131.79487179 , 4140.0 , 2045.0 , 2037.0 , 111.583 , 0.0 , 0.0 , 0.0 , 0.0 , 

4.0 , 4130.76923077 , 4131.79487179 , 4132.30769231 , 4135.38461538 , 4131.79487179 , 4129.74358974 , 4127.69230769 , 4133.84615385 , 4137.94871795 , 4139.48717949 , 4188.71794872 , 4911.79487179 , 4135.8974359 , 4140.0 , 2044.0 , 2036.0 , 111.591 , 0.0 , 0.0 , 0.0 , 0.0 , 

5.0 , 4135.8974359 , 4130.76923077 , 4128.71794872 , 4134.87179487 , 4131.79487179 , 4127.69230769 , 4128.20512821 , 4132.82051282 , 4135.38461538 , 4138.97435897 , 4188.71794872 , 4911.79487179 , 4131.28205128 , 4139.48717949 , 2045.0 , 2036.0 , 111.599 , 0.0 , 0.0 , 0.0 , 0.0 , 

6.0 , 4135.38461538 , 4126.66666667 , 4131.79487179 , 4133.33333333 , 4131.79487179 , 4128.71794872 , 4126.15384615 , 4132.30769231 , 4133.84615385 , 4137.43589744 , 4191.28205128 , 4909.74358974 , 4125.64102564 , 4142.56410256 , 2047.0 , 2037.0 , 111.608 , 0.0 , 0.0 , 0.0 , 0.0 , 

7.0 , 4132.30769231 , 4124.61538462 , 4134.35897436 , 4131.79487179 , 4131.79487179 , 4128.71794872 , 4126.66666667 , 4133.33333333 , 4133.33333333 , 4137.94871795 , 4190.25641026 , 4909.23076923 , 4131.79487179 , 4147.17948718 , 2049.0 , 2035.0 , 111.615 , 0.0 , 0.0 , 0.0 , 0.0 , 

8.0 , 4130.25641026 , 4123.07692308 , 4132.30769231 , 4130.25641026 , 4129.74358974 , 4125.12820513 , 4129.23076923 , 4135.38461538 , 4134.35897436 , 4138.97435897 , 4190.25641026 , 4914.35897436 , 4135.38461538 , 4154.35897436 , 2048.0 , 2035.0 , 111.623 , 0.0 , 0.0 , 0.0 , 0.0 , 

9.0 , 4126.66666667 , 4122.56410256 , 4129.74358974 , 4131.28205128 , 4129.74358974 , 4128.20512821 , 4132.82051282 , 4138.46153846 , 4137.94871795 , 4138.97435897 , 4194.35897436 , 4913.84615385 , 4134.87179487 , 4152.82051282 , 2048.0 , 2035.0 , 111.631 , 0.0 , 0.0 , 0.0 , 0.0 , 

10.0 , 4129.23076923 , 4125.64102564 , 4133.33333333 , 4132.82051282 , 4130.25641026 , 4129.74358974 , 4131.79487179 , 4136.92307692 , 4137.43589744 , 4138.46153846 , 4194.35897436 , 4913.33333333 , 4136.41025641 , 4147.17948718 , 2048.0 , 2035.0 , 111.639 , 0.0 , 0.0 , 0.0 , 0.0 , 

11.0 , 4130.76923077 , 4129.74358974 , 4135.38461538 , 4135.8974359 , 4131.28205128 , 4127.17948718 , 4127.69230769 , 4133.33333333 , 4134.35897436 , 4138.97435897 , 4191.28205128 , 4910.76923077 , 4137.94871795 , 4141.53846154 , 2049.0 , 2035.0 , 111.646 , 0.0 , 0.0 , 0.0 , 0.0 , 

12.0 , 4131.79487179 , 4130.25641026 , 4134.35897436 , 4136.41025641 , 4130.25641026 , 4126.15384615 , 4125.12820513 , 4132.30769231 , 4132.82051282 , 4141.02564103 , 4192.30769231 , 4912.30769231 , 4135.38461538 , 4143.58974359 , 2052.0 , 2034.0 , 111.655 , 0.0 , 0.0 , 0.0 , 0.0 , 

13.0 , 4130.76923077 , 4132.30769231 , 4133.33333333 , 4136.41025641 , 4130.76923077 , 4128.20512821 , 4126.66666667 , 4135.38461538 , 4136.92307692 , 4141.02564103 , 4193.84615385 , 4914.35897436 , 4135.38461538 , 4136.41025641 , 2052.0 , 2034.0 , 111.662 , 0.0 , 0.0 , 0.0 , 0.0 , 

14.0 , 4133.84615385 , 4134.35897436 , 4136.41025641 , 4134.87179487 , 4130.25641026 , 4126.66666667 , 4124.1025641 , 4133.33333333 , 4137.94871795 , 4138.46153846 , 4193.84615385 , 4914.87179487 , 4136.92307692 , 4138.46153846 , 2051.0 , 2036.0 , 111.671 , 0.0 , 0.0 , 0.0 , 0.0 , 

15.0 , 4129.74358974 , 4134.35897436 , 4135.38461538 , 4134.35897436 , 4128.20512821 , 4128.20512821 , 4122.56410256 , 4130.25641026 , 4133.33333333 , 4137.43589744 , 4191.79487179 , 4911.28205128 , 4137.43589744 , 4144.61538462 , 2053.0 , 2035.0 , 111.679 , 0.0 , 0.0 , 0.0 , 0.0 , 

16.0 , 4128.20512821 , 4132.30769231 , 4134.87179487 , 4133.84615385 , 4128.20512821 , 4129.74358974 , 4123.58974359 , 4130.25641026 , 4128.71794872 , 4137.94871795 , 4192.30769231 , 4914.87179487 , 4136.41025641 , 4148.20512821 , 2054.0 , 2034.0 , 111.687 , 0.0 , 0.0 , 0.0 , 0.0 , 

17.0 , 4132.82051282 , 4133.84615385 , 4135.8974359 , 4135.8974359 , 4130.76923077 , 4127.69230769 , 4125.64102564 , 4133.33333333 , 4130.76923077 , 4138.97435897 , 4191.79487179 , 4913.84615385 , 4133.84615385 , 4137.43589744 , 2054.0 , 2033.0 , 111.695 , 0.0 , 0.0 , 0.0 , 0.0 , 

18.0 , 4137.94871795 , 4134.35897436 , 4137.94871795 , 4134.87179487 , 4131.28205128 , 4126.66666667 , 4126.15384615 , 4134.35897436 , 4132.82051282 , 4137.94871795 , 4190.25641026 , 4909.74358974 , 4134.87179487 , 4134.35897436 , 2055.0 , 2033.0 , 111.702 , 0.0 , 0.0 , 0.0 , 0.0 , 

19.0 , 4133.84615385 , 4133.84615385 , 4136.41025641 , 4132.82051282 , 4130.76923077 , 4130.25641026 , 4125.12820513 , 4131.79487179 , 4130.76923077 , 4137.43589744 , 4189.74358974 , 4909.74358974 , 4136.41025641 , 4136.92307692 , 2055.0 , 2034.0 , 111.709 , 0.0 , 0.0 , 0.0 , 0.0 , 

20.0 , 4132.82051282 , 4132.82051282 , 4134.87179487 , 4134.35897436 , 4130.25641026 , 4128.71794872 , 4122.56410256 , 4130.25641026 , 4131.28205128 , 4138.46153846 , 4190.25641026 , 4912.82051282 , 4134.87179487 , 4137.94871795 , 2055.0 , 2036.0 , 111.718 , 0.0 , 0.0 , 0.0 , 0.0 , 

21.0 , 4134.87179487 , 4132.82051282 , 4132.82051282 , 4135.38461538 , 4130.76923077 , 4126.15384615 , 4126.66666667 , 4133.33333333 , 4132.30769231 , 4138.46153846 , 4189.23076923 , 4910.25641026 , 4132.30769231 , 4133.33333333 , 2052.0 , 2035.0 , 111.727 , 0.0 , 0.0 , 0.0 , 0.0 , 

22.0 , 4134.35897436 , 4133.84615385 , 4134.35897436 , 4133.33333333 , 4130.76923077 , 4128.20512821 , 4128.71794872 , 4135.8974359 , 4131.79487179 , 4137.43589744 , 4191.79487179 , 4908.71794872 , 4132.82051282 , 4135.38461538 , 2052.0 , 2035.0 , 111.732 , 0.0 , 0.0 , 0.0 , 0.0 , 

23.0 , 4132.82051282 , 4133.33333333 , 4136.92307692 , 4132.82051282 , 4129.74358974 , 4129.74358974 , 4126.15384615 , 4133.84615385 , 4132.30769231 , 4138.46153846 , 4195.38461538 , 4908.71794872 , 4132.30769231 , 4142.05128205 , 2050.0 , 2036.0 , 111.741 , 0.0 , 0.0 , 0.0 , 0.0 , 

24.0 , 4133.33333333 , 4133.33333333 , 4132.82051282 , 4132.82051282 , 4128.71794872 , 4128.20512821 , 4125.64102564 , 4132.30769231 , 4134.35897436 , 4138.46153846 , 4193.84615385 , 4909.23076923 , 4132.30769231 , 4143.07692308 , 2049.0 , 2035.0 , 111.749 , 0.0 , 0.0 , 0.0 , 0.0 , 

25.0 , 4134.87179487 , 4133.33333333 , 4128.71794872 , 4133.33333333 , 4131.28205128 , 4128.20512821 , 4127.17948718 , 4130.76923077 , 4132.82051282 , 4138.46153846 , 4192.30769231 , 4915.38461538 , 4133.33333333 , 4142.05128205 , 2047.0 , 2036.0 , 111.757 , 0.0 , 0.0 , 0.0 , 0.0 , 

26.0 , 4132.30769231 , 4134.35897436 , 4130.25641026 , 4138.97435897 , 4133.33333333 , 4128.71794872 , 4125.12820513 , 4129.74358974 , 4132.30769231 , 4140.0 , 4193.33333333 , 4916.41025641 , 4135.38461538 , 4141.02564103 , 2048.0 , 2035.0 , 111.765 , 0.0 , 0.0 , 0.0 , 0.0 , 

27.0 , 4131.79487179 , 4132.30769231 , 4133.33333333 , 4138.97435897 , 4130.76923077 , 4126.15384615 , 4123.58974359 , 4132.30769231 , 4132.82051282 , 4138.97435897 , 4193.84615385 , 4911.79487179 , 4134.87179487 , 4141.53846154 , 2048.0 , 2035.0 , 111.773 , 0.0 , 0.0 , 0.0 , 0.0 , 

28.0 , 4131.79487179 , 4131.79487179 , 4130.25641026 , 4137.94871795 , 4131.28205128 , 4128.20512821 , 4128.20512821 , 4134.87179487 , 4132.82051282 , 4137.43589744 , 4194.35897436 , 4909.74358974 , 4136.41025641 , 4135.8974359 , 2048.0 , 2034.0 , 111.781 , 0.0 , 0.0 , 0.0 , 0.0 , 

29.0 , 4132.82051282 , 4133.84615385 , 4130.25641026 , 4139.48717949 , 4131.79487179 , 4130.76923077 , 4132.30769231 , 4130.76923077 , 4130.76923077 , 4138.46153846 , 4193.33333333 , 4913.84615385 , 4134.35897436 , 4137.43589744 , 2047.0 , 2033.0 , 111.788 , 0.0 , 0.0 , 0.0 , 0.0 , 

30.0 , 4128.71794872 , 4134.35897436 , 4131.79487179 , 4141.02564103 , 4130.25641026 , 4131.28205128 , 4132.30769231 , 4130.76923077 , 4132.82051282 , 4138.97435897 , 4190.76923077 , 4912.82051282 , 4134.35897436 , 4136.92307692 , 2047.0 , 2034.0 , 111.796 , 0.0 , 0.0 , 0.0 , 0.0 , 

31.0 , 4130.76923077 , 4133.33333333 , 4130.76923077 , 4139.48717949 , 4131.28205128 , 4128.20512821 , 4127.17948718 , 4133.84615385 , 4135.38461538 , 4136.92307692 , 4190.76923077 , 4915.38461538 , 4135.38461538 , 4137.94871795 , 2046.0 , 2034.0 , 111.804 , 0.0 , 0.0 , 0.0 , 0.0 , 

32.0 , 4133.33333333 , 4135.8974359 , 4126.66666667 , 4140.51282051 , 4132.30769231 , 4127.69230769 , 4126.66666667 , 4135.38461538 , 4137.43589744 , 4136.41025641 , 4192.82051282 , 4915.38461538 , 4134.87179487 , 4133.33333333 , 2046.0 , 2033.0 , 111.812 , 0.0 , 0.0 , 0.0 , 0.0 , 

33.0 , 4134.87179487 , 4134.87179487 , 4128.20512821 , 4140.51282051 , 4130.25641026 , 4127.69230769 , 4126.66666667 , 4133.84615385 , 4136.41025641 , 4138.46153846 , 4193.33333333 , 4911.28205128 , 4136.92307692 , 4134.87179487 , 2047.0 , 2033.0 , 111.82 , 0.0 , 0.0 , 0.0 , 0.0 , 

34.0 , 4130.76923077 , 4134.35897436 , 4128.71794872 , 4145.12820513 , 4130.76923077 , 4129.23076923 , 4126.66666667 , 4133.33333333 , 4135.8974359 , 4138.97435897 , 4192.30769231 , 4907.69230769 , 4137.94871795 , 4134.87179487 , 2047.0 , 2031.0 , 111.829 , 0.0 , 0.0 , 0.0 , 0.0 , 

35.0 , 4132.30769231 , 4136.41025641 , 4122.05128205 , 4146.66666667 , 4130.76923077 , 4127.17948718 , 4126.15384615 , 4132.82051282 , 4136.92307692 , 4137.94871795 , 4191.79487179 , 4912.30769231 , 4131.28205128 , 4137.43589744 , 2048.0 , 2031.0 , 111.837 , 0.0 , 0.0 , 0.0 , 0.0 , 

36.0 , 4133.84615385 , 4136.92307692 , 4122.56410256 , 4141.02564103 , 4129.74358974 , 4128.20512821 , 4125.64102564 , 4134.35897436 , 4138.97435897 , 4138.97435897 , 4192.30769231 , 4911.28205128 , 4126.15384615 , 4136.41025641 , 2048.0 , 2031.0 , 111.844 , 0.0 , 0.0 , 0.0 , 0.0 , 

37.0 , 4132.82051282 , 4134.35897436 , 4129.74358974 , 4139.48717949 , 4131.79487179 , 4127.69230769 , 4123.58974359 , 4133.84615385 , 4135.8974359 , 4138.97435897 , 4193.33333333 , 4909.74358974 , 4130.76923077 , 4138.46153846 , 2048.0 , 2031.0 , 111.851 , 0.0 , 0.0 , 0.0 , 0.0 , 

38.0 , 4131.28205128 , 4133.84615385 , 4126.66666667 , 4145.12820513 , 4131.79487179 , 4126.15384615 , 4125.12820513 , 4132.82051282 , 4134.35897436 , 4137.43589744 , 4191.79487179 , 4912.30769231 , 4134.35897436 , 4135.38461538 , 2047.0 , 2032.0 , 111.859 , 0.0 , 0.0 , 0.0 , 0.0 , 

39.0 , 4133.33333333 , 4136.41025641 , 4122.56410256 , 4145.12820513 , 4128.20512821 , 4126.66666667 , 4125.64102564 , 4134.35897436 , 4136.41025641 , 4137.94871795 , 4190.76923077 , 4914.87179487 , 4130.25641026 , 4134.87179487 , 2047.0 , 2033.0 , 111.868 , 0.0 , 0.0 , 0.0 , 0.0 , 

40.0 , 4132.30769231 , 4136.41025641 , 4125.12820513 , 4141.53846154 , 4130.76923077 , 4129.23076923 , 4124.61538462 , 4135.38461538 , 4137.43589744 , 4138.97435897 , 4190.25641026 , 4910.25641026 , 4128.20512821 , 4139.48717949 , 2046.0 , 2035.0 , 111.876 , 0.0 , 0.0 , 0.0 , 0.0 , 

41.0 , 4131.28205128 , 4134.35897436 , 4130.76923077 , 4141.02564103 , 4132.82051282 , 4127.17948718 , 4124.1025641 , 4133.84615385 , 4135.38461538 , 4138.97435897 , 4189.74358974 , 4910.76923077 , 4132.30769231 , 4143.07692308 , 2045.0 , 2033.0 , 111.883 , 0.0 , 0.0 , 0.0 , 0.0 , 

42.0 , 4135.8974359 , 4133.84615385 , 4130.25641026 , 4144.1025641 , 4128.71794872 , 4126.66666667 , 4123.58974359 , 4130.76923077 , 4133.84615385 , 4137.94871795 , 4191.28205128 , 4914.87179487 , 4135.38461538 , 4140.51282051 , 2045.0 , 2032.0 , 111.892 , 0.0 , 0.0 , 0.0 , 0.0 , 

43.0 , 4136.92307692 , 4135.8974359 , 4124.61538462 , 4146.66666667 , 4127.69230769 , 4129.74358974 , 4122.05128205 , 4131.79487179 , 4132.82051282 , 4137.43589744 , 4193.33333333 , 4910.76923077 , 4133.84615385 , 4136.92307692 , 2046.0 , 2032.0 , 111.899 , 0.0 , 0.0 , 0.0 , 0.0 , 

44.0 , 4133.33333333 , 4133.84615385 , 4124.1025641 , 4143.07692308 , 4129.74358974 , 4129.74358974 , 4117.94871795 , 4130.76923077 , 4130.76923077 , 4136.92307692 , 4193.84615385 , 4908.71794872 , 4131.79487179 , 4140.51282051 , 2046.0 , 2035.0 , 111.908 , 0.0 , 0.0 , 0.0 , 0.0 , 

45.0 , 4132.30769231 , 4134.35897436 , 4128.71794872 , 4142.56410256 , 4129.74358974 , 4130.76923077 , 4120.51282051 , 4128.71794872 , 4130.76923077 , 4138.46153846 , 4191.28205128 , 4910.25641026 , 4133.33333333 , 4141.53846154 , 2048.0 , 2035.0 , 111.915 , 0.0 , 0.0 , 0.0 , 0.0 , 

46.0 , 4135.8974359 , 4137.94871795 , 4132.30769231 , 4143.07692308 , 4129.74358974 , 4130.76923077 , 4126.66666667 , 4128.71794872 , 4131.28205128 , 4140.0 , 4189.74358974 , 4913.84615385 , 4133.33333333 , 4138.97435897 , 2049.0 , 2033.0 , 111.923 , 0.0 , 0.0 , 0.0 , 0.0 , 

47.0 , 4133.84615385 , 4136.41025641 , 4129.23076923 , 4141.53846154 , 4132.30769231 , 4129.74358974 , 4128.71794872 , 4131.28205128 , 4132.30769231 , 4138.46153846 , 4189.23076923 , 4911.79487179 , 4132.82051282 , 4132.82051282 , 2049.0 , 2034.0 , 111.931 , 0.0 , 0.0 , 0.0 , 0.0 , 

48.0 , 4131.79487179 , 4134.35897436 , 4129.23076923 , 4138.46153846 , 4132.82051282 , 4127.17948718 , 4127.69230769 , 4130.76923077 , 4131.28205128 , 4138.46153846 , 4190.76923077 , 4908.71794872 , 4131.79487179 , 4134.35897436 , 2051.0 , 2034.0 , 111.939 , 0.0 , 0.0 , 0.0 , 0.0 , 

49.0 , 4130.25641026 , 4137.43589744 , 4130.76923077 , 4139.48717949 , 4133.84615385 , 4128.20512821 , 4130.76923077 , 4131.28205128 , 4132.82051282 , 4138.46153846 , 4191.28205128 , 4907.17948718 , 4132.82051282 , 4131.28205128 , 2052.0 , 2033.0 , 111.946 , 0.0 , 0.0 , 0.0 , 0.0 , 

50.0 , 4134.35897436 , 4136.41025641 , 4131.28205128 , 4138.46153846 , 4135.38461538 , 4128.71794872 , 4129.74358974 , 4130.25641026 , 4131.79487179 , 4136.92307692 , 4190.76923077 , 4913.33333333 , 4134.35897436 , 4136.41025641 , 2054.0 , 2033.0 , 111.955 , 0.0 , 0.0 , 0.0 , 0.0 , 

51.0 , 4135.8974359 , 4132.30769231 , 4131.28205128 , 4137.94871795 , 4134.35897436 , 4129.74358974 , 4130.76923077 , 4129.23076923 , 4129.74358974 , 4136.92307692 , 4190.25641026 , 4915.8974359 , 4134.35897436 , 4141.02564103 , 2052.0 , 2033.0 , 111.963 , 0.0 , 0.0 , 0.0 , 0.0 , 

52.0 , 4135.8974359 , 4132.30769231 , 4131.79487179 , 4137.94871795 , 4130.25641026 , 4128.71794872 , 4130.25641026 , 4130.76923077 , 4129.74358974 , 4138.97435897 , 4191.79487179 , 4916.92307692 , 4132.82051282 , 4143.58974359 , 2052.0 , 2032.0 , 111.971 , 0.0 , 0.0 , 0.0 , 0.0 , 

53.0 , 4134.35897436 , 4135.38461538 , 4131.28205128 , 4138.46153846 , 4128.71794872 , 4131.28205128 , 4123.58974359 , 4132.82051282 , 4131.28205128 , 4138.46153846 , 4193.84615385 , 4912.82051282 , 4130.76923077 , 4136.92307692 , 2051.0 , 2032.0 , 111.978 , 0.0 , 0.0 , 0.0 , 0.0 , 

54.0 , 4134.87179487 , 4132.82051282 , 4131.28205128 , 4136.92307692 , 4130.76923077 , 4134.35897436 , 4123.58974359 , 4128.71794872 , 4130.25641026 , 4137.43589744 , 4192.30769231 , 4910.76923077 , 4133.84615385 , 4140.0 , 2051.0 , 2032.0 , 111.985 , 0.0 , 0.0 , 0.0 , 0.0 , 

55.0 , 4131.79487179 , 4129.23076923 , 4133.33333333 , 4135.8974359 , 4131.79487179 , 4134.35897436 , 4132.82051282 , 4129.23076923 , 4131.28205128 , 4137.94871795 , 4190.25641026 , 4912.30769231 , 4135.38461538 , 4143.07692308 , 2051.0 , 2031.0 , 111.994 , 0.0 , 0.0 , 0.0 , 0.0 , 

56.0 , 4131.28205128 , 4129.74358974 , 4134.87179487 , 4137.43589744 , 4129.23076923 , 4132.30769231 , 4131.79487179 , 4134.35897436 , 4136.92307692 , 4136.92307692 , 4192.30769231 , 4913.84615385 , 4134.87179487 , 4145.12820513 , 2050.0 , 2031.0 , 112.001 , 0.0 , 0.0 , 0.0 , 0.0 , 

57.0 , 4132.30769231 , 4132.82051282 , 4131.28205128 , 4138.97435897 , 4129.74358974 , 4131.28205128 , 4127.69230769 , 4134.35897436 , 4135.38461538 , 4136.41025641 , 4191.79487179 , 4909.23076923 , 4135.8974359 , 4144.1025641 , 2048.0 , 2030.0 , 112.009 , 0.0 , 0.0 , 0.0 , 0.0 , 

58.0 , 4133.33333333 , 4134.35897436 , 4129.74358974 , 4134.87179487 , 4130.76923077 , 4130.76923077 , 4127.69230769 , 4128.71794872 , 4131.28205128 , 4138.97435897 , 4189.74358974 , 4909.74358974 , 4135.8974359 , 4144.61538462 , 2046.0 , 2032.0 , 112.017 , 0.0 , 0.0 , 0.0 , 0.0 , 

59.0 , 4132.82051282 , 4134.87179487 , 4130.25641026 , 4135.8974359 , 4129.74358974 , 4131.79487179 , 4126.66666667 , 4128.71794872 , 4133.84615385 , 4138.97435897 , 4191.28205128 , 4913.84615385 , 4132.30769231 , 4146.15384615 , 2046.0 , 2033.0 , 112.025 , 0.0 , 0.0 , 0.0 , 0.0 , 

60.0 , 4131.79487179 , 4133.84615385 , 4129.74358974 , 4140.0 , 4129.23076923 , 4131.28205128 , 4125.64102564 , 4132.30769231 , 4136.92307692 , 4138.97435897 , 4191.28205128 , 4916.41025641 , 4133.33333333 , 4144.61538462 , 2043.0 , 2032.0 , 112.033 , 0.0 , 0.0 , 0.0 , 0.0 , 

61.0 , 4132.82051282 , 4133.84615385 , 4130.25641026 , 4136.41025641 , 4130.76923077 , 4130.25641026 , 4127.69230769 , 4132.30769231 , 4134.87179487 , 4138.97435897 , 4190.25641026 , 4916.41025641 , 4136.92307692 , 4142.56410256 , 2044.0 , 2033.0 , 112.041 , 0.0 , 0.0 , 0.0 , 0.0 , 

62.0 , 4134.35897436 , 4133.84615385 , 4131.79487179 , 4135.38461538 , 4129.23076923 , 4129.74358974 , 4127.17948718 , 4133.84615385 , 4136.41025641 , 4139.48717949 , 4191.79487179 , 4912.30769231 , 4137.94871795 , 4139.48717949 , 2042.0 , 2034.0 , 112.048 , 0.0 , 0.0 , 0.0 , 0.0 , 

63.0 , 4135.8974359 , 4129.23076923 , 4131.79487179 , 4137.94871795 , 4127.69230769 , 4129.74358974 , 4124.61538462 , 4133.84615385 , 4138.46153846 , 4137.94871795 , 4192.82051282 , 4909.74358974 , 4134.35897436 , 4139.48717949 , 2042.0 , 2033.0 , 112.056 , 0.0 , 0.0 , 0.0 , 0.0 , 

64.0 , 4134.35897436 , 4128.20512821 , 4130.76923077 , 4135.8974359 , 4129.23076923 , 4130.76923077 , 4124.61538462 , 4131.28205128 , 4136.92307692 , 4138.46153846 , 4191.79487179 , 4908.71794872 , 4133.84615385 , 4136.92307692 , 2042.0 , 2034.0 , 112.063 , 0.0 , 0.0 , 0.0 , 0.0 , 

65.0 , 4133.84615385 , 4131.79487179 , 4134.87179487 , 4131.79487179 , 4130.25641026 , 4131.79487179 , 4126.15384615 , 4130.76923077 , 4135.8974359 , 4139.48717949 , 4192.82051282 , 4912.30769231 , 4135.38461538 , 4142.05128205 , 2041.0 , 2034.0 , 112.072 , 0.0 , 0.0 , 0.0 , 0.0 , 

66.0 , 4132.30769231 , 4133.84615385 , 4136.92307692 , 4135.38461538 , 4133.33333333 , 4132.30769231 , 4128.20512821 , 4133.84615385 , 4137.43589744 , 4138.97435897 , 4193.84615385 , 4912.82051282 , 4136.92307692 , 4144.1025641 , 2041.0 , 2034.0 , 112.08 , 0.0 , 0.0 , 0.0 , 0.0 , 

67.0 , 4134.35897436 , 4133.33333333 , 4136.41025641 , 4136.41025641 , 4134.35897436 , 4129.74358974 , 4127.17948718 , 4131.79487179 , 4134.87179487 , 4137.94871795 , 4191.79487179 , 4912.82051282 , 4136.41025641 , 4144.1025641 , 2039.0 , 2033.0 , 112.089 , 0.0 , 0.0 , 0.0 , 0.0 , 

68.0 , 4133.84615385 , 4134.35897436 , 4136.41025641 , 4134.87179487 , 4132.30769231 , 4132.30769231 , 4127.69230769 , 4130.76923077 , 4133.84615385 , 4137.94871795 , 4191.28205128 , 4911.28205128 , 4136.41025641 , 4141.53846154 , 2040.0 , 2033.0 , 112.097 , 0.0 , 0.0 , 0.0 , 0.0 , 

69.0 , 4134.35897436 , 4134.87179487 , 4136.92307692 , 4132.82051282 , 4131.28205128 , 4133.33333333 , 4127.69230769 , 4131.79487179 , 4135.38461538 , 4138.46153846 , 4193.84615385 , 4912.82051282 , 4135.38461538 , 4147.69230769 , 2038.0 , 2033.0 , 112.105 , 0.0 , 0.0 , 0.0 , 0.0 , 

70.0 , 4131.79487179 , 4135.8974359 , 4133.84615385 , 4133.84615385 , 4131.79487179 , 4128.71794872 , 4128.71794872 , 4133.84615385 , 4137.43589744 , 4138.97435897 , 4193.33333333 , 4910.25641026 , 4135.38461538 , 4142.56410256 , 2037.0 , 2032.0 , 112.112 , 0.0 , 0.0 , 0.0 , 0.0 , 

71.0 , 4132.82051282 , 4133.84615385 , 4134.87179487 , 4132.82051282 , 4130.25641026 , 4125.12820513 , 4128.20512821 , 4131.28205128 , 4133.84615385 , 4138.97435897 , 4192.82051282 , 4909.74358974 , 4136.92307692 , 4140.51282051 , 2036.0 , 2032.0 , 112.12 , 0.0 , 0.0 , 0.0 , 0.0 , 

72.0 , 4132.30769231 , 4133.33333333 , 4136.41025641 , 4131.28205128 , 4127.69230769 , 4130.76923077 , 4129.74358974 , 4131.28205128 , 4131.79487179 , 4138.97435897 , 4193.33333333 , 4910.76923077 , 4136.41025641 , 4141.53846154 , 2035.0 , 2030.0 , 112.128 , 0.0 , 0.0 , 0.0 , 0.0 , 

73.0 , 4134.87179487 , 4133.33333333 , 4136.41025641 , 4131.28205128 , 4127.17948718 , 4132.82051282 , 4129.74358974 , 4132.30769231 , 4133.84615385 , 4138.46153846 , 4193.33333333 , 4912.30769231 , 4137.43589744 , 4142.05128205 , 2037.0 , 2031.0 , 112.135 , 0.0 , 0.0 , 0.0 , 0.0 , 

74.0 , 4135.38461538 , 4131.79487179 , 4136.41025641 , 4134.87179487 , 4129.23076923 , 4131.28205128 , 4130.25641026 , 4132.82051282 , 4136.92307692 , 4138.97435897 , 4190.76923077 , 4908.71794872 , 4136.92307692 , 4139.48717949 , 2037.0 , 2029.0 , 112.143 , 0.0 , 0.0 , 0.0 , 0.0 , 

75.0 , 4133.84615385 , 4129.23076923 , 4135.8974359 , 4134.87179487 , 4131.28205128 , 4129.74358974 , 4128.20512821 , 4133.84615385 , 4136.41025641 , 4138.46153846 , 4192.30769231 , 4908.20512821 , 4134.87179487 , 4142.56410256 , 2037.0 , 2031.0 , 112.151 , 0.0 , 0.0 , 0.0 , 0.0 , 

76.0 , 4132.30769231 , 4131.79487179 , 4133.84615385 , 4134.35897436 , 4131.28205128 , 4129.74358974 , 4126.15384615 , 4134.87179487 , 4135.8974359 , 4137.43589744 , 4193.33333333 , 4912.82051282 , 4135.38461538 , 4141.02564103 , 2037.0 , 2031.0 , 112.16 , 0.0 , 0.0 , 0.0 , 0.0 , 

77.0 , 4134.87179487 , 4133.33333333 , 4135.38461538 , 4136.41025641 , 4129.74358974 , 4132.30769231 , 4125.12820513 , 4133.33333333 , 4135.8974359 , 4139.48717949 , 4189.23076923 , 4914.87179487 , 4137.43589744 , 4137.94871795 , 2038.0 , 2032.0 , 112.167 , 0.0 , 0.0 , 0.0 , 0.0 , 

78.0 , 4136.41025641 , 4130.25641026 , 4139.48717949 , 4135.8974359 , 4131.28205128 , 4130.76923077 , 4126.15384615 , 4134.35897436 , 4135.8974359 , 4139.48717949 , 4189.74358974 , 4912.82051282 , 4137.43589744 , 4139.48717949 , 2039.0 , 2031.0 , 112.174 , 0.0 , 0.0 , 0.0 , 0.0 , 

79.0 , 4134.87179487 , 4129.74358974 , 4138.46153846 , 4136.92307692 , 4130.76923077 , 4127.17948718 , 4127.17948718 , 4134.87179487 , 4136.41025641 , 4139.48717949 , 4196.41025641 , 4911.28205128 , 4137.43589744 , 4141.53846154 , 2042.0 , 2033.0 , 112.183 , 0.0 , 0.0 , 0.0 , 0.0 , 

80.0 , 4137.94871795 , 4133.84615385 , 4135.8974359 , 4138.46153846 , 4128.71794872 , 4128.71794872 , 4125.12820513 , 4129.74358974 , 4135.38461538 , 4141.53846154 , 4194.87179487 , 4912.82051282 , 4134.35897436 , 4142.56410256 , 2042.0 , 2034.0 , 112.191 , 0.0 , 0.0 , 0.0 , 0.0 , 

81.0 , 4138.97435897 , 4134.87179487 , 4136.41025641 , 4136.92307692 , 4130.25641026 , 4131.28205128 , 4125.12820513 , 4131.79487179 , 4136.41025641 , 4140.51282051 , 4189.74358974 , 4909.74358974 , 4130.76923077 , 4142.05128205 , 2044.0 , 2035.0 , 112.198 , 0.0 , 0.0 , 0.0 , 0.0 , 

82.0 , 4136.92307692 , 4131.28205128 , 4137.43589744 , 4133.84615385 , 4133.33333333 , 4128.20512821 , 4124.61538462 , 4136.92307692 , 4138.46153846 , 4137.43589744 , 4192.30769231 , 4908.20512821 , 4126.15384615 , 4144.1025641 , 2046.0 , 2037.0 , 112.206 , 0.0 , 0.0 , 0.0 , 0.0 , 

83.0 , 4132.30769231 , 4130.76923077 , 4136.41025641 , 4136.41025641 , 4134.35897436 , 4128.71794872 , 4125.64102564 , 4135.8974359 , 4138.46153846 , 4137.94871795 , 4195.38461538 , 4910.25641026 , 4122.56410256 , 4141.02564103 , 2046.0 , 2038.0 , 112.215 , 0.0 , 0.0 , 0.0 , 0.0 , 

84.0 , 4132.82051282 , 4131.28205128 , 4137.43589744 , 4137.43589744 , 4131.28205128 , 4129.23076923 , 4125.12820513 , 4134.35897436 , 4135.8974359 , 4137.43589744 , 4192.82051282 , 4912.82051282 , 4120.0 , 4140.51282051 , 2047.0 , 2036.0 , 112.222 , 0.0 , 0.0 , 0.0 , 0.0 , 

85.0 , 4133.84615385 , 4132.82051282 , 4136.92307692 , 4139.48717949 , 4131.28205128 , 4131.79487179 , 4122.56410256 , 4136.92307692 , 4135.8974359 , 4136.92307692 , 4193.33333333 , 4909.74358974 , 4120.51282051 , 4137.43589744 , 2048.0 , 2038.0 , 112.23 , 0.0 , 0.0 , 0.0 , 0.0 , 

86.0 , 4135.38461538 , 4133.33333333 , 4138.97435897 , 4139.48717949 , 4132.30769231 , 4133.84615385 , 4122.05128205 , 4133.84615385 , 4137.94871795 , 4137.94871795 , 4195.8974359 , 4909.23076923 , 4120.0 , 4140.0 , 2048.0 , 2038.0 , 112.238 , 0.0 , 0.0 , 0.0 , 0.0 , 

87.0 , 4131.79487179 , 4131.28205128 , 4140.51282051 , 4137.94871795 , 4132.82051282 , 4132.82051282 , 4127.17948718 , 4131.79487179 , 4138.97435897 , 4139.48717949 , 4193.33333333 , 4908.71794872 , 4118.97435897 , 4138.97435897 , 2049.0 , 2038.0 , 112.246 , 0.0 , 0.0 , 0.0 , 0.0 , 

88.0 , 4135.38461538 , 4130.25641026 , 4140.0 , 4134.35897436 , 4130.25641026 , 4126.15384615 , 4127.17948718 , 4133.33333333 , 4136.41025641 , 4138.97435897 , 4191.28205128 , 4910.76923077 , 4119.48717949 , 4142.05128205 , 2045.0 , 2037.0 , 112.254 , 0.0 , 0.0 , 0.0 , 0.0 , 

89.0 , 4136.92307692 , 4132.82051282 , 4138.46153846 , 4135.8974359 , 4129.23076923 , 4127.69230769 , 4125.12820513 , 4134.35897436 , 4136.41025641 , 4138.97435897 , 4192.82051282 , 4911.79487179 , 4120.0 , 4138.46153846 , 2044.0 , 2036.0 , 112.261 , 0.0 , 0.0 , 0.0 , 0.0 , 

90.0 , 4134.35897436 , 4132.30769231 , 4138.97435897 , 4137.94871795 , 4130.25641026 , 4129.74358974 , 4124.1025641 , 4132.82051282 , 4136.92307692 , 4138.97435897 , 4193.33333333 , 4911.79487179 , 4120.0 , 4140.0 , 2043.0 , 2038.0 , 112.269 , 0.0 , 0.0 , 0.0 , 0.0 , 

91.0 , 4134.35897436 , 4131.79487179 , 4136.41025641 , 4137.94871795 , 4131.28205128 , 4128.71794872 , 4126.15384615 , 4133.33333333 , 4137.94871795 , 4140.51282051 , 4192.30769231 , 4909.74358974 , 4118.97435897 , 4140.0 , 2041.0 , 2036.0 , 112.277 , 0.0 , 0.0 , 0.0 , 0.0 , 

92.0 , 4138.97435897 , 4131.79487179 , 4137.94871795 , 4134.87179487 , 4131.28205128 , 4127.17948718 , 4128.71794872 , 4134.35897436 , 4139.48717949 , 4139.48717949 , 4192.82051282 , 4912.30769231 , 4118.97435897 , 4137.94871795 , 2040.0 , 2037.0 , 112.285 , 0.0 , 0.0 , 0.0 , 0.0 , 

93.0 , 4135.8974359 , 4130.76923077 , 4137.94871795 , 4136.92307692 , 4131.28205128 , 4130.25641026 , 4128.20512821 , 4134.35897436 , 4140.51282051 , 4137.43589744 , 4192.30769231 , 4911.28205128 , 4118.97435897 , 4133.33333333 , 2039.0 , 2037.0 , 112.293 , 0.0 , 0.0 , 0.0 , 0.0 , 

94.0 , 4133.33333333 , 4132.30769231 , 4135.8974359 , 4143.07692308 , 4130.25641026 , 4133.84615385 , 4122.56410256 , 4134.87179487 , 4137.94871795 , 4137.94871795 , 4191.28205128 , 4907.69230769 , 4118.46153846 , 4135.8974359 , 2039.0 , 2038.0 , 112.301 , 0.0 , 0.0 , 0.0 , 0.0 , 

95.0 , 4136.92307692 , 4135.38461538 , 4137.43589744 , 4143.07692308 , 4130.76923077 , 4132.30769231 , 4122.05128205 , 4134.87179487 , 4137.43589744 , 4139.48717949 , 4190.76923077 , 4909.23076923 , 4120.0 , 4135.8974359 , 2039.0 , 2036.0 , 112.308 , 0.0 , 0.0 , 0.0 , 0.0 , 

96.0 , 4139.48717949 , 4132.82051282 , 4138.97435897 , 4136.92307692 , 4131.28205128 , 4127.69230769 , 4124.61538462 , 4133.33333333 , 4141.02564103 , 4138.97435897 , 4185.64102564 , 4911.28205128 , 4122.05128205 , 4133.33333333 , 2039.0 , 2035.0 , 112.316 , 0.0 , 0.0 , 0.0 , 0.0 , 

97.0 , 4138.46153846 , 4130.25641026 , 4134.87179487 , 4135.8974359 , 4130.76923077 , 4129.23076923 , 4122.05128205 , 4129.23076923 , 4141.02564103 , 4138.46153846 , 4182.05128205 , 4909.23076923 , 4123.58974359 , 4133.33333333 , 2041.0 , 2035.0 , 112.324 , 0.0 , 0.0 , 0.0 , 0.0 , 

98.0 , 4135.38461538 , 4132.82051282 , 4135.38461538 , 4138.97435897 , 4129.23076923 , 4130.76923077 , 4122.56410256 , 4129.74358974 , 4139.48717949 , 4138.46153846 , 4186.66666667 , 4911.28205128 , 4128.20512821 , 4135.38461538 , 2042.0 , 2033.0 , 112.332 , 0.0 , 0.0 , 0.0 , 0.0 , 

99.0 , 4134.87179487 , 4134.87179487 , 4138.97435897 , 4134.87179487 , 4129.74358974 , 4126.15384615 , 4125.12820513 , 4134.35897436 , 4137.43589744 , 4137.43589744 , 4191.28205128 , 4917.43589744 , 4130.25641026 , 4141.02564103 , 2042.0 , 2031.0 , 112.341 , 0.0 , 0.0 , 0.0 , 0.0 , 

100.0 , 4133.33333333 , 4134.35897436 , 4137.94871795 , 4130.25641026 , 4130.25641026 , 4125.64102564 , 4126.66666667 , 4137.94871795 , 4137.94871795 , 4137.94871795 , 4189.74358974 , 4917.43589744 , 4131.79487179 , 4138.97435897 , 2042.0 , 2030.0 , 112.348 , 0.0 , 0.0 , 0.0 , 0.0 , 

101.0 , 4132.82051282 , 4131.79487179 , 4138.46153846 , 4131.28205128 , 4130.25641026 , 4127.17948718 , 4126.66666667 , 4136.92307692 , 4137.94871795 , 4140.0 , 4190.76923077 , 4916.41025641 , 4133.84615385 , 4136.41025641 , 2043.0 , 2031.0 , 112.356 , 0.0 , 0.0 , 0.0 , 0.0 , 

102.0 , 4131.79487179 , 4133.33333333 , 4138.46153846 , 4134.87179487 , 4131.28205128 , 4127.69230769 , 4127.69230769 , 4135.8974359 , 4138.97435897 , 4139.48717949 , 4189.23076923 , 4913.84615385 , 4134.35897436 , 4134.87179487 , 2045.0 , 2032.0 , 112.363 , 0.0 , 0.0 , 0.0 , 0.0 , 

103.0 , 4134.35897436 , 4135.38461538 , 4137.43589744 , 4132.82051282 , 4130.76923077 , 4128.20512821 , 4126.15384615 , 4134.87179487 , 4137.94871795 , 4137.94871795 , 4185.12820513 , 4914.87179487 , 4129.74358974 , 4139.48717949 , 2046.0 , 2034.0 , 112.372 , 0.0 , 0.0 , 0.0 , 0.0 , 

104.0 , 4131.79487179 , 4129.23076923 , 4135.38461538 , 4130.25641026 , 4130.25641026 , 4130.76923077 , 4128.20512821 , 4137.43589744 , 4136.92307692 , 4138.97435897 , 4186.15384615 , 4914.35897436 , 4130.25641026 , 4134.35897436 , 2048.0 , 2036.0 , 112.379 , 0.0 , 0.0 , 0.0 , 0.0 , 

105.0 , 4130.76923077 , 4125.64102564 , 4136.92307692 , 4131.28205128 , 4129.23076923 , 4128.71794872 , 4127.69230769 , 4136.41025641 , 4137.94871795 , 4138.46153846 , 4191.28205128 , 4914.87179487 , 4134.87179487 , 4134.87179487 , 2051.0 , 2035.0 , 112.387 , 0.0 , 0.0 , 0.0 , 0.0 , 

106.0 , 4130.25641026 , 4130.76923077 , 4136.41025641 , 4134.35897436 , 4130.76923077 , 4130.25641026 , 4124.1025641 , 4133.33333333 , 4140.0 , 4136.92307692 , 4191.28205128 , 4912.30769231 , 4135.8974359 , 4135.38461538 , 2052.0 , 2036.0 , 112.395 , 0.0 , 0.0 , 0.0 , 0.0 , 

107.0 , 4130.76923077 , 4130.25641026 , 4134.87179487 , 4133.33333333 , 4130.25641026 , 4130.76923077 , 4118.97435897 , 4133.33333333 , 4139.48717949 , 4138.97435897 , 4185.64102564 , 4912.82051282 , 4134.35897436 , 4139.48717949 , 2052.0 , 2037.0 , 112.403 , 0.0 , 0.0 , 0.0 , 0.0 , 

108.0 , 4127.17948718 , 4129.23076923 , 4132.82051282 , 4132.82051282 , 4129.23076923 , 4128.20512821 , 4120.0 , 4134.87179487 , 4137.94871795 , 4139.48717949 , 4187.17948718 , 4911.79487179 , 4134.35897436 , 4139.48717949 , 2053.0 , 2035.0 , 112.411 , 0.0 , 0.0 , 0.0 , 0.0 , 

109.0 , 4127.69230769 , 4132.30769231 , 4135.38461538 , 4133.33333333 , 4131.28205128 , 4127.17948718 , 4123.07692308 , 4132.30769231 , 4135.38461538 , 4136.92307692 , 4192.82051282 , 4913.84615385 , 4138.46153846 , 4143.07692308 , 2057.0 , 2035.0 , 112.419 , 0.0 , 0.0 , 0.0 , 0.0 , 

110.0 , 4130.25641026 , 4132.30769231 , 4137.94871795 , 4132.30769231 , 4133.33333333 , 4128.20512821 , 4127.17948718 , 4131.79487179 , 4135.8974359 , 4135.8974359 , 4192.82051282 , 4915.38461538 , 4140.51282051 , 4144.1025641 , 2057.0 , 2034.0 , 112.427 , 0.0 , 0.0 , 0.0 , 0.0 , 

111.0 , 4131.79487179 , 4129.23076923 , 4135.8974359 , 4130.76923077 , 4131.28205128 , 4128.71794872 , 4129.74358974 , 4133.84615385 , 4137.94871795 , 4138.46153846 , 4193.33333333 , 4916.92307692 , 4140.51282051 , 4149.23076923 , 2058.0 , 2035.0 , 112.434 , 0.0 , 0.0 , 0.0 , 0.0 , 

112.0 , 4129.74358974 , 4130.25641026 , 4133.33333333 , 4130.25641026 , 4130.76923077 , 4130.76923077 , 4129.23076923 , 4133.84615385 , 4138.46153846 , 4138.46153846 , 4194.87179487 , 4915.38461538 , 4142.56410256 , 4147.69230769 , 2057.0 , 2033.0 , 112.442 , 0.0 , 0.0 , 0.0 , 0.0 , 

113.0 , 4131.28205128 , 4128.71794872 , 4135.38461538 , 4130.76923077 , 4132.30769231 , 4129.23076923 , 4126.66666667 , 4133.84615385 , 4138.46153846 , 4137.43589744 , 4194.87179487 , 4912.82051282 , 4145.64102564 , 4145.12820513 , 2058.0 , 2034.0 , 112.45 , 0.0 , 0.0 , 0.0 , 0.0 , 

114.0 , 4131.79487179 , 4127.17948718 , 4137.43589744 , 4131.79487179 , 4131.28205128 , 4127.17948718 , 4130.76923077 , 4136.92307692 , 4137.94871795 , 4138.97435897 , 4191.79487179 , 4913.84615385 , 4144.1025641 , 4148.20512821 , 2057.0 , 2035.0 , 112.458 , 0.0 , 0.0 , 0.0 , 0.0 , 

