['COUNTER', 'AF3', 'F7', 'F3', 'FC5', 'T7', 'P7', 'O1', 'O2', 'P8', 'T8', 'FC6', 'F4', 'F8', 'AF4', 'GYROX', 'GYROY', 'TIMESTAMP', 'FUNC_ID', 'FUNC_VALUE', 'MARKER', 'SYNC_SIGNAL']
60.0 , 4124.61538462 , 4120.0 , 4132.30769231 , 4123.07692308 , 4127.69230769 , 4125.64102564 , 4129.74358974 , 4208.71794872 , 4132.30769231 , 4138.46153846 , 4183.07692308 , 4909.74358974 , 4115.38461538 , 4128.20512821 , 2043.0 , 2034.0 , 43.071 , 0.0 , 0.0 , 0.0 , 0.0 , 

61.0 , 4128.71794872 , 4128.71794872 , 4132.82051282 , 4123.07692308 , 4128.71794872 , 4128.20512821 , 4134.35897436 , 4207.17948718 , 4130.25641026 , 4138.97435897 , 4181.02564103 , 4909.23076923 , 4118.97435897 , 4132.82051282 , 2043.0 , 2034.0 , 43.079 , 0.0 , 0.0 , 0.0 , 0.0 , 

62.0 , 4132.82051282 , 4130.25641026 , 4134.35897436 , 4127.17948718 , 4127.69230769 , 4126.66666667 , 4129.74358974 , 4201.53846154 , 4128.20512821 , 4135.8974359 , 4182.05128205 , 4913.33333333 , 4112.30769231 , 4130.25641026 , 2041.0 , 2033.0 , 43.087 , 0.0 , 0.0 , 0.0 , 0.0 , 

63.0 , 4133.84615385 , 4134.35897436 , 4133.84615385 , 4134.87179487 , 4127.69230769 , 4128.71794872 , 4129.23076923 , 4194.87179487 , 4122.05128205 , 4137.43589744 , 4184.61538462 , 4911.79487179 , 4121.53846154 , 4131.79487179 , 2042.0 , 2032.0 , 43.095 , 0.0 , 0.0 , 0.0 , 0.0 , 

64.0 , 4130.76923077 , 4132.30769231 , 4132.30769231 , 4135.38461538 , 4126.15384615 , 4127.69230769 , 4123.07692308 , 4185.12820513 , 4117.94871795 , 4136.92307692 , 4182.05128205 , 4909.74358974 , 4132.82051282 , 4135.8974359 , 2042.0 , 2030.0 , 43.104 , 0.0 , 0.0 , 0.0 , 0.0 , 

65.0 , 4134.35897436 , 4134.35897436 , 4129.74358974 , 4133.84615385 , 4128.71794872 , 4125.12820513 , 4121.02564103 , 4177.43589744 , 4118.46153846 , 4132.82051282 , 4183.07692308 , 4909.74358974 , 4134.35897436 , 4138.97435897 , 2043.0 , 2031.0 , 43.112 , 0.0 , 0.0 , 0.0 , 0.0 , 

66.0 , 4130.25641026 , 4134.35897436 , 4127.17948718 , 4131.28205128 , 4128.20512821 , 4124.61538462 , 4124.61538462 , 4189.23076923 , 4121.53846154 , 4131.28205128 , 4191.28205128 , 4909.74358974 , 4136.92307692 , 4140.0 , 2043.0 , 2031.0 , 43.12 , 0.0 , 0.0 , 0.0 , 0.0 , 

67.0 , 4131.79487179 , 4125.64102564 , 4124.1025641 , 4130.76923077 , 4125.64102564 , 4125.64102564 , 4117.94871795 , 4186.15384615 , 4120.0 , 4133.84615385 , 4188.20512821 , 4910.25641026 , 4140.51282051 , 4138.97435897 , 2043.0 , 2031.0 , 43.127 , 0.0 , 0.0 , 0.0 , 0.0 , 

68.0 , 4131.79487179 , 4127.17948718 , 4125.64102564 , 4132.82051282 , 4123.58974359 , 4123.07692308 , 4114.87179487 , 4202.05128205 , 4133.84615385 , 4136.92307692 , 4190.76923077 , 4907.17948718 , 4143.58974359 , 4142.56410256 , 2043.0 , 2030.0 , 43.135 , 0.0 , 0.0 , 0.0 , 0.0 , 

69.0 , 4127.69230769 , 4117.43589744 , 4126.66666667 , 4126.15384615 , 4128.20512821 , 4121.02564103 , 4117.94871795 , 4197.43589744 , 4128.20512821 , 4134.87179487 , 4189.74358974 , 4906.15384615 , 4126.66666667 , 4141.53846154 , 2043.0 , 2031.0 , 43.143 , 0.0 , 0.0 , 0.0 , 0.0 , 

70.0 , 4125.12820513 , 4115.38461538 , 4128.71794872 , 4124.61538462 , 4127.69230769 , 4123.58974359 , 4126.66666667 , 4215.8974359 , 4134.35897436 , 4137.94871795 , 4190.76923077 , 4904.61538462 , 4130.76923077 , 4138.97435897 , 2042.0 , 2031.0 , 43.151 , 0.0 , 0.0 , 0.0 , 0.0 , 

71.0 , 4125.12820513 , 4111.28205128 , 4132.30769231 , 4122.56410256 , 4127.17948718 , 4125.12820513 , 4121.02564103 , 4207.17948718 , 4132.82051282 , 4137.94871795 , 4182.56410256 , 4909.23076923 , 4120.0 , 4128.71794872 , 2044.0 , 2030.0 , 43.159 , 0.0 , 0.0 , 0.0 , 0.0 , 

72.0 , 4124.61538462 , 4124.61538462 , 4135.38461538 , 4126.15384615 , 4128.20512821 , 4125.64102564 , 4131.28205128 , 4220.51282051 , 4141.53846154 , 4140.0 , 4187.17948718 , 4907.17948718 , 4122.56410256 , 4130.76923077 , 2044.0 , 2030.0 , 43.167 , 0.0 , 0.0 , 0.0 , 0.0 , 

73.0 , 4126.66666667 , 4116.41025641 , 4134.87179487 , 4122.05128205 , 4130.25641026 , 4124.61538462 , 4129.74358974 , 4203.07692308 , 4129.74358974 , 4138.46153846 , 4182.05128205 , 4910.76923077 , 4111.79487179 , 4130.25641026 , 2044.0 , 2031.0 , 43.175 , 0.0 , 0.0 , 0.0 , 0.0 , 

74.0 , 4129.23076923 , 4130.76923077 , 4132.82051282 , 4127.69230769 , 4129.74358974 , 4129.74358974 , 4132.82051282 , 4212.82051282 , 4137.43589744 , 4142.05128205 , 4185.12820513 , 4911.28205128 , 4120.0 , 4134.35897436 , 2044.0 , 2031.0 , 43.182 , 0.0 , 0.0 , 0.0 , 0.0 , 

75.0 , 4128.20512821 , 4132.82051282 , 4131.79487179 , 4127.17948718 , 4129.74358974 , 4129.74358974 , 4128.71794872 , 4197.43589744 , 4129.74358974 , 4140.0 , 4182.05128205 , 4914.35897436 , 4112.82051282 , 4131.79487179 , 2044.0 , 2032.0 , 43.19 , 0.0 , 0.0 , 0.0 , 0.0 , 

76.0 , 4132.30769231 , 4142.05128205 , 4132.30769231 , 4135.8974359 , 4127.17948718 , 4128.71794872 , 4133.33333333 , 4197.43589744 , 4130.25641026 , 4138.97435897 , 4184.1025641 , 4909.74358974 , 4129.74358974 , 4135.8974359 , 2043.0 , 2033.0 , 43.197 , 0.0 , 0.0 , 0.0 , 0.0 , 

77.0 , 4131.28205128 , 4134.87179487 , 4130.25641026 , 4134.35897436 , 4125.64102564 , 4124.61538462 , 4125.12820513 , 4183.58974359 , 4119.48717949 , 4134.87179487 , 4181.02564103 , 4909.23076923 , 4126.15384615 , 4134.87179487 , 2044.0 , 2034.0 , 43.205 , 0.0 , 0.0 , 0.0 , 0.0 , 

78.0 , 4130.76923077 , 4141.02564103 , 4127.69230769 , 4134.35897436 , 4128.20512821 , 4128.20512821 , 4127.69230769 , 4194.35897436 , 4120.51282051 , 4137.43589744 , 4188.71794872 , 4906.66666667 , 4131.79487179 , 4137.94871795 , 2045.0 , 2034.0 , 43.214 , 0.0 , 0.0 , 0.0 , 0.0 , 

79.0 , 4130.76923077 , 4127.69230769 , 4125.64102564 , 4131.28205128 , 4129.74358974 , 4126.15384615 , 4121.02564103 , 4188.71794872 , 4116.41025641 , 4134.35897436 , 4188.71794872 , 4910.76923077 , 4135.38461538 , 4136.92307692 , 2045.0 , 2034.0 , 43.222 , 0.0 , 0.0 , 0.0 , 0.0 , 

80.0 , 4131.79487179 , 4124.61538462 , 4126.15384615 , 4132.82051282 , 4127.69230769 , 4122.05128205 , 4119.48717949 , 4192.30769231 , 4122.56410256 , 4134.87179487 , 4188.20512821 , 4907.69230769 , 4145.64102564 , 4140.0 , 2044.0 , 2035.0 , 43.229 , 0.0 , 0.0 , 0.0 , 0.0 , 

81.0 , 4124.1025641 , 4119.48717949 , 4126.15384615 , 4126.15384615 , 4126.15384615 , 4117.43589744 , 4115.8974359 , 4196.41025641 , 4126.66666667 , 4136.41025641 , 4188.71794872 , 4904.1025641 , 4133.33333333 , 4138.97435897 , 2045.0 , 2036.0 , 43.238 , 0.0 , 0.0 , 0.0 , 0.0 , 

82.0 , 4124.61538462 , 4115.38461538 , 4126.66666667 , 4125.12820513 , 4126.66666667 , 4121.02564103 , 4117.94871795 , 4200.51282051 , 4129.74358974 , 4135.8974359 , 4188.71794872 , 4904.61538462 , 4129.23076923 , 4137.94871795 , 2046.0 , 2034.0 , 43.245 , 0.0 , 0.0 , 0.0 , 0.0 , 

83.0 , 4125.12820513 , 4109.23076923 , 4129.74358974 , 4126.66666667 , 4126.15384615 , 4124.1025641 , 4120.0 , 4210.25641026 , 4136.92307692 , 4134.87179487 , 4188.71794872 , 4908.20512821 , 4134.35897436 , 4140.51282051 , 2047.0 , 2035.0 , 43.254 , 0.0 , 0.0 , 0.0 , 0.0 , 

84.0 , 4125.12820513 , 4114.35897436 , 4133.33333333 , 4124.1025641 , 4127.69230769 , 4124.61538462 , 4124.1025641 , 4211.79487179 , 4137.43589744 , 4137.43589744 , 4190.25641026 , 4905.12820513 , 4127.69230769 , 4140.0 , 2047.0 , 2035.0 , 43.261 , 0.0 , 0.0 , 0.0 , 0.0 , 

85.0 , 4121.02564103 , 4122.05128205 , 4133.84615385 , 4122.56410256 , 4126.66666667 , 4125.64102564 , 4127.17948718 , 4215.8974359 , 4138.46153846 , 4140.0 , 4190.76923077 , 4902.56410256 , 4120.51282051 , 4135.38461538 , 2045.0 , 2033.0 , 43.269 , 0.0 , 0.0 , 0.0 , 0.0 , 

86.0 , 4125.64102564 , 4119.48717949 , 4131.28205128 , 4123.58974359 , 4128.20512821 , 4128.71794872 , 4124.61538462 , 4206.15384615 , 4133.33333333 , 4137.43589744 , 4183.07692308 , 4908.71794872 , 4116.92307692 , 4132.82051282 , 2046.0 , 2035.0 , 43.276 , 0.0 , 0.0 , 0.0 , 0.0 , 

87.0 , 4131.28205128 , 4131.28205128 , 4133.33333333 , 4127.69230769 , 4129.23076923 , 4131.28205128 , 4131.28205128 , 4222.05128205 , 4138.97435897 , 4138.97435897 , 4184.61538462 , 4908.71794872 , 4124.61538462 , 4135.8974359 , 2046.0 , 2034.0 , 43.285 , 0.0 , 0.0 , 0.0 , 0.0 , 

88.0 , 4130.25641026 , 4132.82051282 , 4133.84615385 , 4127.17948718 , 4130.25641026 , 4131.28205128 , 4131.28205128 , 4203.58974359 , 4126.15384615 , 4136.92307692 , 4179.48717949 , 4911.28205128 , 4115.8974359 , 4132.82051282 , 2046.0 , 2032.0 , 43.292 , 0.0 , 0.0 , 0.0 , 0.0 , 

89.0 , 4129.23076923 , 4136.92307692 , 4131.28205128 , 4131.79487179 , 4126.15384615 , 4128.71794872 , 4131.28205128 , 4200.51282051 , 4126.15384615 , 4137.94871795 , 4180.51282051 , 4911.28205128 , 4128.20512821 , 4135.38461538 , 2045.0 , 2033.0 , 43.3 , 0.0 , 0.0 , 0.0 , 0.0 , 

90.0 , 4134.35897436 , 4128.71794872 , 4130.76923077 , 4128.71794872 , 4127.17948718 , 4124.61538462 , 4121.02564103 , 4178.97435897 , 4116.41025641 , 4134.35897436 , 4181.53846154 , 4911.28205128 , 4124.1025641 , 4134.35897436 , 2047.0 , 2031.0 , 43.309 , 0.0 , 0.0 , 0.0 , 0.0 , 

91.0 , 4134.87179487 , 4138.46153846 , 4129.74358974 , 4132.30769231 , 4127.69230769 , 4128.20512821 , 4123.58974359 , 4190.25641026 , 4123.07692308 , 4134.35897436 , 4192.30769231 , 4908.20512821 , 4135.38461538 , 4137.94871795 , 2045.0 , 2031.0 , 43.316 , 0.0 , 0.0 , 0.0 , 0.0 , 

92.0 , 4129.23076923 , 4124.61538462 , 4125.12820513 , 4130.76923077 , 4127.69230769 , 4124.61538462 , 4115.38461538 , 4180.0 , 4115.8974359 , 4132.30769231 , 4189.23076923 , 4912.30769231 , 4134.35897436 , 4136.92307692 , 2046.0 , 2031.0 , 43.323 , 0.0 , 0.0 , 0.0 , 0.0 , 

93.0 , 4131.28205128 , 4128.71794872 , 4126.66666667 , 4134.35897436 , 4126.15384615 , 4120.0 , 4116.92307692 , 4195.8974359 , 4126.66666667 , 4135.8974359 , 4191.79487179 , 4907.17948718 , 4144.61538462 , 4142.05128205 , 2045.0 , 2032.0 , 43.332 , 0.0 , 0.0 , 0.0 , 0.0 , 

94.0 , 4128.71794872 , 4124.1025641 , 4127.17948718 , 4126.66666667 , 4126.66666667 , 4118.97435897 , 4114.87179487 , 4190.76923077 , 4122.56410256 , 4133.33333333 , 4190.25641026 , 4906.66666667 , 4131.79487179 , 4138.46153846 , 2047.0 , 2031.0 , 43.34 , 0.0 , 0.0 , 0.0 , 0.0 , 

95.0 , 4124.1025641 , 4126.66666667 , 4127.69230769 , 4126.66666667 , 4126.66666667 , 4126.66666667 , 4122.56410256 , 4207.69230769 , 4133.33333333 , 4134.87179487 , 4194.87179487 , 4904.1025641 , 4138.46153846 , 4143.07692308 , 2046.0 , 2031.0 , 43.348 , 0.0 , 0.0 , 0.0 , 0.0 , 

96.0 , 4123.07692308 , 4112.82051282 , 4133.84615385 , 4122.56410256 , 4126.66666667 , 4125.64102564 , 4118.46153846 , 4205.64102564 , 4133.84615385 , 4133.84615385 , 4188.20512821 , 4905.64102564 , 4128.20512821 , 4140.0 , 2048.0 , 2032.0 , 43.356 , 0.0 , 0.0 , 0.0 , 0.0 , 

97.0 , 4129.74358974 , 4121.53846154 , 4136.92307692 , 4123.58974359 , 4128.20512821 , 4126.15384615 , 4127.69230769 , 4214.35897436 , 4136.92307692 , 4136.92307692 , 4186.66666667 , 4905.12820513 , 4128.20512821 , 4138.46153846 , 2048.0 , 2032.0 , 43.364 , 0.0 , 0.0 , 0.0 , 0.0 , 

98.0 , 4128.20512821 , 4120.0 , 4131.79487179 , 4118.97435897 , 4129.23076923 , 4126.66666667 , 4130.25641026 , 4210.25641026 , 4133.84615385 , 4138.46153846 , 4185.12820513 , 4909.23076923 , 4121.53846154 , 4133.84615385 , 2050.0 , 2033.0 , 43.372 , 0.0 , 0.0 , 0.0 , 0.0 , 

99.0 , 4128.20512821 , 4122.05128205 , 4132.82051282 , 4125.12820513 , 4127.69230769 , 4128.20512821 , 4131.28205128 , 4211.28205128 , 4135.38461538 , 4141.02564103 , 4184.1025641 , 4906.66666667 , 4116.92307692 , 4132.82051282 , 2048.0 , 2034.0 , 43.379 , 0.0 , 0.0 , 0.0 , 0.0 , 

100.0 , 4128.71794872 , 4124.1025641 , 4137.43589744 , 4124.1025641 , 4126.15384615 , 4124.61538462 , 4129.23076923 , 4209.23076923 , 4132.82051282 , 4137.94871795 , 4180.0 , 4909.23076923 , 4112.30769231 , 4129.23076923 , 2049.0 , 2035.0 , 43.387 , 0.0 , 0.0 , 0.0 , 0.0 , 

101.0 , 4135.38461538 , 4136.92307692 , 4135.38461538 , 4121.02564103 , 4127.17948718 , 4125.64102564 , 4135.8974359 , 4199.48717949 , 4135.8974359 , 4136.41025641 , 4182.05128205 , 4911.28205128 , 4136.41025641 , 4129.74358974 , 2050.0 , 2034.0 , 43.395 , 0.0 , 0.0 , 0.0 , 0.0 , 

102.0 , 4133.84615385 , 4143.07692308 , 4132.30769231 , 4125.12820513 , 4126.66666667 , 4128.20512821 , 4133.84615385 , 4184.1025641 , 4141.53846154 , 4136.92307692 , 4187.17948718 , 4910.25641026 , 4154.87179487 , 4135.8974359 , 2049.0 , 2033.0 , 43.403 , 0.0 , 0.0 , 0.0 , 0.0 , 

103.0 , 4131.79487179 , 4133.84615385 , 4130.76923077 , 4133.84615385 , 4126.66666667 , 4127.69230769 , 4126.15384615 , 4160.0 , 4123.58974359 , 4133.84615385 , 4186.66666667 , 4910.76923077 , 4135.8974359 , 4137.43589744 , 2048.0 , 2032.0 , 43.411 , 0.0 , 0.0 , 0.0 , 0.0 , 

104.0 , 4127.69230769 , 4127.17948718 , 4128.20512821 , 4133.84615385 , 4123.07692308 , 4125.64102564 , 4125.64102564 , 4175.38461538 , 4116.92307692 , 4131.79487179 , 4190.25641026 , 4912.30769231 , 4133.84615385 , 4137.94871795 , 2050.0 , 2031.0 , 43.418 , 0.0 , 0.0 , 0.0 , 0.0 , 

105.0 , 4131.79487179 , 4124.61538462 , 4127.69230769 , 4120.0 , 4123.58974359 , 4125.12820513 , 4116.92307692 , 4180.51282051 , 4120.51282051 , 4132.30769231 , 4186.15384615 , 4911.79487179 , 4140.51282051 , 4138.46153846 , 2052.0 , 2031.0 , 43.426 , 0.0 , 0.0 , 0.0 , 0.0 , 

106.0 , 4131.79487179 , 4129.23076923 , 4132.82051282 , 4120.51282051 , 4125.12820513 , 4126.66666667 , 4116.41025641 , 4196.92307692 , 4135.38461538 , 4134.87179487 , 4188.71794872 , 4906.15384615 , 4138.46153846 , 4142.56410256 , 2051.0 , 2030.0 , 43.434 , 0.0 , 0.0 , 0.0 , 0.0 , 

107.0 , 4126.66666667 , 4114.35897436 , 4134.35897436 , 4126.15384615 , 4127.69230769 , 4126.15384615 , 4117.43589744 , 4188.20512821 , 4126.66666667 , 4131.79487179 , 4188.71794872 , 4908.20512821 , 4117.94871795 , 4136.92307692 , 2050.0 , 2029.0 , 43.443 , 0.0 , 0.0 , 0.0 , 0.0 , 

108.0 , 4124.61538462 , 4118.97435897 , 4130.76923077 , 4129.23076923 , 4126.15384615 , 4126.15384615 , 4124.61538462 , 4208.71794872 , 4135.8974359 , 4136.41025641 , 4193.84615385 , 4906.15384615 , 4133.84615385 , 4135.8974359 , 2048.0 , 2030.0 , 43.451 , 0.0 , 0.0 , 0.0 , 0.0 , 

109.0 , 4126.15384615 , 4111.28205128 , 4128.71794872 , 4120.51282051 , 4126.15384615 , 4121.02564103 , 4115.38461538 , 4202.05128205 , 4131.28205128 , 4137.43589744 , 4186.15384615 , 4907.69230769 , 4128.20512821 , 4133.33333333 , 2047.0 , 2029.0 , 43.457 , 0.0 , 0.0 , 0.0 , 0.0 , 

110.0 , 4125.12820513 , 4113.33333333 , 4130.25641026 , 4125.12820513 , 4126.15384615 , 4123.07692308 , 4124.1025641 , 4217.94871795 , 4139.48717949 , 4137.94871795 , 4188.20512821 , 4905.12820513 , 4124.1025641 , 4136.41025641 , 2046.0 , 2032.0 , 43.466 , 0.0 , 0.0 , 0.0 , 0.0 , 

111.0 , 4123.58974359 , 4109.74358974 , 4129.23076923 , 4123.58974359 , 4128.20512821 , 4123.07692308 , 4127.69230769 , 4206.15384615 , 4133.33333333 , 4135.8974359 , 4184.61538462 , 4906.15384615 , 4110.25641026 , 4131.79487179 , 2046.0 , 2033.0 , 43.474 , 0.0 , 0.0 , 0.0 , 0.0 , 

112.0 , 4127.69230769 , 4128.71794872 , 4130.25641026 , 4124.1025641 , 4127.69230769 , 4124.61538462 , 4133.84615385 , 4216.41025641 , 4138.97435897 , 4141.02564103 , 4186.66666667 , 4904.1025641 , 4121.53846154 , 4133.84615385 , 2045.0 , 2032.0 , 43.482 , 0.0 , 0.0 , 0.0 , 0.0 , 

113.0 , 4126.66666667 , 4120.0 , 4134.87179487 , 4123.58974359 , 4127.17948718 , 4124.61538462 , 4127.17948718 , 4205.64102564 , 4130.76923077 , 4137.94871795 , 4182.56410256 , 4911.79487179 , 4114.35897436 , 4132.30769231 , 2046.0 , 2032.0 , 43.49 , 0.0 , 0.0 , 0.0 , 0.0 , 

114.0 , 4130.25641026 , 4129.23076923 , 4136.41025641 , 4133.84615385 , 4127.17948718 , 4127.69230769 , 4132.30769231 , 4209.23076923 , 4135.8974359 , 4138.97435897 , 4183.58974359 , 4912.30769231 , 4124.61538462 , 4135.8974359 , 2046.0 , 2030.0 , 43.498 , 0.0 , 0.0 , 0.0 , 0.0 , 

115.0 , 4132.30769231 , 4135.8974359 , 4133.84615385 , 4133.84615385 , 4127.69230769 , 4126.66666667 , 4128.20512821 , 4191.79487179 , 4127.17948718 , 4138.46153846 , 4181.53846154 , 4912.82051282 , 4123.07692308 , 4132.82051282 , 2047.0 , 2032.0 , 43.506 , 0.0 , 0.0 , 0.0 , 0.0 , 

116.0 , 4131.28205128 , 4143.07692308 , 4131.79487179 , 4135.38461538 , 4127.69230769 , 4129.74358974 , 4128.71794872 , 4187.17948718 , 4121.53846154 , 4135.38461538 , 4187.69230769 , 4909.74358974 , 4131.28205128 , 4135.38461538 , 2047.0 , 2032.0 , 43.514 , 0.0 , 0.0 , 0.0 , 0.0 , 

117.0 , 4129.23076923 , 4130.76923077 , 4129.74358974 , 4133.33333333 , 4125.12820513 , 4127.69230769 , 4123.58974359 , 4185.12820513 , 4116.41025641 , 4130.25641026 , 4188.20512821 , 4910.76923077 , 4131.28205128 , 4135.38461538 , 2050.0 , 2030.0 , 43.521 , 0.0 , 0.0 , 0.0 , 0.0 , 

118.0 , 4133.84615385 , 4128.71794872 , 4126.66666667 , 4134.35897436 , 4124.61538462 , 4123.07692308 , 4121.02564103 , 4187.17948718 , 4120.51282051 , 4133.84615385 , 4185.64102564 , 4908.71794872 , 4138.46153846 , 4140.0 , 2050.0 , 2031.0 , 43.529 , 0.0 , 0.0 , 0.0 , 0.0 , 

119.0 , 4130.25641026 , 4124.61538462 , 4128.20512821 , 4129.74358974 , 4125.64102564 , 4118.46153846 , 4113.84615385 , 4185.64102564 , 4123.58974359 , 4135.38461538 , 4186.15384615 , 4908.71794872 , 4137.94871795 , 4141.02564103 , 2050.0 , 2031.0 , 43.536 , 0.0 , 0.0 , 0.0 , 0.0 , 

120.0 , 4128.20512821 , 4122.56410256 , 4128.71794872 , 4132.30769231 , 4126.15384615 , 4120.51282051 , 4114.87179487 , 4190.76923077 , 4125.64102564 , 4130.76923077 , 4189.74358974 , 4906.66666667 , 4135.38461538 , 4139.48717949 , 2051.0 , 2033.0 , 43.544 , 0.0 , 0.0 , 0.0 , 0.0 , 

121.0 , 4126.15384615 , 4122.05128205 , 4129.23076923 , 4133.33333333 , 4123.07692308 , 4122.05128205 , 4117.43589744 , 4211.28205128 , 4135.38461538 , 4132.30769231 , 4190.25641026 , 4904.1025641 , 4134.87179487 , 4138.46153846 , 2050.0 , 2034.0 , 43.553 , 0.0 , 0.0 , 0.0 , 0.0 , 

122.0 , 4128.20512821 , 4116.41025641 , 4130.76923077 , 4124.61538462 , 4126.15384615 , 4124.1025641 , 4115.8974359 , 4206.15384615 , 4135.8974359 , 4139.48717949 , 4184.1025641 , 4905.12820513 , 4128.71794872 , 4139.48717949 , 2051.0 , 2035.0 , 43.56 , 0.0 , 0.0 , 0.0 , 0.0 , 

123.0 , 4125.64102564 , 4118.46153846 , 4130.25641026 , 4122.05128205 , 4126.15384615 , 4124.1025641 , 4122.05128205 , 4215.38461538 , 4143.58974359 , 4143.07692308 , 4188.71794872 , 4904.1025641 , 4132.30769231 , 4142.05128205 , 2052.0 , 2036.0 , 43.568 , 0.0 , 0.0 , 0.0 , 0.0 , 

124.0 , 4127.69230769 , 4114.87179487 , 4128.20512821 , 4124.61538462 , 4124.1025641 , 4122.56410256 , 4122.56410256 , 4207.69230769 , 4135.38461538 , 4135.8974359 , 4187.69230769 , 4905.64102564 , 4122.56410256 , 4134.35897436 , 2052.0 , 2036.0 , 43.577 , 0.0 , 0.0 , 0.0 , 0.0 , 

125.0 , 4128.71794872 , 4124.1025641 , 4130.76923077 , 4128.20512821 , 4124.1025641 , 4128.20512821 , 4128.20512821 , 4218.97435897 , 4137.94871795 , 4134.87179487 , 4187.69230769 , 4905.64102564 , 4118.97435897 , 4130.25641026 , 2054.0 , 2036.0 , 43.584 , 0.0 , 0.0 , 0.0 , 0.0 , 

126.0 , 4128.71794872 , 4122.56410256 , 4131.28205128 , 4123.07692308 , 4128.20512821 , 4133.84615385 , 4128.20512821 , 4202.05128205 , 4128.71794872 , 4135.8974359 , 4181.02564103 , 4911.79487179 , 4107.69230769 , 4127.17948718 , 2053.0 , 2035.0 , 43.592 , 0.0 , 0.0 , 0.0 , 0.0 , 

127.0 , 4131.28205128 , 4135.38461538 , 4132.82051282 , 4129.23076923 , 4126.15384615 , 4131.28205128 , 4133.33333333 , 4207.69230769 , 4134.35897436 , 4138.46153846 , 4184.61538462 , 4910.76923077 , 4120.51282051 , 4132.30769231 , 2052.0 , 2037.0 , 43.6 , 0.0 , 0.0 , 0.0 , 0.0 , 

128.0 , 4132.82051282 , 4132.30769231 , 4134.35897436 , 4129.74358974 , 4126.66666667 , 4124.61538462 , 4126.15384615 , 4184.61538462 , 4120.0 , 4135.38461538 , 4179.48717949 , 4911.79487179 , 4113.33333333 , 4130.76923077 , 2050.0 , 2036.0 , 43.607 , 0.0 , 0.0 , 0.0 , 0.0 , 

0.0 , 4131.79487179 , 4142.05128205 , 4131.79487179 , 4135.8974359 , 4125.64102564 , 4125.64102564 , 4131.79487179 , 4189.74358974 , 4123.07692308 , 4134.87179487 , 4184.61538462 , 4908.20512821 , 4125.64102564 , 4135.38461538 , 2049.0 , 2036.0 , 43.616 , 0.0 , 0.0 , 0.0 , 0.0 , 

1.0 , 4131.79487179 , 4134.87179487 , 4128.71794872 , 4133.84615385 , 4124.61538462 , 4123.07692308 , 4122.56410256 , 4177.94871795 , 4116.41025641 , 4129.74358974 , 4183.58974359 , 4909.23076923 , 4126.66666667 , 4134.87179487 , 2047.0 , 2036.0 , 43.624 , 0.0 , 0.0 , 0.0 , 0.0 , 

2.0 , 4134.87179487 , 4140.51282051 , 4129.74358974 , 4134.87179487 , 4125.64102564 , 4125.64102564 , 4121.53846154 , 4191.79487179 , 4125.12820513 , 4132.82051282 , 4188.20512821 , 4906.15384615 , 4141.02564103 , 4141.53846154 , 2045.0 , 2035.0 , 43.632 , 0.0 , 0.0 , 0.0 , 0.0 , 

3.0 , 4128.20512821 , 4124.61538462 , 4127.69230769 , 4127.17948718 , 4130.25641026 , 4125.64102564 , 4116.92307692 , 4186.66666667 , 4124.61538462 , 4132.82051282 , 4188.71794872 , 4909.74358974 , 4134.35897436 , 4141.02564103 , 2046.0 , 2035.0 , 43.64 , 0.0 , 0.0 , 0.0 , 0.0 , 

4.0 , 4125.64102564 , 4126.66666667 , 4126.15384615 , 4134.35897436 , 4130.25641026 , 4126.66666667 , 4122.56410256 , 4199.48717949 , 4133.84615385 , 4133.33333333 , 4194.87179487 , 4906.15384615 , 4140.51282051 , 4142.56410256 , 2046.0 , 2034.0 , 43.648 , 0.0 , 0.0 , 0.0 , 0.0 , 

5.0 , 4127.69230769 , 4121.53846154 , 4129.74358974 , 4133.84615385 , 4125.12820513 , 4124.1025641 , 4117.43589744 , 4197.94871795 , 4128.71794872 , 4130.25641026 , 4189.23076923 , 4906.66666667 , 4130.25641026 , 4138.97435897 , 2046.0 , 2032.0 , 43.655 , 0.0 , 0.0 , 0.0 , 0.0 , 

6.0 , 4127.17948718 , 4117.94871795 , 4132.30769231 , 4126.66666667 , 4125.64102564 , 4127.17948718 , 4120.0 , 4207.17948718 , 4131.28205128 , 4135.38461538 , 4188.20512821 , 4906.66666667 , 4130.25641026 , 4136.92307692 , 2048.0 , 2034.0 , 43.663 , 0.0 , 0.0 , 0.0 , 0.0 , 

7.0 , 4120.51282051 , 4109.23076923 , 4130.25641026 , 4120.51282051 , 4129.23076923 , 4125.64102564 , 4118.97435897 , 4209.23076923 , 4136.41025641 , 4141.02564103 , 4187.17948718 , 4906.66666667 , 4125.12820513 , 4131.79487179 , 2047.0 , 2036.0 , 43.671 , 0.0 , 0.0 , 0.0 , 0.0 , 

8.0 , 4126.15384615 , 4120.0 , 4129.74358974 , 4124.1025641 , 4129.74358974 , 4126.66666667 , 4123.58974359 , 4210.76923077 , 4137.94871795 , 4141.53846154 , 4184.1025641 , 4903.07692308 , 4121.02564103 , 4131.79487179 , 2049.0 , 2035.0 , 43.679 , 0.0 , 0.0 , 0.0 , 0.0 , 

9.0 , 4128.71794872 , 4125.12820513 , 4134.35897436 , 4121.53846154 , 4126.15384615 , 4127.69230769 , 4128.20512821 , 4216.41025641 , 4134.35897436 , 4137.43589744 , 4182.56410256 , 4906.66666667 , 4114.35897436 , 4131.28205128 , 2048.0 , 2035.0 , 43.687 , 0.0 , 0.0 , 0.0 , 0.0 , 

10.0 , 4128.20512821 , 4124.61538462 , 4135.8974359 , 4125.64102564 , 4127.69230769 , 4131.28205128 , 4128.71794872 , 4211.79487179 , 4133.33333333 , 4136.92307692 , 4181.02564103 , 4909.23076923 , 4111.28205128 , 4131.28205128 , 2048.0 , 2034.0 , 43.695 , 0.0 , 0.0 , 0.0 , 0.0 , 

11.0 , 4127.17948718 , 4132.82051282 , 4131.79487179 , 4131.28205128 , 4128.20512821 , 4132.30769231 , 4129.74358974 , 4213.33333333 , 4138.97435897 , 4140.0 , 4181.53846154 , 4906.66666667 , 4117.94871795 , 4132.82051282 , 2047.0 , 2034.0 , 43.703 , 0.0 , 0.0 , 0.0 , 0.0 , 

12.0 , 4133.84615385 , 4134.35897436 , 4127.17948718 , 4129.74358974 , 4127.17948718 , 4131.28205128 , 4128.71794872 , 4191.79487179 , 4127.69230769 , 4136.92307692 , 4179.48717949 , 4908.71794872 , 4120.0 , 4130.76923077 , 2047.0 , 2033.0 , 43.711 , 0.0 , 0.0 , 0.0 , 0.0 , 

13.0 , 4136.41025641 , 4138.46153846 , 4130.25641026 , 4133.84615385 , 4124.61538462 , 4130.25641026 , 4126.15384615 , 4193.84615385 , 4126.66666667 , 4136.41025641 , 4186.15384615 , 4912.30769231 , 4131.28205128 , 4133.84615385 , 2047.0 , 2033.0 , 43.718 , 0.0 , 0.0 , 0.0 , 0.0 , 

14.0 , 4135.38461538 , 4132.82051282 , 4131.28205128 , 4133.84615385 , 4126.15384615 , 4127.69230769 , 4118.97435897 , 4180.0 , 4118.46153846 , 4134.35897436 , 4184.1025641 , 4913.33333333 , 4125.64102564 , 4135.8974359 , 2047.0 , 2033.0 , 43.726 , 0.0 , 0.0 , 0.0 , 0.0 , 

15.0 , 4130.76923077 , 4133.84615385 , 4126.66666667 , 4132.82051282 , 4125.64102564 , 4126.15384615 , 4124.61538462 , 4189.74358974 , 4123.07692308 , 4134.87179487 , 4188.71794872 , 4906.66666667 , 4137.94871795 , 4142.05128205 , 2047.0 , 2033.0 , 43.733 , 0.0 , 0.0 , 0.0 , 0.0 , 

16.0 , 4129.23076923 , 4121.53846154 , 4125.12820513 , 4131.79487179 , 4126.15384615 , 4122.05128205 , 4114.35897436 , 4178.97435897 , 4113.84615385 , 4130.76923077 , 4186.66666667 , 4907.69230769 , 4137.94871795 , 4141.53846154 , 2047.0 , 2033.0 , 43.742 , 0.0 , 0.0 , 0.0 , 0.0 , 

17.0 , 4127.69230769 , 4127.17948718 , 4130.25641026 , 4137.43589744 , 4125.12820513 , 4120.51282051 , 4108.20512821 , 4201.02564103 , 4126.15384615 , 4134.87179487 , 4192.30769231 , 4905.64102564 , 4143.07692308 , 4144.1025641 , 2047.0 , 2033.0 , 43.749 , 0.0 , 0.0 , 0.0 , 0.0 , 

18.0 , 4123.07692308 , 4114.87179487 , 4132.30769231 , 4127.69230769 , 4127.17948718 , 4120.51282051 , 4106.15384615 , 4196.92307692 , 4123.58974359 , 4135.8974359 , 4189.23076923 , 4907.17948718 , 4127.17948718 , 4137.94871795 , 2048.0 , 2032.0 , 43.757 , 0.0 , 0.0 , 0.0 , 0.0 , 

19.0 , 4122.56410256 , 4118.46153846 , 4131.28205128 , 4127.17948718 , 4128.20512821 , 4125.64102564 , 4122.56410256 , 4213.84615385 , 4135.38461538 , 4138.46153846 , 4191.28205128 , 4903.58974359 , 4137.94871795 , 4140.51282051 , 2047.0 , 2034.0 , 43.765 , 0.0 , 0.0 , 0.0 , 0.0 , 

20.0 , 4123.58974359 , 4111.79487179 , 4129.74358974 , 4123.07692308 , 4127.69230769 , 4123.58974359 , 4122.05128205 , 4208.20512821 , 4133.84615385 , 4136.92307692 , 4186.15384615 , 4908.20512821 , 4129.23076923 , 4137.94871795 , 2045.0 , 2035.0 , 43.773 , 0.0 , 0.0 , 0.0 , 0.0 , 

21.0 , 4124.61538462 , 4124.61538462 , 4132.30769231 , 4122.56410256 , 4128.20512821 , 4127.17948718 , 4128.20512821 , 4218.97435897 , 4143.58974359 , 4141.02564103 , 4190.76923077 , 4905.12820513 , 4125.64102564 , 4138.97435897 , 2042.0 , 2034.0 , 43.781 , 0.0 , 0.0 , 0.0 , 0.0 , 

22.0 , 4123.07692308 , 4121.02564103 , 4135.38461538 , 4118.97435897 , 4131.79487179 , 4131.28205128 , 4125.12820513 , 4205.64102564 , 4137.94871795 , 4139.48717949 , 4187.69230769 , 4907.17948718 , 4112.30769231 , 4134.35897436 , 2042.0 , 2035.0 , 43.788 , 0.0 , 0.0 , 0.0 , 0.0 , 

23.0 , 4131.79487179 , 4130.25641026 , 4135.38461538 , 4126.15384615 , 4130.25641026 , 4132.30769231 , 4129.74358974 , 4210.25641026 , 4138.46153846 , 4138.46153846 , 4185.64102564 , 4907.17948718 , 4118.46153846 , 4134.35897436 , 2041.0 , 2032.0 , 43.796 , 0.0 , 0.0 , 0.0 , 0.0 , 

24.0 , 4132.82051282 , 4129.23076923 , 4133.84615385 , 4127.17948718 , 4129.23076923 , 4127.69230769 , 4126.66666667 , 4204.61538462 , 4132.30769231 , 4136.92307692 , 4180.51282051 , 4908.71794872 , 4112.82051282 , 4129.74358974 , 2040.0 , 2031.0 , 43.804 , 0.0 , 0.0 , 0.0 , 0.0 , 

25.0 , 4130.76923077 , 4135.8974359 , 4133.84615385 , 4130.76923077 , 4132.30769231 , 4128.20512821 , 4130.76923077 , 4196.92307692 , 4127.17948718 , 4137.94871795 , 4180.51282051 , 4909.74358974 , 4120.51282051 , 4132.30769231 , 2040.0 , 2028.0 , 43.813 , 0.0 , 0.0 , 0.0 , 0.0 , 

26.0 , 4128.71794872 , 4132.82051282 , 4130.76923077 , 4131.28205128 , 4129.23076923 , 4126.15384615 , 4124.61538462 , 4184.61538462 , 4118.97435897 , 4135.8974359 , 4178.46153846 , 4913.84615385 , 4125.64102564 , 4136.92307692 , 2040.0 , 2029.0 , 43.821 , 0.0 , 0.0 , 0.0 , 0.0 , 

27.0 , 4133.84615385 , 4134.87179487 , 4128.71794872 , 4132.82051282 , 4125.64102564 , 4126.15384615 , 4119.48717949 , 4180.51282051 , 4115.8974359 , 4132.30769231 , 4181.02564103 , 4912.30769231 , 4130.25641026 , 4139.48717949 , 2039.0 , 2029.0 , 43.829 , 0.0 , 0.0 , 0.0 , 0.0 , 

28.0 , 4130.25641026 , 4131.28205128 , 4129.23076923 , 4132.82051282 , 4127.17948718 , 4126.15384615 , 4118.97435897 , 4186.66666667 , 4120.51282051 , 4127.69230769 , 4188.71794872 , 4909.74358974 , 4137.43589744 , 4137.43589744 , 2041.0 , 2031.0 , 43.836 , 0.0 , 0.0 , 0.0 , 0.0 , 

29.0 , 4131.28205128 , 4125.64102564 , 4126.15384615 , 4132.30769231 , 4128.20512821 , 4125.12820513 , 4118.97435897 , 4184.61538462 , 4121.02564103 , 4127.69230769 , 4189.23076923 , 4906.66666667 , 4140.51282051 , 4136.92307692 , 2041.0 , 2032.0 , 43.843 , 0.0 , 0.0 , 0.0 , 0.0 , 

30.0 , 4130.25641026 , 4127.69230769 , 4127.17948718 , 4133.33333333 , 4122.56410256 , 4122.56410256 , 4113.84615385 , 4199.48717949 , 4125.64102564 , 4133.33333333 , 4189.74358974 , 4904.1025641 , 4139.48717949 , 4142.05128205 , 2041.0 , 2035.0 , 43.852 , 0.0 , 0.0 , 0.0 , 0.0 , 

31.0 , 4127.69230769 , 4123.58974359 , 4128.20512821 , 4131.28205128 , 4124.1025641 , 4120.51282051 , 4112.30769231 , 4201.02564103 , 4125.64102564 , 4137.43589744 , 4187.17948718 , 4906.66666667 , 4134.35897436 , 4142.56410256 , 2041.0 , 2033.0 , 43.859 , 0.0 , 0.0 , 0.0 , 0.0 , 

32.0 , 4123.58974359 , 4121.02564103 , 4126.66666667 , 4129.23076923 , 4128.20512821 , 4122.05128205 , 4130.76923077 , 4208.20512821 , 4144.61538462 , 4141.02564103 , 4191.79487179 , 4903.58974359 , 4148.71794872 , 4138.46153846 , 2042.0 , 2032.0 , 43.868 , 0.0 , 0.0 , 0.0 , 0.0 , 

33.0 , 4128.20512821 , 4114.87179487 , 4127.17948718 , 4122.56410256 , 4128.71794872 , 4124.1025641 , 4131.28205128 , 4184.61538462 , 4140.51282051 , 4137.43589744 , 4189.23076923 , 4905.12820513 , 4128.20512821 , 4130.76923077 , 2042.0 , 2031.0 , 43.876 , 0.0 , 0.0 , 0.0 , 0.0 , 

34.0 , 4130.76923077 , 4130.25641026 , 4132.30769231 , 4124.1025641 , 4125.64102564 , 4126.66666667 , 4130.25641026 , 4202.56410256 , 4137.43589744 , 4138.46153846 , 4191.28205128 , 4907.17948718 , 4115.38461538 , 4134.87179487 , 2040.0 , 2030.0 , 43.884 , 0.0 , 0.0 , 0.0 , 0.0 , 

35.0 , 4122.05128205 , 4113.33333333 , 4128.71794872 , 4119.48717949 , 4128.71794872 , 4130.25641026 , 4122.05128205 , 4194.35897436 , 4121.53846154 , 4136.41025641 , 4181.53846154 , 4910.25641026 , 4113.33333333 , 4129.74358974 , 2040.0 , 2030.0 , 43.891 , 0.0 , 0.0 , 0.0 , 0.0 , 

36.0 , 4118.97435897 , 4112.82051282 , 4127.17948718 , 4122.05128205 , 4130.76923077 , 4135.38461538 , 4124.61538462 , 4202.05128205 , 4136.41025641 , 4139.48717949 , 4186.66666667 , 4906.66666667 , 4126.66666667 , 4131.79487179 , 2040.0 , 2033.0 , 43.899 , 0.0 , 0.0 , 0.0 , 0.0 , 

37.0 , 4127.69230769 , 4122.05128205 , 4130.76923077 , 4122.05128205 , 4129.74358974 , 4128.71794872 , 4118.97435897 , 4188.71794872 , 4136.41025641 , 4138.97435897 , 4188.71794872 , 4913.84615385 , 4106.66666667 , 4133.33333333 , 2040.0 , 2032.0 , 43.906 , 0.0 , 0.0 , 0.0 , 0.0 , 

38.0 , 4132.82051282 , 4144.1025641 , 4131.79487179 , 4132.30769231 , 4126.66666667 , 4126.66666667 , 4126.66666667 , 4199.48717949 , 4137.94871795 , 4141.02564103 , 4189.23076923 , 4910.76923077 , 4121.02564103 , 4135.8974359 , 2039.0 , 2034.0 , 43.915 , 0.0 , 0.0 , 0.0 , 0.0 , 

39.0 , 4130.25641026 , 4131.79487179 , 4131.28205128 , 4134.35897436 , 4125.12820513 , 4127.69230769 , 4123.58974359 , 4181.02564103 , 4121.53846154 , 4136.41025641 , 4179.48717949 , 4908.71794872 , 4128.71794872 , 4130.76923077 , 2038.0 , 2035.0 , 43.923 , 0.0 , 0.0 , 0.0 , 0.0 , 

40.0 , 4134.87179487 , 4138.46153846 , 4129.74358974 , 4137.43589744 , 4123.58974359 , 4130.76923077 , 4128.71794872 , 4188.71794872 , 4124.61538462 , 4134.87179487 , 4183.07692308 , 4908.20512821 , 4139.48717949 , 4137.43589744 , 2038.0 , 2036.0 , 43.931 , 0.0 , 0.0 , 0.0 , 0.0 , 

41.0 , 4132.82051282 , 4134.87179487 , 4125.64102564 , 4130.76923077 , 4125.12820513 , 4125.12820513 , 4121.02564103 , 4185.12820513 , 4120.0 , 4131.79487179 , 4183.58974359 , 4911.79487179 , 4134.35897436 , 4136.92307692 , 2039.0 , 2036.0 , 43.939 , 0.0 , 0.0 , 0.0 , 0.0 , 

42.0 , 4130.76923077 , 4134.35897436 , 4125.64102564 , 4132.82051282 , 4127.69230769 , 4124.61538462 , 4114.87179487 , 4190.76923077 , 4118.97435897 , 4133.84615385 , 4188.71794872 , 4908.20512821 , 4139.48717949 , 4137.43589744 , 2037.0 , 2035.0 , 43.946 , 0.0 , 0.0 , 0.0 , 0.0 , 

43.0 , 4129.74358974 , 4124.1025641 , 4127.69230769 , 4131.28205128 , 4127.69230769 , 4122.56410256 , 4110.25641026 , 4192.30769231 , 4120.51282051 , 4135.38461538 , 4190.76923077 , 4905.64102564 , 4130.76923077 , 4139.48717949 , 2036.0 , 2037.0 , 43.955 , 0.0 , 0.0 , 0.0 , 0.0 , 

44.0 , 4125.64102564 , 4118.97435897 , 4126.66666667 , 4128.71794872 , 4127.69230769 , 4123.07692308 , 4115.8974359 , 4199.48717949 , 4130.25641026 , 4134.35897436 , 4188.71794872 , 4905.12820513 , 4134.87179487 , 4140.0 , 2035.0 , 2034.0 , 43.962 , 0.0 , 0.0 , 0.0 , 0.0 , 

45.0 , 4116.92307692 , 4108.71794872 , 4127.69230769 , 4122.56410256 , 4126.15384615 , 4123.07692308 , 4111.79487179 , 4206.15384615 , 4136.92307692 , 4133.84615385 , 4186.66666667 , 4907.17948718 , 4131.79487179 , 4134.35897436 , 2034.0 , 2034.0 , 43.971 , 0.0 , 0.0 , 0.0 , 0.0 , 

46.0 , 4125.12820513 , 4115.38461538 , 4130.25641026 , 4124.61538462 , 4127.17948718 , 4126.15384615 , 4114.87179487 , 4209.74358974 , 4137.43589744 , 4140.51282051 , 4190.25641026 , 4903.07692308 , 4124.1025641 , 4135.8974359 , 2034.0 , 2033.0 , 43.978 , 0.0 , 0.0 , 0.0 , 0.0 , 

47.0 , 4126.15384615 , 4120.51282051 , 4131.28205128 , 4125.12820513 , 4127.69230769 , 4126.15384615 , 4125.64102564 , 4216.92307692 , 4138.97435897 , 4142.56410256 , 4192.30769231 , 4901.53846154 , 4122.05128205 , 4136.41025641 , 2034.0 , 2033.0 , 43.986 , 0.0 , 0.0 , 0.0 , 0.0 , 

48.0 , 4124.1025641 , 4116.92307692 , 4133.33333333 , 4122.05128205 , 4128.71794872 , 4127.17948718 , 4128.71794872 , 4210.76923077 , 4136.92307692 , 4138.46153846 , 4184.61538462 , 4906.66666667 , 4117.94871795 , 4131.79487179 , 2036.0 , 2033.0 , 43.993 , 0.0 , 0.0 , 0.0 , 0.0 , 

49.0 , 4126.15384615 , 4124.61538462 , 4133.33333333 , 4124.61538462 , 4127.17948718 , 4131.28205128 , 4128.71794872 , 4218.97435897 , 4142.05128205 , 4138.97435897 , 4183.58974359 , 4907.17948718 , 4121.53846154 , 4129.74358974 , 2037.0 , 2032.0 , 44.002 , 0.0 , 0.0 , 0.0 , 0.0 , 

50.0 , 4132.30769231 , 4128.20512821 , 4129.23076923 , 4128.71794872 , 4127.69230769 , 4129.23076923 , 4126.15384615 , 4199.48717949 , 4131.28205128 , 4138.97435897 , 4181.53846154 , 4909.74358974 , 4118.46153846 , 4129.74358974 , 2039.0 , 2034.0 , 44.009 , 0.0 , 0.0 , 0.0 , 0.0 , 

51.0 , 4132.30769231 , 4137.94871795 , 4129.74358974 , 4134.87179487 , 4127.69230769 , 4125.12820513 , 4132.30769231 , 4201.02564103 , 4132.82051282 , 4139.48717949 , 4183.07692308 , 4910.25641026 , 4127.17948718 , 4134.35897436 , 2039.0 , 2033.0 , 44.018 , 0.0 , 0.0 , 0.0 , 0.0 , 

52.0 , 4133.33333333 , 4131.79487179 , 4129.74358974 , 4132.30769231 , 4130.25641026 , 4124.1025641 , 4124.1025641 , 4181.02564103 , 4118.97435897 , 4133.84615385 , 4178.46153846 , 4911.28205128 , 4120.0 , 4131.28205128 , 2040.0 , 2033.0 , 44.026 , 0.0 , 0.0 , 0.0 , 0.0 , 

53.0 , 4135.8974359 , 4137.43589744 , 4127.69230769 , 4135.8974359 , 4128.20512821 , 4126.66666667 , 4122.05128205 , 4187.69230769 , 4120.51282051 , 4133.84615385 , 4185.12820513 , 4909.74358974 , 4136.92307692 , 4136.92307692 , 2040.0 , 2034.0 , 44.034 , 0.0 , 0.0 , 0.0 , 0.0 , 

54.0 , 4133.84615385 , 4127.17948718 , 4125.64102564 , 4131.79487179 , 4127.69230769 , 4124.1025641 , 4112.82051282 , 4173.84615385 , 4112.30769231 , 4131.79487179 , 4182.56410256 , 4911.79487179 , 4139.48717949 , 4139.48717949 , 2041.0 , 2033.0 , 44.042 , 0.0 , 0.0 , 0.0 , 0.0 , 

55.0 , 4128.71794872 , 4131.79487179 , 4125.64102564 , 4135.38461538 , 4124.61538462 , 4123.07692308 , 4116.41025641 , 4190.76923077 , 4121.02564103 , 4133.84615385 , 4186.66666667 , 4902.56410256 , 4145.64102564 , 4143.07692308 , 2039.0 , 2036.0 , 44.049 , 0.0 , 0.0 , 0.0 , 0.0 , 

56.0 , 4125.12820513 , 4118.97435897 , 4126.66666667 , 4132.30769231 , 4124.61538462 , 4120.0 , 4111.79487179 , 4186.66666667 , 4115.38461538 , 4129.74358974 , 4187.17948718 , 4904.61538462 , 4131.79487179 , 4138.97435897 , 2039.0 , 2036.0 , 44.057 , 0.0 , 0.0 , 0.0 , 0.0 , 

57.0 , 4127.69230769 , 4122.56410256 , 4128.71794872 , 4133.84615385 , 4126.15384615 , 4122.05128205 , 4116.92307692 , 4205.12820513 , 4132.30769231 , 4135.38461538 , 4194.35897436 , 4904.61538462 , 4142.56410256 , 4142.56410256 , 2039.0 , 2037.0 , 44.065 , 0.0 , 0.0 , 0.0 , 0.0 , 

58.0 , 4126.15384615 , 4115.38461538 , 4129.74358974 , 4128.20512821 , 4126.15384615 , 4120.0 , 4112.30769231 , 4201.02564103 , 4136.41025641 , 4138.46153846 , 4189.74358974 , 4905.64102564 , 4132.30769231 , 4139.48717949 , 2040.0 , 2038.0 , 44.073 , 0.0 , 0.0 , 0.0 , 0.0 , 

59.0 , 4126.66666667 , 4123.07692308 , 4131.28205128 , 4130.25641026 , 4125.64102564 , 4123.07692308 , 4122.05128205 , 4215.8974359 , 4138.97435897 , 4140.51282051 , 4190.76923077 , 4902.05128205 , 4133.84615385 , 4140.51282051 , 2039.0 , 2037.0 , 44.081 , 0.0 , 0.0 , 0.0 , 0.0 , 

60.0 , 4124.1025641 , 4116.41025641 , 4132.30769231 , 4124.61538462 , 4128.71794872 , 4125.12820513 , 4124.1025641 , 4212.82051282 , 4132.30769231 , 4140.0 , 4186.66666667 , 4907.17948718 , 4122.05128205 , 4135.8974359 , 2040.0 , 2036.0 , 44.089 , 0.0 , 0.0 , 0.0 , 0.0 , 

61.0 , 4124.61538462 , 4122.05128205 , 4133.84615385 , 4123.58974359 , 4128.71794872 , 4128.20512821 , 4125.64102564 , 4213.84615385 , 4138.97435897 , 4143.58974359 , 4184.1025641 , 4906.66666667 , 4114.87179487 , 4132.82051282 , 2040.0 , 2036.0 , 44.097 , 0.0 , 0.0 , 0.0 , 0.0 , 

62.0 , 4122.56410256 , 4122.05128205 , 4134.87179487 , 4124.61538462 , 4125.12820513 , 4126.66666667 , 4123.58974359 , 4207.69230769 , 4135.38461538 , 4139.48717949 , 4181.53846154 , 4906.66666667 , 4106.15384615 , 4129.74358974 , 2039.0 , 2036.0 , 44.105 , 0.0 , 0.0 , 0.0 , 0.0 , 

63.0 , 4128.20512821 , 4129.74358974 , 4130.76923077 , 4130.25641026 , 4127.69230769 , 4129.74358974 , 4130.76923077 , 4200.51282051 , 4128.71794872 , 4136.41025641 , 4182.05128205 , 4907.17948718 , 4116.41025641 , 4131.79487179 , 2041.0 , 2035.0 , 44.112 , 0.0 , 0.0 , 0.0 , 0.0 , 

64.0 , 4130.76923077 , 4132.30769231 , 4125.12820513 , 4129.74358974 , 4128.20512821 , 4128.71794872 , 4127.69230769 , 4192.82051282 , 4125.64102564 , 4136.92307692 , 4182.05128205 , 4909.23076923 , 4120.0 , 4131.28205128 , 2040.0 , 2036.0 , 44.12 , 0.0 , 0.0 , 0.0 , 0.0 , 

65.0 , 4132.82051282 , 4133.33333333 , 4127.17948718 , 4132.30769231 , 4128.71794872 , 4127.69230769 , 4123.07692308 , 4184.1025641 , 4122.05128205 , 4137.94871795 , 4183.07692308 , 4909.23076923 , 4121.02564103 , 4133.84615385 , 2039.0 , 2034.0 , 44.128 , 0.0 , 0.0 , 0.0 , 0.0 , 

66.0 , 4129.74358974 , 4132.82051282 , 4129.23076923 , 4135.8974359 , 4127.69230769 , 4128.20512821 , 4124.61538462 , 4193.84615385 , 4123.58974359 , 4135.38461538 , 4190.25641026 , 4907.69230769 , 4135.8974359 , 4141.02564103 , 2040.0 , 2035.0 , 44.136 , 0.0 , 0.0 , 0.0 , 0.0 , 

67.0 , 4131.79487179 , 4130.25641026 , 4125.12820513 , 4132.82051282 , 4125.12820513 , 4125.64102564 , 4120.0 , 4184.1025641 , 4120.0 , 4130.25641026 , 4187.69230769 , 4907.69230769 , 4141.02564103 , 4140.51282051 , 2037.0 , 2034.0 , 44.143 , 0.0 , 0.0 , 0.0 , 0.0 , 

68.0 , 4132.82051282 , 4133.84615385 , 4124.61538462 , 4133.33333333 , 4123.07692308 , 4123.07692308 , 4116.92307692 , 4190.76923077 , 4127.17948718 , 4130.25641026 , 4189.23076923 , 4905.64102564 , 4147.17948718 , 4140.0 , 2039.0 , 2035.0 , 44.151 , 0.0 , 0.0 , 0.0 , 0.0 , 

69.0 , 4129.74358974 , 4121.02564103 , 4128.20512821 , 4134.87179487 , 4127.69230769 , 4124.61538462 , 4112.30769231 , 4183.58974359 , 4119.48717949 , 4133.84615385 , 4188.71794872 , 4906.66666667 , 4137.43589744 , 4136.92307692 , 2038.0 , 2033.0 , 44.16 , 0.0 , 0.0 , 0.0 , 0.0 , 

70.0 , 4123.07692308 , 4121.53846154 , 4130.25641026 , 4133.33333333 , 4126.66666667 , 4124.1025641 , 4117.43589744 , 4206.15384615 , 4129.23076923 , 4139.48717949 , 4192.82051282 , 4905.12820513 , 4136.41025641 , 4138.46153846 , 2039.0 , 2034.0 , 44.167 , 0.0 , 0.0 , 0.0 , 0.0 , 

71.0 , 4123.07692308 , 4116.41025641 , 4131.28205128 , 4123.07692308 , 4126.66666667 , 4120.0 , 4112.82051282 , 4201.53846154 , 4130.25641026 , 4136.41025641 , 4185.12820513 , 4906.66666667 , 4123.58974359 , 4136.41025641 , 2040.0 , 2034.0 , 44.175 , 0.0 , 0.0 , 0.0 , 0.0 , 

72.0 , 4123.58974359 , 4120.0 , 4131.79487179 , 4125.12820513 , 4128.20512821 , 4124.1025641 , 4120.51282051 , 4217.43589744 , 4142.56410256 , 4138.97435897 , 4188.71794872 , 4905.12820513 , 4132.30769231 , 4140.0 , 2040.0 , 2033.0 , 44.183 , 0.0 , 0.0 , 0.0 , 0.0 , 

73.0 , 4122.56410256 , 4108.20512821 , 4129.74358974 , 4121.53846154 , 4130.25641026 , 4124.1025641 , 4118.46153846 , 4207.69230769 , 4135.38461538 , 4140.0 , 4185.64102564 , 4909.23076923 , 4114.87179487 , 4132.30769231 , 2041.0 , 2032.0 , 44.19 , 0.0 , 0.0 , 0.0 , 0.0 , 

74.0 , 4125.12820513 , 4121.53846154 , 4132.82051282 , 4124.1025641 , 4128.20512821 , 4123.07692308 , 4124.61538462 , 4217.94871795 , 4143.58974359 , 4140.51282051 , 4187.69230769 , 4905.64102564 , 4115.38461538 , 4130.76923077 , 2042.0 , 2033.0 , 44.199 , 0.0 , 0.0 , 0.0 , 0.0 , 

75.0 , 4128.20512821 , 4117.43589744 , 4134.35897436 , 4121.02564103 , 4128.71794872 , 4123.58974359 , 4123.07692308 , 4201.53846154 , 4136.41025641 , 4137.43589744 , 4182.56410256 , 4908.20512821 , 4113.33333333 , 4129.23076923 , 2040.0 , 2034.0 , 44.207 , 0.0 , 0.0 , 0.0 , 0.0 , 

76.0 , 4131.79487179 , 4129.23076923 , 4130.25641026 , 4127.69230769 , 4128.20512821 , 4129.23076923 , 4128.71794872 , 4209.23076923 , 4138.46153846 , 4139.48717949 , 4184.1025641 , 4908.20512821 , 4128.20512821 , 4134.87179487 , 2041.0 , 2035.0 , 44.215 , 0.0 , 0.0 , 0.0 , 0.0 , 

77.0 , 4132.30769231 , 4130.76923077 , 4126.66666667 , 4128.20512821 , 4126.66666667 , 4127.17948718 , 4123.07692308 , 4193.33333333 , 4126.15384615 , 4134.87179487 , 4180.51282051 , 4912.82051282 , 4119.48717949 , 4130.76923077 , 2039.0 , 2035.0 , 44.223 , 0.0 , 0.0 , 0.0 , 0.0 , 

78.0 , 4135.38461538 , 4140.51282051 , 4126.66666667 , 4134.35897436 , 4125.64102564 , 4129.23076923 , 4129.23076923 , 4192.82051282 , 4124.1025641 , 4135.8974359 , 4185.12820513 , 4910.25641026 , 4130.76923077 , 4133.33333333 , 2038.0 , 2034.0 , 44.23 , 0.0 , 0.0 , 0.0 , 0.0 , 

79.0 , 4132.30769231 , 4132.82051282 , 4127.17948718 , 4132.30769231 , 4127.69230769 , 4126.66666667 , 4122.56410256 , 4187.17948718 , 4118.97435897 , 4133.33333333 , 4184.1025641 , 4911.28205128 , 4135.38461538 , 4134.87179487 , 2040.0 , 2034.0 , 44.239 , 0.0 , 0.0 , 0.0 , 0.0 , 

80.0 , 4134.35897436 , 4134.87179487 , 4127.17948718 , 4134.35897436 , 4129.23076923 , 4125.12820513 , 4115.8974359 , 4189.74358974 , 4117.94871795 , 4129.74358974 , 4185.64102564 , 4909.23076923 , 4140.51282051 , 4137.94871795 , 2039.0 , 2033.0 , 44.246 , 0.0 , 0.0 , 0.0 , 0.0 , 

81.0 , 4130.25641026 , 4127.69230769 , 4127.69230769 , 4135.8974359 , 4127.69230769 , 4122.05128205 , 4111.28205128 , 4187.17948718 , 4113.84615385 , 4130.25641026 , 4187.69230769 , 4910.25641026 , 4133.84615385 , 4137.94871795 , 2041.0 , 2034.0 , 44.254 , 0.0 , 0.0 , 0.0 , 0.0 , 

82.0 , 4129.74358974 , 4123.58974359 , 4126.66666667 , 4138.46153846 , 4128.20512821 , 4121.53846154 , 4115.38461538 , 4188.20512821 , 4120.51282051 , 4134.35897436 , 4190.76923077 , 4909.23076923 , 4134.35897436 , 4137.43589744 , 2042.0 , 2033.0 , 44.262 , 0.0 , 0.0 , 0.0 , 0.0 , 

83.0 , 4127.69230769 , 4116.92307692 , 4126.15384615 , 4129.74358974 , 4126.15384615 , 4122.56410256 , 4113.84615385 , 4202.56410256 , 4129.74358974 , 4131.28205128 , 4192.82051282 , 4906.15384615 , 4133.84615385 , 4133.84615385 , 2043.0 , 2035.0 , 44.27 , 0.0 , 0.0 , 0.0 , 0.0 , 

84.0 , 4126.66666667 , 4112.82051282 , 4126.15384615 , 4122.05128205 , 4125.64102564 , 4124.61538462 , 4116.41025641 , 4207.69230769 , 4130.25641026 , 4130.76923077 , 4191.28205128 , 4901.53846154 , 4128.71794872 , 4136.92307692 , 2043.0 , 2034.0 , 44.278 , 0.0 , 0.0 , 0.0 , 0.0 , 

85.0 , 4120.51282051 , 4122.05128205 , 4128.71794872 , 4129.74358974 , 4126.15384615 , 4122.56410256 , 4123.07692308 , 4207.69230769 , 4145.12820513 , 4136.92307692 , 4191.28205128 , 4902.05128205 , 4129.23076923 , 4144.61538462 , 2043.0 , 2034.0 , 44.285 , 0.0 , 0.0 , 0.0 , 0.0 , 

86.0 , 4123.58974359 , 4124.1025641 , 4131.79487179 , 4132.30769231 , 4129.23076923 , 4124.61538462 , 4127.17948718 , 4190.25641026 , 4139.48717949 , 4135.8974359 , 4184.61538462 , 4907.69230769 , 4124.1025641 , 4137.94871795 , 2040.0 , 2033.0 , 44.293 , 0.0 , 0.0 , 0.0 , 0.0 , 

87.0 , 4127.17948718 , 4126.66666667 , 4131.79487179 , 4126.15384615 , 4127.69230769 , 4130.76923077 , 4136.41025641 , 4210.76923077 , 4134.35897436 , 4135.8974359 , 4185.64102564 , 4907.69230769 , 4131.79487179 , 4132.82051282 , 2042.0 , 2034.0 , 44.301 , 0.0 , 0.0 , 0.0 , 0.0 , 

88.0 , 4129.74358974 , 4124.1025641 , 4129.74358974 , 4124.1025641 , 4128.20512821 , 4124.61538462 , 4123.58974359 , 4196.92307692 , 4128.20512821 , 4136.41025641 , 4182.05128205 , 4910.25641026 , 4121.53846154 , 4131.79487179 , 2041.0 , 2033.0 , 44.308 , 0.0 , 0.0 , 0.0 , 0.0 , 

89.0 , 4132.30769231 , 4138.46153846 , 4129.23076923 , 4134.35897436 , 4128.20512821 , 4119.48717949 , 4117.43589744 , 4196.92307692 , 4135.8974359 , 4140.0 , 4182.05128205 , 4910.25641026 , 4121.02564103 , 4134.87179487 , 2041.0 , 2033.0 , 44.316 , 0.0 , 0.0 , 0.0 , 0.0 , 

90.0 , 4133.33333333 , 4129.74358974 , 4129.23076923 , 4128.20512821 , 4129.74358974 , 4124.61538462 , 4122.05128205 , 4182.56410256 , 4117.43589744 , 4136.92307692 , 4174.87179487 , 4913.33333333 , 4112.30769231 , 4131.79487179 , 2039.0 , 2033.0 , 44.325 , 0.0 , 0.0 , 0.0 , 0.0 , 

91.0 , 4131.28205128 , 4134.87179487 , 4131.79487179 , 4129.74358974 , 4125.64102564 , 4128.71794872 , 4134.35897436 , 4194.35897436 , 4123.58974359 , 4136.41025641 , 4181.02564103 , 4909.74358974 , 4130.25641026 , 4135.38461538 , 2040.0 , 2033.0 , 44.333 , 0.0 , 0.0 , 0.0 , 0.0 , 

92.0 , 4132.82051282 , 4129.23076923 , 4132.30769231 , 4132.82051282 , 4125.12820513 , 4123.07692308 , 4121.53846154 , 4177.94871795 , 4122.56410256 , 4134.35897436 , 4183.07692308 , 4912.30769231 , 4129.23076923 , 4132.82051282 , 2041.0 , 2035.0 , 44.34 , 0.0 , 0.0 , 0.0 , 0.0 , 

93.0 , 4135.38461538 , 4136.41025641 , 4130.76923077 , 4135.8974359 , 4128.20512821 , 4123.58974359 , 4122.05128205 , 4192.82051282 , 4125.64102564 , 4134.87179487 , 4189.74358974 , 4908.20512821 , 4140.51282051 , 4136.92307692 , 2040.0 , 2034.0 , 44.349 , 0.0 , 0.0 , 0.0 , 0.0 , 

94.0 , 4131.28205128 , 4127.69230769 , 4127.17948718 , 4128.20512821 , 4129.23076923 , 4120.0 , 4115.8974359 , 4184.1025641 , 4120.0 , 4130.76923077 , 4185.64102564 , 4910.25641026 , 4134.35897436 , 4138.97435897 , 2042.0 , 2036.0 , 44.357 , 0.0 , 0.0 , 0.0 , 0.0 , 

95.0 , 4131.79487179 , 4131.28205128 , 4125.64102564 , 4132.82051282 , 4124.61538462 , 4121.02564103 , 4117.94871795 , 4196.92307692 , 4133.33333333 , 4134.35897436 , 4191.79487179 , 4906.66666667 , 4144.61538462 , 4142.56410256 , 2042.0 , 2036.0 , 44.365 , 0.0 , 0.0 , 0.0 , 0.0 , 

96.0 , 4128.71794872 , 4116.92307692 , 4128.20512821 , 4128.20512821 , 4125.12820513 , 4122.56410256 , 4114.35897436 , 4201.53846154 , 4130.25641026 , 4136.92307692 , 4192.82051282 , 4904.1025641 , 4137.94871795 , 4138.46153846 , 2044.0 , 2036.0 , 44.373 , 0.0 , 0.0 , 0.0 , 0.0 , 

97.0 , 4125.12820513 , 4122.56410256 , 4130.76923077 , 4128.20512821 , 4130.25641026 , 4124.61538462 , 4120.51282051 , 4213.84615385 , 4137.43589744 , 4138.46153846 , 4192.82051282 , 4900.0 , 4141.53846154 , 4140.0 , 2042.0 , 2034.0 , 44.379 , 0.0 , 0.0 , 0.0 , 0.0 , 

98.0 , 4122.05128205 , 4123.07692308 , 4132.30769231 , 4124.1025641 , 4129.23076923 , 4121.53846154 , 4121.53846154 , 4201.02564103 , 4138.97435897 , 4134.87179487 , 4186.66666667 , 4906.15384615 , 4131.79487179 , 4135.38461538 , 2042.0 , 2035.0 , 44.388 , 0.0 , 0.0 , 0.0 , 0.0 , 

99.0 , 4125.12820513 , 4124.61538462 , 4134.35897436 , 4123.58974359 , 4128.20512821 , 4125.64102564 , 4126.15384615 , 4201.53846154 , 4136.41025641 , 4137.43589744 , 4185.12820513 , 4907.69230769 , 4125.12820513 , 4132.30769231 , 2045.0 , 2036.0 , 44.396 , 0.0 , 0.0 , 0.0 , 0.0 , 

100.0 , 4123.58974359 , 4114.87179487 , 4134.35897436 , 4122.56410256 , 4130.76923077 , 4126.15384615 , 4124.61538462 , 4210.76923077 , 4133.84615385 , 4140.0 , 4185.12820513 , 4908.20512821 , 4112.82051282 , 4129.23076923 , 2046.0 , 2037.0 , 44.404 , 0.0 , 0.0 , 0.0 , 0.0 , 

101.0 , 4128.71794872 , 4118.97435897 , 4131.28205128 , 4128.20512821 , 4131.28205128 , 4124.1025641 , 4126.15384615 , 4206.66666667 , 4136.92307692 , 4138.46153846 , 4184.1025641 , 4908.71794872 , 4113.84615385 , 4130.76923077 , 2045.0 , 2036.0 , 44.411 , 0.0 , 0.0 , 0.0 , 0.0 , 

102.0 , 4129.74358974 , 4131.79487179 , 4130.76923077 , 4131.28205128 , 4128.20512821 , 4123.07692308 , 4127.17948718 , 4202.05128205 , 4137.94871795 , 4136.92307692 , 4182.56410256 , 4910.76923077 , 4118.46153846 , 4131.28205128 , 2044.0 , 2035.0 , 44.419 , 0.0 , 0.0 , 0.0 , 0.0 , 

103.0 , 4132.30769231 , 4133.33333333 , 4132.30769231 , 4131.28205128 , 4131.79487179 , 4126.66666667 , 4127.69230769 , 4190.76923077 , 4127.69230769 , 4137.43589744 , 4178.46153846 , 4911.79487179 , 4119.48717949 , 4131.28205128 , 2044.0 , 2035.0 , 44.427 , 0.0 , 0.0 , 0.0 , 0.0 , 

104.0 , 4131.79487179 , 4133.33333333 , 4131.79487179 , 4131.79487179 , 4130.76923077 , 4127.69230769 , 4129.23076923 , 4197.94871795 , 4128.20512821 , 4137.94871795 , 4184.1025641 , 4909.23076923 , 4132.82051282 , 4134.87179487 , 2043.0 , 2034.0 , 44.436 , 0.0 , 0.0 , 0.0 , 0.0 , 

105.0 , 4133.33333333 , 4133.33333333 , 4128.71794872 , 4131.28205128 , 4126.66666667 , 4126.66666667 , 4123.58974359 , 4182.05128205 , 4119.48717949 , 4133.84615385 , 4184.1025641 , 4908.71794872 , 4131.28205128 , 4133.84615385 , 2042.0 , 2035.0 , 44.442 , 0.0 , 0.0 , 0.0 , 0.0 , 

106.0 , 4130.76923077 , 4140.0 , 4128.71794872 , 4136.41025641 , 4125.64102564 , 4128.20512821 , 4123.07692308 , 4191.28205128 , 4123.58974359 , 4135.8974359 , 4189.23076923 , 4908.71794872 , 4140.51282051 , 4138.46153846 , 2040.0 , 2034.0 , 44.452 , 0.0 , 0.0 , 0.0 , 0.0 , 

107.0 , 4128.71794872 , 4124.1025641 , 4128.20512821 , 4131.28205128 , 4128.20512821 , 4124.1025641 , 4116.92307692 , 4182.56410256 , 4115.38461538 , 4135.8974359 , 4185.64102564 , 4912.82051282 , 4138.46153846 , 4140.0 , 2039.0 , 2034.0 , 44.459 , 0.0 , 0.0 , 0.0 , 0.0 , 

108.0 , 4126.15384615 , 4124.1025641 , 4128.20512821 , 4131.79487179 , 4123.58974359 , 4117.43589744 , 4116.92307692 , 4203.58974359 , 4125.64102564 , 4134.87179487 , 4190.25641026 , 4907.69230769 , 4144.1025641 , 4143.58974359 , 2042.0 , 2035.0 , 44.467 , 0.0 , 0.0 , 0.0 , 0.0 , 

109.0 , 4125.12820513 , 4114.87179487 , 4128.20512821 , 4129.23076923 , 4125.64102564 , 4116.92307692 , 4109.74358974 , 4196.92307692 , 4125.12820513 , 4131.28205128 , 4189.74358974 , 4906.15384615 , 4129.74358974 , 4137.43589744 , 2045.0 , 2037.0 , 44.474 , 0.0 , 0.0 , 0.0 , 0.0 , 

110.0 , 4125.12820513 , 4117.94871795 , 4129.74358974 , 4131.79487179 , 4130.25641026 , 4124.61538462 , 4114.87179487 , 4212.30769231 , 4138.46153846 , 4136.92307692 , 4193.33333333 , 4905.12820513 , 4139.48717949 , 4140.0 , 2045.0 , 2035.0 , 44.482 , 0.0 , 0.0 , 0.0 , 0.0 , 

111.0 , 4122.56410256 , 4109.23076923 , 4130.25641026 , 4124.61538462 , 4129.74358974 , 4124.1025641 , 4112.30769231 , 4207.17948718 , 4134.87179487 , 4139.48717949 , 4186.15384615 , 4907.69230769 , 4126.66666667 , 4137.43589744 , 2046.0 , 2033.0 , 44.491 , 0.0 , 0.0 , 0.0 , 0.0 , 

112.0 , 4126.66666667 , 4119.48717949 , 4132.82051282 , 4127.17948718 , 4126.66666667 , 4126.15384615 , 4124.1025641 , 4221.53846154 , 4141.53846154 , 4142.56410256 , 4189.23076923 , 4902.56410256 , 4125.12820513 , 4135.38461538 , 2046.0 , 2034.0 , 44.498 , 0.0 , 0.0 , 0.0 , 0.0 , 

113.0 , 4127.69230769 , 4113.33333333 , 4131.79487179 , 4124.1025641 , 4128.71794872 , 4126.66666667 , 4122.56410256 , 4207.17948718 , 4134.87179487 , 4138.97435897 , 4185.12820513 , 4906.66666667 , 4116.92307692 , 4129.23076923 , 2045.0 , 2033.0 , 44.506 , 0.0 , 0.0 , 0.0 , 0.0 , 

114.0 , 4128.71794872 , 4126.66666667 , 4129.74358974 , 4130.25641026 , 4127.69230769 , 4129.74358974 , 4125.64102564 , 4214.35897436 , 4141.02564103 , 4138.97435897 , 4185.64102564 , 4906.66666667 , 4124.1025641 , 4132.30769231 , 2044.0 , 2032.0 , 44.513 , 0.0 , 0.0 , 0.0 , 0.0 , 

115.0 , 4128.20512821 , 4128.71794872 , 4131.79487179 , 4129.74358974 , 4126.66666667 , 4127.69230769 , 4127.69230769 , 4205.64102564 , 4130.76923077 , 4138.46153846 , 4181.53846154 , 4911.28205128 , 4113.33333333 , 4129.74358974 , 2043.0 , 2034.0 , 44.522 , 0.0 , 0.0 , 0.0 , 0.0 , 

116.0 , 4131.79487179 , 4136.41025641 , 4134.35897436 , 4132.82051282 , 4128.20512821 , 4127.69230769 , 4135.8974359 , 4195.8974359 , 4124.1025641 , 4141.53846154 , 4182.05128205 , 4911.79487179 , 4125.12820513 , 4131.28205128 , 2042.0 , 2032.0 , 44.53 , 0.0 , 0.0 , 0.0 , 0.0 , 

117.0 , 4128.71794872 , 4133.84615385 , 4132.30769231 , 4131.79487179 , 4128.71794872 , 4126.15384615 , 4127.17948718 , 4181.02564103 , 4118.97435897 , 4137.43589744 , 4181.02564103 , 4909.23076923 , 4132.82051282 , 4132.82051282 , 2041.0 , 2034.0 , 44.538 , 0.0 , 0.0 , 0.0 , 0.0 , 

118.0 , 4132.82051282 , 4140.51282051 , 4130.76923077 , 4135.38461538 , 4128.20512821 , 4125.64102564 , 4123.07692308 , 4183.07692308 , 4121.02564103 , 4134.87179487 , 4186.66666667 , 4905.12820513 , 4137.94871795 , 4136.41025641 , 2040.0 , 2032.0 , 44.545 , 0.0 , 0.0 , 0.0 , 0.0 , 

119.0 , 4131.79487179 , 4134.87179487 , 4129.23076923 , 4134.87179487 , 4124.1025641 , 4120.0 , 4120.0 , 4182.05128205 , 4122.05128205 , 4134.87179487 , 4191.79487179 , 4909.23076923 , 4139.48717949 , 4136.92307692 , 2040.0 , 2031.0 , 44.554 , 0.0 , 0.0 , 0.0 , 0.0 , 

120.0 , 4131.79487179 , 4128.20512821 , 4127.69230769 , 4133.84615385 , 4124.1025641 , 4118.46153846 , 4115.8974359 , 4169.23076923 , 4120.0 , 4134.35897436 , 4188.71794872 , 4909.74358974 , 4138.97435897 , 4136.92307692 , 2041.0 , 2032.0 , 44.562 , 0.0 , 0.0 , 0.0 , 0.0 , 

121.0 , 4128.20512821 , 4127.17948718 , 4130.25641026 , 4130.76923077 , 4126.15384615 , 4121.02564103 , 4115.38461538 , 4184.61538462 , 4126.15384615 , 4134.35897436 , 4188.71794872 , 4907.69230769 , 4135.8974359 , 4136.92307692 , 2041.0 , 2031.0 , 44.568 , 0.0 , 0.0 , 0.0 , 0.0 , 

122.0 , 4129.23076923 , 4120.0 , 4130.76923077 , 4126.15384615 , 4128.71794872 , 4121.53846154 , 4115.8974359 , 4197.94871795 , 4127.69230769 , 4133.84615385 , 4189.74358974 , 4906.66666667 , 4135.8974359 , 4140.0 , 2040.0 , 2031.0 , 44.577 , 0.0 , 0.0 , 0.0 , 0.0 , 

123.0 , 4125.64102564 , 4116.41025641 , 4132.30769231 , 4126.66666667 , 4127.69230769 , 4120.0 , 4116.92307692 , 4217.94871795 , 4141.53846154 , 4136.41025641 , 4191.79487179 , 4903.58974359 , 4143.58974359 , 4143.58974359 , 2038.0 , 2031.0 , 44.585 , 0.0 , 0.0 , 0.0 , 0.0 , 

124.0 , 4125.12820513 , 4111.28205128 , 4133.33333333 , 4124.61538462 , 4129.23076923 , 4122.05128205 , 4114.87179487 , 4206.66666667 , 4136.41025641 , 4137.43589744 , 4185.64102564 , 4904.1025641 , 4125.64102564 , 4134.35897436 , 2039.0 , 2032.0 , 44.593 , 0.0 , 0.0 , 0.0 , 0.0 , 

125.0 , 4127.17948718 , 4118.97435897 , 4132.82051282 , 4125.64102564 , 4128.71794872 , 4127.17948718 , 4128.71794872 , 4217.43589744 , 4136.92307692 , 4138.46153846 , 4188.71794872 , 4903.58974359 , 4124.1025641 , 4131.79487179 , 2039.0 , 2034.0 , 44.601 , 0.0 , 0.0 , 0.0 , 0.0 , 

126.0 , 4129.74358974 , 4112.82051282 , 4133.33333333 , 4122.56410256 , 4130.76923077 , 4127.17948718 , 4129.74358974 , 4202.05128205 , 4130.76923077 , 4134.35897436 , 4183.58974359 , 4908.20512821 , 4117.43589744 , 4131.79487179 , 2039.0 , 2035.0 , 44.609 , 0.0 , 0.0 , 0.0 , 0.0 , 

127.0 , 4129.74358974 , 4129.74358974 , 4134.35897436 , 4128.71794872 , 4129.74358974 , 4128.20512821 , 4132.30769231 , 4215.38461538 , 4140.51282051 , 4138.97435897 , 4184.1025641 , 4908.71794872 , 4121.02564103 , 4133.33333333 , 2039.0 , 2036.0 , 44.617 , 0.0 , 0.0 , 0.0 , 0.0 , 

128.0 , 4129.74358974 , 4131.28205128 , 4130.76923077 , 4127.17948718 , 4127.69230769 , 4127.17948718 , 4127.17948718 , 4201.02564103 , 4126.15384615 , 4138.97435897 , 4178.46153846 , 4913.33333333 , 4112.30769231 , 4126.15384615 , 2040.0 , 2038.0 , 44.625 , 0.0 , 0.0 , 0.0 , 0.0 , 

0.0 , 4132.82051282 , 4137.43589744 , 4131.28205128 , 4131.28205128 , 4125.12820513 , 4128.20512821 , 4132.82051282 , 4202.56410256 , 4127.69230769 , 4139.48717949 , 4183.07692308 , 4909.74358974 , 4130.76923077 , 4132.82051282 , 2040.0 , 2040.0 , 44.633 , 0.0 , 0.0 , 0.0 , 0.0 , 

1.0 , 4132.82051282 , 4131.79487179 , 4133.84615385 , 4131.79487179 , 4126.15384615 , 4125.12820513 , 4124.1025641 , 4180.0 , 4121.02564103 , 4134.87179487 , 4180.0 , 4912.30769231 , 4126.15384615 , 4134.35897436 , 2040.0 , 2039.0 , 44.64 , 0.0 , 0.0 , 0.0 , 0.0 , 

2.0 , 4130.76923077 , 4142.56410256 , 4132.30769231 , 4138.97435897 , 4126.15384615 , 4127.69230769 , 4130.25641026 , 4187.17948718 , 4128.71794872 , 4134.87179487 , 4187.17948718 , 4907.69230769 , 4138.46153846 , 4139.48717949 , 2039.0 , 2038.0 , 44.647 , 0.0 , 0.0 , 0.0 , 0.0 , 

3.0 , 4129.23076923 , 4128.71794872 , 4127.69230769 , 4133.84615385 , 4126.66666667 , 4126.15384615 , 4128.20512821 , 4174.35897436 , 4121.53846154 , 4131.28205128 , 4187.69230769 , 4908.20512821 , 4135.38461538 , 4137.94871795 , 2039.0 , 2035.0 , 44.656 , 0.0 , 0.0 , 0.0 , 0.0 , 

4.0 , 4133.84615385 , 4135.8974359 , 4126.66666667 , 4133.84615385 , 4125.64102564 , 4124.1025641 , 4123.58974359 , 4183.07692308 , 4125.64102564 , 4133.84615385 , 4191.28205128 , 4906.66666667 , 4140.0 , 4139.48717949 , 2041.0 , 2034.0 , 44.664 , 0.0 , 0.0 , 0.0 , 0.0 , 

5.0 , 4129.74358974 , 4129.23076923 , 4126.15384615 , 4131.79487179 , 4124.61538462 , 4120.51282051 , 4113.33333333 , 4187.69230769 , 4122.05128205 , 4133.33333333 , 4189.23076923 , 4907.69230769 , 4133.33333333 , 4138.46153846 , 2040.0 , 2034.0 , 44.671 , 0.0 , 0.0 , 0.0 , 0.0 , 

6.0 , 4126.66666667 , 4118.97435897 , 4126.66666667 , 4129.74358974 , 4127.17948718 , 4124.1025641 , 4120.0 , 4197.43589744 , 4128.20512821 , 4135.38461538 , 4188.71794872 , 4904.61538462 , 4135.8974359 , 4140.0 , 2041.0 , 2036.0 , 44.679 , 0.0 , 0.0 , 0.0 , 0.0 , 

7.0 , 4123.07692308 , 4107.69230769 , 4129.23076923 , 4121.53846154 , 4126.66666667 , 4123.07692308 , 4118.46153846 , 4201.53846154 , 4134.35897436 , 4137.43589744 , 4185.12820513 , 4905.12820513 , 4125.12820513 , 4135.8974359 , 2042.0 , 2035.0 , 44.688 , 0.0 , 0.0 , 0.0 , 0.0 , 

8.0 , 4125.64102564 , 4117.43589744 , 4132.30769231 , 4121.53846154 , 4126.66666667 , 4122.05128205 , 4120.0 , 4210.76923077 , 4136.41025641 , 4136.92307692 , 4188.20512821 , 4906.15384615 , 4124.61538462 , 4136.41025641 , 2044.0 , 2035.0 , 44.695 , 0.0 , 0.0 , 0.0 , 0.0 , 

9.0 , 4125.12820513 , 4115.38461538 , 4134.87179487 , 4122.05128205 , 4125.64102564 , 4123.58974359 , 4124.61538462 , 4217.43589744 , 4136.41025641 , 4133.33333333 , 4190.76923077 , 4906.15384615 , 4128.20512821 , 4135.8974359 , 2043.0 , 2037.0 , 44.704 , 0.0 , 0.0 , 0.0 , 0.0 , 

10.0 , 4128.71794872 , 4114.35897436 , 4132.82051282 , 4125.64102564 , 4128.71794872 , 4126.15384615 , 4124.61538462 , 4208.71794872 , 4134.35897436 , 4134.87179487 , 4184.1025641 , 4905.64102564 , 4122.05128205 , 4130.76923077 , 2044.0 , 2037.0 , 44.711 , 0.0 , 0.0 , 0.0 , 0.0 , 

11.0 , 4128.20512821 , 4129.23076923 , 4132.30769231 , 4129.23076923 , 4130.25641026 , 4125.64102564 , 4126.66666667 , 4214.87179487 , 4136.41025641 , 4138.97435897 , 4183.07692308 , 4906.15384615 , 4120.51282051 , 4131.28205128 , 2043.0 , 2036.0 , 44.719 , 0.0 , 0.0 , 0.0 , 0.0 , 

12.0 , 4131.28205128 , 4132.30769231 , 4133.33333333 , 4129.74358974 , 4130.76923077 , 4129.23076923 , 4130.76923077 , 4203.07692308 , 4129.74358974 , 4137.43589744 , 4181.53846154 , 4909.23076923 , 4119.48717949 , 4132.82051282 , 2043.0 , 2036.0 , 44.727 , 0.0 , 0.0 , 0.0 , 0.0 , 

13.0 , 4132.82051282 , 4136.92307692 , 4131.79487179 , 4134.87179487 , 4126.66666667 , 4129.74358974 , 4133.33333333 , 4206.15384615 , 4136.41025641 , 4140.0 , 4184.61538462 , 4909.23076923 , 4128.20512821 , 4132.30769231 , 2043.0 , 2034.0 , 44.734 , 0.0 , 0.0 , 0.0 , 0.0 , 

14.0 , 4131.28205128 , 4132.82051282 , 4127.17948718 , 4134.87179487 , 4126.15384615 , 4127.17948718 , 4124.1025641 , 4184.1025641 , 4125.12820513 , 4136.92307692 , 4181.53846154 , 4910.76923077 , 4120.51282051 , 4130.25641026 , 2041.0 , 2033.0 , 44.743 , 0.0 , 0.0 , 0.0 , 0.0 , 

15.0 , 4130.76923077 , 4139.48717949 , 4125.12820513 , 4134.35897436 , 4127.69230769 , 4130.25641026 , 4128.71794872 , 4188.71794872 , 4120.51282051 , 4134.35897436 , 4186.66666667 , 4909.23076923 , 4133.84615385 , 4139.48717949 , 2042.0 , 2033.0 , 44.751 , 0.0 , 0.0 , 0.0 , 0.0 , 

16.0 , 4132.30769231 , 4130.25641026 , 4129.74358974 , 4128.71794872 , 4129.23076923 , 4126.66666667 , 4121.53846154 , 4176.92307692 , 4110.76923077 , 4131.79487179 , 4183.58974359 , 4911.28205128 , 4136.41025641 , 4142.05128205 , 2041.0 , 2031.0 , 44.759 , 0.0 , 0.0 , 0.0 , 0.0 , 

17.0 , 4129.23076923 , 4131.28205128 , 4133.33333333 , 4133.33333333 , 4124.1025641 , 4121.53846154 , 4118.97435897 , 4194.87179487 , 4124.61538462 , 4133.33333333 , 4191.28205128 , 4907.69230769 , 4146.15384615 , 4143.58974359 , 2041.0 , 2030.0 , 44.765 , 0.0 , 0.0 , 0.0 , 0.0 , 

18.0 , 4126.66666667 , 4113.33333333 , 4129.74358974 , 4128.71794872 , 4123.58974359 , 4120.51282051 , 4110.76923077 , 4188.71794872 , 4120.51282051 , 4130.25641026 , 4188.71794872 , 4908.20512821 , 4132.30769231 , 4136.92307692 , 2042.0 , 2031.0 , 44.774 , 0.0 , 0.0 , 0.0 , 0.0 , 

19.0 , 4126.15384615 , 4118.46153846 , 4128.20512821 , 4131.28205128 , 4127.17948718 , 4123.58974359 , 4116.92307692 , 4208.20512821 , 4130.25641026 , 4137.43589744 , 4190.76923077 , 4904.1025641 , 4140.0 , 4141.02564103 , 2041.0 , 2031.0 , 44.782 , 0.0 , 0.0 , 0.0 , 0.0 , 

20.0 , 4123.07692308 , 4113.33333333 , 4131.28205128 , 4125.64102564 , 4129.23076923 , 4120.51282051 , 4112.82051282 , 4202.56410256 , 4127.17948718 , 4137.94871795 , 4188.20512821 , 4906.66666667 , 4129.74358974 , 4138.97435897 , 2042.0 , 2032.0 , 44.79 , 0.0 , 0.0 , 0.0 , 0.0 , 

21.0 , 4126.15384615 , 4121.53846154 , 4134.87179487 , 4126.15384615 , 4128.20512821 , 4125.64102564 , 4123.58974359 , 4219.48717949 , 4136.41025641 , 4138.46153846 , 4191.28205128 , 4902.56410256 , 4133.33333333 , 4141.53846154 , 2041.0 , 2030.0 , 44.798 , 0.0 , 0.0 , 0.0 , 0.0 , 

22.0 , 4129.23076923 , 4115.8974359 , 4133.84615385 , 4123.07692308 , 4129.74358974 , 4126.15384615 , 4126.15384615 , 4213.84615385 , 4134.35897436 , 4134.35897436 , 4186.66666667 , 4904.61538462 , 4123.58974359 , 4136.92307692 , 2041.0 , 2031.0 , 44.806 , 0.0 , 0.0 , 0.0 , 0.0 , 

23.0 , 4130.25641026 , 4129.74358974 , 4131.79487179 , 4127.17948718 , 4129.23076923 , 4126.15384615 , 4131.79487179 , 4214.35897436 , 4137.94871795 , 4135.8974359 , 4186.15384615 , 4904.61538462 , 4124.61538462 , 4133.33333333 , 2041.0 , 2034.0 , 44.814 , 0.0 , 0.0 , 0.0 , 0.0 , 

24.0 , 4126.15384615 , 4129.23076923 , 4131.79487179 , 4123.58974359 , 4127.69230769 , 4126.15384615 , 4129.74358974 , 4205.12820513 , 4130.25641026 , 4137.43589744 , 4182.05128205 , 4909.74358974 , 4113.84615385 , 4128.20512821 , 2041.0 , 2034.0 , 44.822 , 0.0 , 0.0 , 0.0 , 0.0 , 

25.0 , 4132.30769231 , 4133.33333333 , 4133.33333333 , 4127.17948718 , 4127.69230769 , 4129.23076923 , 4132.30769231 , 4201.53846154 , 4125.64102564 , 4140.0 , 4178.97435897 , 4910.76923077 , 4118.46153846 , 4132.82051282 , 2043.0 , 2031.0 , 44.83 , 0.0 , 0.0 , 0.0 , 0.0 , 

26.0 , 4131.79487179 , 4131.79487179 , 4134.87179487 , 4129.74358974 , 4126.66666667 , 4128.20512821 , 4127.17948718 , 4194.35897436 , 4122.56410256 , 4135.8974359 , 4177.94871795 , 4911.79487179 , 4121.53846154 , 4129.74358974 , 2044.0 , 2030.0 , 44.838 , 0.0 , 0.0 , 0.0 , 0.0 , 

27.0 , 4131.79487179 , 4134.35897436 , 4132.82051282 , 4132.30769231 , 4127.69230769 , 4127.69230769 , 4127.69230769 , 4186.15384615 , 4121.02564103 , 4135.38461538 , 4181.02564103 , 4908.71794872 , 4126.15384615 , 4126.15384615 , 2044.0 , 2029.0 , 44.845 , 0.0 , 0.0 , 0.0 , 0.0 , 

28.0 , 4131.79487179 , 4132.82051282 , 4128.71794872 , 4133.84615385 , 4128.20512821 , 4125.64102564 , 4125.12820513 , 4187.69230769 , 4121.02564103 , 4136.41025641 , 4185.12820513 , 4909.23076923 , 4131.79487179 , 4134.35897436 , 2045.0 , 2028.0 , 44.853 , 0.0 , 0.0 , 0.0 , 0.0 , 

29.0 , 4136.41025641 , 4130.76923077 , 4127.17948718 , 4133.84615385 , 4126.66666667 , 4126.15384615 , 4117.94871795 , 4183.07692308 , 4118.97435897 , 4132.82051282 , 4185.64102564 , 4910.25641026 , 4134.35897436 , 4140.51282051 , 2045.0 , 2028.0 , 44.861 , 0.0 , 0.0 , 0.0 , 0.0 , 

30.0 , 4129.74358974 , 4133.33333333 , 4130.25641026 , 4131.28205128 , 4125.12820513 , 4124.1025641 , 4116.41025641 , 4195.8974359 , 4126.66666667 , 4132.82051282 , 4191.28205128 , 4906.15384615 , 4142.05128205 , 4138.46153846 , 2044.0 , 2029.0 , 44.869 , 0.0 , 0.0 , 0.0 , 0.0 , 

31.0 , 4125.12820513 , 4125.64102564 , 4131.28205128 , 4131.28205128 , 4128.20512821 , 4120.0 , 4113.33333333 , 4192.82051282 , 4122.56410256 , 4133.33333333 , 4188.71794872 , 4905.12820513 , 4138.46153846 , 4138.97435897 , 2044.0 , 2030.0 , 44.876 , 0.0 , 0.0 , 0.0 , 0.0 , 

32.0 , 4126.66666667 , 4122.56410256 , 4129.74358974 , 4133.84615385 , 4128.20512821 , 4122.05128205 , 4116.92307692 , 4212.82051282 , 4132.82051282 , 4136.41025641 , 4189.74358974 , 4905.12820513 , 4140.0 , 4144.1025641 , 2044.0 , 2033.0 , 44.885 , 0.0 , 0.0 , 0.0 , 0.0 , 

33.0 , 4128.20512821 , 4113.84615385 , 4130.25641026 , 4121.53846154 , 4129.23076923 , 4124.61538462 , 4120.0 , 4206.66666667 , 4129.74358974 , 4138.97435897 , 4187.17948718 , 4906.15384615 , 4128.20512821 , 4132.82051282 , 2043.0 , 2034.0 , 44.892 , 0.0 , 0.0 , 0.0 , 0.0 , 

34.0 , 4124.61538462 , 4126.15384615 , 4133.33333333 , 4123.07692308 , 4128.71794872 , 4123.07692308 , 4131.28205128 , 4211.79487179 , 4137.94871795 , 4143.07692308 , 4191.79487179 , 4902.05128205 , 4136.41025641 , 4131.28205128 , 2042.0 , 2034.0 , 44.9 , 0.0 , 0.0 , 0.0 , 0.0 , 

35.0 , 4124.61538462 , 4120.0 , 4132.30769231 , 4127.69230769 , 4130.25641026 , 4122.05128205 , 4123.58974359 , 4189.23076923 , 4128.71794872 , 4137.43589744 , 4182.05128205 , 4909.23076923 , 4120.0 , 4132.82051282 , 2041.0 , 2034.0 , 44.908 , 0.0 , 0.0 , 0.0 , 0.0 , 

36.0 , 4127.69230769 , 4122.05128205 , 4131.28205128 , 4130.25641026 , 4130.25641026 , 4126.15384615 , 4127.17948718 , 4207.17948718 , 4133.84615385 , 4140.0 , 4181.53846154 , 4910.25641026 , 4116.92307692 , 4132.82051282 , 2041.0 , 2035.0 , 44.916 , 0.0 , 0.0 , 0.0 , 0.0 , 

37.0 , 4129.23076923 , 4120.0 , 4132.30769231 , 4125.12820513 , 4131.79487179 , 4124.1025641 , 4128.71794872 , 4196.41025641 , 4129.74358974 , 4137.43589744 , 4180.0 , 4910.25641026 , 4103.58974359 , 4123.58974359 , 2042.0 , 2036.0 , 44.923 , 0.0 , 0.0 , 0.0 , 0.0 , 

38.0 , 4131.79487179 , 4141.02564103 , 4133.33333333 , 4132.30769231 , 4127.69230769 , 4125.64102564 , 4137.94871795 , 4204.1025641 , 4146.15384615 , 4135.8974359 , 4186.66666667 , 4906.66666667 , 4113.33333333 , 4130.76923077 , 2041.0 , 2036.0 , 44.931 , 0.0 , 0.0 , 0.0 , 0.0 , 

39.0 , 4129.74358974 , 4130.76923077 , 4134.87179487 , 4126.15384615 , 4124.61538462 , 4126.15384615 , 4128.71794872 , 4194.87179487 , 4135.8974359 , 4133.84615385 , 4180.51282051 , 4910.76923077 , 4113.84615385 , 4133.33333333 , 2043.0 , 2036.0 , 44.94 , 0.0 , 0.0 , 0.0 , 0.0 , 

40.0 , 4131.28205128 , 4131.28205128 , 4133.84615385 , 4129.74358974 , 4125.64102564 , 4128.20512821 , 4128.71794872 , 4201.02564103 , 4124.61538462 , 4136.92307692 , 4183.07692308 , 4907.69230769 , 4136.41025641 , 4135.8974359 , 2043.0 , 2035.0 , 44.948 , 0.0 , 0.0 , 0.0 , 0.0 , 

41.0 , 4133.33333333 , 4127.17948718 , 4128.20512821 , 4133.33333333 , 4127.17948718 , 4125.64102564 , 4122.05128205 , 4182.56410256 , 4116.41025641 , 4132.30769231 , 4183.58974359 , 4909.74358974 , 4135.8974359 , 4134.87179487 , 2043.0 , 2035.0 , 44.956 , 0.0 , 0.0 , 0.0 , 0.0 , 

42.0 , 4135.8974359 , 4134.87179487 , 4128.20512821 , 4134.35897436 , 4127.17948718 , 4125.64102564 , 4121.02564103 , 4184.61538462 , 4123.07692308 , 4130.25641026 , 4189.74358974 , 4909.23076923 , 4135.8974359 , 4138.46153846 , 2046.0 , 2036.0 , 44.964 , 0.0 , 0.0 , 0.0 , 0.0 , 

43.0 , 4129.74358974 , 4127.17948718 , 4129.23076923 , 4131.79487179 , 4126.15384615 , 4123.07692308 , 4113.33333333 , 4186.66666667 , 4116.92307692 , 4130.76923077 , 4189.74358974 , 4908.20512821 , 4133.84615385 , 4138.97435897 , 2045.0 , 2037.0 , 44.971 , 0.0 , 0.0 , 0.0 , 0.0 , 

44.0 , 4130.25641026 , 4120.0 , 4127.17948718 , 4135.8974359 , 4126.66666667 , 4122.05128205 , 4113.84615385 , 4191.79487179 , 4120.51282051 , 4134.35897436 , 4189.23076923 , 4904.61538462 , 4137.43589744 , 4138.97435897 , 2043.0 , 2035.0 , 44.979 , 0.0 , 0.0 , 0.0 , 0.0 , 

45.0 , 4128.20512821 , 4109.23076923 , 4129.23076923 , 4127.17948718 , 4126.66666667 , 4117.94871795 , 4114.35897436 , 4203.58974359 , 4132.82051282 , 4134.87179487 , 4189.23076923 , 4904.1025641 , 4131.28205128 , 4134.87179487 , 2044.0 , 2035.0 , 44.987 , 0.0 , 0.0 , 0.0 , 0.0 , 

46.0 , 4125.64102564 , 4110.25641026 , 4131.28205128 , 4121.53846154 , 4127.17948718 , 4120.51282051 , 4118.97435897 , 4209.23076923 , 4134.35897436 , 4135.38461538 , 4190.76923077 , 4903.07692308 , 4130.25641026 , 4136.92307692 , 2042.0 , 2035.0 , 44.994 , 0.0 , 0.0 , 0.0 , 0.0 , 

47.0 , 4120.0 , 4115.38461538 , 4129.74358974 , 4122.05128205 , 4125.64102564 , 4124.61538462 , 4123.58974359 , 4217.94871795 , 4138.46153846 , 4138.97435897 , 4190.76923077 , 4904.1025641 , 4132.82051282 , 4140.0 , 2041.0 , 2036.0 , 45.003 , 0.0 , 0.0 , 0.0 , 0.0 , 

48.0 , 4124.1025641 , 4115.8974359 , 4130.76923077 , 4123.58974359 , 4127.17948718 , 4124.61538462 , 4123.07692308 , 4212.82051282 , 4138.46153846 , 4140.0 , 4184.61538462 , 4906.15384615 , 4121.53846154 , 4133.33333333 , 2042.0 , 2036.0 , 45.011 , 0.0 , 0.0 , 0.0 , 0.0 , 

49.0 , 4127.69230769 , 4124.1025641 , 4134.35897436 , 4126.15384615 , 4128.71794872 , 4126.66666667 , 4128.20512821 , 4220.51282051 , 4140.0 , 4137.94871795 , 4184.61538462 , 4905.12820513 , 4119.48717949 , 4130.76923077 , 2041.0 , 2035.0 , 45.019 , 0.0 , 0.0 , 0.0 , 0.0 , 

50.0 , 4129.74358974 , 4124.1025641 , 4131.79487179 , 4127.17948718 , 4129.74358974 , 4130.76923077 , 4128.71794872 , 4204.1025641 , 4130.76923077 , 4136.92307692 , 4183.58974359 , 4909.23076923 , 4118.97435897 , 4132.82051282 , 2041.0 , 2035.0 , 45.027 , 0.0 , 0.0 , 0.0 , 0.0 , 

51.0 , 4129.74358974 , 4134.35897436 , 4129.74358974 , 4133.33333333 , 4127.69230769 , 4129.74358974 , 4129.23076923 , 4207.17948718 , 4137.94871795 , 4140.51282051 , 4185.64102564 , 4908.71794872 , 4124.1025641 , 4135.8974359 , 2042.0 , 2036.0 , 45.034 , 0.0 , 0.0 , 0.0 , 0.0 , 

52.0 , 4132.30769231 , 4134.35897436 , 4130.76923077 , 4133.33333333 , 4128.20512821 , 4128.71794872 , 4124.61538462 , 4183.58974359 , 4122.05128205 , 4136.41025641 , 4177.94871795 , 4909.23076923 , 4112.30769231 , 4130.25641026 , 2044.0 , 2034.0 , 45.041 , 0.0 , 0.0 , 0.0 , 0.0 , 

53.0 , 4132.30769231 , 4140.51282051 , 4130.76923077 , 4135.8974359 , 4126.66666667 , 4132.30769231 , 4130.76923077 , 4190.76923077 , 4120.0 , 4136.41025641 , 4184.61538462 , 4908.20512821 , 4130.25641026 , 4136.92307692 , 2042.0 , 2036.0 , 45.05 , 0.0 , 0.0 , 0.0 , 0.0 , 

54.0 , 4132.30769231 , 4128.20512821 , 4128.20512821 , 4131.28205128 , 4125.12820513 , 4123.58974359 , 4119.48717949 , 4180.0 , 4115.8974359 , 4132.30769231 , 4186.66666667 , 4910.76923077 , 4131.28205128 , 4138.46153846 , 2040.0 , 2036.0 , 45.058 , 0.0 , 0.0 , 0.0 , 0.0 , 

55.0 , 4132.30769231 , 4135.38461538 , 4127.17948718 , 4135.38461538 , 4124.1025641 , 4120.51282051 , 4117.94871795 , 4192.82051282 , 4125.64102564 , 4131.28205128 , 4191.79487179 , 4903.07692308 , 4139.48717949 , 4138.97435897 , 2040.0 , 2034.0 , 45.066 , 0.0 , 0.0 , 0.0 , 0.0 , 

56.0 , 4127.69230769 , 4126.15384615 , 4127.69230769 , 4131.79487179 , 4127.17948718 , 4123.07692308 , 4113.84615385 , 4181.02564103 , 4113.33333333 , 4131.28205128 , 4187.69230769 , 4905.12820513 , 4134.35897436 , 4135.8974359 , 2040.0 , 2034.0 , 45.074 , 0.0 , 0.0 , 0.0 , 0.0 , 

57.0 , 4126.66666667 , 4129.23076923 , 4129.23076923 , 4135.38461538 , 4128.20512821 , 4125.12820513 , 4118.97435897 , 4199.48717949 , 4124.1025641 , 4137.94871795 , 4190.25641026 , 4904.61538462 , 4144.61538462 , 4142.56410256 , 2040.0 , 2034.0 , 45.082 , 0.0 , 0.0 , 0.0 , 0.0 , 

58.0 , 4127.69230769 , 4117.43589744 , 4129.74358974 , 4131.28205128 , 4127.69230769 , 4121.02564103 , 4112.30769231 , 4200.0 , 4127.17948718 , 4136.41025641 , 4188.20512821 , 4905.12820513 , 4131.79487179 , 4139.48717949 , 2041.0 , 2034.0 , 45.09 , 0.0 , 0.0 , 0.0 , 0.0 , 

59.0 , 4127.69230769 , 4118.97435897 , 4129.23076923 , 4129.74358974 , 4127.17948718 , 4124.1025641 , 4121.53846154 , 4215.8974359 , 4135.38461538 , 4138.97435897 , 4192.82051282 , 4901.02564103 , 4137.94871795 , 4141.02564103 , 2042.0 , 2034.0 , 45.097 , 0.0 , 0.0 , 0.0 , 0.0 , 

60.0 , 4123.07692308 , 4112.30769231 , 4128.71794872 , 4123.07692308 , 4126.15384615 , 4123.58974359 , 4121.53846154 , 4213.84615385 , 4135.8974359 , 4138.97435897 , 4187.69230769 , 4905.12820513 , 4127.69230769 , 4136.41025641 , 2044.0 , 2032.0 , 45.105 , 0.0 , 0.0 , 0.0 , 0.0 , 

61.0 , 4127.17948718 , 4122.05128205 , 4132.82051282 , 4126.15384615 , 4128.20512821 , 4125.64102564 , 4124.61538462 , 4215.8974359 , 4141.02564103 , 4139.48717949 , 4185.64102564 , 4905.64102564 , 4117.43589744 , 4129.74358974 , 2044.0 , 2033.0 , 45.113 , 0.0 , 0.0 , 0.0 , 0.0 , 

62.0 , 4125.12820513 , 4116.92307692 , 4134.87179487 , 4123.58974359 , 4129.23076923 , 4126.66666667 , 4126.15384615 , 4209.74358974 , 4133.84615385 , 4137.94871795 , 4184.61538462 , 4908.20512821 , 4109.23076923 , 4127.69230769 , 2044.0 , 2033.0 , 45.121 , 0.0 , 0.0 , 0.0 , 0.0 , 

63.0 , 4127.17948718 , 4120.51282051 , 4131.79487179 , 4126.15384615 , 4127.69230769 , 4128.20512821 , 4132.30769231 , 4207.17948718 , 4132.30769231 , 4140.51282051 , 4182.56410256 , 4908.20512821 , 4117.94871795 , 4133.84615385 , 2044.0 , 2032.0 , 45.128 , 0.0 , 0.0 , 0.0 , 0.0 , 

64.0 , 4130.76923077 , 4132.82051282 , 4129.74358974 , 4128.71794872 , 4127.69230769 , 4126.66666667 , 4130.25641026 , 4201.02564103 , 4134.87179487 , 4139.48717949 , 4181.02564103 , 4910.25641026 , 4117.94871795 , 4132.82051282 , 2044.0 , 2032.0 , 45.137 , 0.0 , 0.0 , 0.0 , 0.0 , 

65.0 , 4135.38461538 , 4139.48717949 , 4129.74358974 , 4129.23076923 , 4131.79487179 , 4126.66666667 , 4127.17948718 , 4184.61538462 , 4127.17948718 , 4136.41025641 , 4180.0 , 4911.28205128 , 4118.97435897 , 4131.28205128 , 2043.0 , 2032.0 , 45.145 , 0.0 , 0.0 , 0.0 , 0.0 , 

66.0 , 4131.79487179 , 4136.92307692 , 4131.28205128 , 4129.23076923 , 4129.74358974 , 4127.17948718 , 4127.69230769 , 4190.76923077 , 4126.15384615 , 4136.41025641 , 4183.58974359 , 4911.28205128 , 4133.84615385 , 4137.94871795 , 2041.0 , 2033.0 , 45.153 , 0.0 , 0.0 , 0.0 , 0.0 , 

67.0 , 4132.30769231 , 4134.87179487 , 4131.28205128 , 4130.76923077 , 4126.66666667 , 4127.17948718 , 4126.15384615 , 4185.64102564 , 4123.07692308 , 4135.38461538 , 4186.66666667 , 4911.79487179 , 4136.41025641 , 4138.97435897 , 2040.0 , 2034.0 , 45.163 , 0.0 , 0.0 , 0.0 , 0.0 , 

68.0 , 4133.33333333 , 4137.43589744 , 4129.23076923 , 4133.33333333 , 4127.69230769 , 4124.61538462 , 4125.64102564 , 4193.33333333 , 4125.12820513 , 4134.87179487 , 4194.35897436 , 4908.20512821 , 4140.51282051 , 4139.48717949 , 2042.0 , 2035.0 , 45.168 , 0.0 , 0.0 , 0.0 , 0.0 , 

69.0 , 4133.33333333 , 4124.1025641 , 4125.64102564 , 4130.25641026 , 4129.74358974 , 4122.05128205 , 4117.94871795 , 4184.61538462 , 4117.94871795 , 4131.79487179 , 4187.17948718 , 4906.15384615 , 4132.82051282 , 4138.97435897 , 2040.0 , 2034.0 , 45.176 , 0.0 , 0.0 , 0.0 , 0.0 , 

70.0 , 4128.20512821 , 4124.61538462 , 4129.23076923 , 4133.84615385 , 4124.61538462 , 4122.56410256 , 4116.92307692 , 4206.15384615 , 4132.30769231 , 4134.87179487 , 4187.69230769 , 4903.07692308 , 4137.43589744 , 4142.05128205 , 2042.0 , 2034.0 , 45.184 , 0.0 , 0.0 , 0.0 , 0.0 , 

71.0 , 4123.58974359 , 4114.87179487 , 4133.33333333 , 4128.20512821 , 4127.17948718 , 4120.51282051 , 4110.25641026 , 4198.46153846 , 4126.15384615 , 4134.35897436 , 4187.17948718 , 4905.64102564 , 4126.15384615 , 4137.94871795 , 2043.0 , 2034.0 , 45.192 , 0.0 , 0.0 , 0.0 , 0.0 , 

72.0 , 4122.56410256 , 4118.97435897 , 4132.82051282 , 4125.12820513 , 4130.25641026 , 4123.58974359 , 4117.94871795 , 4212.82051282 , 4132.82051282 , 4135.38461538 , 4192.30769231 , 4904.1025641 , 4133.84615385 , 4137.94871795 , 2043.0 , 2032.0 , 45.2 , 0.0 , 0.0 , 0.0 , 0.0 , 

73.0 , 4124.1025641 , 4112.30769231 , 4129.23076923 , 4121.02564103 , 4129.23076923 , 4125.64102564 , 4116.92307692 , 4204.1025641 , 4133.33333333 , 4133.84615385 , 4185.12820513 , 4908.20512821 , 4121.53846154 , 4131.79487179 , 2042.0 , 2031.0 , 45.208 , 0.0 , 0.0 , 0.0 , 0.0 , 

74.0 , 4125.12820513 , 4122.56410256 , 4132.30769231 , 4124.61538462 , 4125.64102564 , 4126.66666667 , 4125.64102564 , 4218.97435897 , 4146.15384615 , 4138.97435897 , 4187.69230769 , 4905.12820513 , 4124.1025641 , 4134.35897436 , 2043.0 , 2034.0 , 45.215 , 0.0 , 0.0 , 0.0 , 0.0 , 

75.0 , 4124.61538462 , 4115.8974359 , 4135.38461538 , 4121.02564103 , 4129.23076923 , 4125.64102564 , 4124.1025641 , 4206.15384615 , 4136.41025641 , 4137.94871795 , 4183.07692308 , 4906.66666667 , 4114.87179487 , 4131.28205128 , 2044.0 , 2035.0 , 45.224 , 0.0 , 0.0 , 0.0 , 0.0 , 

76.0 , 4128.71794872 , 4130.25641026 , 4133.84615385 , 4129.23076923 , 4130.76923077 , 4132.82051282 , 4130.76923077 , 4214.35897436 , 4143.07692308 , 4138.46153846 , 4183.58974359 , 4905.64102564 , 4124.61538462 , 4134.35897436 , 2044.0 , 2034.0 , 45.231 , 0.0 , 0.0 , 0.0 , 0.0 , 

77.0 , 4132.30769231 , 4130.25641026 , 4132.82051282 , 4128.20512821 , 4130.76923077 , 4129.74358974 , 4127.69230769 , 4202.05128205 , 4134.35897436 , 4135.8974359 , 4178.97435897 , 4911.79487179 , 4116.41025641 , 4131.28205128 , 2044.0 , 2034.0 , 45.239 , 0.0 , 0.0 , 0.0 , 0.0 , 

78.0 , 4134.35897436 , 4138.97435897 , 4132.30769231 , 4131.79487179 , 4129.74358974 , 4126.15384615 , 4132.82051282 , 4199.48717949 , 4127.69230769 , 4138.46153846 , 4182.56410256 , 4910.76923077 , 4127.17948718 , 4135.8974359 , 2044.0 , 2032.0 , 45.246 , 0.0 , 0.0 , 0.0 , 0.0 , 

79.0 , 4130.76923077 , 4133.33333333 , 4129.74358974 , 4131.79487179 , 4127.17948718 , 4125.64102564 , 4126.66666667 , 4185.64102564 , 4120.51282051 , 4136.41025641 , 4182.05128205 , 4911.79487179 , 4130.25641026 , 4136.41025641 , 2044.0 , 2033.0 , 45.255 , 0.0 , 0.0 , 0.0 , 0.0 , 

80.0 , 4133.33333333 , 4134.35897436 , 4126.15384615 , 4133.33333333 , 4126.15384615 , 4127.69230769 , 4123.58974359 , 4186.66666667 , 4123.58974359 , 4134.87179487 , 4187.17948718 , 4909.74358974 , 4137.43589744 , 4137.94871795 , 2045.0 , 2032.0 , 45.262 , 0.0 , 0.0 , 0.0 , 0.0 , 

81.0 , 4128.20512821 , 4127.69230769 , 4124.61538462 , 4129.23076923 , 4126.66666667 , 4119.48717949 , 4117.43589744 , 4188.71794872 , 4118.97435897 , 4132.82051282 , 4190.25641026 , 4907.69230769 , 4136.41025641 , 4137.94871795 , 2046.0 , 2030.0 , 45.271 , 0.0 , 0.0 , 0.0 , 0.0 , 

82.0 , 4127.69230769 , 4125.64102564 , 4126.15384615 , 4133.84615385 , 4125.12820513 , 4115.8974359 , 4115.8974359 , 4192.82051282 , 4120.0 , 4133.84615385 , 4189.74358974 , 4904.1025641 , 4137.94871795 , 4140.51282051 , 2045.0 , 2031.0 , 45.278 , 0.0 , 0.0 , 0.0 , 0.0 , 

83.0 , 4127.69230769 , 4123.07692308 , 4129.23076923 , 4134.87179487 , 4123.58974359 , 4117.94871795 , 4112.82051282 , 4200.0 , 4131.28205128 , 4130.76923077 , 4190.76923077 , 4904.61538462 , 4134.35897436 , 4140.51282051 , 2044.0 , 2030.0 , 45.287 , 0.0 , 0.0 , 0.0 , 0.0 , 

84.0 , 4126.15384615 , 4121.02564103 , 4129.74358974 , 4128.71794872 , 4129.23076923 , 4122.56410256 , 4113.84615385 , 4197.94871795 , 4133.84615385 , 4128.71794872 , 4190.25641026 , 4904.1025641 , 4129.74358974 , 4138.46153846 , 2044.0 , 2032.0 , 45.294 , 0.0 , 0.0 , 0.0 , 0.0 , 

85.0 , 4120.0 , 4119.48717949 , 4128.71794872 , 4125.64102564 , 4129.23076923 , 4123.58974359 , 4122.05128205 , 4212.82051282 , 4141.02564103 , 4134.87179487 , 4189.23076923 , 4901.53846154 , 4133.84615385 , 4138.97435897 , 2042.0 , 2032.0 , 45.301 , 0.0 , 0.0 , 0.0 , 0.0 , 

86.0 , 4123.58974359 , 4112.82051282 , 4128.71794872 , 4124.61538462 , 4126.66666667 , 4124.61538462 , 4123.58974359 , 4209.74358974 , 4138.97435897 , 4137.43589744 , 4184.61538462 , 4905.12820513 , 4125.12820513 , 4135.8974359 , 2040.0 , 2033.0 , 45.309 , 0.0 , 0.0 , 0.0 , 0.0 , 

87.0 , 4125.12820513 , 4118.46153846 , 4131.28205128 , 4126.66666667 , 4128.20512821 , 4126.66666667 , 4127.69230769 , 4225.64102564 , 4145.64102564 , 4138.46153846 , 4189.74358974 , 4906.66666667 , 4124.61538462 , 4135.8974359 , 2039.0 , 2032.0 , 45.318 , 0.0 , 0.0 , 0.0 , 0.0 , 

88.0 , 4124.61538462 , 4119.48717949 , 4132.82051282 , 4123.58974359 , 4132.30769231 , 4124.61538462 , 4126.66666667 , 4209.23076923 , 4134.87179487 , 4136.41025641 , 4183.58974359 , 4909.23076923 , 4111.28205128 , 4131.79487179 , 2038.0 , 2034.0 , 45.325 , 0.0 , 0.0 , 0.0 , 0.0 , 

89.0 , 4127.69230769 , 4136.41025641 , 4132.30769231 , 4128.20512821 , 4127.69230769 , 4125.12820513 , 4129.23076923 , 4212.30769231 , 4136.41025641 , 4138.97435897 , 4181.53846154 , 4908.71794872 , 4115.38461538 , 4131.28205128 , 2038.0 , 2034.0 , 45.334 , 0.0 , 0.0 , 0.0 , 0.0 , 

90.0 , 4132.30769231 , 4132.82051282 , 4129.23076923 , 4128.20512821 , 4126.66666667 , 4124.61538462 , 4123.58974359 , 4190.76923077 , 4124.61538462 , 4135.8974359 , 4174.35897436 , 4912.82051282 , 4111.79487179 , 4128.71794872 , 2039.0 , 2035.0 , 45.341 , 0.0 , 0.0 , 0.0 , 0.0 , 

91.0 , 4133.84615385 , 4136.41025641 , 4128.71794872 , 4132.82051282 , 4128.71794872 , 4125.64102564 , 4130.25641026 , 4195.38461538 , 4129.23076923 , 4137.43589744 , 4182.05128205 , 4908.71794872 , 4127.69230769 , 4134.87179487 , 2039.0 , 2034.0 , 45.35 , 0.0 , 0.0 , 0.0 , 0.0 , 

92.0 , 4132.30769231 , 4131.28205128 , 4130.25641026 , 4130.76923077 , 4128.71794872 , 4125.12820513 , 4122.05128205 , 4176.92307692 , 4118.46153846 , 4134.35897436 , 4183.58974359 , 4912.30769231 , 4122.56410256 , 4134.35897436 , 2041.0 , 2031.0 , 45.358 , 0.0 , 0.0 , 0.0 , 0.0 , 

93.0 , 4130.25641026 , 4143.07692308 , 4128.71794872 , 4135.38461538 , 4125.12820513 , 4128.71794872 , 4123.58974359 , 4189.23076923 , 4125.12820513 , 4133.84615385 , 4191.28205128 , 4910.76923077 , 4138.97435897 , 4140.51282051 , 2042.0 , 2031.0 , 45.365 , 0.0 , 0.0 , 0.0 , 0.0 , 

94.0 , 4126.15384615 , 4127.69230769 , 4126.15384615 , 4131.79487179 , 4126.66666667 , 4124.1025641 , 4118.97435897 , 4182.56410256 , 4118.97435897 , 4129.23076923 , 4186.15384615 , 4908.20512821 , 4138.46153846 , 4140.0 , 2043.0 , 2032.0 , 45.373 , 0.0 , 0.0 , 0.0 , 0.0 , 

95.0 , 4128.20512821 , 4131.28205128 , 4127.17948718 , 4134.87179487 , 4127.69230769 , 4121.53846154 , 4122.56410256 , 4196.41025641 , 4127.17948718 , 4130.25641026 , 4187.69230769 , 4901.02564103 , 4142.05128205 , 4142.05128205 , 2045.0 , 2031.0 , 45.38 , 0.0 , 0.0 , 0.0 , 0.0 , 

96.0 , 4127.69230769 , 4123.07692308 , 4128.20512821 , 4131.28205128 , 4127.69230769 , 4120.51282051 , 4115.38461538 , 4192.30769231 , 4125.64102564 , 4132.30769231 , 4187.17948718 , 4905.64102564 , 4131.28205128 , 4139.48717949 , 2045.0 , 2031.0 , 45.389 , 0.0 , 0.0 , 0.0 , 0.0 , 

97.0 , 4127.69230769 , 4122.56410256 , 4129.74358974 , 4131.28205128 , 4127.17948718 , 4124.1025641 , 4121.02564103 , 4204.1025641 , 4131.28205128 , 4139.48717949 , 4191.79487179 , 4904.61538462 , 4137.43589744 , 4142.56410256 , 2046.0 , 2033.0 , 45.397 , 0.0 , 0.0 , 0.0 , 0.0 , 

98.0 , 4125.12820513 , 4111.79487179 , 4132.82051282 , 4124.61538462 , 4125.64102564 , 4124.1025641 , 4120.51282051 , 4207.17948718 , 4132.30769231 , 4139.48717949 , 4188.20512821 , 4905.64102564 , 4127.69230769 , 4138.97435897 , 2046.0 , 2032.0 , 45.405 , 0.0 , 0.0 , 0.0 , 0.0 , 

99.0 , 4128.71794872 , 4116.41025641 , 4132.82051282 , 4123.07692308 , 4127.69230769 , 4126.66666667 , 4122.56410256 , 4212.30769231 , 4133.84615385 , 4137.43589744 , 4184.61538462 , 4906.15384615 , 4125.12820513 , 4134.87179487 , 2046.0 , 2032.0 , 45.412 , 0.0 , 0.0 , 0.0 , 0.0 , 

100.0 , 4126.15384615 , 4116.41025641 , 4131.79487179 , 4120.0 , 4130.25641026 , 4127.69230769 , 4123.07692308 , 4210.25641026 , 4129.74358974 , 4136.92307692 , 4183.58974359 , 4908.71794872 , 4122.05128205 , 4132.30769231 , 2046.0 , 2030.0 , 45.42 , 0.0 , 0.0 , 0.0 , 0.0 , 

101.0 , 4128.71794872 , 4123.07692308 , 4133.33333333 , 4123.58974359 , 4130.76923077 , 4127.69230769 , 4126.15384615 , 4206.66666667 , 4129.74358974 , 4137.94871795 , 4184.1025641 , 4907.17948718 , 4117.94871795 , 4131.79487179 , 2046.0 , 2030.0 , 45.429 , 0.0 , 0.0 , 0.0 , 0.0 , 

102.0 , 4130.76923077 , 4130.76923077 , 4134.35897436 , 4128.20512821 , 4129.23076923 , 4125.12820513 , 4127.69230769 , 4211.28205128 , 4136.92307692 , 4136.92307692 , 4183.58974359 , 4908.71794872 , 4116.41025641 , 4131.28205128 , 2046.0 , 2030.0 , 45.436 , 0.0 , 0.0 , 0.0 , 0.0 , 

103.0 , 4133.84615385 , 4130.25641026 , 4129.23076923 , 4128.20512821 , 4130.25641026 , 4126.15384615 , 4128.20512821 , 4196.92307692 , 4128.20512821 , 4135.38461538 , 4179.48717949 , 4911.79487179 , 4120.51282051 , 4131.79487179 , 2047.0 , 2031.0 , 45.444 , 0.0 , 0.0 , 0.0 , 0.0 , 

104.0 , 4132.30769231 , 4136.41025641 , 4126.66666667 , 4130.76923077 , 4129.23076923 , 4128.20512821 , 4129.23076923 , 4195.8974359 , 4125.64102564 , 4137.43589744 , 4184.1025641 , 4909.23076923 , 4131.28205128 , 4135.8974359 , 2047.0 , 2030.0 , 45.452 , 0.0 , 0.0 , 0.0 , 0.0 , 

105.0 , 4134.35897436 , 4135.38461538 , 4129.23076923 , 4133.84615385 , 4127.69230769 , 4128.71794872 , 4123.07692308 , 4182.05128205 , 4120.51282051 , 4133.84615385 , 4185.12820513 , 4907.69230769 , 4126.15384615 , 4134.87179487 , 2047.0 , 2030.0 , 45.46 , 0.0 , 0.0 , 0.0 , 0.0 , 

106.0 , 4133.33333333 , 4138.46153846 , 4129.74358974 , 4135.38461538 , 4125.64102564 , 4130.25641026 , 4123.58974359 , 4194.87179487 , 4124.61538462 , 4133.33333333 , 4190.76923077 , 4907.69230769 , 4136.92307692 , 4138.46153846 , 2047.0 , 2034.0 , 45.468 , 0.0 , 0.0 , 0.0 , 0.0 , 

107.0 , 4132.30769231 , 4124.61538462 , 4126.66666667 , 4130.76923077 , 4128.71794872 , 4127.17948718 , 4114.87179487 , 4184.1025641 , 4113.33333333 , 4133.33333333 , 4187.17948718 , 4911.28205128 , 4134.87179487 , 4137.43589744 , 2045.0 , 2034.0 , 45.476 , 0.0 , 0.0 , 0.0 , 0.0 , 

108.0 , 4130.25641026 , 4124.61538462 , 4127.17948718 , 4133.33333333 , 4127.17948718 , 4123.07692308 , 4114.87179487 , 4200.0 , 4125.12820513 , 4136.92307692 , 4191.28205128 , 4905.12820513 , 4138.97435897 , 4141.53846154 , 2045.0 , 2034.0 , 45.484 , 0.0 , 0.0 , 0.0 , 0.0 , 

109.0 , 4124.61538462 , 4113.33333333 , 4128.20512821 , 4124.61538462 , 4124.61538462 , 4120.0 , 4111.79487179 , 4192.30769231 , 4125.12820513 , 4131.79487179 , 4189.74358974 , 4904.61538462 , 4127.17948718 , 4137.43589744 , 2044.0 , 2034.0 , 45.492 , 0.0 , 0.0 , 0.0 , 0.0 , 

110.0 , 4121.02564103 , 4119.48717949 , 4128.20512821 , 4124.1025641 , 4122.56410256 , 4124.1025641 , 4116.41025641 , 4211.79487179 , 4136.41025641 , 4133.84615385 , 4192.82051282 , 4903.07692308 , 4137.43589744 , 4137.43589744 , 2043.0 , 2034.0 , 45.499 , 0.0 , 0.0 , 0.0 , 0.0 , 

111.0 , 4122.05128205 , 4111.28205128 , 4127.69230769 , 4121.02564103 , 4125.64102564 , 4123.07692308 , 4110.25641026 , 4208.20512821 , 4133.84615385 , 4136.92307692 , 4185.12820513 , 4905.12820513 , 4126.66666667 , 4133.84615385 , 2044.0 , 2031.0 , 45.507 , 0.0 , 0.0 , 0.0 , 0.0 , 

112.0 , 4125.64102564 , 4122.05128205 , 4130.25641026 , 4123.07692308 , 4129.74358974 , 4125.64102564 , 4126.66666667 , 4221.53846154 , 4142.56410256 , 4139.48717949 , 4189.74358974 , 4902.05128205 , 4130.76923077 , 4137.94871795 , 2045.0 , 2032.0 , 45.515 , 0.0 , 0.0 , 0.0 , 0.0 , 

113.0 , 4126.15384615 , 4118.46153846 , 4129.74358974 , 4117.94871795 , 4131.79487179 , 4126.15384615 , 4129.23076923 , 4208.20512821 , 4134.87179487 , 4134.87179487 , 4186.66666667 , 4908.20512821 , 4120.51282051 , 4134.35897436 , 2047.0 , 2029.0 , 45.523 , 0.0 , 0.0 , 0.0 , 0.0 , 

114.0 , 4129.74358974 , 4129.23076923 , 4130.76923077 , 4127.17948718 , 4130.25641026 , 4131.28205128 , 4128.71794872 , 4217.94871795 , 4138.97435897 , 4140.0 , 4184.61538462 , 4907.69230769 , 4123.07692308 , 4133.84615385 , 2048.0 , 2029.0 , 45.531 , 0.0 , 0.0 , 0.0 , 0.0 , 

115.0 , 4131.79487179 , 4130.76923077 , 4131.79487179 , 4128.71794872 , 4129.74358974 , 4131.28205128 , 4124.61538462 , 4207.17948718 , 4130.25641026 , 4141.02564103 , 4177.94871795 , 4910.25641026 , 4113.84615385 , 4128.71794872 , 2048.0 , 2028.0 , 45.539 , 0.0 , 0.0 , 0.0 , 0.0 , 

116.0 , 4135.8974359 , 4140.0 , 4129.23076923 , 4132.82051282 , 4128.20512821 , 4131.79487179 , 4133.33333333 , 4194.87179487 , 4126.15384615 , 4138.97435897 , 4181.53846154 , 4910.76923077 , 4123.58974359 , 4130.25641026 , 2048.0 , 2027.0 , 45.546 , 0.0 , 0.0 , 0.0 , 0.0 , 

117.0 , 4132.30769231 , 4131.28205128 , 4126.15384615 , 4133.84615385 , 4126.15384615 , 4127.17948718 , 4125.64102564 , 4180.51282051 , 4124.61538462 , 4135.8974359 , 4182.05128205 , 4914.87179487 , 4123.58974359 , 4130.76923077 , 2047.0 , 2027.0 , 45.555 , 0.0 , 0.0 , 0.0 , 0.0 , 

118.0 , 4131.79487179 , 4132.82051282 , 4126.15384615 , 4133.84615385 , 4128.71794872 , 4126.15384615 , 4120.0 , 4180.51282051 , 4124.61538462 , 4135.38461538 , 4184.61538462 , 4910.76923077 , 4129.23076923 , 4134.35897436 , 2047.0 , 2030.0 , 45.562 , 0.0 , 0.0 , 0.0 , 0.0 , 

119.0 , 4128.71794872 , 4131.79487179 , 4125.64102564 , 4130.76923077 , 4129.74358974 , 4126.15384615 , 4120.51282051 , 4184.61538462 , 4116.92307692 , 4132.30769231 , 4188.71794872 , 4907.69230769 , 4137.43589744 , 4136.41025641 , 2046.0 , 2029.0 , 45.569 , 0.0 , 0.0 , 0.0 , 0.0 , 

120.0 , 4130.76923077 , 4127.17948718 , 4124.1025641 , 4133.84615385 , 4127.69230769 , 4125.12820513 , 4118.46153846 , 4182.56410256 , 4114.35897436 , 4131.79487179 , 4188.71794872 , 4908.20512821 , 4140.0 , 4138.97435897 , 2046.0 , 2031.0 , 45.577 , 0.0 , 0.0 , 0.0 , 0.0 , 

121.0 , 4130.76923077 , 4125.12820513 , 4126.15384615 , 4135.38461538 , 4125.12820513 , 4120.51282051 , 4112.30769231 , 4195.38461538 , 4124.61538462 , 4134.87179487 , 4190.25641026 , 4907.69230769 , 4141.02564103 , 4139.48717949 , 2045.0 , 2032.0 , 45.585 , 0.0 , 0.0 , 0.0 , 0.0 , 

122.0 , 4130.25641026 , 4122.56410256 , 4127.17948718 , 4129.23076923 , 4130.25641026 , 4119.48717949 , 4113.33333333 , 4197.43589744 , 4122.56410256 , 4135.38461538 , 4191.79487179 , 4905.12820513 , 4136.41025641 , 4136.92307692 , 2046.0 , 2030.0 , 45.593 , 0.0 , 0.0 , 0.0 , 0.0 , 

123.0 , 4124.1025641 , 4120.51282051 , 4126.15384615 , 4127.69230769 , 4127.69230769 , 4123.07692308 , 4122.56410256 , 4214.87179487 , 4132.30769231 , 4135.8974359 , 4195.38461538 , 4904.1025641 , 4136.92307692 , 4138.46153846 , 2046.0 , 2031.0 , 45.601 , 0.0 , 0.0 , 0.0 , 0.0 , 

124.0 , 4125.12820513 , 4112.30769231 , 4128.20512821 , 4123.58974359 , 4125.12820513 , 4123.58974359 , 4122.56410256 , 4205.12820513 , 4131.28205128 , 4136.41025641 , 4189.23076923 , 4908.20512821 , 4123.07692308 , 4135.38461538 , 2045.0 , 2032.0 , 45.61 , 0.0 , 0.0 , 0.0 , 0.0 , 

125.0 , 4127.69230769 , 4120.51282051 , 4133.33333333 , 4123.07692308 , 4126.66666667 , 4125.12820513 , 4129.74358974 , 4215.38461538 , 4138.46153846 , 4142.05128205 , 4189.74358974 , 4905.12820513 , 4123.07692308 , 4134.87179487 , 2046.0 , 2031.0 , 45.618 , 0.0 , 0.0 , 0.0 , 0.0 , 

126.0 , 4128.71794872 , 4114.87179487 , 4134.35897436 , 4120.51282051 , 4131.28205128 , 4129.23076923 , 4126.15384615 , 4204.61538462 , 4132.30769231 , 4140.0 , 4183.58974359 , 4906.15384615 , 4109.74358974 , 4128.20512821 , 2046.0 , 2031.0 , 45.625 , 0.0 , 0.0 , 0.0 , 0.0 , 

127.0 , 4129.74358974 , 4126.66666667 , 4133.84615385 , 4127.17948718 , 4129.23076923 , 4133.33333333 , 4128.71794872 , 4221.02564103 , 4140.0 , 4139.48717949 , 4185.64102564 , 4907.69230769 , 4116.92307692 , 4129.23076923 , 2047.0 , 2032.0 , 45.633 , 0.0 , 0.0 , 0.0 , 0.0 , 

128.0 , 4128.71794872 , 4124.61538462 , 4132.30769231 , 4124.61538462 , 4128.71794872 , 4128.20512821 , 4127.17948718 , 4199.48717949 , 4126.15384615 , 4136.92307692 , 4181.53846154 , 4912.30769231 , 4113.33333333 , 4126.66666667 , 2047.0 , 2032.0 , 45.641 , 0.0 , 0.0 , 0.0 , 0.0 , 

0.0 , 4130.76923077 , 4137.94871795 , 4131.28205128 , 4130.25641026 , 4126.66666667 , 4127.17948718 , 4132.30769231 , 4198.46153846 , 4129.23076923 , 4138.97435897 , 4185.12820513 , 4908.71794872 , 4125.64102564 , 4133.84615385 , 2048.0 , 2034.0 , 45.649 , 0.0 , 0.0 , 0.0 , 0.0 , 

1.0 , 4133.33333333 , 4133.33333333 , 4130.76923077 , 4130.76923077 , 4124.61538462 , 4127.69230769 , 4122.05128205 , 4184.61538462 , 4121.53846154 , 4134.87179487 , 4181.02564103 , 4910.76923077 , 4117.94871795 , 4134.87179487 , 2049.0 , 2034.0 , 45.657 , 0.0 , 0.0 , 0.0 , 0.0 , 

2.0 , 4132.30769231 , 4139.48717949 , 4130.25641026 , 4135.38461538 , 4126.66666667 , 4128.20512821 , 4127.69230769 , 4194.87179487 , 4123.58974359 , 4135.38461538 , 4188.20512821 , 4908.20512821 , 4136.92307692 , 4136.92307692 , 2048.0 , 2037.0 , 45.665 , 0.0 , 0.0 , 0.0 , 0.0 , 

3.0 , 4127.69230769 , 4127.69230769 , 4127.17948718 , 4130.76923077 , 4130.25641026 , 4122.05128205 , 4122.56410256 , 4182.05128205 , 4116.92307692 , 4132.82051282 , 4188.71794872 , 4910.25641026 , 4137.94871795 , 4135.38461538 , 2046.0 , 2036.0 , 45.673 , 0.0 , 0.0 , 0.0 , 0.0 , 

4.0 , 4131.79487179 , 4133.84615385 , 4126.15384615 , 4134.35897436 , 4127.69230769 , 4123.07692308 , 4118.97435897 , 4192.30769231 , 4126.66666667 , 4137.43589744 , 4190.25641026 , 4906.15384615 , 4140.0 , 4142.05128205 , 2045.0 , 2039.0 , 45.706 , 0.0 , 0.0 , 0.0 , 0.0 , 

5.0 , 4130.76923077 , 4122.56410256 , 4126.15384615 , 4128.71794872 , 4125.64102564 , 4122.05128205 , 4113.33333333 , 4190.76923077 , 4123.58974359 , 4135.8974359 , 4187.69230769 , 4905.12820513 , 4128.20512821 , 4140.0 , 2046.0 , 2036.0 , 45.708 , 0.0 , 0.0 , 0.0 , 0.0 , 

6.0 , 4127.69230769 , 4117.43589744 , 4126.15384615 , 4126.15384615 , 4125.12820513 , 4121.53846154 , 4118.46153846 , 4197.94871795 , 4128.71794872 , 4133.84615385 , 4189.74358974 , 4902.56410256 , 4133.84615385 , 4138.46153846 , 2045.0 , 2035.0 , 45.708 , 0.0 , 0.0 , 0.0 , 0.0 , 

7.0 , 4122.05128205 , 4111.79487179 , 4126.15384615 , 4125.64102564 , 4122.56410256 , 4121.02564103 , 4115.38461538 , 4204.1025641 , 4136.92307692 , 4135.38461538 , 4189.74358974 , 4906.15384615 , 4131.28205128 , 4136.41025641 , 2045.0 , 2035.0 , 45.708 , 0.0 , 0.0 , 0.0 , 0.0 , 

8.0 , 4121.02564103 , 4114.35897436 , 4128.20512821 , 4126.15384615 , 4124.61538462 , 4124.61538462 , 4120.0 , 4210.76923077 , 4137.94871795 , 4140.51282051 , 4187.69230769 , 4906.66666667 , 4125.64102564 , 4137.43589744 , 2044.0 , 2033.0 , 45.712 , 0.0 , 0.0 , 0.0 , 0.0 , 

9.0 , 4118.97435897 , 4110.76923077 , 4131.79487179 , 4120.51282051 , 4127.69230769 , 4125.12820513 , 4125.64102564 , 4216.41025641 , 4133.84615385 , 4137.94871795 , 4186.66666667 , 4907.69230769 , 4118.97435897 , 4134.87179487 , 2045.0 , 2034.0 , 45.72 , 0.0 , 0.0 , 0.0 , 0.0 , 

10.0 , 4126.15384615 , 4114.35897436 , 4134.87179487 , 4123.58974359 , 4129.74358974 , 4127.69230769 , 4125.12820513 , 4212.82051282 , 4132.30769231 , 4134.87179487 , 4186.15384615 , 4908.20512821 , 4113.84615385 , 4131.28205128 , 2043.0 , 2034.0 , 45.727 , 0.0 , 0.0 , 0.0 , 0.0 , 

11.0 , 4128.20512821 , 4125.12820513 , 4134.35897436 , 4129.74358974 , 4126.15384615 , 4130.76923077 , 4124.61538462 , 4218.46153846 , 4140.51282051 , 4138.46153846 , 4188.20512821 , 4907.17948718 , 4115.8974359 , 4130.76923077 , 2044.0 , 2033.0 , 45.736 , 0.0 , 0.0 , 0.0 , 0.0 , 

12.0 , 4128.71794872 , 4124.61538462 , 4131.28205128 , 4126.66666667 , 4128.20512821 , 4128.20512821 , 4126.66666667 , 4201.02564103 , 4133.84615385 , 4138.97435897 , 4182.56410256 , 4908.71794872 , 4114.35897436 , 4131.79487179 , 2043.0 , 2036.0 , 45.744 , 0.0 , 0.0 , 0.0 , 0.0 , 

13.0 , 4129.23076923 , 4134.87179487 , 4131.79487179 , 4130.25641026 , 4127.69230769 , 4124.61538462 , 4131.79487179 , 4201.53846154 , 4134.35897436 , 4140.51282051 , 4182.56410256 , 4908.71794872 , 4125.12820513 , 4134.35897436 , 2044.0 , 2035.0 , 45.751 , 0.0 , 0.0 , 0.0 , 0.0 , 

14.0 , 4132.30769231 , 4137.94871795 , 4129.74358974 , 4133.84615385 , 4127.17948718 , 4124.1025641 , 4125.64102564 , 4182.05128205 , 4118.46153846 , 4134.87179487 , 4179.48717949 , 4910.25641026 , 4122.56410256 , 4130.25641026 , 2041.0 , 2034.0 , 45.758 , 0.0 , 0.0 , 0.0 , 0.0 , 

15.0 , 4132.82051282 , 4137.94871795 , 4127.17948718 , 4134.35897436 , 4126.15384615 , 4127.69230769 , 4126.66666667 , 4189.23076923 , 4115.38461538 , 4131.79487179 , 4185.64102564 , 4908.71794872 , 4134.87179487 , 4136.41025641 , 2042.0 , 2034.0 , 45.766 , 0.0 , 0.0 , 0.0 , 0.0 , 

16.0 , 4132.82051282 , 4123.07692308 , 4126.15384615 , 4127.17948718 , 4127.17948718 , 4127.17948718 , 4116.92307692 , 4177.43589744 , 4108.20512821 , 4132.82051282 , 4183.58974359 , 4912.30769231 , 4131.28205128 , 4136.92307692 , 2043.0 , 2035.0 , 45.775 , 0.0 , 0.0 , 0.0 , 0.0 , 

17.0 , 4130.25641026 , 4132.82051282 , 4127.17948718 , 4132.82051282 , 4126.15384615 , 4125.12820513 , 4116.92307692 , 4193.84615385 , 4121.02564103 , 4137.43589744 , 4190.76923077 , 4909.23076923 , 4141.02564103 , 4138.46153846 , 2043.0 , 2034.0 , 45.782 , 0.0 , 0.0 , 0.0 , 0.0 , 

18.0 , 4126.66666667 , 4122.05128205 , 4128.71794872 , 4131.28205128 , 4128.20512821 , 4121.53846154 , 4112.82051282 , 4185.64102564 , 4114.87179487 , 4130.25641026 , 4188.71794872 , 4909.74358974 , 4133.33333333 , 4138.46153846 , 2043.0 , 2034.0 , 45.79 , 0.0 , 0.0 , 0.0 , 0.0 , 

19.0 , 4125.64102564 , 4121.02564103 , 4132.30769231 , 4132.30769231 , 4127.17948718 , 4124.61538462 , 4118.97435897 , 4206.15384615 , 4128.20512821 , 4132.30769231 , 4190.76923077 , 4906.66666667 , 4138.97435897 , 4143.58974359 , 2045.0 , 2034.0 , 45.799 , 0.0 , 0.0 , 0.0 , 0.0 , 

20.0 , 4122.05128205 , 4111.79487179 , 4133.84615385 , 4123.58974359 , 4125.12820513 , 4123.07692308 , 4113.84615385 , 4205.12820513 , 4131.28205128 , 4138.46153846 , 4185.12820513 , 4908.71794872 , 4126.15384615 , 4138.46153846 , 2045.0 , 2033.0 , 45.806 , 0.0 , 0.0 , 0.0 , 0.0 , 

21.0 , 4124.61538462 , 4121.53846154 , 4132.82051282 , 4124.1025641 , 4127.17948718 , 4125.64102564 , 4122.05128205 , 4218.97435897 , 4143.07692308 , 4144.1025641 , 4190.76923077 , 4902.56410256 , 4131.79487179 , 4140.0 , 2047.0 , 2033.0 , 45.815 , 0.0 , 0.0 , 0.0 , 0.0 , 

22.0 , 4126.15384615 , 4112.82051282 , 4133.33333333 , 4123.58974359 , 4130.76923077 , 4125.12820513 , 4120.0 , 4208.20512821 , 4137.94871795 , 4138.97435897 , 4188.71794872 , 4903.58974359 , 4119.48717949 , 4133.33333333 , 2046.0 , 2033.0 , 45.822 , 0.0 , 0.0 , 0.0 , 0.0 , 

23.0 , 4129.23076923 , 4123.07692308 , 4134.35897436 , 4129.74358974 , 4129.23076923 , 4127.17948718 , 4125.12820513 , 4215.38461538 , 4137.94871795 , 4138.46153846 , 4186.66666667 , 4905.64102564 , 4118.97435897 , 4130.25641026 , 2048.0 , 2033.0 , 45.829 , 0.0 , 0.0 , 0.0 , 0.0 , 

24.0 , 4127.17948718 , 4125.64102564 , 4134.87179487 , 4126.66666667 , 4128.20512821 , 4128.71794872 , 4126.66666667 , 4208.20512821 , 4131.28205128 , 4137.43589744 , 4182.56410256 , 4909.23076923 , 4115.38461538 , 4130.76923077 , 2049.0 , 2033.0 , 45.838 , 0.0 , 0.0 , 0.0 , 0.0 , 

25.0 , 4132.82051282 , 4131.28205128 , 4133.33333333 , 4128.71794872 , 4129.23076923 , 4134.35897436 , 4131.79487179 , 4198.97435897 , 4129.23076923 , 4136.92307692 , 4183.07692308 , 4908.20512821 , 4120.0 , 4133.33333333 , 2050.0 , 2032.0 , 45.846 , 0.0 , 0.0 , 0.0 , 0.0 , 

26.0 , 4134.35897436 , 4130.25641026 , 4130.25641026 , 4130.76923077 , 4127.17948718 , 4130.25641026 , 4127.17948718 , 4190.76923077 , 4125.64102564 , 4136.41025641 , 4181.53846154 , 4910.76923077 , 4115.8974359 , 4130.76923077 , 2049.0 , 2035.0 , 45.853 , 0.0 , 0.0 , 0.0 , 0.0 , 

27.0 , 4133.33333333 , 4133.84615385 , 4130.25641026 , 4133.33333333 , 4128.20512821 , 4126.66666667 , 4125.64102564 , 4185.12820513 , 4122.56410256 , 4136.41025641 , 4181.53846154 , 4910.76923077 , 4126.15384615 , 4134.35897436 , 2049.0 , 2036.0 , 45.862 , 0.0 , 0.0 , 0.0 , 0.0 , 

28.0 , 4129.74358974 , 4131.28205128 , 4130.76923077 , 4132.82051282 , 4128.20512821 , 4126.15384615 , 4121.53846154 , 4187.69230769 , 4121.53846154 , 4133.33333333 , 4185.12820513 , 4910.76923077 , 4134.35897436 , 4136.92307692 , 2048.0 , 2036.0 , 45.87 , 0.0 , 0.0 , 0.0 , 0.0 , 

29.0 , 4134.35897436 , 4133.33333333 , 4130.25641026 , 4136.41025641 , 4126.15384615 , 4125.12820513 , 4117.94871795 , 4186.15384615 , 4120.51282051 , 4134.35897436 , 4185.64102564 , 4909.74358974 , 4135.8974359 , 4138.46153846 , 2048.0 , 2036.0 , 45.878 , 0.0 , 0.0 , 0.0 , 0.0 , 

30.0 , 4129.23076923 , 4138.97435897 , 4130.76923077 , 4138.97435897 , 4123.58974359 , 4121.53846154 , 4123.58974359 , 4192.30769231 , 4135.8974359 , 4141.02564103 , 4188.20512821 , 4905.12820513 , 4150.25641026 , 4143.58974359 , 2045.0 , 2035.0 , 45.886 , 0.0 , 0.0 , 0.0 , 0.0 , 

31.0 , 4122.56410256 , 4120.51282051 , 4129.74358974 , 4128.71794872 , 4127.17948718 , 4119.48717949 , 4122.56410256 , 4175.8974359 , 4131.79487179 , 4136.41025641 , 4187.17948718 , 4905.12820513 , 4147.17948718 , 4138.97435897 , 2044.0 , 2035.0 , 45.892 , 0.0 , 0.0 , 0.0 , 0.0 , 

32.0 , 4122.56410256 , 4114.87179487 , 4132.30769231 , 4125.64102564 , 4126.15384615 , 4119.48717949 , 4124.61538462 , 4198.46153846 , 4135.8974359 , 4132.82051282 , 4192.30769231 , 4906.15384615 , 4137.94871795 , 4137.94871795 , 2043.0 , 2032.0 , 45.9 , 0.0 , 0.0 , 0.0 , 0.0 , 

33.0 , 4126.15384615 , 4112.30769231 , 4131.79487179 , 4123.58974359 , 4126.15384615 , 4121.02564103 , 4121.53846154 , 4197.43589744 , 4132.30769231 , 4134.87179487 , 4188.20512821 , 4906.66666667 , 4120.0 , 4138.46153846 , 2043.0 , 2031.0 , 45.909 , 0.0 , 0.0 , 0.0 , 0.0 , 

34.0 , 4120.0 , 4115.8974359 , 4129.74358974 , 4123.58974359 , 4127.17948718 , 4126.66666667 , 4128.20512821 , 4207.17948718 , 4135.38461538 , 4141.53846154 , 4187.69230769 , 4903.07692308 , 4136.41025641 , 4140.0 , 2043.0 , 2031.0 , 45.917 , 0.0 , 0.0 , 0.0 , 0.0 , 

35.0 , 4117.94871795 , 4104.61538462 , 4130.76923077 , 4120.0 , 4130.25641026 , 4126.66666667 , 4127.69230769 , 4194.87179487 , 4118.46153846 , 4138.46153846 , 4178.97435897 , 4907.69230769 , 4128.71794872 , 4129.23076923 , 2041.0 , 2032.0 , 45.924 , 0.0 , 0.0 , 0.0 , 0.0 , 

36.0 , 4120.0 , 4122.05128205 , 4134.87179487 , 4126.66666667 , 4128.20512821 , 4126.15384615 , 4136.41025641 , 4214.87179487 , 4129.23076923 , 4138.97435897 , 4184.1025641 , 4906.66666667 , 4120.0 , 4127.69230769 , 2042.0 , 2032.0 , 45.933 , 0.0 , 0.0 , 0.0 , 0.0 , 

37.0 , 4121.02564103 , 4121.02564103 , 4133.33333333 , 4121.53846154 , 4127.69230769 , 4125.12820513 , 4128.20512821 , 4201.02564103 , 4130.76923077 , 4138.97435897 , 4182.05128205 , 4909.74358974 , 4104.1025641 , 4127.69230769 , 2041.0 , 2035.0 , 45.94 , 0.0 , 0.0 , 0.0 , 0.0 , 

38.0 , 4128.71794872 , 4131.79487179 , 4132.82051282 , 4127.17948718 , 4127.17948718 , 4128.71794872 , 4127.69230769 , 4208.20512821 , 4138.97435897 , 4140.51282051 , 4184.1025641 , 4908.71794872 , 4123.07692308 , 4134.35897436 , 2041.0 , 2034.0 , 45.949 , 0.0 , 0.0 , 0.0 , 0.0 , 

39.0 , 4131.28205128 , 4131.79487179 , 4135.38461538 , 4130.76923077 , 4128.71794872 , 4128.71794872 , 4123.58974359 , 4191.79487179 , 4127.69230769 , 4136.41025641 , 4178.97435897 , 4911.28205128 , 4122.56410256 , 4131.28205128 , 2040.0 , 2033.0 , 45.956 , 0.0 , 0.0 , 0.0 , 0.0 , 

40.0 , 4132.30769231 , 4140.51282051 , 4133.84615385 , 4136.41025641 , 4129.74358974 , 4129.74358974 , 4130.76923077 , 4192.30769231 , 4126.66666667 , 4138.46153846 , 4183.58974359 , 4906.66666667 , 4130.76923077 , 4134.35897436 , 2039.0 , 2030.0 , 45.963 , 0.0 , 0.0 , 0.0 , 0.0 , 

41.0 , 4131.79487179 , 4132.82051282 , 4130.25641026 , 4133.84615385 , 4128.71794872 , 4126.15384615 , 4125.64102564 , 4182.05128205 , 4118.46153846 , 4133.33333333 , 4182.56410256 , 4910.25641026 , 4129.23076923 , 4137.94871795 , 2038.0 , 2030.0 , 45.972 , 0.0 , 0.0 , 0.0 , 0.0 , 

42.0 , 4133.33333333 , 4138.97435897 , 4129.23076923 , 4135.8974359 , 4127.17948718 , 4127.69230769 , 4122.56410256 , 4186.15384615 , 4119.48717949 , 4130.25641026 , 4185.64102564 , 4909.23076923 , 4137.43589744 , 4141.02564103 , 2036.0 , 2031.0 , 45.979 , 0.0 , 0.0 , 0.0 , 0.0 , 

43.0 , 4127.17948718 , 4129.23076923 , 4128.20512821 , 4130.25641026 , 4127.69230769 , 4123.58974359 , 4112.30769231 , 4185.12820513 , 4118.46153846 , 4130.25641026 , 4188.20512821 , 4907.69230769 , 4136.41025641 , 4137.43589744 , 2035.0 , 2032.0 , 45.988 , 0.0 , 0.0 , 0.0 , 0.0 , 

44.0 , 4128.71794872 , 4122.56410256 , 4127.69230769 , 4131.79487179 , 4128.71794872 , 4120.0 , 4113.33333333 , 4193.33333333 , 4124.1025641 , 4134.35897436 , 4191.28205128 , 4905.64102564 , 4138.97435897 , 4141.02564103 , 2037.0 , 2035.0 , 45.996 , 0.0 , 0.0 , 0.0 , 0.0 , 

45.0 , 4127.69230769 , 4115.8974359 , 4131.28205128 , 4131.28205128 , 4126.66666667 , 4119.48717949 , 4111.79487179 , 4198.97435897 , 4125.64102564 , 4133.84615385 , 4190.25641026 , 4907.69230769 , 4130.76923077 , 4140.51282051 , 2037.0 , 2035.0 , 46.003 , 0.0 , 0.0 , 0.0 , 0.0 , 

46.0 , 4125.64102564 , 4115.38461538 , 4131.79487179 , 4127.69230769 , 4128.71794872 , 4123.07692308 , 4113.33333333 , 4200.0 , 4124.61538462 , 4136.41025641 , 4187.69230769 , 4904.61538462 , 4126.15384615 , 4138.97435897 , 2038.0 , 2035.0 , 46.012 , 0.0 , 0.0 , 0.0 , 0.0 , 

47.0 , 4123.07692308 , 4116.41025641 , 4133.33333333 , 4124.61538462 , 4129.23076923 , 4123.07692308 , 4119.48717949 , 4214.35897436 , 4135.8974359 , 4140.0 , 4188.20512821 , 4901.02564103 , 4126.15384615 , 4138.97435897 , 2042.0 , 2039.0 , 46.02 , 0.0 , 0.0 , 0.0 , 0.0 , 

48.0 , 4127.17948718 , 4115.8974359 , 4135.38461538 , 4126.15384615 , 4129.74358974 , 4125.64102564 , 4123.58974359 , 4215.8974359 , 4137.43589744 , 4137.43589744 , 4187.17948718 , 4904.1025641 , 4118.97435897 , 4136.41025641 , 2042.0 , 2039.0 , 46.026 , 0.0 , 0.0 , 0.0 , 0.0 , 

49.0 , 4126.66666667 , 4122.05128205 , 4133.33333333 , 4127.69230769 , 4129.23076923 , 4128.20512821 , 4129.74358974 , 4217.43589744 , 4139.48717949 , 4139.48717949 , 4188.20512821 , 4907.17948718 , 4118.46153846 , 4133.84615385 , 2043.0 , 2039.0 , 46.035 , 0.0 , 0.0 , 0.0 , 0.0 , 

50.0 , 4128.20512821 , 4122.56410256 , 4130.76923077 , 4126.15384615 , 4129.74358974 , 4129.23076923 , 4128.71794872 , 4202.56410256 , 4131.79487179 , 4138.46153846 , 4181.53846154 , 4908.71794872 , 4112.82051282 , 4131.28205128 , 2044.0 , 2038.0 , 46.042 , 0.0 , 0.0 , 0.0 , 0.0 , 

51.0 , 4127.69230769 , 4126.66666667 , 4132.82051282 , 4132.30769231 , 4128.20512821 , 4133.33333333 , 4127.69230769 , 4223.58974359 , 4135.38461538 , 4137.94871795 , 4187.17948718 , 4904.1025641 , 4126.15384615 , 4137.94871795 , 2045.0 , 2039.0 , 46.051 , 0.0 , 0.0 , 0.0 , 0.0 , 

52.0 , 4128.20512821 , 4116.41025641 , 4130.25641026 , 4130.76923077 , 4127.69230769 , 4131.28205128 , 4124.1025641 , 4192.30769231 , 4123.58974359 , 4135.38461538 , 4186.15384615 , 4907.17948718 , 4124.61538462 , 4136.92307692 , 2045.0 , 2040.0 , 46.058 , 0.0 , 0.0 , 0.0 , 0.0 , 

53.0 , 4129.23076923 , 4130.25641026 , 4127.69230769 , 4134.35897436 , 4124.61538462 , 4125.64102564 , 4131.28205128 , 4175.38461538 , 4127.17948718 , 4137.43589744 , 4186.66666667 , 4908.71794872 , 4134.35897436 , 4136.92307692 , 2044.0 , 2038.0 , 46.066 , 0.0 , 0.0 , 0.0 , 0.0 , 

54.0 , 4127.69230769 , 4126.66666667 , 4127.69230769 , 4131.79487179 , 4127.69230769 , 4120.0 , 4110.76923077 , 4168.20512821 , 4105.12820513 , 4135.8974359 , 4183.07692308 , 4910.76923077 , 4129.74358974 , 4132.30769231 , 2045.0 , 2036.0 , 46.074 , 0.0 , 0.0 , 0.0 , 0.0 , 

55.0 , 4123.58974359 , 4128.20512821 , 4126.66666667 , 4136.41025641 , 4129.74358974 , 4121.02564103 , 4104.1025641 , 4197.43589744 , 4104.61538462 , 4137.94871795 , 4192.30769231 , 4904.1025641 , 4151.28205128 , 4140.51282051 , 2046.0 , 2037.0 , 46.083 , 0.0 , 0.0 , 0.0 , 0.0 , 

56.0 , 4121.02564103 , 4117.94871795 , 4127.17948718 , 4136.41025641 , 4128.71794872 , 4120.51282051 , 4113.33333333 , 4183.58974359 , 4112.82051282 , 4134.87179487 , 4187.17948718 , 4904.1025641 , 4148.20512821 , 4140.51282051 , 2044.0 , 2035.0 , 46.089 , 0.0 , 0.0 , 0.0 , 0.0 , 

57.0 , 4127.17948718 , 4129.23076923 , 4130.76923077 , 4140.0 , 4124.61538462 , 4124.61538462 , 4126.66666667 , 4195.38461538 , 4133.84615385 , 4135.38461538 , 4188.71794872 , 4902.05128205 , 4145.64102564 , 4138.46153846 , 2045.0 , 2035.0 , 46.097 , 0.0 , 0.0 , 0.0 , 0.0 , 

58.0 , 4127.17948718 , 4118.46153846 , 4128.20512821 , 4126.66666667 , 4126.66666667 , 4121.02564103 , 4114.87179487 , 4194.87179487 , 4126.15384615 , 4135.38461538 , 4187.69230769 , 4904.61538462 , 4128.20512821 , 4135.38461538 , 2044.0 , 2035.0 , 46.106 , 0.0 , 0.0 , 0.0 , 0.0 , 

59.0 , 4125.64102564 , 4121.02564103 , 4127.17948718 , 4124.61538462 , 4130.76923077 , 4123.58974359 , 4121.53846154 , 4209.23076923 , 4133.84615385 , 4141.53846154 , 4189.23076923 , 4902.05128205 , 4136.92307692 , 4141.02564103 , 2040.0 , 2034.0 , 46.114 , 0.0 , 0.0 , 0.0 , 0.0 , 

60.0 , 4124.61538462 , 4114.35897436 , 4131.28205128 , 4125.64102564 , 4129.74358974 , 4125.64102564 , 4124.61538462 , 4210.76923077 , 4138.97435897 , 4140.0 , 4184.61538462 , 4907.69230769 , 4127.17948718 , 4135.8974359 , 2039.0 , 2031.0 , 46.122 , 0.0 , 0.0 , 0.0 , 0.0 , 

61.0 , 4128.71794872 , 4121.53846154 , 4134.87179487 , 4125.64102564 , 4126.66666667 , 4126.15384615 , 4126.15384615 , 4216.41025641 , 4140.51282051 , 4137.43589744 , 4186.15384615 , 4908.20512821 , 4117.94871795 , 4129.74358974 , 2039.0 , 2032.0 , 46.13 , 0.0 , 0.0 , 0.0 , 0.0 , 

62.0 , 4126.15384615 , 4117.94871795 , 4134.87179487 , 4119.48717949 , 4129.23076923 , 4123.58974359 , 4125.64102564 , 4212.30769231 , 4132.30769231 , 4134.87179487 , 4183.07692308 , 4907.17948718 , 4108.20512821 , 4128.71794872 , 2039.0 , 2029.0 , 46.138 , 0.0 , 0.0 , 0.0 , 0.0 , 

63.0 , 4126.66666667 , 4122.56410256 , 4133.33333333 , 4125.12820513 , 4130.76923077 , 4128.71794872 , 4132.30769231 , 4209.23076923 , 4130.76923077 , 4137.43589744 , 4180.0 , 4906.15384615 , 4115.38461538 , 4134.35897436 , 2039.0 , 2030.0 , 46.146 , 0.0 , 0.0 , 0.0 , 0.0 , 

64.0 , 4127.69230769 , 4130.25641026 , 4133.84615385 , 4131.28205128 , 4125.12820513 , 4128.71794872 , 4130.76923077 , 4199.48717949 , 4133.33333333 , 4137.43589744 , 4181.02564103 , 4910.25641026 , 4122.05128205 , 4132.82051282 , 2038.0 , 2031.0 , 46.154 , 0.0 , 0.0 , 0.0 , 0.0 , 

65.0 , 4131.79487179 , 4135.38461538 , 4132.30769231 , 4133.84615385 , 4125.64102564 , 4127.69230769 , 4128.71794872 , 4182.05128205 , 4124.1025641 , 4135.38461538 , 4181.53846154 , 4911.28205128 , 4123.07692308 , 4131.79487179 , 2040.0 , 2032.0 , 46.161 , 0.0 , 0.0 , 0.0 , 0.0 , 

66.0 , 4130.76923077 , 4137.43589744 , 4130.76923077 , 4135.38461538 , 4125.64102564 , 4126.66666667 , 4128.20512821 , 4186.66666667 , 4121.53846154 , 4136.41025641 , 4183.58974359 , 4910.25641026 , 4131.79487179 , 4135.8974359 , 2041.0 , 2033.0 , 46.169 , 0.0 , 0.0 , 0.0 , 0.0 , 

67.0 , 4133.33333333 , 4136.92307692 , 4130.25641026 , 4134.35897436 , 4123.58974359 , 4124.1025641 , 4120.51282051 , 4177.43589744 , 4120.51282051 , 4137.43589744 , 4183.58974359 , 4911.28205128 , 4133.84615385 , 4137.94871795 , 2042.0 , 2033.0 , 46.177 , 0.0 , 0.0 , 0.0 , 0.0 , 

68.0 , 4130.76923077 , 4138.97435897 , 4130.76923077 , 4135.8974359 , 4123.07692308 , 4122.56410256 , 4120.0 , 4188.20512821 , 4125.12820513 , 4137.94871795 , 4191.28205128 , 4908.20512821 , 4143.07692308 , 4141.02564103 , 2043.0 , 2035.0 , 46.185 , 0.0 , 0.0 , 0.0 , 0.0 , 

69.0 , 4128.71794872 , 4125.12820513 , 4128.71794872 , 4135.8974359 , 4127.69230769 , 4122.05128205 , 4119.48717949 , 4185.64102564 , 4116.41025641 , 4135.8974359 , 4188.20512821 , 4909.23076923 , 4134.87179487 , 4137.43589744 , 2043.0 , 2035.0 , 46.192 , 0.0 , 0.0 , 0.0 , 0.0 , 

70.0 , 4128.71794872 , 4125.64102564 , 4129.74358974 , 4134.35897436 , 4126.66666667 , 4122.56410256 , 4123.07692308 , 4207.69230769 , 4130.25641026 , 4137.43589744 , 4190.25641026 , 4907.17948718 , 4135.38461538 , 4137.43589744 , 2044.0 , 2036.0 , 46.201 , 0.0 , 0.0 , 0.0 , 0.0 , 

71.0 , 4126.66666667 , 4112.30769231 , 4129.74358974 , 4121.53846154 , 4128.71794872 , 4123.58974359 , 4114.87179487 , 4197.43589744 , 4127.69230769 , 4133.33333333 , 4188.20512821 , 4906.66666667 , 4121.53846154 , 4136.92307692 , 2042.0 , 2035.0 , 46.208 , 0.0 , 0.0 , 0.0 , 0.0 , 

72.0 , 4120.51282051 , 4113.33333333 , 4130.25641026 , 4121.02564103 , 4128.20512821 , 4126.15384615 , 4120.51282051 , 4214.87179487 , 4137.43589744 , 4136.41025641 , 4192.30769231 , 4902.56410256 , 4128.71794872 , 4142.05128205 , 2042.0 , 2033.0 , 46.216 , 0.0 , 0.0 , 0.0 , 0.0 , 

73.0 , 4120.51282051 , 4107.17948718 , 4131.79487179 , 4121.53846154 , 4128.20512821 , 4122.56410256 , 4117.43589744 , 4208.71794872 , 4136.41025641 , 4137.94871795 , 4185.64102564 , 4905.12820513 , 4120.0 , 4133.33333333 , 2043.0 , 2033.0 , 46.224 , 0.0 , 0.0 , 0.0 , 0.0 , 

74.0 , 4126.66666667 , 4120.0 , 4132.30769231 , 4126.15384615 , 4127.69230769 , 4125.12820513 , 4127.17948718 , 4221.02564103 , 4142.05128205 , 4140.0 , 4188.71794872 , 4902.56410256 , 4125.64102564 , 4134.87179487 , 2044.0 , 2033.0 , 46.232 , 0.0 , 0.0 , 0.0 , 0.0 , 

75.0 , 4126.66666667 , 4115.38461538 , 4132.30769231 , 4118.97435897 , 4128.20512821 , 4127.69230769 , 4128.71794872 , 4204.61538462 , 4130.76923077 , 4138.46153846 , 4184.1025641 , 4907.17948718 , 4112.30769231 , 4133.84615385 , 2044.0 , 2033.0 , 46.24 , 0.0 , 0.0 , 0.0 , 0.0 , 

76.0 , 4131.28205128 , 4130.76923077 , 4136.92307692 , 4126.15384615 , 4127.69230769 , 4128.71794872 , 4132.82051282 , 4210.76923077 , 4138.97435897 , 4144.1025641 , 4185.12820513 , 4908.20512821 , 4115.8974359 , 4132.30769231 , 2044.0 , 2033.0 , 46.248 , 0.0 , 0.0 , 0.0 , 0.0 , 

77.0 , 4131.28205128 , 4132.30769231 , 4138.97435897 , 4128.71794872 , 4130.25641026 , 4124.61538462 , 4126.15384615 , 4196.41025641 , 4127.17948718 , 4139.48717949 , 4178.97435897 , 4911.79487179 , 4113.84615385 , 4127.17948718 , 2044.0 , 2033.0 , 46.256 , 0.0 , 0.0 , 0.0 , 0.0 , 

78.0 , 4131.28205128 , 4140.51282051 , 4133.33333333 , 4132.82051282 , 4131.79487179 , 4124.61538462 , 4130.76923077 , 4194.35897436 , 4121.02564103 , 4136.41025641 , 4179.48717949 , 4908.20512821 , 4131.28205128 , 4135.8974359 , 2043.0 , 2033.0 , 46.263 , 0.0 , 0.0 , 0.0 , 0.0 , 

79.0 , 4131.28205128 , 4133.84615385 , 4130.25641026 , 4131.28205128 , 4129.23076923 , 4124.1025641 , 4124.1025641 , 4183.58974359 , 4119.48717949 , 4135.8974359 , 4179.48717949 , 4909.23076923 , 4132.30769231 , 4136.92307692 , 2043.0 , 2032.0 , 46.272 , 0.0 , 0.0 , 0.0 , 0.0 , 

80.0 , 4134.35897436 , 4133.33333333 , 4129.74358974 , 4134.87179487 , 4125.12820513 , 4126.15384615 , 4120.51282051 , 4183.58974359 , 4122.56410256 , 4134.87179487 , 4186.66666667 , 4907.17948718 , 4136.92307692 , 4136.92307692 , 2042.0 , 2033.0 , 46.28 , 0.0 , 0.0 , 0.0 , 0.0 , 

81.0 , 4128.20512821 , 4124.1025641 , 4126.15384615 , 4131.79487179 , 4124.1025641 , 4122.56410256 , 4116.41025641 , 4182.05128205 , 4113.84615385 , 4128.20512821 , 4190.25641026 , 4909.23076923 , 4134.87179487 , 4138.97435897 , 2041.0 , 2035.0 , 46.287 , 0.0 , 0.0 , 0.0 , 0.0 , 

82.0 , 4130.76923077 , 4124.1025641 , 4126.15384615 , 4133.84615385 , 4127.69230769 , 4122.05128205 , 4117.94871795 , 4189.74358974 , 4116.92307692 , 4128.71794872 , 4187.69230769 , 4907.69230769 , 4136.92307692 , 4141.53846154 , 2042.0 , 2034.0 , 46.294 , 0.0 , 0.0 , 0.0 , 0.0 , 

83.0 , 4130.25641026 , 4120.0 , 4130.76923077 , 4131.79487179 , 4126.66666667 , 4121.02564103 , 4115.8974359 , 4206.15384615 , 4128.71794872 , 4133.84615385 , 4186.66666667 , 4902.56410256 , 4132.82051282 , 4137.43589744 , 2040.0 , 2035.0 , 46.302 , 0.0 , 0.0 , 0.0 , 0.0 , 

84.0 , 4124.61538462 , 4113.33333333 , 4131.28205128 , 4126.15384615 , 4125.64102564 , 4122.05128205 , 4115.8974359 , 4205.12820513 , 4130.76923077 , 4137.94871795 , 4189.23076923 , 4903.07692308 , 4128.71794872 , 4136.41025641 , 2040.0 , 2035.0 , 46.311 , 0.0 , 0.0 , 0.0 , 0.0 , 

85.0 , 4119.48717949 , 4113.84615385 , 4129.74358974 , 4127.69230769 , 4127.69230769 , 4125.12820513 , 4121.02564103 , 4214.87179487 , 4138.97435897 , 4140.0 , 4192.82051282 , 4908.20512821 , 4134.87179487 , 4143.07692308 , 2040.0 , 2036.0 , 46.318 , 0.0 , 0.0 , 0.0 , 0.0 , 

86.0 , 4125.64102564 , 4113.84615385 , 4132.30769231 , 4127.69230769 , 4129.74358974 , 4127.69230769 , 4125.64102564 , 4210.25641026 , 4135.8974359 , 4137.43589744 , 4187.17948718 , 4907.69230769 , 4126.15384615 , 4138.97435897 , 2040.0 , 2035.0 , 46.327 , 0.0 , 0.0 , 0.0 , 0.0 , 

87.0 , 4124.61538462 , 4123.58974359 , 4134.87179487 , 4125.12820513 , 4125.12820513 , 4125.64102564 , 4133.84615385 , 4222.05128205 , 4140.0 , 4139.48717949 , 4188.71794872 , 4902.56410256 , 4121.53846154 , 4131.79487179 , 2041.0 , 2036.0 , 46.335 , 0.0 , 0.0 , 0.0 , 0.0 , 

88.0 , 4126.15384615 , 4122.05128205 , 4130.76923077 , 4123.58974359 , 4127.17948718 , 4126.66666667 , 4129.23076923 , 4203.58974359 , 4131.28205128 , 4137.94871795 , 4182.56410256 , 4909.23076923 , 4109.74358974 , 4127.69230769 , 2042.0 , 2037.0 , 46.343 , 0.0 , 0.0 , 0.0 , 0.0 , 

89.0 , 4131.28205128 , 4132.82051282 , 4129.23076923 , 4131.79487179 , 4128.71794872 , 4133.33333333 , 4129.23076923 , 4211.79487179 , 4135.8974359 , 4137.94871795 , 4181.02564103 , 4910.76923077 , 4121.02564103 , 4130.76923077 , 2041.0 , 2036.0 , 46.35 , 0.0 , 0.0 , 0.0 , 0.0 , 

90.0 , 4132.82051282 , 4128.20512821 , 4131.28205128 , 4128.71794872 , 4129.23076923 , 4129.23076923 , 4122.56410256 , 4192.82051282 , 4123.58974359 , 4135.8974359 , 4175.8974359 , 4913.84615385 , 4115.38461538 , 4126.66666667 , 2042.0 , 2037.0 , 46.357 , 0.0 , 0.0 , 0.0 , 0.0 , 

91.0 , 4131.28205128 , 4137.94871795 , 4133.33333333 , 4132.82051282 , 4126.66666667 , 4125.64102564 , 4129.23076923 , 4194.35897436 , 4126.15384615 , 4137.43589744 , 4184.1025641 , 4910.25641026 , 4128.71794872 , 4133.84615385 , 2041.0 , 2037.0 , 46.366 , 0.0 , 0.0 , 0.0 , 0.0 , 

92.0 , 4130.76923077 , 4131.28205128 , 4130.76923077 , 4132.82051282 , 4126.15384615 , 4125.64102564 , 4125.12820513 , 4177.94871795 , 4115.38461538 , 4135.8974359 , 4184.61538462 , 4911.79487179 , 4127.17948718 , 4134.87179487 , 2040.0 , 2037.0 , 46.374 , 0.0 , 0.0 , 0.0 , 0.0 , 

93.0 , 4131.28205128 , 4138.46153846 , 4129.23076923 , 4135.8974359 , 4125.12820513 , 4129.23076923 , 4127.69230769 , 4189.23076923 , 4122.56410256 , 4137.43589744 , 4191.79487179 , 4910.25641026 , 4141.53846154 , 4137.94871795 , 2038.0 , 2035.0 , 46.382 , 0.0 , 0.0 , 0.0 , 0.0 , 

94.0 , 4129.74358974 , 4130.76923077 , 4127.17948718 , 4128.20512821 , 4126.15384615 , 4123.58974359 , 4116.41025641 , 4181.02564103 , 4120.0 , 4133.84615385 , 4189.23076923 , 4913.33333333 , 4134.35897436 , 4136.41025641 , 2039.0 , 2035.0 , 46.39 , 0.0 , 0.0 , 0.0 , 0.0 , 

95.0 , 4128.71794872 , 4136.41025641 , 4125.12820513 , 4130.76923077 , 4123.58974359 , 4123.07692308 , 4118.46153846 , 4201.02564103 , 4137.94871795 , 4137.94871795 , 4190.76923077 , 4906.66666667 , 4147.69230769 , 4143.07692308 , 2037.0 , 2034.0 , 46.398 , 0.0 , 0.0 , 0.0 , 0.0 , 

96.0 , 4121.53846154 , 4118.46153846 , 4126.66666667 , 4126.66666667 , 4122.05128205 , 4121.02564103 , 4120.0 , 4195.38461538 , 4143.07692308 , 4138.46153846 , 4186.66666667 , 4905.64102564 , 4144.1025641 , 4138.97435897 , 2038.0 , 2034.0 , 46.406 , 0.0 , 0.0 , 0.0 , 0.0 , 

97.0 , 4124.61538462 , 4121.53846154 , 4128.20512821 , 4125.12820513 , 4128.20512821 , 4125.64102564 , 4130.76923077 , 4196.41025641 , 4142.56410256 , 4137.43589744 , 4187.69230769 , 4902.56410256 , 4136.92307692 , 4135.38461538 , 2039.0 , 2035.0 , 46.413 , 0.0 , 0.0 , 0.0 , 0.0 , 

