['COUNTER', 'AF3', 'F7', 'F3', 'FC5', 'T7', 'P7', 'O1', 'O2', 'P8', 'T8', 'FC6', 'F4', 'F8', 'AF4', 'GYROX', 'GYROY', 'TIMESTAMP', 'FUNC_ID', 'FUNC_VALUE', 'MARKER', 'SYNC_SIGNAL']
126.0 , 4127.69230769 , 4205.64102564 , 4129.74358974 , 4130.76923077 , 4129.74358974 , 4131.79487179 , 4126.66666667 , 4136.92307692 , 4136.92307692 , 4149.23076923 , 4086.15384615 , 3400.0 , 4135.38461538 , 4128.71794872 , 2042.0 , 2032.0 , 232.163 , 0.0 , 0.0 , 0.0 , 0.0 , 

127.0 , 4123.58974359 , 4267.17948718 , 4125.12820513 , 4130.25641026 , 4129.74358974 , 4130.76923077 , 4123.07692308 , 4136.92307692 , 4136.92307692 , 4151.79487179 , 4083.07692308 , 3393.33333333 , 4134.87179487 , 4127.69230769 , 2042.0 , 2037.0 , 232.172 , 0.0 , 0.0 , 0.0 , 0.0 , 

128.0 , 4127.17948718 , 4202.05128205 , 4130.25641026 , 4134.35897436 , 4131.28205128 , 4129.74358974 , 4127.69230769 , 4138.46153846 , 4138.46153846 , 4150.25641026 , 4085.12820513 , 3398.97435897 , 4136.92307692 , 4132.30769231 , 2042.0 , 2039.0 , 232.18 , 0.0 , 0.0 , 0.0 , 0.0 , 

0.0 , 4134.87179487 , 4084.61538462 , 4140.0 , 4135.8974359 , 4134.35897436 , 4134.87179487 , 4133.33333333 , 4139.48717949 , 4136.41025641 , 4149.23076923 , 4088.20512821 , 3409.74358974 , 4138.46153846 , 4133.33333333 , 2041.0 , 2041.0 , 232.189 , 0.0 , 0.0 , 0.0 , 0.0 , 

1.0 , 4137.94871795 , 4069.74358974 , 4144.1025641 , 4137.43589744 , 4136.41025641 , 4138.46153846 , 4132.82051282 , 4137.94871795 , 4137.43589744 , 4149.23076923 , 4086.66666667 , 3411.28205128 , 4137.43589744 , 4133.33333333 , 2041.0 , 2042.0 , 232.195 , 0.0 , 0.0 , 0.0 , 0.0 , 

2.0 , 4140.0 , 4077.43589744 , 4144.61538462 , 4140.51282051 , 4138.46153846 , 4135.8974359 , 4133.33333333 , 4137.43589744 , 4139.48717949 , 4149.23076923 , 4085.12820513 , 3411.28205128 , 4137.94871795 , 4135.38461538 , 2042.0 , 2043.0 , 232.205 , 0.0 , 0.0 , 0.0 , 0.0 , 

3.0 , 4140.0 , 4069.23076923 , 4143.58974359 , 4142.05128205 , 4136.41025641 , 4134.35897436 , 4135.38461538 , 4138.46153846 , 4135.38461538 , 4149.23076923 , 4087.69230769 , 3409.74358974 , 4138.46153846 , 4133.33333333 , 2041.0 , 2043.0 , 232.211 , 0.0 , 0.0 , 0.0 , 0.0 , 

4.0 , 4138.97435897 , 4074.87179487 , 4142.56410256 , 4141.53846154 , 4133.84615385 , 4134.87179487 , 4133.33333333 , 4139.48717949 , 4142.05128205 , 4149.23076923 , 4089.74358974 , 3407.69230769 , 4137.43589744 , 4133.84615385 , 2041.0 , 2042.0 , 232.22 , 0.0 , 0.0 , 0.0 , 0.0 , 

5.0 , 4137.94871795 , 4104.1025641 , 4140.0 , 4138.46153846 , 4136.41025641 , 4133.84615385 , 4132.30769231 , 4138.97435897 , 4151.28205128 , 4149.23076923 , 4087.69230769 , 3407.69230769 , 4134.87179487 , 4134.87179487 , 2040.0 , 2041.0 , 232.227 , 0.0 , 0.0 , 0.0 , 0.0 , 

6.0 , 4137.94871795 , 4108.20512821 , 4138.97435897 , 4136.92307692 , 4137.94871795 , 4134.87179487 , 4134.35897436 , 4138.97435897 , 4143.58974359 , 4149.74358974 , 4087.17948718 , 3407.69230769 , 4135.8974359 , 4134.35897436 , 2039.0 , 2040.0 , 232.235 , 0.0 , 0.0 , 0.0 , 0.0 , 

7.0 , 4137.43589744 , 4125.12820513 , 4136.41025641 , 4137.43589744 , 4132.30769231 , 4134.87179487 , 4133.84615385 , 4141.02564103 , 4134.87179487 , 4148.71794872 , 4090.25641026 , 3406.15384615 , 4137.94871795 , 4134.35897436 , 2041.0 , 2041.0 , 232.242 , 0.0 , 0.0 , 0.0 , 0.0 , 

8.0 , 4135.8974359 , 4125.12820513 , 4136.41025641 , 4137.43589744 , 4131.79487179 , 4132.82051282 , 4133.33333333 , 4140.51282051 , 4138.97435897 , 4148.71794872 , 4089.23076923 , 3407.17948718 , 4137.43589744 , 4134.87179487 , 2040.0 , 2042.0 , 232.251 , 0.0 , 0.0 , 0.0 , 0.0 , 

9.0 , 4137.43589744 , 4124.1025641 , 4136.92307692 , 4133.33333333 , 4133.84615385 , 4132.82051282 , 4133.84615385 , 4135.8974359 , 4144.1025641 , 4151.79487179 , 4085.64102564 , 3407.69230769 , 4137.43589744 , 4133.33333333 , 2039.0 , 2042.0 , 232.259 , 0.0 , 0.0 , 0.0 , 0.0 , 

10.0 , 4137.43589744 , 4123.07692308 , 4136.92307692 , 4134.87179487 , 4132.82051282 , 4134.35897436 , 4134.35897436 , 4135.38461538 , 4142.56410256 , 4145.64102564 , 4085.12820513 , 3406.66666667 , 4136.92307692 , 4133.33333333 , 2040.0 , 2043.0 , 232.267 , 0.0 , 0.0 , 0.0 , 0.0 , 

11.0 , 4138.46153846 , 4130.76923077 , 4138.46153846 , 4138.97435897 , 4131.79487179 , 4133.84615385 , 4132.30769231 , 4138.46153846 , 4141.53846154 , 4136.41025641 , 4086.15384615 , 3409.74358974 , 4137.43589744 , 4135.38461538 , 2039.0 , 2043.0 , 232.274 , 0.0 , 0.0 , 0.0 , 0.0 , 

12.0 , 4138.46153846 , 4127.69230769 , 4137.94871795 , 4136.41025641 , 4136.92307692 , 4133.84615385 , 4132.30769231 , 4138.97435897 , 4137.94871795 , 4143.58974359 , 4085.64102564 , 3409.74358974 , 4138.46153846 , 4135.8974359 , 2039.0 , 2046.0 , 232.282 , 0.0 , 0.0 , 0.0 , 0.0 , 

13.0 , 4137.43589744 , 4122.56410256 , 4135.38461538 , 4132.82051282 , 4138.97435897 , 4135.8974359 , 4133.33333333 , 4138.46153846 , 4136.92307692 , 4155.38461538 , 4084.61538462 , 3406.66666667 , 4135.8974359 , 4133.84615385 , 2038.0 , 2044.0 , 232.29 , 0.0 , 0.0 , 0.0 , 0.0 , 

14.0 , 4138.46153846 , 4126.66666667 , 4134.35897436 , 4133.33333333 , 4135.8974359 , 4137.43589744 , 4132.30769231 , 4139.48717949 , 4138.46153846 , 4146.15384615 , 4084.61538462 , 3406.15384615 , 4133.84615385 , 4130.25641026 , 2038.0 , 2043.0 , 232.297 , 0.0 , 0.0 , 0.0 , 0.0 , 

15.0 , 4138.46153846 , 4132.30769231 , 4135.8974359 , 4132.30769231 , 4134.35897436 , 4135.38461538 , 4130.25641026 , 4138.46153846 , 4134.87179487 , 4136.41025641 , 4087.17948718 , 3406.66666667 , 4135.38461538 , 4132.30769231 , 2039.0 , 2041.0 , 232.306 , 0.0 , 0.0 , 0.0 , 0.0 , 

16.0 , 4136.92307692 , 4125.12820513 , 4136.92307692 , 4132.82051282 , 4133.84615385 , 4132.30769231 , 4132.82051282 , 4138.46153846 , 4140.51282051 , 4146.66666667 , 4089.74358974 , 3405.64102564 , 4136.92307692 , 4135.38461538 , 2039.0 , 2035.0 , 232.313 , 0.0 , 0.0 , 0.0 , 0.0 , 

17.0 , 4137.43589744 , 4117.94871795 , 4133.84615385 , 4135.8974359 , 4133.84615385 , 4131.79487179 , 4137.43589744 , 4138.97435897 , 4153.33333333 , 4153.33333333 , 4087.69230769 , 3407.69230769 , 4134.35897436 , 4132.82051282 , 2038.0 , 2034.0 , 232.322 , 0.0 , 0.0 , 0.0 , 0.0 , 

18.0 , 4136.92307692 , 4125.64102564 , 4132.30769231 , 4137.94871795 , 4135.8974359 , 4134.35897436 , 4135.8974359 , 4138.46153846 , 4149.74358974 , 4149.74358974 , 4086.66666667 , 3407.69230769 , 4132.82051282 , 4131.28205128 , 2039.0 , 2034.0 , 232.329 , 0.0 , 0.0 , 0.0 , 0.0 , 

19.0 , 4135.38461538 , 4134.87179487 , 4133.84615385 , 4137.43589744 , 4135.38461538 , 4136.41025641 , 4132.30769231 , 4137.94871795 , 4136.41025641 , 4148.20512821 , 4090.25641026 , 3405.64102564 , 4135.8974359 , 4133.84615385 , 2039.0 , 2034.0 , 232.338 , 0.0 , 0.0 , 0.0 , 0.0 , 

20.0 , 4135.8974359 , 4134.35897436 , 4136.41025641 , 4135.38461538 , 4134.87179487 , 4134.87179487 , 4132.30769231 , 4138.46153846 , 4136.41025641 , 4150.25641026 , 4087.17948718 , 3405.64102564 , 4139.48717949 , 4131.79487179 , 2039.0 , 2035.0 , 232.344 , 0.0 , 0.0 , 0.0 , 0.0 , 

21.0 , 4137.43589744 , 4128.71794872 , 4136.41025641 , 4135.8974359 , 4134.35897436 , 4133.84615385 , 4132.30769231 , 4138.97435897 , 4140.51282051 , 4149.23076923 , 4081.53846154 , 3406.15384615 , 4136.92307692 , 4129.74358974 , 2040.0 , 2033.0 , 232.353 , 0.0 , 0.0 , 0.0 , 0.0 , 

22.0 , 4137.94871795 , 4124.1025641 , 4136.41025641 , 4139.48717949 , 4135.38461538 , 4134.87179487 , 4130.76923077 , 4138.97435897 , 4138.46153846 , 4149.23076923 , 4083.58974359 , 3405.64102564 , 4134.87179487 , 4132.30769231 , 2042.0 , 2032.0 , 232.36 , 0.0 , 0.0 , 0.0 , 0.0 , 

23.0 , 4136.92307692 , 4117.43589744 , 4136.92307692 , 4137.94871795 , 4136.92307692 , 4135.38461538 , 4129.74358974 , 4137.94871795 , 4137.43589744 , 4151.28205128 , 4087.17948718 , 3407.17948718 , 4137.43589744 , 4132.82051282 , 2043.0 , 2030.0 , 232.369 , 0.0 , 0.0 , 0.0 , 0.0 , 

24.0 , 4137.43589744 , 4128.71794872 , 4135.38461538 , 4133.33333333 , 4136.92307692 , 4133.33333333 , 4131.28205128 , 4136.41025641 , 4140.51282051 , 4149.74358974 , 4085.64102564 , 3407.69230769 , 4138.46153846 , 4132.30769231 , 2045.0 , 2030.0 , 232.377 , 0.0 , 0.0 , 0.0 , 0.0 , 

25.0 , 4137.94871795 , 4133.84615385 , 4135.38461538 , 4136.92307692 , 4135.8974359 , 4131.79487179 , 4131.79487179 , 4136.41025641 , 4149.23076923 , 4149.23076923 , 4083.58974359 , 3406.66666667 , 4137.94871795 , 4132.30769231 , 2047.0 , 2034.0 , 232.385 , 0.0 , 0.0 , 0.0 , 0.0 , 

26.0 , 4136.41025641 , 4130.76923077 , 4136.92307692 , 4138.97435897 , 4135.8974359 , 4131.28205128 , 4133.84615385 , 4136.41025641 , 4150.25641026 , 4151.28205128 , 4085.12820513 , 3406.66666667 , 4136.92307692 , 4134.35897436 , 2046.0 , 2036.0 , 232.392 , 0.0 , 0.0 , 0.0 , 0.0 , 

27.0 , 4135.8974359 , 4118.46153846 , 4135.8974359 , 4136.41025641 , 4134.87179487 , 4135.8974359 , 4136.41025641 , 4137.94871795 , 4138.46153846 , 4145.64102564 , 4087.17948718 , 3408.71794872 , 4136.41025641 , 4135.8974359 , 2047.0 , 2037.0 , 232.403 , 0.0 , 0.0 , 0.0 , 0.0 , 

28.0 , 4137.94871795 , 4131.28205128 , 4134.87179487 , 4136.41025641 , 4133.33333333 , 4137.94871795 , 4135.8974359 , 4137.94871795 , 4133.33333333 , 4140.51282051 , 4088.20512821 , 3408.20512821 , 4137.94871795 , 4134.35897436 , 2048.0 , 2041.0 , 232.408 , 0.0 , 0.0 , 0.0 , 0.0 , 

29.0 , 4138.46153846 , 4127.69230769 , 4136.92307692 , 4138.97435897 , 4136.41025641 , 4136.92307692 , 4136.41025641 , 4139.48717949 , 4138.97435897 , 4147.69230769 , 4087.69230769 , 3407.17948718 , 4137.43589744 , 4130.25641026 , 2047.0 , 2040.0 , 232.416 , 0.0 , 0.0 , 0.0 , 0.0 , 

30.0 , 4136.92307692 , 4126.15384615 , 4134.35897436 , 4137.94871795 , 4137.43589744 , 4135.38461538 , 4133.84615385 , 4141.02564103 , 4141.02564103 , 4153.33333333 , 4085.64102564 , 3406.15384615 , 4136.41025641 , 4130.25641026 , 2047.0 , 2038.0 , 232.424 , 0.0 , 0.0 , 0.0 , 0.0 , 

31.0 , 4137.43589744 , 4123.58974359 , 4132.82051282 , 4136.41025641 , 4133.84615385 , 4136.41025641 , 4131.28205128 , 4140.0 , 4138.97435897 , 4149.74358974 , 4084.1025641 , 3406.66666667 , 4136.41025641 , 4131.79487179 , 2047.0 , 2037.0 , 232.432 , 0.0 , 0.0 , 0.0 , 0.0 , 

32.0 , 4137.94871795 , 4132.82051282 , 4133.84615385 , 4135.8974359 , 4132.82051282 , 4133.84615385 , 4132.30769231 , 4138.46153846 , 4137.94871795 , 4148.20512821 , 4084.61538462 , 3407.17948718 , 4134.35897436 , 4134.87179487 , 2047.0 , 2037.0 , 232.439 , 0.0 , 0.0 , 0.0 , 0.0 , 

33.0 , 4136.92307692 , 4130.25641026 , 4134.87179487 , 4136.41025641 , 4138.46153846 , 4132.30769231 , 4137.43589744 , 4138.46153846 , 4140.51282051 , 4150.76923077 , 4086.15384615 , 3405.64102564 , 4130.25641026 , 4136.41025641 , 2046.0 , 2038.0 , 232.448 , 0.0 , 0.0 , 0.0 , 0.0 , 

34.0 , 4136.41025641 , 4120.51282051 , 4133.33333333 , 4134.87179487 , 4140.51282051 , 4134.87179487 , 4136.41025641 , 4137.43589744 , 4139.48717949 , 4149.74358974 , 4085.12820513 , 3406.66666667 , 4131.79487179 , 4134.35897436 , 2048.0 , 2038.0 , 232.456 , 0.0 , 0.0 , 0.0 , 0.0 , 

35.0 , 4136.41025641 , 4115.8974359 , 4135.38461538 , 4134.87179487 , 4137.94871795 , 4136.41025641 , 4133.84615385 , 4137.94871795 , 4135.38461538 , 4148.20512821 , 4082.56410256 , 3407.17948718 , 4133.84615385 , 4131.79487179 , 2048.0 , 2036.0 , 232.463 , 0.0 , 0.0 , 0.0 , 0.0 , 

36.0 , 4135.8974359 , 4126.15384615 , 4138.97435897 , 4134.87179487 , 4135.8974359 , 4134.35897436 , 4132.82051282 , 4140.0 , 4143.07692308 , 4151.28205128 , 4085.12820513 , 3406.66666667 , 4130.76923077 , 4133.84615385 , 2049.0 , 2036.0 , 232.472 , 0.0 , 0.0 , 0.0 , 0.0 , 

37.0 , 4136.92307692 , 4127.69230769 , 4137.43589744 , 4134.35897436 , 4135.8974359 , 4133.84615385 , 4132.30769231 , 4137.94871795 , 4148.20512821 , 4151.79487179 , 4086.15384615 , 3405.12820513 , 4132.30769231 , 4133.33333333 , 2050.0 , 2035.0 , 232.478 , 0.0 , 0.0 , 0.0 , 0.0 , 

38.0 , 4136.41025641 , 4124.61538462 , 4134.35897436 , 4131.79487179 , 4134.87179487 , 4133.84615385 , 4134.35897436 , 4137.43589744 , 4139.48717949 , 4142.56410256 , 4084.1025641 , 3405.64102564 , 4136.92307692 , 4131.28205128 , 2050.0 , 2033.0 , 232.487 , 0.0 , 0.0 , 0.0 , 0.0 , 

39.0 , 4135.8974359 , 4125.12820513 , 4133.33333333 , 4133.84615385 , 4135.8974359 , 4134.35897436 , 4137.94871795 , 4140.0 , 4133.84615385 , 4139.48717949 , 4084.1025641 , 3406.66666667 , 4135.8974359 , 4131.28205128 , 2050.0 , 2030.0 , 232.495 , 0.0 , 0.0 , 0.0 , 0.0 , 

40.0 , 4135.8974359 , 4138.46153846 , 4131.79487179 , 4137.43589744 , 4138.46153846 , 4134.35897436 , 4136.92307692 , 4138.97435897 , 4137.94871795 , 4148.71794872 , 4086.15384615 , 3405.64102564 , 4130.76923077 , 4132.30769231 , 2048.0 , 2029.0 , 232.504 , 0.0 , 0.0 , 0.0 , 0.0 , 

41.0 , 4135.38461538 , 4154.35897436 , 4131.28205128 , 4136.92307692 , 4137.94871795 , 4132.30769231 , 4133.33333333 , 4135.8974359 , 4138.46153846 , 4153.33333333 , 4087.69230769 , 3406.15384615 , 4132.82051282 , 4130.25641026 , 2048.0 , 2027.0 , 232.51 , 0.0 , 0.0 , 0.0 , 0.0 , 

42.0 , 4136.41025641 , 4134.87179487 , 4134.87179487 , 4135.38461538 , 4135.8974359 , 4132.30769231 , 4134.87179487 , 4137.43589744 , 4138.46153846 , 4148.71794872 , 4086.66666667 , 3406.66666667 , 4135.38461538 , 4130.25641026 , 2047.0 , 2027.0 , 232.519 , 0.0 , 0.0 , 0.0 , 0.0 , 

43.0 , 4139.48717949 , 4102.56410256 , 4138.46153846 , 4135.38461538 , 4136.92307692 , 4134.87179487 , 4134.35897436 , 4139.48717949 , 4142.56410256 , 4145.12820513 , 4084.1025641 , 3404.61538462 , 4131.28205128 , 4134.35897436 , 2045.0 , 2028.0 , 232.527 , 0.0 , 0.0 , 0.0 , 0.0 , 

44.0 , 4135.8974359 , 4127.17948718 , 4134.87179487 , 4134.35897436 , 4139.48717949 , 4135.38461538 , 4130.25641026 , 4138.46153846 , 4141.02564103 , 4144.61538462 , 4086.15384615 , 3404.61538462 , 4132.82051282 , 4131.79487179 , 2043.0 , 2031.0 , 232.535 , 0.0 , 0.0 , 0.0 , 0.0 , 

45.0 , 4140.0 , 4055.38461538 , 4142.56410256 , 4137.94871795 , 4142.05128205 , 4137.94871795 , 4135.8974359 , 4140.0 , 4137.43589744 , 4146.15384615 , 4091.79487179 , 3414.87179487 , 4141.53846154 , 4135.8974359 , 2041.0 , 2031.0 , 232.543 , 0.0 , 0.0 , 0.0 , 0.0 , 

46.0 , 4151.79487179 , 3923.58974359 , 4157.43589744 , 4144.61538462 , 4141.53846154 , 4144.1025641 , 4144.61538462 , 4141.53846154 , 4137.94871795 , 4148.20512821 , 4091.28205128 , 3424.1025641 , 4145.12820513 , 4146.15384615 , 2040.0 , 2032.0 , 232.55 , 0.0 , 0.0 , 0.0 , 0.0 , 

47.0 , 4147.17948718 , 4012.82051282 , 4147.69230769 , 4141.53846154 , 4137.43589744 , 4138.46153846 , 4140.51282051 , 4139.48717949 , 4140.51282051 , 4147.17948718 , 4086.66666667 , 3414.87179487 , 4138.46153846 , 4142.56410256 , 2040.0 , 2035.0 , 232.558 , 0.0 , 0.0 , 0.0 , 0.0 , 

48.0 , 4134.87179487 , 4165.64102564 , 4129.23076923 , 4133.33333333 , 4135.8974359 , 4131.28205128 , 4132.30769231 , 4137.94871795 , 4139.48717949 , 4147.17948718 , 4084.61538462 , 3404.61538462 , 4136.41025641 , 4129.23076923 , 2038.0 , 2035.0 , 232.567 , 0.0 , 0.0 , 0.0 , 0.0 , 

49.0 , 4136.41025641 , 4156.92307692 , 4129.74358974 , 4132.30769231 , 4138.46153846 , 4134.35897436 , 4132.30769231 , 4137.43589744 , 4138.46153846 , 4147.69230769 , 4083.07692308 , 3405.64102564 , 4138.97435897 , 4130.25641026 , 2037.0 , 2036.0 , 232.573 , 0.0 , 0.0 , 0.0 , 0.0 , 

50.0 , 4139.48717949 , 4106.66666667 , 4137.43589744 , 4134.87179487 , 4137.94871795 , 4136.92307692 , 4134.87179487 , 4136.41025641 , 4138.46153846 , 4147.69230769 , 4086.66666667 , 3408.71794872 , 4136.92307692 , 4135.8974359 , 2038.0 , 2036.0 , 232.581 , 0.0 , 0.0 , 0.0 , 0.0 , 

51.0 , 4136.41025641 , 4149.23076923 , 4132.82051282 , 4133.33333333 , 4135.38461538 , 4132.30769231 , 4132.30769231 , 4136.92307692 , 4138.97435897 , 4148.20512821 , 4088.71794872 , 3407.17948718 , 4136.41025641 , 4134.35897436 , 2040.0 , 2038.0 , 232.59 , 0.0 , 0.0 , 0.0 , 0.0 , 

52.0 , 4137.94871795 , 4152.82051282 , 4130.76923077 , 4131.79487179 , 4137.43589744 , 4132.82051282 , 4131.28205128 , 4138.97435897 , 4139.48717949 , 4146.66666667 , 4084.1025641 , 3405.12820513 , 4137.43589744 , 4131.28205128 , 2038.0 , 2034.0 , 232.597 , 0.0 , 0.0 , 0.0 , 0.0 , 

53.0 , 4137.94871795 , 4151.28205128 , 4133.33333333 , 4131.28205128 , 4139.48717949 , 4133.84615385 , 4132.30769231 , 4139.48717949 , 4142.05128205 , 4148.71794872 , 4084.1025641 , 3403.58974359 , 4135.38461538 , 4129.74358974 , 2038.0 , 2035.0 , 232.606 , 0.0 , 0.0 , 0.0 , 0.0 , 

54.0 , 4135.8974359 , 4166.66666667 , 4133.84615385 , 4131.79487179 , 4136.41025641 , 4133.33333333 , 4131.79487179 , 4138.97435897 , 4143.58974359 , 4148.20512821 , 4087.69230769 , 3404.61538462 , 4135.38461538 , 4131.28205128 , 2040.0 , 2033.0 , 232.612 , 0.0 , 0.0 , 0.0 , 0.0 , 

55.0 , 4136.92307692 , 4160.0 , 4133.33333333 , 4133.33333333 , 4134.35897436 , 4133.33333333 , 4131.79487179 , 4137.94871795 , 4139.48717949 , 4140.0 , 4084.61538462 , 3404.61538462 , 4135.8974359 , 4133.33333333 , 2043.0 , 2032.0 , 232.622 , 0.0 , 0.0 , 0.0 , 0.0 , 

56.0 , 4138.97435897 , 4117.43589744 , 4137.94871795 , 4136.92307692 , 4137.43589744 , 4133.33333333 , 4133.84615385 , 4137.94871795 , 4137.94871795 , 4137.94871795 , 4084.1025641 , 3405.12820513 , 4132.82051282 , 4133.84615385 , 2043.0 , 2029.0 , 232.628 , 0.0 , 0.0 , 0.0 , 0.0 , 

57.0 , 4136.92307692 , 4093.33333333 , 4142.05128205 , 4138.46153846 , 4138.97435897 , 4132.82051282 , 4134.87179487 , 4138.97435897 , 4141.02564103 , 4142.56410256 , 4088.20512821 , 3411.79487179 , 4135.8974359 , 4135.8974359 , 2043.0 , 2028.0 , 232.637 , 0.0 , 0.0 , 0.0 , 0.0 , 

58.0 , 4136.41025641 , 4123.07692308 , 4137.94871795 , 4135.8974359 , 4136.41025641 , 4133.33333333 , 4134.87179487 , 4138.46153846 , 4141.02564103 , 4143.07692308 , 4087.69230769 , 3411.79487179 , 4141.02564103 , 4135.8974359 , 2046.0 , 2026.0 , 232.644 , 0.0 , 0.0 , 0.0 , 0.0 , 

59.0 , 4134.35897436 , 4171.28205128 , 4128.71794872 , 4130.25641026 , 4134.87179487 , 4133.33333333 , 4133.84615385 , 4136.41025641 , 4138.97435897 , 4138.97435897 , 4084.61538462 , 3401.53846154 , 4136.41025641 , 4131.79487179 , 2045.0 , 2025.0 , 232.653 , 0.0 , 0.0 , 0.0 , 0.0 , 

60.0 , 4134.87179487 , 4147.17948718 , 4135.8974359 , 4134.87179487 , 4136.41025641 , 4133.33333333 , 4134.87179487 , 4136.41025641 , 4138.97435897 , 4140.0 , 4085.64102564 , 3400.51282051 , 4136.92307692 , 4134.35897436 , 2047.0 , 2025.0 , 232.661 , 0.0 , 0.0 , 0.0 , 0.0 , 

61.0 , 4134.35897436 , 4115.38461538 , 4140.51282051 , 4141.02564103 , 4137.94871795 , 4133.33333333 , 4134.35897436 , 4138.97435897 , 4138.46153846 , 4140.0 , 4088.20512821 , 3406.66666667 , 4140.51282051 , 4136.41025641 , 2045.0 , 2025.0 , 232.669 , 0.0 , 0.0 , 0.0 , 0.0 , 

62.0 , 4132.30769231 , 4167.17948718 , 4130.25641026 , 4136.92307692 , 4135.38461538 , 4135.8974359 , 4133.84615385 , 4138.46153846 , 4136.92307692 , 4139.48717949 , 4087.17948718 , 3403.07692308 , 4135.38461538 , 4133.33333333 , 2045.0 , 2023.0 , 232.676 , 0.0 , 0.0 , 0.0 , 0.0 , 

63.0 , 4140.51282051 , 4101.02564103 , 4138.46153846 , 4141.02564103 , 4136.41025641 , 4141.53846154 , 4140.0 , 4136.41025641 , 4137.94871795 , 4148.20512821 , 4087.17948718 , 3407.69230769 , 4134.87179487 , 4137.43589744 , 2045.0 , 2023.0 , 232.684 , 0.0 , 0.0 , 0.0 , 0.0 , 

64.0 , 4147.69230769 , 4026.66666667 , 4149.74358974 , 4146.15384615 , 4138.46153846 , 4141.02564103 , 4140.0 , 4137.43589744 , 4138.46153846 , 4153.84615385 , 4086.66666667 , 3415.8974359 , 4139.48717949 , 4140.0 , 2046.0 , 2022.0 , 232.692 , 0.0 , 0.0 , 0.0 , 0.0 , 

65.0 , 4138.46153846 , 4123.58974359 , 4137.43589744 , 4137.43589744 , 4137.94871795 , 4134.87179487 , 4133.33333333 , 4138.97435897 , 4138.46153846 , 4145.64102564 , 4085.64102564 , 3408.71794872 , 4136.92307692 , 4131.28205128 , 2047.0 , 2024.0 , 232.701 , 0.0 , 0.0 , 0.0 , 0.0 , 

66.0 , 4127.17948718 , 4226.15384615 , 4125.12820513 , 4130.25641026 , 4135.38461538 , 4131.28205128 , 4132.30769231 , 4138.46153846 , 4138.46153846 , 4136.92307692 , 4086.15384615 , 3401.02564103 , 4135.8974359 , 4126.15384615 , 2048.0 , 2024.0 , 232.708 , 0.0 , 0.0 , 0.0 , 0.0 , 

67.0 , 4131.79487179 , 4171.28205128 , 4131.79487179 , 4136.92307692 , 4133.84615385 , 4133.33333333 , 4133.84615385 , 4137.43589744 , 4140.51282051 , 4138.46153846 , 4083.58974359 , 3402.56410256 , 4136.41025641 , 4131.79487179 , 2051.0 , 2026.0 , 232.717 , 0.0 , 0.0 , 0.0 , 0.0 , 

68.0 , 4137.43589744 , 4161.02564103 , 4131.79487179 , 4135.38461538 , 4131.79487179 , 4134.87179487 , 4129.74358974 , 4135.8974359 , 4138.97435897 , 4140.51282051 , 4082.05128205 , 3400.51282051 , 4133.84615385 , 4133.84615385 , 2051.0 , 2027.0 , 232.724 , 0.0 , 0.0 , 0.0 , 0.0 , 

69.0 , 4133.84615385 , 4194.87179487 , 4128.20512821 , 4131.28205128 , 4131.79487179 , 4134.35897436 , 4130.25641026 , 4135.38461538 , 4135.8974359 , 4144.1025641 , 4085.64102564 , 3397.94871795 , 4131.28205128 , 4127.69230769 , 2053.0 , 2029.0 , 232.731 , 0.0 , 0.0 , 0.0 , 0.0 , 

70.0 , 4129.74358974 , 4202.56410256 , 4130.25641026 , 4133.33333333 , 4134.35897436 , 4131.79487179 , 4131.79487179 , 4137.94871795 , 4137.43589744 , 4152.82051282 , 4086.15384615 , 3400.51282051 , 4133.33333333 , 4126.15384615 , 2052.0 , 2031.0 , 232.74 , 0.0 , 0.0 , 0.0 , 0.0 , 

71.0 , 4122.05128205 , 4300.0 , 4121.02564103 , 4129.74358974 , 4130.76923077 , 4127.69230769 , 4127.17948718 , 4137.94871795 , 4140.51282051 , 4150.25641026 , 4079.48717949 , 3392.82051282 , 4133.84615385 , 4124.1025641 , 2055.0 , 2031.0 , 232.747 , 0.0 , 0.0 , 0.0 , 0.0 , 

72.0 , 4126.66666667 , 4272.30769231 , 4121.02564103 , 4131.28205128 , 4128.71794872 , 4130.76923077 , 4128.71794872 , 4136.41025641 , 4137.94871795 , 4139.48717949 , 4080.0 , 3392.82051282 , 4132.82051282 , 4129.23076923 , 2056.0 , 2031.0 , 232.755 , 0.0 , 0.0 , 0.0 , 0.0 , 

73.0 , 4136.92307692 , 4117.43589744 , 4135.38461538 , 4136.92307692 , 4134.35897436 , 4135.8974359 , 4132.82051282 , 4138.97435897 , 4135.8974359 , 4136.41025641 , 4087.17948718 , 3405.12820513 , 4134.35897436 , 4135.38461538 , 2056.0 , 2031.0 , 232.762 , 0.0 , 0.0 , 0.0 , 0.0 , 

74.0 , 4140.51282051 , 4053.33333333 , 4143.58974359 , 4138.46153846 , 4139.48717949 , 4136.41025641 , 4134.35897436 , 4140.0 , 4139.48717949 , 4142.05128205 , 4088.20512821 , 3413.33333333 , 4135.38461538 , 4137.94871795 , 2057.0 , 2029.0 , 232.772 , 0.0 , 0.0 , 0.0 , 0.0 , 

75.0 , 4136.41025641 , 4112.82051282 , 4138.46153846 , 4137.94871795 , 4135.38461538 , 4133.33333333 , 4135.38461538 , 4137.94871795 , 4140.0 , 4142.56410256 , 4085.12820513 , 3408.71794872 , 4134.87179487 , 4135.8974359 , 2055.0 , 2029.0 , 232.778 , 0.0 , 0.0 , 0.0 , 0.0 , 

76.0 , 4135.8974359 , 4121.02564103 , 4134.35897436 , 4139.48717949 , 4133.33333333 , 4134.87179487 , 4136.41025641 , 4137.94871795 , 4138.97435897 , 4137.43589744 , 4084.61538462 , 3405.64102564 , 4136.41025641 , 4134.87179487 , 2054.0 , 2030.0 , 232.787 , 0.0 , 0.0 , 0.0 , 0.0 , 

77.0 , 4136.41025641 , 4115.8974359 , 4131.79487179 , 4134.87179487 , 4139.48717949 , 4136.92307692 , 4133.33333333 , 4138.46153846 , 4143.07692308 , 4140.51282051 , 4085.12820513 , 3406.15384615 , 4138.97435897 , 4134.35897436 , 2054.0 , 2030.0 , 232.795 , 0.0 , 0.0 , 0.0 , 0.0 , 

78.0 , 4135.8974359 , 4121.02564103 , 4132.82051282 , 4132.30769231 , 4140.0 , 4135.8974359 , 4131.79487179 , 4137.43589744 , 4145.12820513 , 4150.25641026 , 4085.12820513 , 3407.69230769 , 4134.87179487 , 4135.8974359 , 2052.0 , 2032.0 , 232.803 , 0.0 , 0.0 , 0.0 , 0.0 , 

79.0 , 4137.43589744 , 4137.94871795 , 4133.84615385 , 4134.87179487 , 4136.92307692 , 4135.38461538 , 4134.87179487 , 4136.92307692 , 4139.48717949 , 4150.76923077 , 4083.07692308 , 3405.64102564 , 4130.76923077 , 4133.84615385 , 2051.0 , 2032.0 , 232.809 , 0.0 , 0.0 , 0.0 , 0.0 , 

80.0 , 4136.41025641 , 4134.35897436 , 4131.28205128 , 4137.43589744 , 4136.92307692 , 4135.8974359 , 4134.87179487 , 4138.46153846 , 4137.43589744 , 4142.56410256 , 4083.07692308 , 3404.1025641 , 4135.38461538 , 4130.76923077 , 2049.0 , 2034.0 , 232.818 , 0.0 , 0.0 , 0.0 , 0.0 , 

81.0 , 4134.87179487 , 4133.33333333 , 4129.23076923 , 4135.8974359 , 4135.8974359 , 4136.41025641 , 4130.76923077 , 4138.97435897 , 4140.51282051 , 4141.02564103 , 4086.66666667 , 3404.61538462 , 4139.48717949 , 4131.79487179 , 2046.0 , 2039.0 , 232.826 , 0.0 , 0.0 , 0.0 , 0.0 , 

82.0 , 4133.84615385 , 4135.38461538 , 4132.82051282 , 4134.35897436 , 4135.38461538 , 4136.41025641 , 4132.82051282 , 4138.97435897 , 4138.46153846 , 4140.51282051 , 4086.66666667 , 3405.12820513 , 4136.92307692 , 4132.82051282 , 2044.0 , 2041.0 , 232.834 , 0.0 , 0.0 , 0.0 , 0.0 , 

83.0 , 4134.35897436 , 4145.12820513 , 4133.33333333 , 4136.92307692 , 4134.87179487 , 4134.35897436 , 4136.41025641 , 4137.94871795 , 4137.43589744 , 4137.94871795 , 4084.61538462 , 3405.64102564 , 4133.33333333 , 4131.79487179 , 2041.0 , 2045.0 , 232.841 , 0.0 , 0.0 , 0.0 , 0.0 , 

84.0 , 4134.35897436 , 4134.35897436 , 4134.35897436 , 4138.46153846 , 4133.33333333 , 4134.35897436 , 4134.35897436 , 4138.46153846 , 4149.23076923 , 4145.12820513 , 4086.66666667 , 3406.66666667 , 4134.87179487 , 4131.79487179 , 2039.0 , 2047.0 , 232.85 , 0.0 , 0.0 , 0.0 , 0.0 , 

85.0 , 4134.87179487 , 4125.64102564 , 4137.43589744 , 4136.41025641 , 4133.84615385 , 4135.8974359 , 4132.30769231 , 4140.51282051 , 4156.41025641 , 4152.82051282 , 4088.71794872 , 3406.66666667 , 4137.94871795 , 4134.35897436 , 2035.0 , 2048.0 , 232.858 , 0.0 , 0.0 , 0.0 , 0.0 , 

86.0 , 4136.41025641 , 4123.58974359 , 4138.46153846 , 4135.38461538 , 4137.43589744 , 4135.8974359 , 4134.87179487 , 4141.53846154 , 4145.64102564 , 4150.76923077 , 4086.66666667 , 3404.1025641 , 4139.48717949 , 4132.82051282 , 2033.0 , 2047.0 , 232.867 , 0.0 , 0.0 , 0.0 , 0.0 , 

87.0 , 4137.43589744 , 4129.23076923 , 4137.43589744 , 4137.94871795 , 4136.92307692 , 4133.33333333 , 4134.35897436 , 4137.94871795 , 4136.92307692 , 4148.20512821 , 4087.17948718 , 3405.64102564 , 4138.97435897 , 4133.33333333 , 2032.0 , 2047.0 , 232.874 , 0.0 , 0.0 , 0.0 , 0.0 , 

88.0 , 4136.41025641 , 4126.15384615 , 4136.41025641 , 4143.07692308 , 4133.33333333 , 4132.82051282 , 4132.30769231 , 4135.8974359 , 4140.51282051 , 4150.76923077 , 4088.71794872 , 3406.66666667 , 4137.43589744 , 4133.33333333 , 2030.0 , 2046.0 , 232.881 , 0.0 , 0.0 , 0.0 , 0.0 , 

89.0 , 4135.8974359 , 4117.94871795 , 4134.35897436 , 4143.07692308 , 4133.33333333 , 4133.33333333 , 4133.84615385 , 4138.46153846 , 4141.53846154 , 4150.25641026 , 4087.17948718 , 3405.12820513 , 4136.92307692 , 4133.33333333 , 2030.0 , 2047.0 , 232.89 , 0.0 , 0.0 , 0.0 , 0.0 , 

90.0 , 4136.41025641 , 4117.43589744 , 4138.46153846 , 4138.46153846 , 4137.43589744 , 4134.35897436 , 4134.87179487 , 4138.97435897 , 4138.46153846 , 4149.74358974 , 4086.66666667 , 3406.66666667 , 4138.46153846 , 4133.33333333 , 2031.0 , 2048.0 , 232.897 , 0.0 , 0.0 , 0.0 , 0.0 , 

91.0 , 4136.92307692 , 4131.28205128 , 4143.07692308 , 4136.41025641 , 4138.97435897 , 4134.35897436 , 4132.30769231 , 4136.41025641 , 4138.97435897 , 4150.25641026 , 4087.17948718 , 3408.20512821 , 4135.8974359 , 4135.38461538 , 2030.0 , 2046.0 , 232.906 , 0.0 , 0.0 , 0.0 , 0.0 , 

92.0 , 4140.0 , 4113.84615385 , 4140.0 , 4138.46153846 , 4134.35897436 , 4134.87179487 , 4132.82051282 , 4136.92307692 , 4138.97435897 , 4148.20512821 , 4086.15384615 , 3409.23076923 , 4133.33333333 , 4135.38461538 , 2031.0 , 2045.0 , 232.913 , 0.0 , 0.0 , 0.0 , 0.0 , 

93.0 , 4137.43589744 , 4114.35897436 , 4134.87179487 , 4137.94871795 , 4130.76923077 , 4132.82051282 , 4133.84615385 , 4139.48717949 , 4138.46153846 , 4149.23076923 , 4085.12820513 , 3410.25641026 , 4137.43589744 , 4131.28205128 , 2029.0 , 2047.0 , 232.922 , 0.0 , 0.0 , 0.0 , 0.0 , 

94.0 , 4135.38461538 , 4148.20512821 , 4138.46153846 , 4135.38461538 , 4135.8974359 , 4131.28205128 , 4131.79487179 , 4138.46153846 , 4142.56410256 , 4151.28205128 , 4085.64102564 , 3407.17948718 , 4138.46153846 , 4132.30769231 , 2030.0 , 2047.0 , 232.929 , 0.0 , 0.0 , 0.0 , 0.0 , 

95.0 , 4143.58974359 , 4100.51282051 , 4144.61538462 , 4136.41025641 , 4140.51282051 , 4134.87179487 , 4134.35897436 , 4138.46153846 , 4142.56410256 , 4145.12820513 , 4086.66666667 , 3407.69230769 , 4136.92307692 , 4139.48717949 , 2030.0 , 2046.0 , 232.937 , 0.0 , 0.0 , 0.0 , 0.0 , 

96.0 , 4150.25641026 , 3994.87179487 , 4150.76923077 , 4143.07692308 , 4140.0 , 4140.51282051 , 4143.07692308 , 4140.0 , 4140.0 , 4138.46153846 , 4087.17948718 , 3416.41025641 , 4139.48717949 , 4143.58974359 , 2032.0 , 2043.0 , 232.944 , 0.0 , 0.0 , 0.0 , 0.0 , 

97.0 , 4136.92307692 , 4075.38461538 , 4143.07692308 , 4144.1025641 , 4136.41025641 , 4137.43589744 , 4141.02564103 , 4138.46153846 , 4139.48717949 , 4146.66666667 , 4085.64102564 , 3413.33333333 , 4137.94871795 , 4136.92307692 , 2033.0 , 2041.0 , 232.952 , 0.0 , 0.0 , 0.0 , 0.0 , 

98.0 , 4136.41025641 , 4110.25641026 , 4141.53846154 , 4143.07692308 , 4137.94871795 , 4136.92307692 , 4136.92307692 , 4136.92307692 , 4138.97435897 , 4154.87179487 , 4086.66666667 , 3408.71794872 , 4135.38461538 , 4136.41025641 , 2034.0 , 2038.0 , 232.96 , 0.0 , 0.0 , 0.0 , 0.0 , 

99.0 , 4143.58974359 , 4067.69230769 , 4144.1025641 , 4141.02564103 , 4138.97435897 , 4138.97435897 , 4135.8974359 , 4138.97435897 , 4135.8974359 , 4145.12820513 , 4085.64102564 , 3410.76923077 , 4135.8974359 , 4138.97435897 , 2036.0 , 2035.0 , 232.968 , 0.0 , 0.0 , 0.0 , 0.0 , 

100.0 , 4138.46153846 , 4118.46153846 , 4138.97435897 , 4137.43589744 , 4137.43589744 , 4137.43589744 , 4133.33333333 , 4137.94871795 , 4139.48717949 , 4140.51282051 , 4083.07692308 , 3407.17948718 , 4134.35897436 , 4134.35897436 , 2036.0 , 2033.0 , 232.976 , 0.0 , 0.0 , 0.0 , 0.0 , 

101.0 , 4145.12820513 , 4046.66666667 , 4146.66666667 , 4143.07692308 , 4140.51282051 , 4141.02564103 , 4137.94871795 , 4136.41025641 , 4149.74358974 , 4145.12820513 , 4087.17948718 , 3413.33333333 , 4134.35897436 , 4137.94871795 , 2038.0 , 2031.0 , 232.985 , 0.0 , 0.0 , 0.0 , 0.0 , 

102.0 , 4141.02564103 , 4106.66666667 , 4142.05128205 , 4140.0 , 4135.8974359 , 4138.97435897 , 4135.8974359 , 4136.41025641 , 4151.28205128 , 4142.56410256 , 4087.17948718 , 3411.28205128 , 4137.43589744 , 4134.35897436 , 2041.0 , 2029.0 , 232.991 , 0.0 , 0.0 , 0.0 , 0.0 , 

103.0 , 4124.61538462 , 4264.61538462 , 4127.69230769 , 4129.23076923 , 4129.23076923 , 4131.28205128 , 4127.17948718 , 4137.43589744 , 4150.25641026 , 4144.61538462 , 4082.05128205 , 3397.94871795 , 4133.84615385 , 4123.58974359 , 2041.0 , 2030.0 , 232.999 , 0.0 , 0.0 , 0.0 , 0.0 , 

104.0 , 4134.35897436 , 4151.28205128 , 4135.8974359 , 4135.38461538 , 4132.30769231 , 4131.79487179 , 4128.20512821 , 4138.97435897 , 4149.74358974 , 4151.79487179 , 4084.61538462 , 3406.66666667 , 4130.76923077 , 4132.30769231 , 2041.0 , 2029.0 , 233.008 , 0.0 , 0.0 , 0.0 , 0.0 , 

105.0 , 4149.23076923 , 4015.38461538 , 4146.66666667 , 4143.58974359 , 4134.87179487 , 4136.92307692 , 4136.41025641 , 4140.51282051 , 4143.07692308 , 4149.74358974 , 4087.69230769 , 3416.92307692 , 4135.8974359 , 4140.0 , 2041.0 , 2029.0 , 233.015 , 0.0 , 0.0 , 0.0 , 0.0 , 

106.0 , 4132.30769231 , 4172.30769231 , 4132.82051282 , 4135.38461538 , 4131.28205128 , 4131.79487179 , 4134.35897436 , 4138.46153846 , 4135.8974359 , 4149.23076923 , 4084.61538462 , 3401.02564103 , 4136.92307692 , 4130.76923077 , 2040.0 , 2030.0 , 233.024 , 0.0 , 0.0 , 0.0 , 0.0 , 

107.0 , 4132.30769231 , 4166.15384615 , 4133.84615385 , 4135.38461538 , 4135.38461538 , 4130.76923077 , 4134.35897436 , 4137.94871795 , 4137.43589744 , 4150.76923077 , 4086.15384615 , 3400.0 , 4134.35897436 , 4131.79487179 , 2040.0 , 2031.0 , 233.031 , 0.0 , 0.0 , 0.0 , 0.0 , 

108.0 , 4153.84615385 , 3967.17948718 , 4152.30769231 , 4146.15384615 , 4141.02564103 , 4138.97435897 , 4138.97435897 , 4139.48717949 , 4140.51282051 , 4140.0 , 4090.25641026 , 3420.51282051 , 4136.41025641 , 4143.58974359 , 2041.0 , 2030.0 , 233.04 , 0.0 , 0.0 , 0.0 , 0.0 , 

109.0 , 4146.66666667 , 4042.56410256 , 4145.12820513 , 4144.1025641 , 4136.41025641 , 4138.46153846 , 4135.38461538 , 4137.94871795 , 4136.41025641 , 4136.92307692 , 4086.66666667 , 3412.82051282 , 4137.94871795 , 4138.46153846 , 2041.0 , 2030.0 , 233.047 , 0.0 , 0.0 , 0.0 , 0.0 , 

110.0 , 4141.53846154 , 4068.20512821 , 4141.02564103 , 4142.56410256 , 4137.43589744 , 4135.8974359 , 4136.41025641 , 4136.92307692 , 4138.97435897 , 4152.82051282 , 4087.17948718 , 3409.23076923 , 4136.92307692 , 4137.43589744 , 2041.0 , 2032.0 , 233.056 , 0.0 , 0.0 , 0.0 , 0.0 , 

111.0 , 4143.07692308 , 4060.0 , 4141.53846154 , 4140.51282051 , 4139.48717949 , 4135.38461538 , 4137.43589744 , 4136.41025641 , 4142.05128205 , 4152.30769231 , 4087.69230769 , 3412.82051282 , 4136.92307692 , 4136.92307692 , 2044.0 , 2031.0 , 233.063 , 0.0 , 0.0 , 0.0 , 0.0 , 

112.0 , 4144.1025641 , 4066.15384615 , 4142.05128205 , 4138.46153846 , 4136.41025641 , 4137.43589744 , 4135.8974359 , 4138.46153846 , 4140.51282051 , 4137.43589744 , 4086.66666667 , 3411.79487179 , 4137.43589744 , 4133.84615385 , 2045.0 , 2031.0 , 233.071 , 0.0 , 0.0 , 0.0 , 0.0 , 

113.0 , 4142.56410256 , 4088.20512821 , 4139.48717949 , 4141.02564103 , 4133.33333333 , 4135.8974359 , 4134.35897436 , 4141.53846154 , 4140.51282051 , 4137.43589744 , 4087.69230769 , 3407.17948718 , 4137.43589744 , 4134.35897436 , 2048.0 , 2030.0 , 233.078 , 0.0 , 0.0 , 0.0 , 0.0 , 

114.0 , 4142.05128205 , 4082.05128205 , 4137.94871795 , 4140.51282051 , 4134.87179487 , 4134.35897436 , 4135.38461538 , 4140.51282051 , 4142.05128205 , 4142.56410256 , 4088.20512821 , 3409.23076923 , 4138.97435897 , 4135.8974359 , 2051.0 , 2029.0 , 233.087 , 0.0 , 0.0 , 0.0 , 0.0 , 

115.0 , 4139.48717949 , 4093.33333333 , 4137.94871795 , 4134.87179487 , 4136.41025641 , 4134.87179487 , 4134.35897436 , 4135.8974359 , 4141.02564103 , 4140.0 , 4085.12820513 , 3408.20512821 , 4138.46153846 , 4132.30769231 , 2053.0 , 2030.0 , 233.094 , 0.0 , 0.0 , 0.0 , 0.0 , 

116.0 , 4140.51282051 , 4086.15384615 , 4139.48717949 , 4134.87179487 , 4136.92307692 , 4135.8974359 , 4131.28205128 , 4137.94871795 , 4138.97435897 , 4144.61538462 , 4085.64102564 , 3407.69230769 , 4135.8974359 , 4132.82051282 , 2056.0 , 2030.0 , 233.102 , 0.0 , 0.0 , 0.0 , 0.0 , 

117.0 , 4142.05128205 , 4095.8974359 , 4139.48717949 , 4138.46153846 , 4136.41025641 , 4135.38461538 , 4131.28205128 , 4142.56410256 , 4140.51282051 , 4151.79487179 , 4089.23076923 , 3409.23076923 , 4134.87179487 , 4135.38461538 , 2055.0 , 2031.0 , 233.11 , 0.0 , 0.0 , 0.0 , 0.0 , 

118.0 , 4139.48717949 , 4087.17948718 , 4138.97435897 , 4141.02564103 , 4136.92307692 , 4137.94871795 , 4133.84615385 , 4139.48717949 , 4140.51282051 , 4150.76923077 , 4088.20512821 , 3411.28205128 , 4135.8974359 , 4136.41025641 , 2060.0 , 2030.0 , 233.118 , 0.0 , 0.0 , 0.0 , 0.0 , 

119.0 , 4137.94871795 , 4086.66666667 , 4137.94871795 , 4140.51282051 , 4136.41025641 , 4139.48717949 , 4134.87179487 , 4135.38461538 , 4138.97435897 , 4149.23076923 , 4086.15384615 , 3410.25641026 , 4137.43589744 , 4136.41025641 , 2059.0 , 2030.0 , 233.126 , 0.0 , 0.0 , 0.0 , 0.0 , 

120.0 , 4141.02564103 , 4067.17948718 , 4141.02564103 , 4140.0 , 4135.8974359 , 4137.43589744 , 4135.8974359 , 4138.46153846 , 4140.51282051 , 4150.76923077 , 4087.69230769 , 3411.79487179 , 4137.43589744 , 4136.92307692 , 2060.0 , 2029.0 , 233.135 , 0.0 , 0.0 , 0.0 , 0.0 , 

121.0 , 4141.53846154 , 4068.20512821 , 4142.56410256 , 4139.48717949 , 4136.92307692 , 4133.84615385 , 4136.41025641 , 4139.48717949 , 4140.0 , 4148.71794872 , 4089.23076923 , 3412.30769231 , 4136.41025641 , 4135.38461538 , 2059.0 , 2031.0 , 233.141 , 0.0 , 0.0 , 0.0 , 0.0 , 

122.0 , 4140.0 , 4065.12820513 , 4141.02564103 , 4139.48717949 , 4138.97435897 , 4135.38461538 , 4138.46153846 , 4137.43589744 , 4139.48717949 , 4149.23076923 , 4086.66666667 , 3410.25641026 , 4136.41025641 , 4136.41025641 , 2057.0 , 2034.0 , 233.149 , 0.0 , 0.0 , 0.0 , 0.0 , 

123.0 , 4142.56410256 , 4054.35897436 , 4141.02564103 , 4139.48717949 , 4136.92307692 , 4138.97435897 , 4140.0 , 4138.97435897 , 4142.05128205 , 4152.30769231 , 4084.61538462 , 3411.28205128 , 4138.46153846 , 4139.48717949 , 2056.0 , 2038.0 , 233.157 , 0.0 , 0.0 , 0.0 , 0.0 , 

124.0 , 4147.17948718 , 4041.02564103 , 4143.58974359 , 4141.02564103 , 4134.35897436 , 4140.51282051 , 4138.46153846 , 4141.53846154 , 4144.61538462 , 4146.15384615 , 4087.17948718 , 3414.87179487 , 4139.48717949 , 4138.46153846 , 2056.0 , 2040.0 , 233.165 , 0.0 , 0.0 , 0.0 , 0.0 , 

125.0 , 4146.66666667 , 4030.76923077 , 4145.64102564 , 4141.02564103 , 4135.38461538 , 4137.94871795 , 4137.43589744 , 4140.0 , 4142.05128205 , 4136.41025641 , 4088.20512821 , 3414.87179487 , 4137.94871795 , 4139.48717949 , 2053.0 , 2044.0 , 233.174 , 0.0 , 0.0 , 0.0 , 0.0 , 

126.0 , 4143.07692308 , 4036.92307692 , 4145.64102564 , 4140.0 , 4137.94871795 , 4137.43589744 , 4136.92307692 , 4137.94871795 , 4140.0 , 4140.0 , 4087.17948718 , 3411.79487179 , 4137.94871795 , 4141.53846154 , 2052.0 , 2046.0 , 233.181 , 0.0 , 0.0 , 0.0 , 0.0 , 

127.0 , 4144.61538462 , 4016.92307692 , 4147.17948718 , 4142.56410256 , 4138.46153846 , 4140.0 , 4136.41025641 , 4141.02564103 , 4139.48717949 , 4151.79487179 , 4089.74358974 , 3414.87179487 , 4139.48717949 , 4143.58974359 , 2050.0 , 2047.0 , 233.19 , 0.0 , 0.0 , 0.0 , 0.0 , 

128.0 , 4146.15384615 , 4013.84615385 , 4147.17948718 , 4143.58974359 , 4137.43589744 , 4139.48717949 , 4137.94871795 , 4143.58974359 , 4138.97435897 , 4151.28205128 , 4089.23076923 , 3414.87179487 , 4136.92307692 , 4140.51282051 , 2049.0 , 2049.0 , 233.196 , 0.0 , 0.0 , 0.0 , 0.0 , 

0.0 , 4148.71794872 , 3990.76923077 , 4148.71794872 , 4142.05128205 , 4138.46153846 , 4138.97435897 , 4142.05128205 , 4144.1025641 , 4141.02564103 , 4147.69230769 , 4088.71794872 , 3416.92307692 , 4135.8974359 , 4140.51282051 , 2048.0 , 2048.0 , 233.204 , 0.0 , 0.0 , 0.0 , 0.0 , 

1.0 , 4148.71794872 , 3996.92307692 , 4146.15384615 , 4141.02564103 , 4140.0 , 4140.51282051 , 4140.51282051 , 4143.07692308 , 4143.07692308 , 4150.76923077 , 4089.23076923 , 3417.43589744 , 4137.43589744 , 4140.0 , 2047.0 , 2049.0 , 233.212 , 0.0 , 0.0 , 0.0 , 0.0 , 

2.0 , 4153.84615385 , 3962.56410256 , 4149.23076923 , 4142.56410256 , 4141.02564103 , 4141.02564103 , 4139.48717949 , 4145.64102564 , 4140.0 , 4150.76923077 , 4090.76923077 , 3422.56410256 , 4138.97435897 , 4143.58974359 , 2046.0 , 2050.0 , 233.22 , 0.0 , 0.0 , 0.0 , 0.0 , 

3.0 , 4153.84615385 , 3969.23076923 , 4150.25641026 , 4141.02564103 , 4138.46153846 , 4141.02564103 , 4139.48717949 , 4144.1025641 , 4135.8974359 , 4148.71794872 , 4088.71794872 , 3421.53846154 , 4138.46153846 , 4142.05128205 , 2043.0 , 2051.0 , 233.228 , 0.0 , 0.0 , 0.0 , 0.0 , 

4.0 , 4152.30769231 , 3951.28205128 , 4154.87179487 , 4144.61538462 , 4137.94871795 , 4143.07692308 , 4138.97435897 , 4140.0 , 4142.56410256 , 4149.23076923 , 4087.17948718 , 3422.56410256 , 4137.94871795 , 4143.07692308 , 2040.0 , 2053.0 , 233.236 , 0.0 , 0.0 , 0.0 , 0.0 , 

5.0 , 4150.25641026 , 3973.33333333 , 4155.38461538 , 4145.64102564 , 4137.43589744 , 4140.51282051 , 4138.46153846 , 4142.05128205 , 4149.74358974 , 4149.23076923 , 4087.69230769 , 3421.02564103 , 4136.92307692 , 4142.05128205 , 2038.0 , 2054.0 , 233.244 , 0.0 , 0.0 , 0.0 , 0.0 , 

6.0 , 4154.87179487 , 3955.8974359 , 4155.38461538 , 4147.17948718 , 4137.94871795 , 4140.0 , 4143.58974359 , 4144.61538462 , 4144.1025641 , 4149.23076923 , 4090.25641026 , 3422.56410256 , 4137.94871795 , 4144.1025641 , 2035.0 , 2054.0 , 233.252 , 0.0 , 0.0 , 0.0 , 0.0 , 

7.0 , 4155.38461538 , 3962.56410256 , 4153.33333333 , 4147.69230769 , 4140.0 , 4142.56410256 , 4142.56410256 , 4142.05128205 , 4136.92307692 , 4149.23076923 , 4089.23076923 , 3421.53846154 , 4139.48717949 , 4146.15384615 , 2031.0 , 2055.0 , 233.26 , 0.0 , 0.0 , 0.0 , 0.0 , 

8.0 , 4152.82051282 , 3946.66666667 , 4158.46153846 , 4149.23076923 , 4139.48717949 , 4142.56410256 , 4140.51282051 , 4141.53846154 , 4140.0 , 4149.23076923 , 4088.71794872 , 3422.56410256 , 4139.48717949 , 4146.15384615 , 2030.0 , 2054.0 , 233.267 , 0.0 , 0.0 , 0.0 , 0.0 , 

9.0 , 4152.30769231 , 3967.17948718 , 4160.0 , 4148.20512821 , 4138.46153846 , 4140.0 , 4143.58974359 , 4143.58974359 , 4141.53846154 , 4149.23076923 , 4089.74358974 , 3421.53846154 , 4138.46153846 , 4143.58974359 , 2030.0 , 2052.0 , 233.275 , 0.0 , 0.0 , 0.0 , 0.0 , 

10.0 , 4156.41025641 , 3960.0 , 4157.43589744 , 4148.20512821 , 4141.02564103 , 4142.56410256 , 4146.15384615 , 4143.07692308 , 4138.46153846 , 4149.74358974 , 4090.25641026 , 3421.53846154 , 4137.94871795 , 4143.58974359 , 2028.0 , 2050.0 , 233.283 , 0.0 , 0.0 , 0.0 , 0.0 , 

11.0 , 4155.38461538 , 3973.84615385 , 4155.38461538 , 4147.17948718 , 4138.46153846 , 4142.56410256 , 4143.07692308 , 4142.05128205 , 4140.51282051 , 4148.71794872 , 4089.23076923 , 3421.53846154 , 4138.97435897 , 4144.61538462 , 2031.0 , 2047.0 , 233.291 , 0.0 , 0.0 , 0.0 , 0.0 , 

12.0 , 4154.87179487 , 3978.97435897 , 4156.92307692 , 4146.66666667 , 4134.87179487 , 4140.51282051 , 4140.51282051 , 4143.07692308 , 4145.12820513 , 4149.74358974 , 4089.23076923 , 3421.53846154 , 4140.51282051 , 4145.12820513 , 2033.0 , 2041.0 , 233.298 , 0.0 , 0.0 , 0.0 , 0.0 , 

13.0 , 4156.41025641 , 4002.56410256 , 4155.8974359 , 4147.17948718 , 4136.92307692 , 4140.51282051 , 4141.02564103 , 4141.53846154 , 4144.61538462 , 4150.25641026 , 4089.74358974 , 3420.51282051 , 4138.97435897 , 4144.61538462 , 2036.0 , 2041.0 , 233.307 , 0.0 , 0.0 , 0.0 , 0.0 , 

14.0 , 4153.33333333 , 4035.8974359 , 4154.87179487 , 4147.69230769 , 4138.97435897 , 4139.48717949 , 4142.56410256 , 4140.51282051 , 4141.02564103 , 4147.17948718 , 4088.71794872 , 3417.43589744 , 4135.38461538 , 4140.0 , 2041.0 , 2040.0 , 233.314 , 0.0 , 0.0 , 0.0 , 0.0 , 

15.0 , 4150.25641026 , 4049.23076923 , 4154.87179487 , 4147.17948718 , 4136.41025641 , 4138.97435897 , 4140.51282051 , 4142.05128205 , 4138.97435897 , 4145.64102564 , 4088.71794872 , 3415.8974359 , 4137.43589744 , 4139.48717949 , 2042.0 , 2038.0 , 233.323 , 0.0 , 0.0 , 0.0 , 0.0 , 

16.0 , 4147.69230769 , 4063.07692308 , 4149.74358974 , 4145.64102564 , 4137.43589744 , 4140.51282051 , 4137.43589744 , 4141.02564103 , 4139.48717949 , 4148.20512821 , 4086.66666667 , 3412.82051282 , 4138.97435897 , 4137.94871795 , 2042.0 , 2038.0 , 233.33 , 0.0 , 0.0 , 0.0 , 0.0 , 

17.0 , 4147.17948718 , 4082.05128205 , 4145.12820513 , 4144.61538462 , 4138.97435897 , 4140.0 , 4135.38461538 , 4140.51282051 , 4140.51282051 , 4147.17948718 , 4086.15384615 , 3413.84615385 , 4137.94871795 , 4136.92307692 , 2042.0 , 2037.0 , 233.339 , 0.0 , 0.0 , 0.0 , 0.0 , 

18.0 , 4146.15384615 , 4123.58974359 , 4144.61538462 , 4141.53846154 , 4136.41025641 , 4137.43589744 , 4133.33333333 , 4141.02564103 , 4138.46153846 , 4140.0 , 4084.61538462 , 3409.74358974 , 4138.97435897 , 4134.35897436 , 2041.0 , 2038.0 , 233.345 , 0.0 , 0.0 , 0.0 , 0.0 , 

19.0 , 4147.17948718 , 4116.41025641 , 4146.66666667 , 4142.05128205 , 4136.41025641 , 4136.92307692 , 4134.35897436 , 4139.48717949 , 4138.46153846 , 4138.97435897 , 4084.1025641 , 3410.25641026 , 4141.02564103 , 4135.38461538 , 2043.0 , 2040.0 , 233.355 , 0.0 , 0.0 , 0.0 , 0.0 , 

20.0 , 4140.51282051 , 4144.1025641 , 4143.07692308 , 4142.56410256 , 4137.43589744 , 4135.8974359 , 4134.87179487 , 4138.46153846 , 4143.07692308 , 4138.97435897 , 4085.64102564 , 3408.20512821 , 4137.43589744 , 4134.35897436 , 2043.0 , 2041.0 , 233.362 , 0.0 , 0.0 , 0.0 , 0.0 , 

21.0 , 4138.97435897 , 4150.25641026 , 4142.56410256 , 4143.07692308 , 4134.87179487 , 4137.94871795 , 4134.87179487 , 4143.07692308 , 4141.53846154 , 4135.8974359 , 4085.64102564 , 3409.23076923 , 4135.38461538 , 4135.8974359 , 2043.0 , 2039.0 , 233.37 , 0.0 , 0.0 , 0.0 , 0.0 , 

22.0 , 4136.92307692 , 4180.51282051 , 4138.46153846 , 4138.46153846 , 4133.33333333 , 4137.43589744 , 4131.28205128 , 4140.51282051 , 4135.8974359 , 4142.05128205 , 4082.05128205 , 3403.07692308 , 4137.94871795 , 4132.82051282 , 2043.0 , 2037.0 , 233.378 , 0.0 , 0.0 , 0.0 , 0.0 , 

23.0 , 4135.8974359 , 4167.17948718 , 4140.51282051 , 4137.94871795 , 4136.41025641 , 4135.8974359 , 4132.82051282 , 4136.92307692 , 4137.94871795 , 4152.30769231 , 4082.05128205 , 3403.07692308 , 4136.92307692 , 4129.74358974 , 2041.0 , 2031.0 , 233.386 , 0.0 , 0.0 , 0.0 , 0.0 , 

24.0 , 4134.87179487 , 4185.12820513 , 4140.51282051 , 4135.8974359 , 4135.38461538 , 4135.38461538 , 4134.35897436 , 4135.8974359 , 4139.48717949 , 4150.25641026 , 4084.61538462 , 3404.61538462 , 4134.35897436 , 4128.71794872 , 2044.0 , 2031.0 , 233.393 , 0.0 , 0.0 , 0.0 , 0.0 , 

25.0 , 4136.41025641 , 4176.92307692 , 4139.48717949 , 4135.38461538 , 4132.30769231 , 4136.92307692 , 4135.38461538 , 4135.38461538 , 4140.0 , 4148.20512821 , 4085.64102564 , 3403.07692308 , 4136.41025641 , 4129.23076923 , 2045.0 , 2030.0 , 233.401 , 0.0 , 0.0 , 0.0 , 0.0 , 

26.0 , 4134.87179487 , 4190.76923077 , 4137.43589744 , 4138.97435897 , 4132.30769231 , 4135.8974359 , 4132.30769231 , 4136.41025641 , 4141.53846154 , 4151.79487179 , 4084.61538462 , 3399.48717949 , 4137.94871795 , 4131.28205128 , 2052.0 , 2025.0 , 233.409 , 0.0 , 0.0 , 0.0 , 0.0 , 

27.0 , 4135.8974359 , 4192.30769231 , 4135.8974359 , 4137.94871795 , 4133.33333333 , 4135.38461538 , 4130.76923077 , 4137.94871795 , 4140.51282051 , 4144.1025641 , 4084.1025641 , 3400.0 , 4136.41025641 , 4131.79487179 , 2057.0 , 2024.0 , 233.419 , 0.0 , 0.0 , 0.0 , 0.0 , 

28.0 , 4134.35897436 , 4216.41025641 , 4133.84615385 , 4130.76923077 , 4132.82051282 , 4132.82051282 , 4130.76923077 , 4136.41025641 , 4142.05128205 , 4137.43589744 , 4084.61538462 , 3400.51282051 , 4136.41025641 , 4127.69230769 , 2062.0 , 2025.0 , 233.424 , 0.0 , 0.0 , 0.0 , 0.0 , 

29.0 , 4133.33333333 , 4208.20512821 , 4134.35897436 , 4131.79487179 , 4131.28205128 , 4132.30769231 , 4131.28205128 , 4137.94871795 , 4144.61538462 , 4148.20512821 , 4084.1025641 , 3398.46153846 , 4137.94871795 , 4124.61538462 , 2064.0 , 2026.0 , 233.433 , 0.0 , 0.0 , 0.0 , 0.0 , 

30.0 , 4133.84615385 , 4220.51282051 , 4131.79487179 , 4135.8974359 , 4128.71794872 , 4132.82051282 , 4129.23076923 , 4140.51282051 , 4140.51282051 , 4155.38461538 , 4084.1025641 , 3395.8974359 , 4138.46153846 , 4124.1025641 , 2067.0 , 2031.0 , 233.44 , 0.0 , 0.0 , 0.0 , 0.0 , 

31.0 , 4128.20512821 , 4244.1025641 , 4127.69230769 , 4133.33333333 , 4128.20512821 , 4132.30769231 , 4128.71794872 , 4137.43589744 , 4137.43589744 , 4144.61538462 , 4085.12820513 , 3392.30769231 , 4136.92307692 , 4123.58974359 , 2069.0 , 2035.0 , 233.448 , 0.0 , 0.0 , 0.0 , 0.0 , 

32.0 , 4125.12820513 , 4227.69230769 , 4130.76923077 , 4131.79487179 , 4129.74358974 , 4131.28205128 , 4130.76923077 , 4134.87179487 , 4143.07692308 , 4137.94871795 , 4084.61538462 , 3391.79487179 , 4133.84615385 , 4125.64102564 , 2068.0 , 2038.0 , 233.457 , 0.0 , 0.0 , 0.0 , 0.0 , 

33.0 , 4123.07692308 , 4263.07692308 , 4127.69230769 , 4131.28205128 , 4130.76923077 , 4131.79487179 , 4130.25641026 , 4136.92307692 , 4144.61538462 , 4145.12820513 , 4081.02564103 , 3389.23076923 , 4133.33333333 , 4126.15384615 , 2069.0 , 2044.0 , 233.463 , 0.0 , 0.0 , 0.0 , 0.0 , 

34.0 , 4106.66666667 , 4398.97435897 , 4107.17948718 , 4123.07692308 , 4128.71794872 , 4127.17948718 , 4122.05128205 , 4135.38461538 , 4138.46153846 , 4153.33333333 , 4078.46153846 , 3373.84615385 , 4133.33333333 , 4114.87179487 , 2068.0 , 2046.0 , 233.473 , 0.0 , 0.0 , 0.0 , 0.0 , 

35.0 , 4122.56410256 , 4255.8974359 , 4122.05128205 , 4130.25641026 , 4133.84615385 , 4132.30769231 , 4126.15384615 , 4134.35897436 , 4138.97435897 , 4150.76923077 , 4082.56410256 , 3388.20512821 , 4135.38461538 , 4123.07692308 , 2065.0 , 2047.0 , 233.479 , 0.0 , 0.0 , 0.0 , 0.0 , 

36.0 , 4118.97435897 , 4360.51282051 , 4117.43589744 , 4126.66666667 , 4129.74358974 , 4128.71794872 , 4122.05128205 , 4130.25641026 , 4140.51282051 , 4145.12820513 , 4078.46153846 , 3385.12820513 , 4133.84615385 , 4122.56410256 , 2063.0 , 2047.0 , 233.489 , 0.0 , 0.0 , 0.0 , 0.0 , 

37.0 , 4082.05128205 , 4650.25641026 , 4082.05128205 , 4109.74358974 , 4116.92307692 , 4115.8974359 , 4109.23076923 , 4127.17948718 , 4137.94871795 , 4147.69230769 , 4071.79487179 , 3351.28205128 , 4125.64102564 , 4101.53846154 , 2059.0 , 2046.0 , 233.495 , 0.0 , 0.0 , 0.0 , 0.0 , 

38.0 , 4066.66666667 , 4740.51282051 , 4064.61538462 , 4099.48717949 , 4115.38461538 , 4110.76923077 , 4103.58974359 , 4129.23076923 , 4138.46153846 , 4150.25641026 , 4072.82051282 , 3335.38461538 , 4117.94871795 , 4089.74358974 , 2059.0 , 2045.0 , 233.505 , 0.0 , 0.0 , 0.0 , 0.0 , 

39.0 , 4088.71794872 , 4653.33333333 , 4082.05128205 , 4106.66666667 , 4122.05128205 , 4118.97435897 , 4110.25641026 , 4130.25641026 , 4141.02564103 , 4149.23076923 , 4076.41025641 , 3353.84615385 , 4124.61538462 , 4103.58974359 , 2057.0 , 2045.0 , 233.513 , 0.0 , 0.0 , 0.0 , 0.0 , 

40.0 , 4115.38461538 , 4401.02564103 , 4111.28205128 , 4123.58974359 , 4127.17948718 , 4130.76923077 , 4124.1025641 , 4132.30769231 , 4142.05128205 , 4148.20512821 , 4078.97435897 , 3385.12820513 , 4135.38461538 , 4126.66666667 , 2055.0 , 2045.0 , 233.522 , 0.0 , 0.0 , 0.0 , 0.0 , 

41.0 , 4142.56410256 , 4034.35897436 , 4141.53846154 , 4141.53846154 , 4134.35897436 , 4140.0 , 4138.97435897 , 4138.97435897 , 4142.05128205 , 4148.71794872 , 4086.66666667 , 3410.25641026 , 4137.43589744 , 4142.56410256 , 2053.0 , 2044.0 , 233.529 , 0.0 , 0.0 , 0.0 , 0.0 , 

42.0 , 4153.84615385 , 3953.84615385 , 4153.33333333 , 4146.66666667 , 4137.94871795 , 4140.0 , 4141.53846154 , 4144.1025641 , 4142.56410256 , 4149.74358974 , 4089.74358974 , 3415.38461538 , 4135.8974359 , 4143.58974359 , 2051.0 , 2042.0 , 233.536 , 0.0 , 0.0 , 0.0 , 0.0 , 

43.0 , 4140.51282051 , 4145.64102564 , 4138.46153846 , 4139.48717949 , 4132.30769231 , 4134.87179487 , 4133.84615385 , 4141.02564103 , 4142.05128205 , 4150.25641026 , 4085.64102564 , 3403.58974359 , 4136.92307692 , 4134.87179487 , 2050.0 , 2041.0 , 233.543 , 0.0 , 0.0 , 0.0 , 0.0 , 

44.0 , 4142.56410256 , 4075.8974359 , 4140.51282051 , 4141.53846154 , 4132.82051282 , 4138.97435897 , 4136.92307692 , 4137.94871795 , 4139.48717949 , 4150.76923077 , 4086.15384615 , 3410.76923077 , 4138.97435897 , 4139.48717949 , 2049.0 , 2041.0 , 233.552 , 0.0 , 0.0 , 0.0 , 0.0 , 

45.0 , 4143.58974359 , 4061.02564103 , 4144.1025641 , 4141.02564103 , 4135.38461538 , 4139.48717949 , 4138.46153846 , 4137.94871795 , 4143.07692308 , 4148.71794872 , 4086.66666667 , 3411.79487179 , 4136.92307692 , 4142.05128205 , 2046.0 , 2040.0 , 233.559 , 0.0 , 0.0 , 0.0 , 0.0 , 

46.0 , 4135.8974359 , 4148.71794872 , 4138.46153846 , 4137.94871795 , 4132.82051282 , 4136.41025641 , 4137.43589744 , 4137.43589744 , 4151.28205128 , 4148.71794872 , 4084.1025641 , 3402.56410256 , 4135.8974359 , 4135.8974359 , 2045.0 , 2040.0 , 233.569 , 0.0 , 0.0 , 0.0 , 0.0 , 

47.0 , 4140.0 , 4125.12820513 , 4138.97435897 , 4140.0 , 4132.30769231 , 4135.8974359 , 4138.97435897 , 4136.92307692 , 4148.20512821 , 4150.25641026 , 4085.12820513 , 3405.12820513 , 4136.41025641 , 4135.8974359 , 2044.0 , 2040.0 , 233.575 , 0.0 , 0.0 , 0.0 , 0.0 , 

48.0 , 4137.94871795 , 4128.20512821 , 4137.94871795 , 4142.05128205 , 4133.33333333 , 4135.38461538 , 4135.38461538 , 4136.92307692 , 4137.43589744 , 4147.69230769 , 4083.07692308 , 3405.12820513 , 4136.92307692 , 4132.82051282 , 2042.0 , 2041.0 , 233.583 , 0.0 , 0.0 , 0.0 , 0.0 , 

49.0 , 4133.84615385 , 4147.17948718 , 4136.41025641 , 4139.48717949 , 4133.84615385 , 4137.43589744 , 4132.82051282 , 4136.92307692 , 4134.35897436 , 4137.94871795 , 4081.53846154 , 3405.64102564 , 4136.92307692 , 4131.28205128 , 2039.0 , 2040.0 , 233.592 , 0.0 , 0.0 , 0.0 , 0.0 , 

50.0 , 4134.35897436 , 4137.43589744 , 4134.87179487 , 4135.8974359 , 4134.87179487 , 4137.94871795 , 4136.41025641 , 4136.92307692 , 4138.97435897 , 4135.8974359 , 4083.07692308 , 3408.20512821 , 4136.92307692 , 4132.30769231 , 2038.0 , 2041.0 , 233.598 , 0.0 , 0.0 , 0.0 , 0.0 , 

51.0 , 4135.8974359 , 4141.02564103 , 4134.87179487 , 4135.8974359 , 4133.33333333 , 4133.33333333 , 4134.87179487 , 4136.92307692 , 4144.1025641 , 4145.64102564 , 4084.1025641 , 3405.64102564 , 4136.92307692 , 4131.79487179 , 2036.0 , 2041.0 , 233.607 , 0.0 , 0.0 , 0.0 , 0.0 , 

52.0 , 4136.41025641 , 4127.17948718 , 4137.94871795 , 4137.94871795 , 4133.33333333 , 4132.30769231 , 4131.79487179 , 4136.92307692 , 4145.12820513 , 4152.30769231 , 4086.66666667 , 3405.64102564 , 4136.92307692 , 4132.82051282 , 2034.0 , 2039.0 , 233.614 , 0.0 , 0.0 , 0.0 , 0.0 , 

53.0 , 4131.79487179 , 4149.23076923 , 4136.92307692 , 4135.8974359 , 4134.87179487 , 4134.87179487 , 4129.74358974 , 4135.38461538 , 4142.56410256 , 4151.28205128 , 4087.69230769 , 3403.58974359 , 4136.92307692 , 4133.33333333 , 2032.0 , 2040.0 , 233.624 , 0.0 , 0.0 , 0.0 , 0.0 , 

54.0 , 4136.92307692 , 4130.76923077 , 4138.97435897 , 4136.41025641 , 4135.38461538 , 4137.94871795 , 4131.79487179 , 4135.8974359 , 4143.07692308 , 4144.61538462 , 4087.17948718 , 3403.58974359 , 4136.92307692 , 4131.79487179 , 2032.0 , 2039.0 , 233.63 , 0.0 , 0.0 , 0.0 , 0.0 , 

55.0 , 4141.53846154 , 4110.25641026 , 4140.51282051 , 4138.46153846 , 4133.84615385 , 4138.46153846 , 4134.87179487 , 4137.43589744 , 4145.12820513 , 4139.48717949 , 4088.20512821 , 3407.69230769 , 4136.92307692 , 4131.28205128 , 2032.0 , 2038.0 , 233.639 , 0.0 , 0.0 , 0.0 , 0.0 , 

56.0 , 4131.79487179 , 4170.76923077 , 4133.84615385 , 4135.38461538 , 4133.33333333 , 4133.84615385 , 4133.84615385 , 4137.94871795 , 4141.53846154 , 4137.94871795 , 4083.07692308 , 3403.58974359 , 4136.92307692 , 4129.74358974 , 2032.0 , 2038.0 , 233.646 , 0.0 , 0.0 , 0.0 , 0.0 , 

57.0 , 4129.23076923 , 4192.30769231 , 4131.79487179 , 4135.38461538 , 4136.41025641 , 4131.79487179 , 4131.28205128 , 4140.0 , 4142.05128205 , 4138.97435897 , 4080.0 , 3402.56410256 , 4136.92307692 , 4130.76923077 , 2034.0 , 2037.0 , 233.655 , 0.0 , 0.0 , 0.0 , 0.0 , 

58.0 , 4137.43589744 , 4161.53846154 , 4136.92307692 , 4138.46153846 , 4135.8974359 , 4133.84615385 , 4130.25641026 , 4142.56410256 , 4143.58974359 , 4144.1025641 , 4086.15384615 , 3406.66666667 , 4136.41025641 , 4133.84615385 , 2035.0 , 2035.0 , 233.662 , 0.0 , 0.0 , 0.0 , 0.0 , 

59.0 , 4138.46153846 , 4142.05128205 , 4139.48717949 , 4138.46153846 , 4134.87179487 , 4134.87179487 , 4135.38461538 , 4140.0 , 4140.0 , 4153.33333333 , 4088.71794872 , 3408.71794872 , 4136.92307692 , 4133.84615385 , 2037.0 , 2035.0 , 233.67 , 0.0 , 0.0 , 0.0 , 0.0 , 

60.0 , 4135.8974359 , 4186.66666667 , 4134.35897436 , 4134.35897436 , 4133.84615385 , 4131.79487179 , 4136.92307692 , 4133.84615385 , 4138.97435897 , 4148.71794872 , 4082.05128205 , 3404.61538462 , 4137.43589744 , 4130.25641026 , 2038.0 , 2034.0 , 233.677 , 0.0 , 0.0 , 0.0 , 0.0 , 

61.0 , 4137.43589744 , 4172.82051282 , 4135.38461538 , 4135.8974359 , 4133.84615385 , 4132.30769231 , 4134.35897436 , 4134.35897436 , 4138.97435897 , 4134.87179487 , 4084.61538462 , 3407.17948718 , 4136.92307692 , 4132.30769231 , 2038.0 , 2034.0 , 233.685 , 0.0 , 0.0 , 0.0 , 0.0 , 

62.0 , 4131.79487179 , 4175.8974359 , 4136.92307692 , 4136.41025641 , 4134.87179487 , 4131.79487179 , 4132.30769231 , 4137.43589744 , 4140.0 , 4142.05128205 , 4089.23076923 , 3407.17948718 , 4137.43589744 , 4133.33333333 , 2039.0 , 2033.0 , 233.693 , 0.0 , 0.0 , 0.0 , 0.0 , 

63.0 , 4133.84615385 , 4171.79487179 , 4138.97435897 , 4134.35897436 , 4134.35897436 , 4132.30769231 , 4133.33333333 , 4135.8974359 , 4140.51282051 , 4154.87179487 , 4086.15384615 , 3405.64102564 , 4138.97435897 , 4132.82051282 , 2040.0 , 2035.0 , 233.702 , 0.0 , 0.0 , 0.0 , 0.0 , 

64.0 , 4139.48717949 , 4169.23076923 , 4137.94871795 , 4133.84615385 , 4131.79487179 , 4134.35897436 , 4129.74358974 , 4133.84615385 , 4138.97435897 , 4149.74358974 , 4084.61538462 , 3407.17948718 , 4137.94871795 , 4134.35897436 , 2042.0 , 2033.0 , 233.709 , 0.0 , 0.0 , 0.0 , 0.0 , 

65.0 , 4134.87179487 , 4168.20512821 , 4135.38461538 , 4135.8974359 , 4131.28205128 , 4133.33333333 , 4127.69230769 , 4136.41025641 , 4137.94871795 , 4147.17948718 , 4086.66666667 , 3407.69230769 , 4135.38461538 , 4133.33333333 , 2044.0 , 2035.0 , 233.717 , 0.0 , 0.0 , 0.0 , 0.0 , 

66.0 , 4133.84615385 , 4178.46153846 , 4134.35897436 , 4135.38461538 , 4132.30769231 , 4132.30769231 , 4130.25641026 , 4138.46153846 , 4138.46153846 , 4152.30769231 , 4087.17948718 , 3406.15384615 , 4136.41025641 , 4131.79487179 , 2043.0 , 2033.0 , 233.725 , 0.0 , 0.0 , 0.0 , 0.0 , 

67.0 , 4137.43589744 , 4158.97435897 , 4135.38461538 , 4136.92307692 , 4131.79487179 , 4134.35897436 , 4130.25641026 , 4138.97435897 , 4140.0 , 4142.56410256 , 4086.15384615 , 3404.1025641 , 4137.43589744 , 4132.82051282 , 2042.0 , 2031.0 , 233.731 , 0.0 , 0.0 , 0.0 , 0.0 , 

68.0 , 4132.82051282 , 4171.28205128 , 4132.30769231 , 4135.8974359 , 4132.30769231 , 4134.35897436 , 4129.23076923 , 4137.94871795 , 4140.0 , 4134.35897436 , 4082.05128205 , 3402.05128205 , 4136.92307692 , 4132.82051282 , 2043.0 , 2031.0 , 233.74 , 0.0 , 0.0 , 0.0 , 0.0 , 

69.0 , 4129.74358974 , 4172.30769231 , 4132.82051282 , 4134.87179487 , 4135.38461538 , 4135.8974359 , 4132.82051282 , 4141.53846154 , 4137.94871795 , 4147.69230769 , 4081.02564103 , 3404.61538462 , 4136.92307692 , 4132.82051282 , 2042.0 , 2031.0 , 233.747 , 0.0 , 0.0 , 0.0 , 0.0 , 

70.0 , 4131.28205128 , 4178.97435897 , 4134.87179487 , 4134.87179487 , 4134.87179487 , 4135.38461538 , 4133.33333333 , 4143.07692308 , 4137.94871795 , 4153.33333333 , 4085.12820513 , 3408.20512821 , 4136.92307692 , 4133.33333333 , 2043.0 , 2031.0 , 233.757 , 0.0 , 0.0 , 0.0 , 0.0 , 

71.0 , 4133.84615385 , 4173.33333333 , 4135.38461538 , 4134.35897436 , 4134.35897436 , 4133.33333333 , 4134.35897436 , 4137.43589744 , 4142.05128205 , 4147.69230769 , 4084.61538462 , 3406.66666667 , 4135.8974359 , 4133.84615385 , 2042.0 , 2034.0 , 233.764 , 0.0 , 0.0 , 0.0 , 0.0 , 

72.0 , 4131.79487179 , 4180.51282051 , 4133.33333333 , 4131.79487179 , 4136.92307692 , 4134.35897436 , 4136.41025641 , 4134.87179487 , 4142.56410256 , 4151.28205128 , 4082.05128205 , 3404.61538462 , 4136.41025641 , 4134.35897436 , 2043.0 , 2036.0 , 233.773 , 0.0 , 0.0 , 0.0 , 0.0 , 

73.0 , 4131.28205128 , 4182.05128205 , 4135.38461538 , 4132.82051282 , 4136.92307692 , 4135.38461538 , 4136.41025641 , 4140.0 , 4138.46153846 , 4148.20512821 , 4083.07692308 , 3404.61538462 , 4137.94871795 , 4132.82051282 , 2043.0 , 2036.0 , 233.78 , 0.0 , 0.0 , 0.0 , 0.0 , 

74.0 , 4133.33333333 , 4181.02564103 , 4136.41025641 , 4135.38461538 , 4134.87179487 , 4132.82051282 , 4134.87179487 , 4140.0 , 4138.46153846 , 4134.87179487 , 4085.12820513 , 3404.61538462 , 4136.92307692 , 4131.28205128 , 2044.0 , 2037.0 , 233.789 , 0.0 , 0.0 , 0.0 , 0.0 , 

75.0 , 4133.84615385 , 4188.71794872 , 4132.82051282 , 4133.84615385 , 4134.87179487 , 4133.84615385 , 4132.82051282 , 4137.94871795 , 4140.51282051 , 4140.51282051 , 4083.58974359 , 3403.07692308 , 4135.8974359 , 4131.28205128 , 2045.0 , 2037.0 , 233.796 , 0.0 , 0.0 , 0.0 , 0.0 , 

76.0 , 4132.82051282 , 4180.51282051 , 4132.82051282 , 4132.30769231 , 4135.8974359 , 4136.92307692 , 4130.76923077 , 4138.97435897 , 4140.0 , 4152.82051282 , 4083.07692308 , 3406.66666667 , 4136.92307692 , 4132.82051282 , 2043.0 , 2038.0 , 233.803 , 0.0 , 0.0 , 0.0 , 0.0 , 

77.0 , 4132.82051282 , 4187.17948718 , 4132.82051282 , 4133.84615385 , 4135.38461538 , 4133.33333333 , 4131.79487179 , 4138.97435897 , 4138.46153846 , 4151.28205128 , 4084.1025641 , 3405.64102564 , 4137.43589744 , 4132.82051282 , 2043.0 , 2038.0 , 233.811 , 0.0 , 0.0 , 0.0 , 0.0 , 

78.0 , 4133.33333333 , 4181.02564103 , 4133.33333333 , 4135.8974359 , 4137.43589744 , 4131.79487179 , 4136.41025641 , 4138.46153846 , 4138.97435897 , 4152.82051282 , 4087.69230769 , 3402.56410256 , 4136.92307692 , 4134.35897436 , 2043.0 , 2039.0 , 233.819 , 0.0 , 0.0 , 0.0 , 0.0 , 

79.0 , 4131.28205128 , 4189.23076923 , 4131.79487179 , 4133.33333333 , 4135.38461538 , 4132.82051282 , 4134.35897436 , 4139.48717949 , 4139.48717949 , 4151.28205128 , 4087.69230769 , 3402.56410256 , 4136.41025641 , 4133.33333333 , 2044.0 , 2038.0 , 233.827 , 0.0 , 0.0 , 0.0 , 0.0 , 

80.0 , 4133.33333333 , 4170.76923077 , 4133.84615385 , 4131.79487179 , 4132.30769231 , 4132.82051282 , 4132.82051282 , 4142.56410256 , 4136.41025641 , 4137.94871795 , 4084.61538462 , 3405.12820513 , 4136.41025641 , 4132.30769231 , 2042.0 , 2040.0 , 233.835 , 0.0 , 0.0 , 0.0 , 0.0 , 

81.0 , 4132.82051282 , 4181.02564103 , 4133.84615385 , 4130.76923077 , 4134.35897436 , 4132.82051282 , 4132.30769231 , 4140.0 , 4138.97435897 , 4140.51282051 , 4083.58974359 , 3402.05128205 , 4136.92307692 , 4131.28205128 , 2041.0 , 2039.0 , 233.843 , 0.0 , 0.0 , 0.0 , 0.0 , 

82.0 , 4131.79487179 , 4166.15384615 , 4134.87179487 , 4131.79487179 , 4137.43589744 , 4136.41025641 , 4133.84615385 , 4134.87179487 , 4151.79487179 , 4153.33333333 , 4083.58974359 , 3402.05128205 , 4135.38461538 , 4132.30769231 , 2041.0 , 2039.0 , 233.851 , 0.0 , 0.0 , 0.0 , 0.0 , 

83.0 , 4131.79487179 , 4181.02564103 , 4133.84615385 , 4130.76923077 , 4134.87179487 , 4133.33333333 , 4131.79487179 , 4135.38461538 , 4152.30769231 , 4151.79487179 , 4084.61538462 , 3405.12820513 , 4133.33333333 , 4131.28205128 , 2043.0 , 2037.0 , 233.859 , 0.0 , 0.0 , 0.0 , 0.0 , 

84.0 , 4133.84615385 , 4169.74358974 , 4131.28205128 , 4133.84615385 , 4133.33333333 , 4130.25641026 , 4131.79487179 , 4141.02564103 , 4140.0 , 4147.69230769 , 4088.71794872 , 3407.69230769 , 4134.87179487 , 4132.30769231 , 2045.0 , 2034.0 , 233.866 , 0.0 , 0.0 , 0.0 , 0.0 , 

85.0 , 4132.30769231 , 4174.87179487 , 4128.20512821 , 4133.33333333 , 4135.38461538 , 4131.79487179 , 4133.33333333 , 4140.51282051 , 4136.92307692 , 4149.74358974 , 4088.71794872 , 3402.56410256 , 4137.43589744 , 4135.38461538 , 2045.0 , 2033.0 , 233.874 , 0.0 , 0.0 , 0.0 , 0.0 , 

86.0 , 4132.30769231 , 4162.05128205 , 4135.38461538 , 4131.79487179 , 4137.94871795 , 4134.35897436 , 4131.28205128 , 4140.0 , 4141.02564103 , 4149.74358974 , 4084.61538462 , 3402.56410256 , 4137.43589744 , 4135.8974359 , 2045.0 , 2031.0 , 233.881 , 0.0 , 0.0 , 0.0 , 0.0 , 

87.0 , 4131.79487179 , 4176.92307692 , 4136.41025641 , 4132.82051282 , 4134.35897436 , 4133.84615385 , 4129.74358974 , 4140.51282051 , 4141.53846154 , 4149.74358974 , 4084.1025641 , 3406.15384615 , 4136.92307692 , 4132.30769231 , 2045.0 , 2031.0 , 233.89 , 0.0 , 0.0 , 0.0 , 0.0 , 

88.0 , 4130.76923077 , 4175.38461538 , 4131.28205128 , 4135.8974359 , 4131.79487179 , 4132.30769231 , 4134.35897436 , 4140.0 , 4140.51282051 , 4151.28205128 , 4086.66666667 , 3405.64102564 , 4136.92307692 , 4132.30769231 , 2047.0 , 2030.0 , 233.897 , 0.0 , 0.0 , 0.0 , 0.0 , 

89.0 , 4130.25641026 , 4176.92307692 , 4130.76923077 , 4134.87179487 , 4135.38461538 , 4130.76923077 , 4135.38461538 , 4140.0 , 4141.02564103 , 4148.71794872 , 4087.17948718 , 3404.1025641 , 4136.41025641 , 4133.84615385 , 2047.0 , 2029.0 , 233.907 , 0.0 , 0.0 , 0.0 , 0.0 , 

90.0 , 4133.33333333 , 4175.38461538 , 4134.35897436 , 4132.82051282 , 4137.43589744 , 4132.82051282 , 4132.30769231 , 4136.92307692 , 4141.53846154 , 4147.69230769 , 4085.64102564 , 3405.64102564 , 4137.43589744 , 4133.33333333 , 2047.0 , 2031.0 , 233.914 , 0.0 , 0.0 , 0.0 , 0.0 , 

91.0 , 4133.33333333 , 4178.46153846 , 4132.82051282 , 4133.33333333 , 4134.35897436 , 4135.38461538 , 4130.76923077 , 4135.38461538 , 4142.56410256 , 4151.28205128 , 4083.58974359 , 3406.15384615 , 4137.43589744 , 4132.30769231 , 2047.0 , 2030.0 , 233.923 , 0.0 , 0.0 , 0.0 , 0.0 , 

92.0 , 4132.30769231 , 4177.94871795 , 4130.25641026 , 4133.84615385 , 4134.35897436 , 4133.84615385 , 4132.30769231 , 4138.46153846 , 4140.51282051 , 4148.20512821 , 4085.64102564 , 3402.56410256 , 4135.8974359 , 4132.30769231 , 2046.0 , 2031.0 , 233.929 , 0.0 , 0.0 , 0.0 , 0.0 , 

93.0 , 4135.8974359 , 4170.76923077 , 4131.28205128 , 4133.33333333 , 4137.43589744 , 4132.30769231 , 4133.84615385 , 4138.46153846 , 4136.92307692 , 4137.94871795 , 4089.74358974 , 3402.56410256 , 4136.41025641 , 4133.33333333 , 2048.0 , 2032.0 , 233.937 , 0.0 , 0.0 , 0.0 , 0.0 , 

94.0 , 4136.41025641 , 4183.07692308 , 4129.23076923 , 4132.30769231 , 4135.38461538 , 4134.35897436 , 4133.84615385 , 4136.41025641 , 4137.43589744 , 4140.51282051 , 4088.20512821 , 3402.56410256 , 4137.43589744 , 4131.28205128 , 2048.0 , 2031.0 , 233.945 , 0.0 , 0.0 , 0.0 , 0.0 , 

95.0 , 4132.82051282 , 4183.58974359 , 4130.76923077 , 4131.79487179 , 4133.33333333 , 4136.92307692 , 4132.82051282 , 4140.51282051 , 4139.48717949 , 4151.79487179 , 4086.66666667 , 3406.15384615 , 4137.94871795 , 4129.74358974 , 2047.0 , 2030.0 , 233.953 , 0.0 , 0.0 , 0.0 , 0.0 , 

96.0 , 4130.25641026 , 4199.48717949 , 4132.30769231 , 4132.30769231 , 4135.38461538 , 4136.41025641 , 4131.28205128 , 4137.94871795 , 4138.97435897 , 4152.82051282 , 4088.20512821 , 3405.12820513 , 4137.94871795 , 4130.25641026 , 2048.0 , 2029.0 , 233.961 , 0.0 , 0.0 , 0.0 , 0.0 , 

97.0 , 4131.28205128 , 4181.02564103 , 4132.82051282 , 4135.38461538 , 4135.8974359 , 4136.41025641 , 4131.28205128 , 4132.30769231 , 4139.48717949 , 4149.23076923 , 4087.69230769 , 3404.61538462 , 4137.94871795 , 4133.84615385 , 2049.0 , 2030.0 , 233.969 , 0.0 , 0.0 , 0.0 , 0.0 , 

98.0 , 4131.28205128 , 4187.17948718 , 4129.74358974 , 4133.33333333 , 4134.35897436 , 4132.30769231 , 4128.71794872 , 4136.41025641 , 4141.53846154 , 4151.28205128 , 4084.61538462 , 3404.1025641 , 4136.41025641 , 4132.30769231 , 2049.0 , 2031.0 , 233.977 , 0.0 , 0.0 , 0.0 , 0.0 , 

99.0 , 4131.28205128 , 4179.48717949 , 4129.74358974 , 4132.82051282 , 4136.41025641 , 4130.76923077 , 4130.76923077 , 4141.53846154 , 4142.56410256 , 4152.30769231 , 4086.15384615 , 3405.12820513 , 4135.38461538 , 4130.25641026 , 2049.0 , 2031.0 , 233.985 , 0.0 , 0.0 , 0.0 , 0.0 , 

100.0 , 4130.25641026 , 4194.87179487 , 4129.23076923 , 4134.35897436 , 4135.38461538 , 4132.30769231 , 4131.79487179 , 4138.46153846 , 4140.0 , 4151.28205128 , 4086.66666667 , 3404.61538462 , 4136.92307692 , 4130.76923077 , 2048.0 , 2032.0 , 233.993 , 0.0 , 0.0 , 0.0 , 0.0 , 

101.0 , 4133.84615385 , 4174.35897436 , 4131.79487179 , 4135.8974359 , 4134.35897436 , 4134.35897436 , 4131.28205128 , 4138.46153846 , 4140.51282051 , 4151.28205128 , 4081.53846154 , 3406.66666667 , 4137.94871795 , 4136.41025641 , 2049.0 , 2033.0 , 234.001 , 0.0 , 0.0 , 0.0 , 0.0 , 

102.0 , 4133.33333333 , 4182.56410256 , 4131.28205128 , 4133.33333333 , 4134.87179487 , 4133.33333333 , 4132.82051282 , 4140.0 , 4143.07692308 , 4150.76923077 , 4081.53846154 , 3404.61538462 , 4137.43589744 , 4134.87179487 , 2048.0 , 2033.0 , 234.009 , 0.0 , 0.0 , 0.0 , 0.0 , 

103.0 , 4132.30769231 , 4176.41025641 , 4131.28205128 , 4133.84615385 , 4136.92307692 , 4133.33333333 , 4133.84615385 , 4137.43589744 , 4141.53846154 , 4150.76923077 , 4088.20512821 , 3404.1025641 , 4136.92307692 , 4128.71794872 , 2048.0 , 2035.0 , 234.016 , 0.0 , 0.0 , 0.0 , 0.0 , 

104.0 , 4133.33333333 , 4187.17948718 , 4130.25641026 , 4133.84615385 , 4136.41025641 , 4132.82051282 , 4129.74358974 , 4133.84615385 , 4141.53846154 , 4151.28205128 , 4088.71794872 , 3404.61538462 , 4136.92307692 , 4130.25641026 , 2047.0 , 2033.0 , 234.025 , 0.0 , 0.0 , 0.0 , 0.0 , 

105.0 , 4134.35897436 , 4169.23076923 , 4132.30769231 , 4134.35897436 , 4135.8974359 , 4133.33333333 , 4128.20512821 , 4135.38461538 , 4144.1025641 , 4151.79487179 , 4082.05128205 , 3405.64102564 , 4136.92307692 , 4135.8974359 , 2046.0 , 2032.0 , 234.032 , 0.0 , 0.0 , 0.0 , 0.0 , 

106.0 , 4131.28205128 , 4172.82051282 , 4131.79487179 , 4133.33333333 , 4132.82051282 , 4132.30769231 , 4130.25641026 , 4138.97435897 , 4142.05128205 , 4150.25641026 , 4081.02564103 , 3405.64102564 , 4137.94871795 , 4135.38461538 , 2046.0 , 2030.0 , 234.041 , 0.0 , 0.0 , 0.0 , 0.0 , 

107.0 , 4133.84615385 , 4169.74358974 , 4136.41025641 , 4134.35897436 , 4133.33333333 , 4131.79487179 , 4131.79487179 , 4139.48717949 , 4136.92307692 , 4150.25641026 , 4082.05128205 , 3406.66666667 , 4137.43589744 , 4132.30769231 , 2045.0 , 2029.0 , 234.048 , 0.0 , 0.0 , 0.0 , 0.0 , 

108.0 , 4134.35897436 , 4175.38461538 , 4136.92307692 , 4135.38461538 , 4137.94871795 , 4133.84615385 , 4131.79487179 , 4137.43589744 , 4139.48717949 , 4153.33333333 , 4084.1025641 , 3407.17948718 , 4136.92307692 , 4133.84615385 , 2044.0 , 2030.0 , 234.057 , 0.0 , 0.0 , 0.0 , 0.0 , 

109.0 , 4128.71794872 , 4174.35897436 , 4131.79487179 , 4135.38461538 , 4137.94871795 , 4135.38461538 , 4134.35897436 , 4135.8974359 , 4143.58974359 , 4146.15384615 , 4086.15384615 , 3405.64102564 , 4136.41025641 , 4133.84615385 , 2042.0 , 2031.0 , 234.063 , 0.0 , 0.0 , 0.0 , 0.0 , 

110.0 , 4130.25641026 , 4175.38461538 , 4131.28205128 , 4133.84615385 , 4135.8974359 , 4133.84615385 , 4135.8974359 , 4136.92307692 , 4142.05128205 , 4138.46153846 , 4086.66666667 , 3405.64102564 , 4136.92307692 , 4133.33333333 , 2041.0 , 2031.0 , 234.071 , 0.0 , 0.0 , 0.0 , 0.0 , 

111.0 , 4135.38461538 , 4177.94871795 , 4133.84615385 , 4134.35897436 , 4137.43589744 , 4134.35897436 , 4133.84615385 , 4137.94871795 , 4140.51282051 , 4146.66666667 , 4085.12820513 , 3404.1025641 , 4139.48717949 , 4135.8974359 , 2040.0 , 2030.0 , 234.079 , 0.0 , 0.0 , 0.0 , 0.0 , 

112.0 , 4136.92307692 , 4172.82051282 , 4133.84615385 , 4135.8974359 , 4135.8974359 , 4135.8974359 , 4133.33333333 , 4137.94871795 , 4139.48717949 , 4154.35897436 , 4088.71794872 , 3405.64102564 , 4138.97435897 , 4136.41025641 , 2040.0 , 2030.0 , 234.087 , 0.0 , 0.0 , 0.0 , 0.0 , 

113.0 , 4134.87179487 , 4186.15384615 , 4130.76923077 , 4133.84615385 , 4133.84615385 , 4132.82051282 , 4132.82051282 , 4137.94871795 , 4138.97435897 , 4148.71794872 , 4088.71794872 , 3404.1025641 , 4135.8974359 , 4132.82051282 , 2040.0 , 2031.0 , 234.095 , 0.0 , 0.0 , 0.0 , 0.0 , 

114.0 , 4133.33333333 , 4175.38461538 , 4131.28205128 , 4133.84615385 , 4137.43589744 , 4131.79487179 , 4131.28205128 , 4140.51282051 , 4140.51282051 , 4149.23076923 , 4083.58974359 , 3402.05128205 , 4135.8974359 , 4132.30769231 , 2039.0 , 2032.0 , 234.103 , 0.0 , 0.0 , 0.0 , 0.0 , 

115.0 , 4132.30769231 , 4184.1025641 , 4130.76923077 , 4131.79487179 , 4136.41025641 , 4131.28205128 , 4131.28205128 , 4138.46153846 , 4142.05128205 , 4151.79487179 , 4083.58974359 , 3401.02564103 , 4137.94871795 , 4134.87179487 , 2039.0 , 2032.0 , 234.111 , 0.0 , 0.0 , 0.0 , 0.0 , 

116.0 , 4135.38461538 , 4175.8974359 , 4132.82051282 , 4134.87179487 , 4133.33333333 , 4131.79487179 , 4132.82051282 , 4133.33333333 , 4142.05128205 , 4140.0 , 4086.66666667 , 3406.15384615 , 4138.46153846 , 4133.33333333 , 2039.0 , 2033.0 , 234.119 , 0.0 , 0.0 , 0.0 , 0.0 , 

117.0 , 4134.87179487 , 4186.15384615 , 4132.82051282 , 4140.51282051 , 4134.35897436 , 4132.30769231 , 4131.79487179 , 4135.38461538 , 4138.46153846 , 4134.87179487 , 4085.12820513 , 3408.71794872 , 4136.41025641 , 4128.20512821 , 2039.0 , 2032.0 , 234.126 , 0.0 , 0.0 , 0.0 , 0.0 , 

118.0 , 4133.84615385 , 4165.64102564 , 4133.33333333 , 4141.53846154 , 4135.8974359 , 4133.33333333 , 4133.84615385 , 4141.02564103 , 4137.43589744 , 4146.15384615 , 4087.17948718 , 3409.23076923 , 4135.8974359 , 4130.25641026 , 2038.0 , 2031.0 , 234.134 , 0.0 , 0.0 , 0.0 , 0.0 , 

119.0 , 4134.35897436 , 4175.38461538 , 4133.33333333 , 4134.87179487 , 4133.84615385 , 4131.28205128 , 4134.35897436 , 4136.92307692 , 4143.07692308 , 4152.82051282 , 4086.66666667 , 3406.66666667 , 4137.43589744 , 4133.84615385 , 2039.0 , 2033.0 , 234.142 , 0.0 , 0.0 , 0.0 , 0.0 , 

120.0 , 4137.43589744 , 4166.66666667 , 4135.38461538 , 4134.87179487 , 4135.8974359 , 4131.79487179 , 4131.28205128 , 4135.38461538 , 4144.61538462 , 4149.23076923 , 4082.05128205 , 3405.12820513 , 4138.97435897 , 4133.84615385 , 2041.0 , 2032.0 , 234.15 , 0.0 , 0.0 , 0.0 , 0.0 , 

121.0 , 4135.8974359 , 4184.1025641 , 4134.87179487 , 4136.41025641 , 4136.92307692 , 4131.28205128 , 4129.23076923 , 4139.48717949 , 4141.02564103 , 4148.71794872 , 4083.07692308 , 3406.15384615 , 4137.94871795 , 4129.23076923 , 2040.0 , 2032.0 , 234.158 , 0.0 , 0.0 , 0.0 , 0.0 , 

122.0 , 4134.35897436 , 4165.12820513 , 4134.87179487 , 4136.41025641 , 4137.94871795 , 4132.30769231 , 4133.84615385 , 4137.94871795 , 4141.02564103 , 4150.76923077 , 4086.66666667 , 3409.23076923 , 4136.92307692 , 4130.76923077 , 2042.0 , 2031.0 , 234.166 , 0.0 , 0.0 , 0.0 , 0.0 , 

123.0 , 4136.41025641 , 4168.20512821 , 4132.30769231 , 4136.92307692 , 4137.94871795 , 4131.28205128 , 4134.87179487 , 4135.38461538 , 4141.02564103 , 4150.25641026 , 4084.61538462 , 3405.64102564 , 4137.43589744 , 4133.84615385 , 2043.0 , 2032.0 , 234.174 , 0.0 , 0.0 , 0.0 , 0.0 , 

124.0 , 4138.97435897 , 4167.17948718 , 4133.33333333 , 4137.94871795 , 4135.8974359 , 4130.25641026 , 4131.79487179 , 4141.02564103 , 4138.97435897 , 4150.76923077 , 4082.56410256 , 3403.58974359 , 4137.94871795 , 4129.74358974 , 2044.0 , 2032.0 , 234.182 , 0.0 , 0.0 , 0.0 , 0.0 , 

125.0 , 4134.35897436 , 4180.0 , 4132.30769231 , 4137.43589744 , 4134.87179487 , 4131.79487179 , 4129.74358974 , 4141.02564103 , 4142.05128205 , 4150.25641026 , 4083.58974359 , 3405.64102564 , 4137.43589744 , 4128.20512821 , 2045.0 , 2032.0 , 234.191 , 0.0 , 0.0 , 0.0 , 0.0 , 

126.0 , 4131.28205128 , 4175.8974359 , 4133.33333333 , 4137.94871795 , 4135.8974359 , 4133.84615385 , 4133.33333333 , 4134.35897436 , 4144.1025641 , 4148.71794872 , 4083.58974359 , 3406.15384615 , 4136.92307692 , 4135.38461538 , 2045.0 , 2032.0 , 234.197 , 0.0 , 0.0 , 0.0 , 0.0 , 

127.0 , 4133.84615385 , 4182.05128205 , 4134.35897436 , 4136.41025641 , 4135.8974359 , 4132.30769231 , 4133.33333333 , 4137.94871795 , 4141.02564103 , 4151.79487179 , 4084.1025641 , 3404.61538462 , 4136.92307692 , 4136.92307692 , 2045.0 , 2032.0 , 234.206 , 0.0 , 0.0 , 0.0 , 0.0 , 

128.0 , 4135.8974359 , 4182.05128205 , 4133.84615385 , 4134.87179487 , 4135.8974359 , 4131.28205128 , 4129.23076923 , 4141.53846154 , 4141.02564103 , 4149.23076923 , 4085.12820513 , 3404.1025641 , 4137.94871795 , 4132.30769231 , 2044.0 , 2033.0 , 234.213 , 0.0 , 0.0 , 0.0 , 0.0 , 

0.0 , 4132.30769231 , 4173.84615385 , 4132.82051282 , 4135.8974359 , 4138.46153846 , 4132.30769231 , 4129.74358974 , 4137.94871795 , 4141.02564103 , 4142.05128205 , 4085.64102564 , 3406.15384615 , 4137.94871795 , 4132.82051282 , 2044.0 , 2033.0 , 234.221 , 0.0 , 0.0 , 0.0 , 0.0 , 

1.0 , 4131.28205128 , 4179.48717949 , 4133.84615385 , 4134.87179487 , 4136.92307692 , 4134.35897436 , 4134.35897436 , 4137.94871795 , 4138.46153846 , 4145.64102564 , 4085.64102564 , 3407.69230769 , 4137.94871795 , 4133.33333333 , 2044.0 , 2033.0 , 234.229 , 0.0 , 0.0 , 0.0 , 0.0 , 

2.0 , 4136.41025641 , 4175.38461538 , 4134.35897436 , 4134.87179487 , 4135.8974359 , 4134.87179487 , 4133.84615385 , 4140.0 , 4139.48717949 , 4151.79487179 , 4084.1025641 , 3409.74358974 , 4137.43589744 , 4133.33333333 , 2042.0 , 2033.0 , 234.237 , 0.0 , 0.0 , 0.0 , 0.0 , 

3.0 , 4138.46153846 , 4185.64102564 , 4132.30769231 , 4136.92307692 , 4136.41025641 , 4131.79487179 , 4131.28205128 , 4136.41025641 , 4140.0 , 4149.74358974 , 4083.07692308 , 3405.12820513 , 4136.41025641 , 4132.82051282 , 2041.0 , 2032.0 , 234.244 , 0.0 , 0.0 , 0.0 , 0.0 , 

4.0 , 4134.35897436 , 4180.0 , 4134.87179487 , 4135.8974359 , 4135.38461538 , 4130.76923077 , 4132.82051282 , 4136.41025641 , 4141.02564103 , 4150.25641026 , 4083.07692308 , 3404.61538462 , 4136.41025641 , 4130.76923077 , 2041.0 , 2032.0 , 234.253 , 0.0 , 0.0 , 0.0 , 0.0 , 

5.0 , 4130.76923077 , 4194.35897436 , 4133.33333333 , 4131.28205128 , 4133.33333333 , 4132.82051282 , 4132.82051282 , 4137.43589744 , 4145.12820513 , 4147.17948718 , 4084.1025641 , 3405.12820513 , 4137.43589744 , 4129.74358974 , 2040.0 , 2032.0 , 234.26 , 0.0 , 0.0 , 0.0 , 0.0 , 

6.0 , 4136.92307692 , 4150.76923077 , 4136.92307692 , 4134.87179487 , 4135.38461538 , 4136.41025641 , 4135.38461538 , 4137.43589744 , 4143.07692308 , 4141.53846154 , 4082.56410256 , 3410.25641026 , 4136.92307692 , 4133.84615385 , 2039.0 , 2032.0 , 234.268 , 0.0 , 0.0 , 0.0 , 0.0 , 

7.0 , 4133.33333333 , 4181.02564103 , 4134.35897436 , 4134.87179487 , 4134.87179487 , 4132.82051282 , 4133.33333333 , 4137.43589744 , 4137.94871795 , 4143.07692308 , 4079.48717949 , 3405.64102564 , 4135.38461538 , 4132.30769231 , 2039.0 , 2031.0 , 234.276 , 0.0 , 0.0 , 0.0 , 0.0 , 

8.0 , 4128.20512821 , 4216.41025641 , 4130.25641026 , 4133.84615385 , 4133.33333333 , 4131.28205128 , 4130.76923077 , 4138.46153846 , 4140.0 , 4143.58974359 , 4080.0 , 3399.48717949 , 4135.8974359 , 4130.76923077 , 2039.0 , 2036.0 , 234.284 , 0.0 , 0.0 , 0.0 , 0.0 , 

9.0 , 4132.30769231 , 4208.20512821 , 4132.82051282 , 4135.38461538 , 4134.87179487 , 4132.30769231 , 4133.84615385 , 4138.97435897 , 4142.56410256 , 4144.61538462 , 4083.58974359 , 3402.56410256 , 4136.92307692 , 4132.30769231 , 2039.0 , 2036.0 , 234.291 , 0.0 , 0.0 , 0.0 , 0.0 , 

10.0 , 4138.46153846 , 4150.76923077 , 4139.48717949 , 4137.94871795 , 4136.92307692 , 4134.87179487 , 4136.92307692 , 4139.48717949 , 4140.0 , 4150.25641026 , 4084.61538462 , 3410.76923077 , 4137.94871795 , 4135.38461538 , 2041.0 , 2037.0 , 234.3 , 0.0 , 0.0 , 0.0 , 0.0 , 

11.0 , 4135.8974359 , 4167.69230769 , 4135.38461538 , 4137.43589744 , 4134.87179487 , 4133.33333333 , 4132.30769231 , 4140.0 , 4137.94871795 , 4146.15384615 , 4082.05128205 , 3409.23076923 , 4138.46153846 , 4134.87179487 , 2041.0 , 2036.0 , 234.308 , 0.0 , 0.0 , 0.0 , 0.0 , 

12.0 , 4135.38461538 , 4171.28205128 , 4132.30769231 , 4137.43589744 , 4136.41025641 , 4131.28205128 , 4130.25641026 , 4139.48717949 , 4140.0 , 4142.05128205 , 4083.07692308 , 3405.12820513 , 4136.41025641 , 4131.79487179 , 2040.0 , 2036.0 , 234.315 , 0.0 , 0.0 , 0.0 , 0.0 , 

13.0 , 4135.8974359 , 4164.61538462 , 4136.92307692 , 4137.43589744 , 4137.43589744 , 4134.35897436 , 4132.30769231 , 4140.51282051 , 4141.02564103 , 4150.25641026 , 4085.64102564 , 3408.71794872 , 4137.94871795 , 4133.33333333 , 2041.0 , 2036.0 , 234.323 , 0.0 , 0.0 , 0.0 , 0.0 , 

14.0 , 4132.30769231 , 4168.71794872 , 4137.94871795 , 4138.46153846 , 4134.87179487 , 4137.43589744 , 4134.87179487 , 4141.02564103 , 4141.02564103 , 4148.71794872 , 4083.58974359 , 3408.20512821 , 4137.43589744 , 4134.87179487 , 2042.0 , 2038.0 , 234.33 , 0.0 , 0.0 , 0.0 , 0.0 , 

15.0 , 4133.33333333 , 4173.33333333 , 4133.84615385 , 4139.48717949 , 4134.87179487 , 4135.38461538 , 4136.92307692 , 4140.0 , 4138.97435897 , 4141.53846154 , 4080.51282051 , 3406.15384615 , 4134.35897436 , 4134.87179487 , 2041.0 , 2036.0 , 234.34 , 0.0 , 0.0 , 0.0 , 0.0 , 

16.0 , 4134.87179487 , 4169.23076923 , 4134.35897436 , 4137.43589744 , 4137.43589744 , 4133.84615385 , 4135.8974359 , 4142.05128205 , 4139.48717949 , 4149.23076923 , 4081.02564103 , 3406.66666667 , 4135.38461538 , 4134.35897436 , 2040.0 , 2036.0 , 234.346 , 0.0 , 0.0 , 0.0 , 0.0 , 

17.0 , 4133.33333333 , 4174.87179487 , 4138.97435897 , 4134.87179487 , 4136.92307692 , 4136.92307692 , 4133.33333333 , 4143.07692308 , 4142.56410256 , 4153.33333333 , 4085.12820513 , 3406.66666667 , 4137.43589744 , 4133.33333333 , 2042.0 , 2037.0 , 234.356 , 0.0 , 0.0 , 0.0 , 0.0 , 

18.0 , 4135.38461538 , 4174.87179487 , 4138.97435897 , 4136.92307692 , 4135.8974359 , 4138.46153846 , 4133.33333333 , 4138.46153846 , 4142.56410256 , 4148.71794872 , 4087.69230769 , 3406.66666667 , 4134.87179487 , 4132.82051282 , 2042.0 , 2036.0 , 234.362 , 0.0 , 0.0 , 0.0 , 0.0 , 

19.0 , 4138.46153846 , 4168.71794872 , 4136.41025641 , 4138.97435897 , 4135.8974359 , 4136.41025641 , 4132.82051282 , 4135.8974359 , 4141.02564103 , 4150.25641026 , 4086.66666667 , 3408.20512821 , 4133.33333333 , 4133.84615385 , 2043.0 , 2034.0 , 234.372 , 0.0 , 0.0 , 0.0 , 0.0 , 

20.0 , 4138.46153846 , 4173.84615385 , 4137.43589744 , 4136.92307692 , 4135.8974359 , 4134.87179487 , 4133.33333333 , 4138.46153846 , 4140.51282051 , 4151.79487179 , 4083.07692308 , 3405.12820513 , 4137.43589744 , 4134.35897436 , 2043.0 , 2032.0 , 234.378 , 0.0 , 0.0 , 0.0 , 0.0 , 

21.0 , 4137.43589744 , 4173.84615385 , 4138.97435897 , 4134.87179487 , 4134.87179487 , 4134.87179487 , 4134.87179487 , 4138.46153846 , 4139.48717949 , 4142.05128205 , 4083.58974359 , 3403.58974359 , 4138.97435897 , 4133.33333333 , 2044.0 , 2034.0 , 234.386 , 0.0 , 0.0 , 0.0 , 0.0 , 

22.0 , 4135.8974359 , 4192.30769231 , 4135.8974359 , 4136.92307692 , 4133.84615385 , 4133.33333333 , 4132.30769231 , 4135.8974359 , 4138.97435897 , 4137.43589744 , 4085.64102564 , 3404.1025641 , 4136.41025641 , 4131.79487179 , 2044.0 , 2035.0 , 234.393 , 0.0 , 0.0 , 0.0 , 0.0 , 

23.0 , 4136.41025641 , 4178.46153846 , 4138.46153846 , 4140.51282051 , 4134.87179487 , 4136.41025641 , 4131.79487179 , 4138.97435897 , 4140.51282051 , 4139.48717949 , 4084.1025641 , 3408.20512821 , 4137.43589744 , 4133.33333333 , 2042.0 , 2036.0 , 234.403 , 0.0 , 0.0 , 0.0 , 0.0 , 

24.0 , 4133.84615385 , 4190.76923077 , 4138.97435897 , 4136.92307692 , 4136.92307692 , 4138.97435897 , 4133.33333333 , 4138.46153846 , 4139.48717949 , 4144.61538462 , 4080.0 , 3405.12820513 , 4138.97435897 , 4133.84615385 , 2042.0 , 2036.0 , 234.409 , 0.0 , 0.0 , 0.0 , 0.0 , 

25.0 , 4132.82051282 , 4179.48717949 , 4136.92307692 , 4136.92307692 , 4135.8974359 , 4136.41025641 , 4132.82051282 , 4135.8974359 , 4138.97435897 , 4150.25641026 , 4082.56410256 , 3406.15384615 , 4136.92307692 , 4133.84615385 , 2041.0 , 2036.0 , 234.418 , 0.0 , 0.0 , 0.0 , 0.0 , 

26.0 , 4134.35897436 , 4188.20512821 , 4135.38461538 , 4138.97435897 , 4135.38461538 , 4131.28205128 , 4131.28205128 , 4137.43589744 , 4141.02564103 , 4152.82051282 , 4086.66666667 , 3406.66666667 , 4136.92307692 , 4131.79487179 , 2039.0 , 2037.0 , 234.425 , 0.0 , 0.0 , 0.0 , 0.0 , 

27.0 , 4137.43589744 , 4157.94871795 , 4136.92307692 , 4136.41025641 , 4135.8974359 , 4132.82051282 , 4134.87179487 , 4138.97435897 , 4142.05128205 , 4150.25641026 , 4085.64102564 , 3407.69230769 , 4138.97435897 , 4134.35897436 , 2039.0 , 2037.0 , 234.434 , 0.0 , 0.0 , 0.0 , 0.0 , 

28.0 , 4134.87179487 , 4170.76923077 , 4133.84615385 , 4132.82051282 , 4131.79487179 , 4133.84615385 , 4134.87179487 , 4138.46153846 , 4141.53846154 , 4146.66666667 , 4082.56410256 , 3406.66666667 , 4137.43589744 , 4135.38461538 , 2039.0 , 2036.0 , 234.441 , 0.0 , 0.0 , 0.0 , 0.0 , 

29.0 , 4136.41025641 , 4158.46153846 , 4136.92307692 , 4138.97435897 , 4132.82051282 , 4133.84615385 , 4132.82051282 , 4138.46153846 , 4142.05128205 , 4145.12820513 , 4084.61538462 , 3408.71794872 , 4136.92307692 , 4135.8974359 , 2038.0 , 2040.0 , 234.45 , 0.0 , 0.0 , 0.0 , 0.0 , 

30.0 , 4140.0 , 4161.02564103 , 4138.97435897 , 4140.51282051 , 4134.87179487 , 4134.87179487 , 4132.82051282 , 4140.0 , 4144.61538462 , 4145.12820513 , 4086.66666667 , 3406.15384615 , 4138.46153846 , 4135.38461538 , 2038.0 , 2039.0 , 234.458 , 0.0 , 0.0 , 0.0 , 0.0 , 

31.0 , 4141.53846154 , 4147.69230769 , 4138.46153846 , 4138.46153846 , 4135.8974359 , 4137.43589744 , 4133.33333333 , 4141.53846154 , 4144.1025641 , 4146.66666667 , 4085.12820513 , 3406.66666667 , 4137.43589744 , 4132.30769231 , 2039.0 , 2037.0 , 234.464 , 0.0 , 0.0 , 0.0 , 0.0 , 

32.0 , 4137.43589744 , 4166.66666667 , 4136.41025641 , 4135.8974359 , 4135.38461538 , 4133.84615385 , 4132.30769231 , 4140.0 , 4142.05128205 , 4145.64102564 , 4083.07692308 , 3408.71794872 , 4135.8974359 , 4132.30769231 , 2039.0 , 2038.0 , 234.473 , 0.0 , 0.0 , 0.0 , 0.0 , 

33.0 , 4135.8974359 , 4173.33333333 , 4138.46153846 , 4135.8974359 , 4134.35897436 , 4130.76923077 , 4133.33333333 , 4136.92307692 , 4143.58974359 , 4145.12820513 , 4084.1025641 , 3406.66666667 , 4135.8974359 , 4134.35897436 , 2038.0 , 2039.0 , 234.481 , 0.0 , 0.0 , 0.0 , 0.0 , 

34.0 , 4136.92307692 , 4175.38461538 , 4137.94871795 , 4135.8974359 , 4135.38461538 , 4133.84615385 , 4131.28205128 , 4137.43589744 , 4147.69230769 , 4145.12820513 , 4084.1025641 , 3405.12820513 , 4136.92307692 , 4134.35897436 , 2039.0 , 2038.0 , 234.491 , 0.0 , 0.0 , 0.0 , 0.0 , 

35.0 , 4136.41025641 , 4169.23076923 , 4137.94871795 , 4136.92307692 , 4138.46153846 , 4137.43589744 , 4131.79487179 , 4140.0 , 4147.17948718 , 4144.61538462 , 4083.58974359 , 3407.69230769 , 4136.92307692 , 4132.82051282 , 2040.0 , 2038.0 , 234.496 , 0.0 , 0.0 , 0.0 , 0.0 , 

36.0 , 4134.35897436 , 4172.30769231 , 4137.94871795 , 4137.43589744 , 4137.94871795 , 4134.35897436 , 4134.87179487 , 4140.51282051 , 4143.07692308 , 4146.66666667 , 4083.58974359 , 3407.17948718 , 4138.46153846 , 4132.30769231 , 2041.0 , 2038.0 , 234.505 , 0.0 , 0.0 , 0.0 , 0.0 , 

37.0 , 4135.38461538 , 4181.02564103 , 4134.35897436 , 4136.92307692 , 4132.82051282 , 4132.82051282 , 4133.33333333 , 4137.94871795 , 4141.53846154 , 4143.07692308 , 4082.05128205 , 3404.61538462 , 4139.48717949 , 4132.30769231 , 2041.0 , 2036.0 , 234.512 , 0.0 , 0.0 , 0.0 , 0.0 , 

38.0 , 4138.46153846 , 4175.8974359 , 4133.33333333 , 4137.94871795 , 4133.84615385 , 4135.38461538 , 4131.28205128 , 4136.92307692 , 4140.51282051 , 4141.02564103 , 4083.07692308 , 3407.17948718 , 4136.41025641 , 4132.30769231 , 2040.0 , 2036.0 , 234.52 , 0.0 , 0.0 , 0.0 , 0.0 , 

39.0 , 4136.41025641 , 4183.58974359 , 4133.84615385 , 4138.46153846 , 4135.38461538 , 4135.38461538 , 4132.82051282 , 4136.41025641 , 4140.0 , 4144.1025641 , 4085.64102564 , 3407.69230769 , 4132.82051282 , 4132.82051282 , 2041.0 , 2036.0 , 234.527 , 0.0 , 0.0 , 0.0 , 0.0 , 

40.0 , 4132.82051282 , 4179.48717949 , 4136.41025641 , 4138.97435897 , 4132.82051282 , 4134.87179487 , 4132.82051282 , 4136.41025641 , 4140.51282051 , 4140.0 , 4085.12820513 , 3408.71794872 , 4136.92307692 , 4133.33333333 , 2043.0 , 2033.0 , 234.536 , 0.0 , 0.0 , 0.0 , 0.0 , 

41.0 , 4133.33333333 , 4187.69230769 , 4137.43589744 , 4136.92307692 , 4131.28205128 , 4135.38461538 , 4130.76923077 , 4136.41025641 , 4142.05128205 , 4137.43589744 , 4083.58974359 , 3406.15384615 , 4138.97435897 , 4132.82051282 , 2042.0 , 2033.0 , 234.544 , 0.0 , 0.0 , 0.0 , 0.0 , 

42.0 , 4137.94871795 , 4167.69230769 , 4138.97435897 , 4137.43589744 , 4135.38461538 , 4135.8974359 , 4133.33333333 , 4137.94871795 , 4141.53846154 , 4147.17948718 , 4085.12820513 , 3405.64102564 , 4137.94871795 , 4135.38461538 , 2043.0 , 2032.0 , 234.553 , 0.0 , 0.0 , 0.0 , 0.0 , 

43.0 , 4137.94871795 , 4180.51282051 , 4134.87179487 , 4137.43589744 , 4135.8974359 , 4134.87179487 , 4133.33333333 , 4136.92307692 , 4138.97435897 , 4153.84615385 , 4085.12820513 , 3405.12820513 , 4138.46153846 , 4134.35897436 , 2044.0 , 2033.0 , 234.56 , 0.0 , 0.0 , 0.0 , 0.0 , 

44.0 , 4136.92307692 , 4173.33333333 , 4134.87179487 , 4137.43589744 , 4134.35897436 , 4134.87179487 , 4133.84615385 , 4137.43589744 , 4139.48717949 , 4150.76923077 , 4083.07692308 , 3408.20512821 , 4134.35897436 , 4132.30769231 , 2042.0 , 2033.0 , 234.569 , 0.0 , 0.0 , 0.0 , 0.0 , 

45.0 , 4135.8974359 , 4183.58974359 , 4134.87179487 , 4134.87179487 , 4134.87179487 , 4134.87179487 , 4134.87179487 , 4139.48717949 , 4140.0 , 4149.74358974 , 4082.56410256 , 3406.66666667 , 4130.76923077 , 4131.28205128 , 2043.0 , 2033.0 , 234.575 , 0.0 , 0.0 , 0.0 , 0.0 , 

46.0 , 4137.43589744 , 4164.1025641 , 4136.92307692 , 4135.8974359 , 4134.35897436 , 4136.92307692 , 4134.87179487 , 4138.46153846 , 4138.97435897 , 4151.28205128 , 4084.1025641 , 3409.23076923 , 4136.41025641 , 4132.30769231 , 2043.0 , 2032.0 , 234.582 , 0.0 , 0.0 , 0.0 , 0.0 , 

47.0 , 4135.8974359 , 4177.43589744 , 4135.8974359 , 4136.41025641 , 4133.33333333 , 4135.8974359 , 4132.30769231 , 4135.38461538 , 4139.48717949 , 4151.79487179 , 4085.64102564 , 3408.20512821 , 4140.0 , 4133.33333333 , 2043.0 , 2033.0 , 234.591 , 0.0 , 0.0 , 0.0 , 0.0 , 

48.0 , 4137.43589744 , 4165.12820513 , 4136.92307692 , 4137.94871795 , 4133.33333333 , 4134.87179487 , 4133.84615385 , 4135.38461538 , 4140.0 , 4149.23076923 , 4085.12820513 , 3407.17948718 , 4136.41025641 , 4132.82051282 , 2045.0 , 2033.0 , 234.6 , 0.0 , 0.0 , 0.0 , 0.0 , 

49.0 , 4136.41025641 , 4175.38461538 , 4135.38461538 , 4134.87179487 , 4130.76923077 , 4133.33333333 , 4133.33333333 , 4136.92307692 , 4136.92307692 , 4143.07692308 , 4084.61538462 , 3408.20512821 , 4136.41025641 , 4130.25641026 , 2045.0 , 2033.0 , 234.608 , 0.0 , 0.0 , 0.0 , 0.0 , 

50.0 , 4134.35897436 , 4163.07692308 , 4137.43589744 , 4135.38461538 , 4135.8974359 , 4134.35897436 , 4132.82051282 , 4140.0 , 4137.43589744 , 4147.17948718 , 4086.15384615 , 3408.71794872 , 4138.97435897 , 4133.84615385 , 2047.0 , 2032.0 , 234.614 , 0.0 , 0.0 , 0.0 , 0.0 , 

51.0 , 4132.30769231 , 4167.69230769 , 4136.41025641 , 4137.43589744 , 4138.97435897 , 4132.82051282 , 4132.30769231 , 4140.51282051 , 4142.05128205 , 4154.35897436 , 4086.15384615 , 3406.15384615 , 4137.43589744 , 4135.38461538 , 2047.0 , 2031.0 , 234.624 , 0.0 , 0.0 , 0.0 , 0.0 , 

52.0 , 4136.41025641 , 4166.15384615 , 4135.8974359 , 4137.43589744 , 4132.82051282 , 4133.84615385 , 4131.28205128 , 4141.02564103 , 4141.02564103 , 4146.15384615 , 4083.58974359 , 3406.66666667 , 4136.41025641 , 4133.84615385 , 2048.0 , 2028.0 , 234.63 , 0.0 , 0.0 , 0.0 , 0.0 , 

53.0 , 4137.94871795 , 4177.43589744 , 4136.41025641 , 4135.8974359 , 4132.82051282 , 4134.87179487 , 4131.28205128 , 4142.05128205 , 4138.46153846 , 4138.97435897 , 4085.12820513 , 3404.61538462 , 4136.92307692 , 4135.38461538 , 2047.0 , 2029.0 , 234.639 , 0.0 , 0.0 , 0.0 , 0.0 , 

54.0 , 4134.87179487 , 4172.82051282 , 4136.41025641 , 4135.8974359 , 4137.43589744 , 4132.82051282 , 4133.84615385 , 4141.02564103 , 4140.51282051 , 4142.56410256 , 4086.15384615 , 3402.05128205 , 4136.92307692 , 4136.92307692 , 2047.0 , 2030.0 , 234.646 , 0.0 , 0.0 , 0.0 , 0.0 , 

55.0 , 4132.82051282 , 4164.61538462 , 4135.38461538 , 4136.41025641 , 4134.35897436 , 4131.28205128 , 4132.30769231 , 4139.48717949 , 4141.53846154 , 4142.05128205 , 4083.58974359 , 3405.12820513 , 4135.8974359 , 4133.84615385 , 2047.0 , 2030.0 , 234.654 , 0.0 , 0.0 , 0.0 , 0.0 , 

56.0 , 4134.35897436 , 4169.74358974 , 4134.87179487 , 4136.92307692 , 4133.84615385 , 4134.87179487 , 4128.20512821 , 4138.97435897 , 4137.43589744 , 4134.87179487 , 4082.56410256 , 3405.64102564 , 4136.92307692 , 4132.82051282 , 2044.0 , 2031.0 , 234.661 , 0.0 , 0.0 , 0.0 , 0.0 , 

57.0 , 4136.92307692 , 4170.25641026 , 4137.94871795 , 4137.94871795 , 4136.92307692 , 4136.41025641 , 4130.76923077 , 4137.43589744 , 4137.43589744 , 4141.53846154 , 4083.58974359 , 3406.66666667 , 4139.48717949 , 4136.92307692 , 2044.0 , 2033.0 , 234.67 , 0.0 , 0.0 , 0.0 , 0.0 , 

58.0 , 4135.8974359 , 4188.20512821 , 4137.43589744 , 4137.43589744 , 4134.35897436 , 4131.28205128 , 4129.23076923 , 4136.41025641 , 4141.53846154 , 4150.76923077 , 4083.07692308 , 3404.61538462 , 4136.41025641 , 4136.41025641 , 2041.0 , 2034.0 , 234.677 , 0.0 , 0.0 , 0.0 , 0.0 , 

59.0 , 4134.35897436 , 4195.38461538 , 4133.33333333 , 4137.94871795 , 4133.84615385 , 4133.84615385 , 4127.69230769 , 4136.41025641 , 4141.53846154 , 4143.07692308 , 4083.58974359 , 3403.07692308 , 4130.76923077 , 4133.33333333 , 2041.0 , 2034.0 , 234.686 , 0.0 , 0.0 , 0.0 , 0.0 , 

60.0 , 4136.41025641 , 4182.56410256 , 4134.87179487 , 4138.97435897 , 4136.92307692 , 4141.02564103 , 4133.84615385 , 4138.46153846 , 4138.46153846 , 4140.51282051 , 4084.61538462 , 3406.66666667 , 4133.84615385 , 4135.8974359 , 2040.0 , 2033.0 , 234.693 , 0.0 , 0.0 , 0.0 , 0.0 , 

61.0 , 4135.38461538 , 4175.38461538 , 4137.43589744 , 4137.43589744 , 4135.38461538 , 4136.92307692 , 4135.38461538 , 4137.94871795 , 4138.97435897 , 4150.76923077 , 4084.1025641 , 3408.20512821 , 4138.97435897 , 4133.33333333 , 2038.0 , 2034.0 , 234.702 , 0.0 , 0.0 , 0.0 , 0.0 , 

62.0 , 4129.23076923 , 4230.76923077 , 4131.28205128 , 4133.33333333 , 4130.25641026 , 4129.74358974 , 4130.25641026 , 4135.38461538 , 4141.02564103 , 4153.33333333 , 4084.61538462 , 3401.53846154 , 4136.92307692 , 4126.15384615 , 2038.0 , 2034.0 , 234.709 , 0.0 , 0.0 , 0.0 , 0.0 , 

63.0 , 4131.79487179 , 4196.41025641 , 4132.82051282 , 4137.43589744 , 4131.28205128 , 4134.87179487 , 4132.82051282 , 4137.43589744 , 4141.53846154 , 4152.30769231 , 4082.56410256 , 3403.07692308 , 4135.38461538 , 4132.30769231 , 2039.0 , 2034.0 , 234.717 , 0.0 , 0.0 , 0.0 , 0.0 , 

64.0 , 4132.30769231 , 4172.82051282 , 4136.41025641 , 4139.48717949 , 4134.35897436 , 4134.35897436 , 4133.33333333 , 4139.48717949 , 4140.0 , 4148.20512821 , 4081.02564103 , 3404.1025641 , 4136.92307692 , 4137.43589744 , 2039.0 , 2031.0 , 234.724 , 0.0 , 0.0 , 0.0 , 0.0 , 

65.0 , 4137.43589744 , 4149.23076923 , 4137.94871795 , 4138.46153846 , 4136.41025641 , 4132.82051282 , 4132.30769231 , 4140.0 , 4143.07692308 , 4140.51282051 , 4087.17948718 , 3407.69230769 , 4136.41025641 , 4132.82051282 , 2041.0 , 2030.0 , 234.732 , 0.0 , 0.0 , 0.0 , 0.0 , 

66.0 , 4135.8974359 , 4180.0 , 4131.79487179 , 4135.38461538 , 4134.87179487 , 4135.8974359 , 4131.28205128 , 4140.0 , 4146.66666667 , 4143.07692308 , 4089.23076923 , 3404.61538462 , 4135.8974359 , 4130.25641026 , 2043.0 , 2029.0 , 234.74 , 0.0 , 0.0 , 0.0 , 0.0 , 

67.0 , 4134.35897436 , 4152.30769231 , 4135.38461538 , 4138.46153846 , 4136.41025641 , 4135.8974359 , 4134.87179487 , 4140.0 , 4142.56410256 , 4146.66666667 , 4085.12820513 , 3405.12820513 , 4137.43589744 , 4135.38461538 , 2043.0 , 2030.0 , 234.748 , 0.0 , 0.0 , 0.0 , 0.0 , 

68.0 , 4131.79487179 , 4181.53846154 , 4134.35897436 , 4135.38461538 , 4134.35897436 , 4130.25641026 , 4132.30769231 , 4139.48717949 , 4139.48717949 , 4141.53846154 , 4084.1025641 , 3404.61538462 , 4136.92307692 , 4132.30769231 , 2045.0 , 2029.0 , 234.757 , 0.0 , 0.0 , 0.0 , 0.0 , 

69.0 , 4136.41025641 , 4162.56410256 , 4135.38461538 , 4134.87179487 , 4134.35897436 , 4136.41025641 , 4132.30769231 , 4143.58974359 , 4143.58974359 , 4142.56410256 , 4085.12820513 , 3408.20512821 , 4135.8974359 , 4132.30769231 , 2046.0 , 2028.0 , 234.764 , 0.0 , 0.0 , 0.0 , 0.0 , 

70.0 , 4133.84615385 , 4171.79487179 , 4131.28205128 , 4135.38461538 , 4133.84615385 , 4136.41025641 , 4132.82051282 , 4141.53846154 , 4142.05128205 , 4144.1025641 , 4082.56410256 , 3405.64102564 , 4136.41025641 , 4130.76923077 , 2047.0 , 2030.0 , 234.773 , 0.0 , 0.0 , 0.0 , 0.0 , 

71.0 , 4134.87179487 , 4171.28205128 , 4133.33333333 , 4138.97435897 , 4133.84615385 , 4130.76923077 , 4133.84615385 , 4132.82051282 , 4136.92307692 , 4138.97435897 , 4085.12820513 , 3405.64102564 , 4136.41025641 , 4130.76923077 , 2049.0 , 2029.0 , 234.78 , 0.0 , 0.0 , 0.0 , 0.0 , 

72.0 , 4137.94871795 , 4174.87179487 , 4134.87179487 , 4140.0 , 4134.35897436 , 4131.28205128 , 4132.82051282 , 4134.87179487 , 4143.58974359 , 4136.41025641 , 4087.69230769 , 3406.66666667 , 4136.92307692 , 4131.79487179 , 2049.0 , 2029.0 , 234.788 , 0.0 , 0.0 , 0.0 , 0.0 , 

73.0 , 4138.46153846 , 4174.35897436 , 4132.82051282 , 4140.0 , 4135.38461538 , 4135.38461538 , 4130.76923077 , 4140.51282051 , 4146.66666667 , 4137.43589744 , 4087.17948718 , 3404.61538462 , 4137.43589744 , 4132.82051282 , 2048.0 , 2030.0 , 234.795 , 0.0 , 0.0 , 0.0 , 0.0 , 

74.0 , 4134.87179487 , 4170.76923077 , 4132.30769231 , 4139.48717949 , 4136.41025641 , 4136.41025641 , 4132.82051282 , 4137.94871795 , 4140.0 , 4139.48717949 , 4087.17948718 , 3406.15384615 , 4137.43589744 , 4134.87179487 , 2047.0 , 2031.0 , 234.804 , 0.0 , 0.0 , 0.0 , 0.0 , 

75.0 , 4132.82051282 , 4171.79487179 , 4136.41025641 , 4136.92307692 , 4135.38461538 , 4135.38461538 , 4133.33333333 , 4135.38461538 , 4146.66666667 , 4149.23076923 , 4085.64102564 , 3407.69230769 , 4136.92307692 , 4133.84615385 , 2046.0 , 2032.0 , 234.811 , 0.0 , 0.0 , 0.0 , 0.0 , 

76.0 , 4135.8974359 , 4163.07692308 , 4136.92307692 , 4137.43589744 , 4133.84615385 , 4134.35897436 , 4132.82051282 , 4137.94871795 , 4154.87179487 , 4155.38461538 , 4085.12820513 , 3406.66666667 , 4137.43589744 , 4132.82051282 , 2046.0 , 2034.0 , 234.82 , 0.0 , 0.0 , 0.0 , 0.0 , 

77.0 , 4136.92307692 , 4169.23076923 , 4132.82051282 , 4139.48717949 , 4134.35897436 , 4134.35897436 , 4134.35897436 , 4140.0 , 4145.12820513 , 4148.71794872 , 4087.17948718 , 3407.17948718 , 4137.43589744 , 4133.84615385 , 2042.0 , 2030.0 , 234.827 , 0.0 , 0.0 , 0.0 , 0.0 , 

78.0 , 4134.35897436 , 4166.66666667 , 4134.35897436 , 4135.8974359 , 4134.87179487 , 4134.87179487 , 4136.41025641 , 4138.46153846 , 4134.87179487 , 4143.58974359 , 4084.61538462 , 3407.69230769 , 4136.41025641 , 4134.87179487 , 2041.0 , 2031.0 , 234.836 , 0.0 , 0.0 , 0.0 , 0.0 , 

79.0 , 4132.30769231 , 4180.0 , 4135.8974359 , 4131.28205128 , 4133.84615385 , 4133.84615385 , 4133.84615385 , 4136.41025641 , 4139.48717949 , 4146.66666667 , 4082.56410256 , 3404.61538462 , 4135.38461538 , 4132.30769231 , 2039.0 , 2032.0 , 234.843 , 0.0 , 0.0 , 0.0 , 0.0 , 

80.0 , 4135.8974359 , 4166.15384615 , 4136.41025641 , 4134.87179487 , 4135.38461538 , 4135.38461538 , 4133.33333333 , 4137.94871795 , 4142.56410256 , 4152.82051282 , 4087.17948718 , 3407.17948718 , 4136.41025641 , 4131.28205128 , 2038.0 , 2032.0 , 234.851 , 0.0 , 0.0 , 0.0 , 0.0 , 

81.0 , 4135.38461538 , 4174.87179487 , 4133.33333333 , 4135.8974359 , 4136.41025641 , 4136.41025641 , 4133.84615385 , 4137.94871795 , 4138.97435897 , 4151.79487179 , 4088.20512821 , 3408.71794872 , 4136.92307692 , 4132.30769231 , 2038.0 , 2034.0 , 234.859 , 0.0 , 0.0 , 0.0 , 0.0 , 

82.0 , 4135.38461538 , 4157.94871795 , 4134.35897436 , 4136.41025641 , 4136.92307692 , 4135.8974359 , 4133.84615385 , 4136.41025641 , 4140.51282051 , 4142.05128205 , 4086.15384615 , 3408.71794872 , 4136.92307692 , 4133.84615385 , 2039.0 , 2032.0 , 234.867 , 0.0 , 0.0 , 0.0 , 0.0 , 

83.0 , 4136.92307692 , 4170.76923077 , 4133.33333333 , 4137.43589744 , 4137.94871795 , 4133.84615385 , 4131.79487179 , 4136.41025641 , 4143.07692308 , 4134.87179487 , 4086.66666667 , 3404.61538462 , 4136.41025641 , 4133.33333333 , 2039.0 , 2033.0 , 234.874 , 0.0 , 0.0 , 0.0 , 0.0 , 

84.0 , 4140.0 , 4154.35897436 , 4133.33333333 , 4136.92307692 , 4136.92307692 , 4133.33333333 , 4131.79487179 , 4136.92307692 , 4143.07692308 , 4143.58974359 , 4084.61538462 , 3404.1025641 , 4136.92307692 , 4133.84615385 , 2040.0 , 2032.0 , 234.882 , 0.0 , 0.0 , 0.0 , 0.0 , 

85.0 , 4140.0 , 4161.02564103 , 4131.79487179 , 4134.35897436 , 4133.84615385 , 4133.33333333 , 4130.76923077 , 4132.82051282 , 4140.0 , 4154.87179487 , 4081.02564103 , 3404.61538462 , 4136.92307692 , 4132.30769231 , 2041.0 , 2032.0 , 234.891 , 0.0 , 0.0 , 0.0 , 0.0 , 

86.0 , 4140.0 , 4153.33333333 , 4133.84615385 , 4137.94871795 , 4134.87179487 , 4133.84615385 , 4133.84615385 , 4133.84615385 , 4142.05128205 , 4145.12820513 , 4082.56410256 , 3406.66666667 , 4136.41025641 , 4132.82051282 , 2042.0 , 2033.0 , 234.898 , 0.0 , 0.0 , 0.0 , 0.0 , 

87.0 , 4136.41025641 , 4165.64102564 , 4134.87179487 , 4138.97435897 , 4133.84615385 , 4130.76923077 , 4135.38461538 , 4138.46153846 , 4146.15384615 , 4136.92307692 , 4085.64102564 , 3407.17948718 , 4137.43589744 , 4135.38461538 , 2043.0 , 2034.0 , 234.907 , 0.0 , 0.0 , 0.0 , 0.0 , 

88.0 , 4136.41025641 , 4154.87179487 , 4135.8974359 , 4135.38461538 , 4130.76923077 , 4131.28205128 , 4131.79487179 , 4136.41025641 , 4142.56410256 , 4148.71794872 , 4087.17948718 , 3407.17948718 , 4137.94871795 , 4135.38461538 , 2044.0 , 2035.0 , 234.913 , 0.0 , 0.0 , 0.0 , 0.0 , 

89.0 , 4138.46153846 , 4157.43589744 , 4135.8974359 , 4131.28205128 , 4133.84615385 , 4134.87179487 , 4130.25641026 , 4133.84615385 , 4141.02564103 , 4153.84615385 , 4085.64102564 , 3408.20512821 , 4136.41025641 , 4134.87179487 , 2045.0 , 2035.0 , 234.923 , 0.0 , 0.0 , 0.0 , 0.0 , 

90.0 , 4140.51282051 , 4152.82051282 , 4137.94871795 , 4134.35897436 , 4137.94871795 , 4135.38461538 , 4135.38461538 , 4134.87179487 , 4143.07692308 , 4149.23076923 , 4085.64102564 , 3408.71794872 , 4135.38461538 , 4135.38461538 , 2045.0 , 2035.0 , 234.929 , 0.0 , 0.0 , 0.0 , 0.0 , 

91.0 , 4137.94871795 , 4160.0 , 4136.41025641 , 4137.43589744 , 4135.8974359 , 4132.82051282 , 4136.92307692 , 4135.38461538 , 4140.51282051 , 4149.23076923 , 4087.69230769 , 3406.66666667 , 4137.43589744 , 4134.35897436 , 2046.0 , 2034.0 , 234.938 , 0.0 , 0.0 , 0.0 , 0.0 , 

92.0 , 4137.43589744 , 4166.66666667 , 4133.84615385 , 4134.87179487 , 4134.35897436 , 4132.30769231 , 4132.30769231 , 4135.38461538 , 4138.46153846 , 4150.25641026 , 4088.71794872 , 3405.12820513 , 4137.94871795 , 4132.30769231 , 2045.0 , 2035.0 , 234.945 , 0.0 , 0.0 , 0.0 , 0.0 , 

93.0 , 4137.43589744 , 4162.56410256 , 4134.35897436 , 4135.38461538 , 4136.92307692 , 4131.28205128 , 4132.82051282 , 4139.48717949 , 4140.51282051 , 4151.79487179 , 4087.17948718 , 3405.64102564 , 4136.41025641 , 4133.84615385 , 2044.0 , 2035.0 , 234.954 , 0.0 , 0.0 , 0.0 , 0.0 , 

94.0 , 4136.92307692 , 4167.17948718 , 4136.41025641 , 4138.46153846 , 4136.92307692 , 4130.25641026 , 4135.38461538 , 4138.97435897 , 4138.46153846 , 4148.71794872 , 4087.17948718 , 3405.12820513 , 4136.41025641 , 4135.8974359 , 2043.0 , 2035.0 , 234.961 , 0.0 , 0.0 , 0.0 , 0.0 , 

95.0 , 4136.41025641 , 4170.76923077 , 4134.87179487 , 4137.43589744 , 4135.38461538 , 4132.82051282 , 4133.84615385 , 4134.87179487 , 4137.43589744 , 4137.94871795 , 4085.64102564 , 3406.15384615 , 4137.43589744 , 4133.84615385 , 2043.0 , 2033.0 , 234.971 , 0.0 , 0.0 , 0.0 , 0.0 , 

96.0 , 4136.92307692 , 4181.53846154 , 4133.33333333 , 4135.38461538 , 4135.38461538 , 4132.30769231 , 4132.30769231 , 4134.87179487 , 4141.02564103 , 4138.97435897 , 4084.61538462 , 3406.15384615 , 4136.41025641 , 4131.79487179 , 2043.0 , 2035.0 , 234.977 , 0.0 , 0.0 , 0.0 , 0.0 , 

97.0 , 4139.48717949 , 4164.61538462 , 4135.8974359 , 4135.8974359 , 4136.41025641 , 4131.79487179 , 4134.35897436 , 4137.43589744 , 4142.56410256 , 4150.76923077 , 4086.66666667 , 3407.17948718 , 4135.8974359 , 4134.35897436 , 2041.0 , 2036.0 , 234.985 , 0.0 , 0.0 , 0.0 , 0.0 , 

98.0 , 4138.97435897 , 4174.35897436 , 4134.87179487 , 4134.87179487 , 4135.38461538 , 4132.82051282 , 4134.35897436 , 4136.41025641 , 4141.02564103 , 4152.82051282 , 4087.17948718 , 3404.61538462 , 4137.43589744 , 4135.38461538 , 2041.0 , 2036.0 , 234.992 , 0.0 , 0.0 , 0.0 , 0.0 , 

99.0 , 4139.48717949 , 4162.56410256 , 4136.41025641 , 4137.43589744 , 4135.38461538 , 4134.35897436 , 4133.84615385 , 4135.38461538 , 4140.0 , 4148.20512821 , 4088.71794872 , 3407.17948718 , 4137.43589744 , 4133.33333333 , 2042.0 , 2036.0 , 235.001 , 0.0 , 0.0 , 0.0 , 0.0 , 

100.0 , 4138.97435897 , 4171.79487179 , 4136.92307692 , 4138.97435897 , 4134.35897436 , 4132.30769231 , 4133.33333333 , 4135.8974359 , 4144.1025641 , 4149.74358974 , 4086.66666667 , 3406.66666667 , 4136.92307692 , 4131.79487179 , 2041.0 , 2032.0 , 235.008 , 0.0 , 0.0 , 0.0 , 0.0 , 

101.0 , 4137.43589744 , 4153.84615385 , 4136.92307692 , 4137.43589744 , 4134.87179487 , 4133.84615385 , 4135.8974359 , 4135.8974359 , 4147.17948718 , 4152.30769231 , 4082.05128205 , 3407.17948718 , 4136.92307692 , 4134.35897436 , 2040.0 , 2033.0 , 235.017 , 0.0 , 0.0 , 0.0 , 0.0 , 

102.0 , 4133.84615385 , 4169.23076923 , 4133.33333333 , 4133.33333333 , 4135.38461538 , 4133.84615385 , 4133.84615385 , 4136.41025641 , 4140.51282051 , 4149.74358974 , 4081.02564103 , 3408.71794872 , 4137.43589744 , 4134.87179487 , 2040.0 , 2031.0 , 235.024 , 0.0 , 0.0 , 0.0 , 0.0 , 

103.0 , 4136.41025641 , 4151.79487179 , 4133.84615385 , 4136.41025641 , 4135.38461538 , 4133.84615385 , 4131.28205128 , 4140.51282051 , 4137.94871795 , 4143.07692308 , 4083.58974359 , 3409.23076923 , 4137.43589744 , 4135.38461538 , 2042.0 , 2032.0 , 235.032 , 0.0 , 0.0 , 0.0 , 0.0 , 

104.0 , 4138.97435897 , 4152.30769231 , 4133.33333333 , 4138.46153846 , 4134.87179487 , 4134.35897436 , 4133.33333333 , 4140.0 , 4145.12820513 , 4135.8974359 , 4084.1025641 , 3407.17948718 , 4136.92307692 , 4135.38461538 , 2041.0 , 2033.0 , 235.041 , 0.0 , 0.0 , 0.0 , 0.0 , 

105.0 , 4137.43589744 , 4173.84615385 , 4134.87179487 , 4135.38461538 , 4134.35897436 , 4134.35897436 , 4135.38461538 , 4136.41025641 , 4144.1025641 , 4135.38461538 , 4083.07692308 , 3405.64102564 , 4136.41025641 , 4131.28205128 , 2040.0 , 2034.0 , 235.047 , 0.0 , 0.0 , 0.0 , 0.0 , 

106.0 , 4134.35897436 , 4212.30769231 , 4134.35897436 , 4132.30769231 , 4132.82051282 , 4132.30769231 , 4131.79487179 , 4134.87179487 , 4139.48717949 , 4144.1025641 , 4082.56410256 , 3405.12820513 , 4136.92307692 , 4128.71794872 , 2040.0 , 2035.0 , 235.057 , 0.0 , 0.0 , 0.0 , 0.0 , 

107.0 , 4136.41025641 , 4193.84615385 , 4134.87179487 , 4136.41025641 , 4134.35897436 , 4132.82051282 , 4131.79487179 , 4135.38461538 , 4144.1025641 , 4148.71794872 , 4085.12820513 , 3405.12820513 , 4137.43589744 , 4131.79487179 , 2042.0 , 2037.0 , 235.064 , 0.0 , 0.0 , 0.0 , 0.0 , 

108.0 , 4137.43589744 , 4178.97435897 , 4135.38461538 , 4139.48717949 , 4133.84615385 , 4132.30769231 , 4134.35897436 , 4135.8974359 , 4145.12820513 , 4145.12820513 , 4087.69230769 , 3405.12820513 , 4136.92307692 , 4135.38461538 , 2042.0 , 2037.0 , 235.073 , 0.0 , 0.0 , 0.0 , 0.0 , 

109.0 , 4135.8974359 , 4182.56410256 , 4134.87179487 , 4137.43589744 , 4130.76923077 , 4132.30769231 , 4132.30769231 , 4137.94871795 , 4137.43589744 , 4145.64102564 , 4085.64102564 , 3404.61538462 , 4135.8974359 , 4134.87179487 , 2040.0 , 2038.0 , 235.08 , 0.0 , 0.0 , 0.0 , 0.0 , 

110.0 , 4135.38461538 , 4175.8974359 , 4133.84615385 , 4134.87179487 , 4132.82051282 , 4133.84615385 , 4131.28205128 , 4137.43589744 , 4139.48717949 , 4150.76923077 , 4082.56410256 , 3405.64102564 , 4135.38461538 , 4135.38461538 , 2039.0 , 2039.0 , 235.089 , 0.0 , 0.0 , 0.0 , 0.0 , 

111.0 , 4136.92307692 , 4162.56410256 , 4133.33333333 , 4135.38461538 , 4138.97435897 , 4134.35897436 , 4136.92307692 , 4134.87179487 , 4148.20512821 , 4151.28205128 , 4082.05128205 , 3407.17948718 , 4136.41025641 , 4134.87179487 , 2039.0 , 2040.0 , 235.096 , 0.0 , 0.0 , 0.0 , 0.0 , 

112.0 , 4137.94871795 , 4162.05128205 , 4134.35897436 , 4135.8974359 , 4137.43589744 , 4132.82051282 , 4136.92307692 , 4137.94871795 , 4144.1025641 , 4149.74358974 , 4084.1025641 , 3408.20512821 , 4137.43589744 , 4134.35897436 , 2039.0 , 2038.0 , 235.104 , 0.0 , 0.0 , 0.0 , 0.0 , 

113.0 , 4137.43589744 , 4169.74358974 , 4135.38461538 , 4134.87179487 , 4132.82051282 , 4132.82051282 , 4134.87179487 , 4142.05128205 , 4138.46153846 , 4149.74358974 , 4084.1025641 , 3406.15384615 , 4136.41025641 , 4135.38461538 , 2039.0 , 2037.0 , 235.112 , 0.0 , 0.0 , 0.0 , 0.0 , 

114.0 , 4136.41025641 , 4161.02564103 , 4135.38461538 , 4135.8974359 , 4135.38461538 , 4133.33333333 , 4136.41025641 , 4139.48717949 , 4143.58974359 , 4148.20512821 , 4082.56410256 , 3406.66666667 , 4134.87179487 , 4134.35897436 , 2038.0 , 2035.0 , 235.119 , 0.0 , 0.0 , 0.0 , 0.0 , 

115.0 , 4135.8974359 , 4171.28205128 , 4135.8974359 , 4138.46153846 , 4137.94871795 , 4133.33333333 , 4135.8974359 , 4138.46153846 , 4144.61538462 , 4150.25641026 , 4082.05128205 , 3407.17948718 , 4136.41025641 , 4131.79487179 , 2039.0 , 2035.0 , 235.127 , 0.0 , 0.0 , 0.0 , 0.0 , 

116.0 , 4137.94871795 , 4158.46153846 , 4138.97435897 , 4138.97435897 , 4137.94871795 , 4133.84615385 , 4135.38461538 , 4143.58974359 , 4137.43589744 , 4148.71794872 , 4084.61538462 , 3407.69230769 , 4137.43589744 , 4133.33333333 , 2040.0 , 2034.0 , 235.135 , 0.0 , 0.0 , 0.0 , 0.0 , 

117.0 , 4136.41025641 , 4168.71794872 , 4137.43589744 , 4135.8974359 , 4134.87179487 , 4132.82051282 , 4137.43589744 , 4142.05128205 , 4136.41025641 , 4138.46153846 , 4085.12820513 , 3406.66666667 , 4135.38461538 , 4133.84615385 , 2040.0 , 2034.0 , 235.143 , 0.0 , 0.0 , 0.0 , 0.0 , 

118.0 , 4135.38461538 , 4164.61538462 , 4136.41025641 , 4136.41025641 , 4133.33333333 , 4133.33333333 , 4136.92307692 , 4138.97435897 , 4140.51282051 , 4138.46153846 , 4083.07692308 , 3407.69230769 , 4135.8974359 , 4133.33333333 , 2041.0 , 2033.0 , 235.151 , 0.0 , 0.0 , 0.0 , 0.0 , 

119.0 , 4134.87179487 , 4180.51282051 , 4136.92307692 , 4136.41025641 , 4135.38461538 , 4133.33333333 , 4132.30769231 , 4140.51282051 , 4138.46153846 , 4150.25641026 , 4084.61538462 , 3405.64102564 , 4138.46153846 , 4132.82051282 , 2041.0 , 2032.0 , 235.159 , 0.0 , 0.0 , 0.0 , 0.0 , 

120.0 , 4136.92307692 , 4158.46153846 , 4138.97435897 , 4136.92307692 , 4137.43589744 , 4132.82051282 , 4134.35897436 , 4139.48717949 , 4137.94871795 , 4152.30769231 , 4086.66666667 , 3405.12820513 , 4137.94871795 , 4134.35897436 , 2041.0 , 2033.0 , 235.167 , 0.0 , 0.0 , 0.0 , 0.0 , 

121.0 , 4137.43589744 , 4164.61538462 , 4133.84615385 , 4135.8974359 , 4134.87179487 , 4131.79487179 , 4134.87179487 , 4137.94871795 , 4140.51282051 , 4145.64102564 , 4084.1025641 , 3405.64102564 , 4136.41025641 , 4132.82051282 , 2042.0 , 2034.0 , 235.175 , 0.0 , 0.0 , 0.0 , 0.0 , 

122.0 , 4138.46153846 , 4155.38461538 , 4134.35897436 , 4136.92307692 , 4136.92307692 , 4133.84615385 , 4134.35897436 , 4140.51282051 , 4140.51282051 , 4147.69230769 , 4081.53846154 , 3406.15384615 , 4137.43589744 , 4131.79487179 , 2042.0 , 2034.0 , 235.181 , 0.0 , 0.0 , 0.0 , 0.0 , 

123.0 , 4136.41025641 , 4166.66666667 , 4135.38461538 , 4135.38461538 , 4138.97435897 , 4133.33333333 , 4133.33333333 , 4138.46153846 , 4139.48717949 , 4151.79487179 , 4081.53846154 , 3405.64102564 , 4137.94871795 , 4132.82051282 , 2042.0 , 2034.0 , 235.19 , 0.0 , 0.0 , 0.0 , 0.0 , 

124.0 , 4135.38461538 , 4149.23076923 , 4135.38461538 , 4134.35897436 , 4134.87179487 , 4132.30769231 , 4132.30769231 , 4136.41025641 , 4141.53846154 , 4150.25641026 , 4083.07692308 , 3407.17948718 , 4136.92307692 , 4134.35897436 , 2042.0 , 2034.0 , 235.198 , 0.0 , 0.0 , 0.0 , 0.0 , 

125.0 , 4134.87179487 , 4157.43589744 , 4133.84615385 , 4134.35897436 , 4133.33333333 , 4133.33333333 , 4132.30769231 , 4140.0 , 4142.05128205 , 4149.74358974 , 4082.05128205 , 3406.66666667 , 4136.41025641 , 4134.87179487 , 2042.0 , 2032.0 , 235.207 , 0.0 , 0.0 , 0.0 , 0.0 , 

126.0 , 4134.87179487 , 4161.02564103 , 4133.33333333 , 4136.92307692 , 4137.43589744 , 4132.82051282 , 4135.38461538 , 4142.56410256 , 4139.48717949 , 4149.23076923 , 4081.53846154 , 3406.15384615 , 4136.92307692 , 4133.84615385 , 2040.0 , 2033.0 , 235.213 , 0.0 , 0.0 , 0.0 , 0.0 , 

127.0 , 4133.84615385 , 4161.02564103 , 4132.82051282 , 4134.87179487 , 4136.41025641 , 4132.30769231 , 4132.82051282 , 4141.53846154 , 4141.02564103 , 4148.71794872 , 4082.05128205 , 3407.17948718 , 4135.8974359 , 4131.28205128 , 2041.0 , 2032.0 , 235.223 , 0.0 , 0.0 , 0.0 , 0.0 , 

128.0 , 4135.8974359 , 4154.35897436 , 4137.43589744 , 4135.38461538 , 4133.33333333 , 4137.94871795 , 4131.79487179 , 4138.97435897 , 4143.58974359 , 4148.20512821 , 4084.61538462 , 3407.69230769 , 4134.87179487 , 4131.79487179 , 2040.0 , 2033.0 , 235.23 , 0.0 , 0.0 , 0.0 , 0.0 , 

0.0 , 4136.41025641 , 4161.02564103 , 4138.97435897 , 4139.48717949 , 4136.41025641 , 4140.51282051 , 4134.87179487 , 4135.38461538 , 4142.56410256 , 4145.12820513 , 4087.17948718 , 3405.64102564 , 4135.8974359 , 4134.35897436 , 2040.0 , 2034.0 , 235.238 , 0.0 , 0.0 , 0.0 , 0.0 , 

1.0 , 4135.38461538 , 4168.71794872 , 4135.38461538 , 4140.0 , 4137.94871795 , 4135.8974359 , 4134.35897436 , 4134.87179487 , 4140.0 , 4146.15384615 , 4087.69230769 , 3404.61538462 , 4135.8974359 , 4132.82051282 , 2040.0 , 2035.0 , 235.245 , 0.0 , 0.0 , 0.0 , 0.0 , 

2.0 , 4135.38461538 , 4158.97435897 , 4134.87179487 , 4136.92307692 , 4135.8974359 , 4133.33333333 , 4133.33333333 , 4138.46153846 , 4141.02564103 , 4150.76923077 , 4085.64102564 , 3407.17948718 , 4134.87179487 , 4130.76923077 , 2040.0 , 2036.0 , 235.253 , 0.0 , 0.0 , 0.0 , 0.0 , 

3.0 , 4135.38461538 , 4171.79487179 , 4136.92307692 , 4135.38461538 , 4135.38461538 , 4134.87179487 , 4133.84615385 , 4140.0 , 4143.58974359 , 4150.25641026 , 4084.1025641 , 3406.15384615 , 4135.8974359 , 4133.33333333 , 2040.0 , 2036.0 , 235.261 , 0.0 , 0.0 , 0.0 , 0.0 , 

4.0 , 4135.8974359 , 4170.25641026 , 4137.94871795 , 4136.41025641 , 4136.41025641 , 4132.82051282 , 4132.82051282 , 4138.46153846 , 4142.05128205 , 4148.20512821 , 4085.64102564 , 3406.66666667 , 4137.94871795 , 4134.87179487 , 2040.0 , 2034.0 , 235.269 , 0.0 , 0.0 , 0.0 , 0.0 , 

5.0 , 4134.87179487 , 4175.8974359 , 4134.87179487 , 4136.41025641 , 4135.38461538 , 4130.25641026 , 4131.79487179 , 4137.43589744 , 4138.46153846 , 4149.74358974 , 4085.64102564 , 3408.20512821 , 4137.43589744 , 4131.79487179 , 2040.0 , 2033.0 , 235.277 , 0.0 , 0.0 , 0.0 , 0.0 , 

6.0 , 4135.8974359 , 4161.02564103 , 4134.87179487 , 4136.92307692 , 4134.87179487 , 4134.35897436 , 4133.84615385 , 4140.0 , 4138.46153846 , 4151.79487179 , 4086.66666667 , 3409.74358974 , 4136.41025641 , 4132.30769231 , 2041.0 , 2034.0 , 235.286 , 0.0 , 0.0 , 0.0 , 0.0 , 

7.0 , 4134.35897436 , 4172.30769231 , 4135.38461538 , 4134.87179487 , 4135.38461538 , 4135.8974359 , 4133.33333333 , 4139.48717949 , 4141.02564103 , 4147.17948718 , 4087.69230769 , 3406.66666667 , 4137.94871795 , 4132.82051282 , 2042.0 , 2033.0 , 235.293 , 0.0 , 0.0 , 0.0 , 0.0 , 

8.0 , 4133.84615385 , 4155.8974359 , 4135.8974359 , 4135.8974359 , 4135.38461538 , 4135.38461538 , 4136.41025641 , 4137.94871795 , 4142.56410256 , 4139.48717949 , 4085.12820513 , 3407.17948718 , 4138.46153846 , 4133.33333333 , 2041.0 , 2033.0 , 235.302 , 0.0 , 0.0 , 0.0 , 0.0 , 

9.0 , 4134.35897436 , 4165.64102564 , 4132.30769231 , 4134.87179487 , 4135.38461538 , 4134.87179487 , 4136.41025641 , 4140.0 , 4140.0 , 4140.0 , 4084.61538462 , 3406.66666667 , 4136.41025641 , 4133.33333333 , 2040.0 , 2033.0 , 235.309 , 0.0 , 0.0 , 0.0 , 0.0 , 

10.0 , 4137.43589744 , 4150.25641026 , 4136.41025641 , 4133.84615385 , 4135.8974359 , 4136.92307692 , 4132.30769231 , 4140.0 , 4138.97435897 , 4146.15384615 , 4089.74358974 , 3407.17948718 , 4135.38461538 , 4134.35897436 , 2041.0 , 2034.0 , 235.316 , 0.0 , 0.0 , 0.0 , 0.0 , 

11.0 , 4134.35897436 , 4160.51282051 , 4137.94871795 , 4136.92307692 , 4133.84615385 , 4134.35897436 , 4130.76923077 , 4137.94871795 , 4140.51282051 , 4148.20512821 , 4088.20512821 , 3406.15384615 , 4137.43589744 , 4133.33333333 , 2040.0 , 2033.0 , 235.324 , 0.0 , 0.0 , 0.0 , 0.0 , 

12.0 , 4133.33333333 , 4145.64102564 , 4135.8974359 , 4140.0 , 4135.38461538 , 4131.79487179 , 4135.38461538 , 4141.53846154 , 4139.48717949 , 4150.76923077 , 4084.61538462 , 3405.64102564 , 4137.94871795 , 4133.84615385 , 2040.0 , 2033.0 , 235.331 , 0.0 , 0.0 , 0.0 , 0.0 , 

13.0 , 4133.84615385 , 4152.82051282 , 4134.35897436 , 4134.35897436 , 4137.94871795 , 4133.33333333 , 4133.84615385 , 4141.53846154 , 4138.97435897 , 4151.28205128 , 4086.15384615 , 3406.15384615 , 4136.41025641 , 4134.87179487 , 2040.0 , 2034.0 , 235.341 , 0.0 , 0.0 , 0.0 , 0.0 , 

14.0 , 4137.43589744 , 4150.25641026 , 4137.94871795 , 4133.33333333 , 4137.94871795 , 4136.41025641 , 4129.74358974 , 4136.92307692 , 4143.58974359 , 4150.25641026 , 4086.15384615 , 3407.69230769 , 4136.92307692 , 4132.82051282 , 2041.0 , 2033.0 , 235.348 , 0.0 , 0.0 , 0.0 , 0.0 , 

15.0 , 4136.41025641 , 4161.02564103 , 4135.38461538 , 4136.41025641 , 4134.87179487 , 4133.84615385 , 4130.76923077 , 4136.92307692 , 4139.48717949 , 4153.33333333 , 4084.61538462 , 3406.15384615 , 4136.92307692 , 4130.76923077 , 2041.0 , 2036.0 , 235.357 , 0.0 , 0.0 , 0.0 , 0.0 , 

16.0 , 4134.87179487 , 4155.38461538 , 4134.87179487 , 4136.92307692 , 4134.87179487 , 4133.33333333 , 4134.35897436 , 4140.51282051 , 4132.82051282 , 4149.74358974 , 4087.17948718 , 3405.12820513 , 4135.38461538 , 4131.79487179 , 2041.0 , 2036.0 , 235.364 , 0.0 , 0.0 , 0.0 , 0.0 , 

17.0 , 4135.38461538 , 4161.53846154 , 4137.94871795 , 4136.41025641 , 4135.8974359 , 4135.8974359 , 4134.87179487 , 4138.97435897 , 4139.48717949 , 4140.0 , 4087.17948718 , 3407.17948718 , 4135.8974359 , 4133.33333333 , 2040.0 , 2035.0 , 235.373 , 0.0 , 0.0 , 0.0 , 0.0 , 

18.0 , 4137.43589744 , 4165.64102564 , 4137.94871795 , 4136.92307692 , 4135.8974359 , 4134.35897436 , 4133.84615385 , 4138.46153846 , 4146.66666667 , 4138.46153846 , 4084.1025641 , 3408.71794872 , 4135.8974359 , 4132.82051282 , 2041.0 , 2036.0 , 235.379 , 0.0 , 0.0 , 0.0 , 0.0 , 

19.0 , 4136.41025641 , 4157.94871795 , 4134.87179487 , 4137.43589744 , 4134.35897436 , 4133.33333333 , 4133.84615385 , 4141.53846154 , 4141.02564103 , 4143.58974359 , 4085.12820513 , 3408.20512821 , 4136.41025641 , 4132.30769231 , 2042.0 , 2036.0 , 235.387 , 0.0 , 0.0 , 0.0 , 0.0 , 

20.0 , 4134.87179487 , 4163.07692308 , 4133.84615385 , 4137.43589744 , 4134.35897436 , 4136.41025641 , 4133.33333333 , 4141.53846154 , 4136.41025641 , 4142.05128205 , 4086.15384615 , 3405.12820513 , 4137.43589744 , 4132.30769231 , 2042.0 , 2034.0 , 235.395 , 0.0 , 0.0 , 0.0 , 0.0 , 

21.0 , 4135.38461538 , 4166.66666667 , 4133.84615385 , 4136.92307692 , 4134.87179487 , 4135.38461538 , 4132.82051282 , 4141.02564103 , 4140.51282051 , 4141.02564103 , 4086.66666667 , 3404.61538462 , 4136.92307692 , 4132.30769231 , 2041.0 , 2033.0 , 235.403 , 0.0 , 0.0 , 0.0 , 0.0 , 

22.0 , 4135.8974359 , 4176.41025641 , 4134.87179487 , 4135.38461538 , 4132.30769231 , 4131.79487179 , 4132.82051282 , 4137.94871795 , 4143.07692308 , 4142.05128205 , 4084.61538462 , 3405.12820513 , 4135.38461538 , 4131.28205128 , 2040.0 , 2032.0 , 235.411 , 0.0 , 0.0 , 0.0 , 0.0 , 

23.0 , 4136.41025641 , 4158.46153846 , 4137.94871795 , 4137.43589744 , 4133.84615385 , 4135.38461538 , 4133.84615385 , 4136.41025641 , 4141.53846154 , 4138.46153846 , 4080.51282051 , 3405.64102564 , 4135.8974359 , 4130.25641026 , 2040.0 , 2032.0 , 235.42 , 0.0 , 0.0 , 0.0 , 0.0 , 

24.0 , 4135.38461538 , 4166.15384615 , 4136.41025641 , 4136.92307692 , 4137.43589744 , 4136.92307692 , 4131.79487179 , 4140.0 , 4138.46153846 , 4142.05128205 , 4082.05128205 , 3403.58974359 , 4136.41025641 , 4131.79487179 , 2042.0 , 2033.0 , 235.427 , 0.0 , 0.0 , 0.0 , 0.0 , 

25.0 , 4137.94871795 , 4151.28205128 , 4136.41025641 , 4137.43589744 , 4136.41025641 , 4134.35897436 , 4130.25641026 , 4144.61538462 , 4140.0 , 4151.79487179 , 4087.69230769 , 3405.64102564 , 4135.8974359 , 4134.35897436 , 2041.0 , 2031.0 , 235.435 , 0.0 , 0.0 , 0.0 , 0.0 , 

26.0 , 4138.46153846 , 4159.48717949 , 4135.8974359 , 4138.46153846 , 4133.84615385 , 4133.33333333 , 4131.28205128 , 4139.48717949 , 4147.17948718 , 4155.38461538 , 4088.20512821 , 3406.15384615 , 4136.92307692 , 4133.33333333 , 2041.0 , 2031.0 , 235.442 , 0.0 , 0.0 , 0.0 , 0.0 , 

27.0 , 4136.92307692 , 4147.69230769 , 4136.92307692 , 4138.46153846 , 4136.41025641 , 4134.87179487 , 4134.87179487 , 4135.8974359 , 4145.12820513 , 4151.28205128 , 4087.69230769 , 3407.17948718 , 4137.94871795 , 4131.79487179 , 2040.0 , 2032.0 , 235.45 , 0.0 , 0.0 , 0.0 , 0.0 , 

28.0 , 4134.35897436 , 4166.15384615 , 4134.87179487 , 4136.41025641 , 4135.8974359 , 4134.35897436 , 4134.87179487 , 4139.48717949 , 4137.43589744 , 4147.17948718 , 4086.66666667 , 3407.17948718 , 4136.92307692 , 4132.82051282 , 2040.0 , 2034.0 , 235.459 , 0.0 , 0.0 , 0.0 , 0.0 , 

29.0 , 4136.92307692 , 4151.28205128 , 4135.38461538 , 4138.97435897 , 4136.41025641 , 4135.8974359 , 4133.84615385 , 4143.07692308 , 4138.97435897 , 4145.64102564 , 4083.07692308 , 3406.66666667 , 4136.92307692 , 4131.79487179 , 2041.0 , 2032.0 , 235.467 , 0.0 , 0.0 , 0.0 , 0.0 , 

30.0 , 4135.38461538 , 4158.46153846 , 4134.35897436 , 4139.48717949 , 4136.92307692 , 4135.38461538 , 4131.28205128 , 4142.05128205 , 4141.02564103 , 4145.12820513 , 4082.56410256 , 3405.12820513 , 4137.43589744 , 4130.76923077 , 2041.0 , 2034.0 , 235.475 , 0.0 , 0.0 , 0.0 , 0.0 , 

31.0 , 4132.30769231 , 4153.84615385 , 4136.92307692 , 4137.94871795 , 4134.87179487 , 4133.84615385 , 4131.79487179 , 4138.97435897 , 4136.41025641 , 4143.58974359 , 4084.1025641 , 3406.15384615 , 4137.43589744 , 4134.87179487 , 2041.0 , 2034.0 , 235.482 , 0.0 , 0.0 , 0.0 , 0.0 , 

32.0 , 4131.79487179 , 4162.56410256 , 4136.92307692 , 4136.92307692 , 4135.8974359 , 4131.79487179 , 4132.82051282 , 4137.43589744 , 4138.97435897 , 4144.61538462 , 4084.61538462 , 3406.66666667 , 4136.41025641 , 4135.38461538 , 2041.0 , 2035.0 , 235.491 , 0.0 , 0.0 , 0.0 , 0.0 , 

33.0 , 4134.35897436 , 4153.84615385 , 4133.33333333 , 4138.46153846 , 4138.46153846 , 4133.84615385 , 4133.84615385 , 4139.48717949 , 4145.12820513 , 4148.20512821 , 4088.20512821 , 3406.15384615 , 4136.92307692 , 4131.79487179 , 2040.0 , 2035.0 , 235.498 , 0.0 , 0.0 , 0.0 , 0.0 , 

