['COUNTER', 'AF3', 'F7', 'F3', 'FC5', 'T7', 'P7', 'O1', 'O2', 'P8', 'T8', 'FC6', 'F4', 'F8', 'AF4', 'GYROX', 'GYROY', 'TIMESTAMP', 'FUNC_ID', 'FUNC_VALUE', 'MARKER', 'SYNC_SIGNAL']
36.0 , 4112.82051282 , 4106.66666667 , 4118.97435897 , 4110.25641026 , 4120.0 , 4113.33333333 , 4117.94871795 , 4199.48717949 , 4119.48717949 , 4125.12820513 , 4175.38461538 , 4895.38461538 , 4105.12820513 , 4121.53846154 , 2032.0 , 2036.0 , 14.358 , 0.0 , 0.0 , 0.0 , 0.0 , 

37.0 , 4115.38461538 , 4110.25641026 , 4117.94871795 , 4113.84615385 , 4119.48717949 , 4115.38461538 , 4118.46153846 , 4197.94871795 , 4120.0 , 4127.17948718 , 4172.30769231 , 4897.43589744 , 4106.66666667 , 4121.53846154 , 2033.0 , 2035.0 , 14.366 , 0.0 , 0.0 , 0.0 , 0.0 , 

38.0 , 4115.38461538 , 4112.30769231 , 4118.46153846 , 4114.35897436 , 4116.41025641 , 4116.41025641 , 4112.30769231 , 4194.35897436 , 4120.0 , 4123.07692308 , 4170.76923077 , 4901.02564103 , 4105.64102564 , 4117.94871795 , 2033.0 , 2036.0 , 14.374 , 0.0 , 0.0 , 0.0 , 0.0 , 

39.0 , 4116.92307692 , 4117.94871795 , 4118.46153846 , 4117.43589744 , 4117.43589744 , 4116.41025641 , 4113.33333333 , 4182.56410256 , 4117.94871795 , 4121.53846154 , 4171.28205128 , 4903.07692308 , 4110.25641026 , 4121.53846154 , 2035.0 , 2034.0 , 14.382 , 0.0 , 0.0 , 0.0 , 0.0 , 

40.0 , 4115.8974359 , 4120.0 , 4118.97435897 , 4122.05128205 , 4116.92307692 , 4114.35897436 , 4112.82051282 , 4177.94871795 , 4117.43589744 , 4124.1025641 , 4173.33333333 , 4901.53846154 , 4117.94871795 , 4127.69230769 , 2036.0 , 2034.0 , 14.389 , 0.0 , 0.0 , 0.0 , 0.0 , 

41.0 , 4124.61538462 , 4119.48717949 , 4116.41025641 , 4122.56410256 , 4116.41025641 , 4115.38461538 , 4107.17948718 , 4168.20512821 , 4109.23076923 , 4124.61538462 , 4172.82051282 , 4896.92307692 , 4118.46153846 , 4125.64102564 , 2036.0 , 2035.0 , 14.397 , 0.0 , 0.0 , 0.0 , 0.0 , 

42.0 , 4124.1025641 , 4122.05128205 , 4116.41025641 , 4120.0 , 4114.87179487 , 4113.33333333 , 4107.17948718 , 4180.0 , 4113.84615385 , 4123.07692308 , 4176.41025641 , 4894.87179487 , 4124.1025641 , 4125.12820513 , 2037.0 , 2035.0 , 14.405 , 0.0 , 0.0 , 0.0 , 0.0 , 

43.0 , 4119.48717949 , 4115.8974359 , 4116.92307692 , 4116.92307692 , 4114.87179487 , 4110.76923077 , 4108.20512821 , 4175.38461538 , 4110.76923077 , 4121.53846154 , 4173.33333333 , 4898.97435897 , 4125.12820513 , 4126.15384615 , 2038.0 , 2034.0 , 14.413 , 0.0 , 0.0 , 0.0 , 0.0 , 

44.0 , 4118.46153846 , 4117.94871795 , 4118.46153846 , 4121.53846154 , 4114.35897436 , 4112.82051282 , 4111.28205128 , 4189.23076923 , 4114.35897436 , 4126.15384615 , 4176.92307692 , 4897.43589744 , 4134.35897436 , 4128.20512821 , 2040.0 , 2036.0 , 14.421 , 0.0 , 0.0 , 0.0 , 0.0 , 

45.0 , 4117.43589744 , 4104.61538462 , 4116.92307692 , 4115.38461538 , 4117.94871795 , 4113.84615385 , 4104.1025641 , 4178.97435897 , 4107.17948718 , 4125.12820513 , 4173.33333333 , 4898.46153846 , 4120.0 , 4123.58974359 , 2040.0 , 2035.0 , 14.429 , 0.0 , 0.0 , 0.0 , 0.0 , 

46.0 , 4110.76923077 , 4106.15384615 , 4114.87179487 , 4111.79487179 , 4116.41025641 , 4112.30769231 , 4110.25641026 , 4200.51282051 , 4123.58974359 , 4127.17948718 , 4174.87179487 , 4896.41025641 , 4121.02564103 , 4125.12820513 , 2041.0 , 2036.0 , 14.437 , 0.0 , 0.0 , 0.0 , 0.0 , 

47.0 , 4110.76923077 , 4098.97435897 , 4117.94871795 , 4106.15384615 , 4114.35897436 , 4108.71794872 , 4108.20512821 , 4194.35897436 , 4121.53846154 , 4127.69230769 , 4171.79487179 , 4898.97435897 , 4108.71794872 , 4121.53846154 , 2041.0 , 2036.0 , 14.445 , 0.0 , 0.0 , 0.0 , 0.0 , 

48.0 , 4114.87179487 , 4108.71794872 , 4123.07692308 , 4109.74358974 , 4114.35897436 , 4114.35897436 , 4116.41025641 , 4206.66666667 , 4126.66666667 , 4126.66666667 , 4177.43589744 , 4895.38461538 , 4114.35897436 , 4123.07692308 , 2040.0 , 2035.0 , 14.453 , 0.0 , 0.0 , 0.0 , 0.0 , 

49.0 , 4113.84615385 , 4099.48717949 , 4121.53846154 , 4105.64102564 , 4117.43589744 , 4116.41025641 , 4112.30769231 , 4196.41025641 , 4120.0 , 4121.02564103 , 4171.79487179 , 4897.94871795 , 4103.07692308 , 4119.48717949 , 2039.0 , 2035.0 , 14.46 , 0.0 , 0.0 , 0.0 , 0.0 , 

50.0 , 4116.41025641 , 4111.28205128 , 4119.48717949 , 4111.79487179 , 4118.97435897 , 4117.43589744 , 4118.97435897 , 4211.28205128 , 4131.28205128 , 4126.66666667 , 4174.35897436 , 4896.92307692 , 4110.76923077 , 4120.51282051 , 2041.0 , 2035.0 , 14.468 , 0.0 , 0.0 , 0.0 , 0.0 , 

51.0 , 4116.92307692 , 4109.74358974 , 4122.56410256 , 4111.79487179 , 4118.97435897 , 4113.33333333 , 4115.8974359 , 4196.41025641 , 4123.07692308 , 4126.66666667 , 4173.84615385 , 4900.51282051 , 4105.12820513 , 4120.0 , 2038.0 , 2032.0 , 14.476 , 0.0 , 0.0 , 0.0 , 0.0 , 

52.0 , 4118.97435897 , 4121.53846154 , 4122.05128205 , 4120.51282051 , 4115.8974359 , 4116.92307692 , 4120.51282051 , 4193.33333333 , 4122.56410256 , 4126.15384615 , 4175.8974359 , 4894.87179487 , 4115.38461538 , 4125.12820513 , 2038.0 , 2034.0 , 14.484 , 0.0 , 0.0 , 0.0 , 0.0 , 

53.0 , 4121.02564103 , 4120.51282051 , 4116.41025641 , 4120.0 , 4115.38461538 , 4115.8974359 , 4110.76923077 , 4176.41025641 , 4113.84615385 , 4122.56410256 , 4170.76923077 , 4899.48717949 , 4111.79487179 , 4122.05128205 , 2039.0 , 2033.0 , 14.492 , 0.0 , 0.0 , 0.0 , 0.0 , 

54.0 , 4122.05128205 , 4127.17948718 , 4116.92307692 , 4121.02564103 , 4118.46153846 , 4116.41025641 , 4112.82051282 , 4170.76923077 , 4112.30769231 , 4124.61538462 , 4174.35897436 , 4903.58974359 , 4121.02564103 , 4124.1025641 , 2040.0 , 2033.0 , 14.5 , 0.0 , 0.0 , 0.0 , 0.0 , 

55.0 , 4116.41025641 , 4114.87179487 , 4118.46153846 , 4117.43589744 , 4118.46153846 , 4112.82051282 , 4110.76923077 , 4164.1025641 , 4105.12820513 , 4123.58974359 , 4175.38461538 , 4904.1025641 , 4123.58974359 , 4127.69230769 , 2040.0 , 2035.0 , 14.508 , 0.0 , 0.0 , 0.0 , 0.0 , 

56.0 , 4120.0 , 4114.87179487 , 4117.43589744 , 4121.02564103 , 4114.87179487 , 4113.33333333 , 4106.15384615 , 4173.84615385 , 4105.12820513 , 4121.53846154 , 4177.43589744 , 4895.8974359 , 4128.20512821 , 4127.17948718 , 2039.0 , 2035.0 , 14.516 , 0.0 , 0.0 , 0.0 , 0.0 , 

57.0 , 4116.92307692 , 4111.79487179 , 4118.97435897 , 4117.43589744 , 4113.33333333 , 4112.30769231 , 4098.97435897 , 4182.56410256 , 4109.74358974 , 4117.43589744 , 4179.48717949 , 4894.87179487 , 4124.61538462 , 4123.58974359 , 2039.0 , 2034.0 , 14.523 , 0.0 , 0.0 , 0.0 , 0.0 , 

58.0 , 4114.35897436 , 4105.64102564 , 4117.94871795 , 4114.87179487 , 4116.92307692 , 4111.28205128 , 4104.1025641 , 4184.1025641 , 4115.8974359 , 4122.56410256 , 4177.43589744 , 4894.87179487 , 4122.05128205 , 4129.74358974 , 2040.0 , 2032.0 , 14.531 , 0.0 , 0.0 , 0.0 , 0.0 , 

59.0 , 4113.33333333 , 4103.58974359 , 4116.92307692 , 4113.33333333 , 4116.41025641 , 4111.28205128 , 4109.23076923 , 4201.53846154 , 4126.15384615 , 4129.23076923 , 4176.92307692 , 4894.87179487 , 4124.1025641 , 4130.25641026 , 2041.0 , 2031.0 , 14.539 , 0.0 , 0.0 , 0.0 , 0.0 , 

60.0 , 4114.35897436 , 4105.64102564 , 4118.97435897 , 4111.28205128 , 4116.92307692 , 4113.84615385 , 4108.20512821 , 4202.56410256 , 4124.61538462 , 4124.61538462 , 4178.97435897 , 4897.43589744 , 4117.43589744 , 4122.05128205 , 2043.0 , 2030.0 , 14.547 , 0.0 , 0.0 , 0.0 , 0.0 , 

61.0 , 4110.76923077 , 4111.28205128 , 4120.0 , 4111.79487179 , 4117.43589744 , 4114.87179487 , 4113.84615385 , 4208.20512821 , 4129.23076923 , 4124.61538462 , 4182.05128205 , 4895.8974359 , 4114.35897436 , 4123.58974359 , 2043.0 , 2031.0 , 14.555 , 0.0 , 0.0 , 0.0 , 0.0 , 

62.0 , 4114.35897436 , 4108.20512821 , 4118.97435897 , 4111.28205128 , 4118.46153846 , 4115.38461538 , 4114.87179487 , 4194.87179487 , 4122.05128205 , 4127.17948718 , 4172.30769231 , 4896.92307692 , 4106.66666667 , 4123.58974359 , 2042.0 , 2029.0 , 14.564 , 0.0 , 0.0 , 0.0 , 0.0 , 

63.0 , 4118.97435897 , 4118.46153846 , 4123.07692308 , 4114.87179487 , 4117.43589744 , 4118.97435897 , 4118.97435897 , 4207.69230769 , 4125.12820513 , 4126.66666667 , 4172.30769231 , 4896.41025641 , 4111.28205128 , 4119.48717949 , 2042.0 , 2030.0 , 14.571 , 0.0 , 0.0 , 0.0 , 0.0 , 

64.0 , 4118.97435897 , 4112.82051282 , 4123.58974359 , 4112.30769231 , 4120.0 , 4115.8974359 , 4112.30769231 , 4185.64102564 , 4112.30769231 , 4120.51282051 , 4170.76923077 , 4900.51282051 , 4102.05128205 , 4116.41025641 , 2042.0 , 2030.0 , 14.58 , 0.0 , 0.0 , 0.0 , 0.0 , 

65.0 , 4118.46153846 , 4122.05128205 , 4118.97435897 , 4117.94871795 , 4120.0 , 4114.35897436 , 4113.84615385 , 4188.71794872 , 4115.8974359 , 4123.07692308 , 4169.74358974 , 4899.48717949 , 4117.43589744 , 4123.58974359 , 2045.0 , 2031.0 , 14.587 , 0.0 , 0.0 , 0.0 , 0.0 , 

66.0 , 4117.43589744 , 4116.41025641 , 4116.92307692 , 4117.94871795 , 4118.97435897 , 4113.84615385 , 4105.12820513 , 4170.25641026 , 4106.15384615 , 4120.51282051 , 4164.61538462 , 4902.56410256 , 4114.35897436 , 4122.05128205 , 2043.0 , 2034.0 , 14.594 , 0.0 , 0.0 , 0.0 , 0.0 , 

67.0 , 4117.43589744 , 4120.51282051 , 4120.0 , 4122.56410256 , 4116.92307692 , 4117.43589744 , 4109.74358974 , 4176.92307692 , 4112.82051282 , 4121.53846154 , 4176.92307692 , 4899.48717949 , 4122.05128205 , 4126.15384615 , 2045.0 , 2034.0 , 14.602 , 0.0 , 0.0 , 0.0 , 0.0 , 

68.0 , 4118.46153846 , 4109.74358974 , 4117.43589744 , 4117.94871795 , 4116.92307692 , 4114.87179487 , 4103.07692308 , 4167.17948718 , 4105.64102564 , 4120.51282051 , 4174.87179487 , 4902.05128205 , 4116.92307692 , 4124.61538462 , 2043.0 , 2035.0 , 14.61 , 0.0 , 0.0 , 0.0 , 0.0 , 

69.0 , 4120.51282051 , 4123.07692308 , 4114.87179487 , 4125.12820513 , 4117.43589744 , 4113.84615385 , 4108.20512821 , 4184.61538462 , 4116.92307692 , 4122.05128205 , 4175.8974359 , 4895.8974359 , 4131.79487179 , 4126.15384615 , 2040.0 , 2035.0 , 14.618 , 0.0 , 0.0 , 0.0 , 0.0 , 

70.0 , 4114.35897436 , 4110.76923077 , 4119.48717949 , 4118.46153846 , 4117.94871795 , 4110.76923077 , 4106.15384615 , 4172.82051282 , 4116.41025641 , 4121.02564103 , 4180.0 , 4894.87179487 , 4119.48717949 , 4124.61538462 , 2041.0 , 2035.0 , 14.626 , 0.0 , 0.0 , 0.0 , 0.0 , 

71.0 , 4112.82051282 , 4109.74358974 , 4121.02564103 , 4114.35897436 , 4117.43589744 , 4113.84615385 , 4115.38461538 , 4186.15384615 , 4128.20512821 , 4126.66666667 , 4186.15384615 , 4891.28205128 , 4123.58974359 , 4132.30769231 , 2040.0 , 2034.0 , 14.634 , 0.0 , 0.0 , 0.0 , 0.0 , 

72.0 , 4110.25641026 , 4103.58974359 , 4117.43589744 , 4110.76923077 , 4116.41025641 , 4113.84615385 , 4113.84615385 , 4191.28205128 , 4124.1025641 , 4124.61538462 , 4177.43589744 , 4895.8974359 , 4117.94871795 , 4127.69230769 , 2041.0 , 2033.0 , 14.642 , 0.0 , 0.0 , 0.0 , 0.0 , 

73.0 , 4113.33333333 , 4107.69230769 , 4118.97435897 , 4111.79487179 , 4117.43589744 , 4114.35897436 , 4109.23076923 , 4192.30769231 , 4125.12820513 , 4126.66666667 , 4176.92307692 , 4896.92307692 , 4109.23076923 , 4120.0 , 2041.0 , 2035.0 , 14.65 , 0.0 , 0.0 , 0.0 , 0.0 , 

74.0 , 4112.82051282 , 4106.15384615 , 4123.07692308 , 4105.12820513 , 4117.43589744 , 4109.74358974 , 4093.84615385 , 4193.33333333 , 4130.25641026 , 4129.74358974 , 4178.46153846 , 4895.8974359 , 4096.92307692 , 4117.94871795 , 2042.0 , 2035.0 , 14.657 , 0.0 , 0.0 , 0.0 , 0.0 , 

75.0 , 4115.38461538 , 4118.97435897 , 4121.02564103 , 4109.74358974 , 4116.92307692 , 4110.76923077 , 4100.51282051 , 4206.15384615 , 4132.30769231 , 4127.17948718 , 4173.33333333 , 4893.33333333 , 4104.1025641 , 4120.51282051 , 2041.0 , 2035.0 , 14.665 , 0.0 , 0.0 , 0.0 , 0.0 , 

76.0 , 4114.87179487 , 4118.46153846 , 4120.0 , 4114.35897436 , 4116.41025641 , 4115.38461538 , 4117.43589744 , 4204.61538462 , 4124.61538462 , 4124.1025641 , 4169.74358974 , 4897.94871795 , 4107.69230769 , 4117.94871795 , 2039.0 , 2034.0 , 14.673 , 0.0 , 0.0 , 0.0 , 0.0 , 

77.0 , 4119.48717949 , 4114.35897436 , 4120.51282051 , 4115.8974359 , 4118.46153846 , 4120.0 , 4121.02564103 , 4184.1025641 , 4115.38461538 , 4124.61538462 , 4168.20512821 , 4901.02564103 , 4107.17948718 , 4120.51282051 , 2039.0 , 2034.0 , 14.681 , 0.0 , 0.0 , 0.0 , 0.0 , 

78.0 , 4120.51282051 , 4122.05128205 , 4121.53846154 , 4120.0 , 4116.92307692 , 4115.38461538 , 4112.82051282 , 4187.17948718 , 4121.02564103 , 4125.12820513 , 4171.28205128 , 4899.48717949 , 4117.43589744 , 4126.15384615 , 2039.0 , 2035.0 , 14.689 , 0.0 , 0.0 , 0.0 , 0.0 , 

79.0 , 4122.05128205 , 4121.53846154 , 4118.46153846 , 4123.07692308 , 4118.46153846 , 4112.82051282 , 4112.30769231 , 4174.35897436 , 4114.35897436 , 4121.02564103 , 4173.33333333 , 4901.53846154 , 4115.8974359 , 4123.58974359 , 2038.0 , 2037.0 , 14.697 , 0.0 , 0.0 , 0.0 , 0.0 , 

80.0 , 4120.0 , 4121.53846154 , 4116.41025641 , 4124.61538462 , 4117.43589744 , 4116.41025641 , 4118.46153846 , 4176.92307692 , 4113.33333333 , 4121.53846154 , 4176.92307692 , 4898.97435897 , 4122.56410256 , 4126.15384615 , 2038.0 , 2036.0 , 14.705 , 0.0 , 0.0 , 0.0 , 0.0 , 

81.0 , 4120.0 , 4116.41025641 , 4113.33333333 , 4123.58974359 , 4116.92307692 , 4113.84615385 , 4107.69230769 , 4166.15384615 , 4103.07692308 , 4121.53846154 , 4171.79487179 , 4897.43589744 , 4124.61538462 , 4125.64102564 , 2038.0 , 2036.0 , 14.713 , 0.0 , 0.0 , 0.0 , 0.0 , 

82.0 , 4119.48717949 , 4119.48717949 , 4113.84615385 , 4126.66666667 , 4116.41025641 , 4108.20512821 , 4100.51282051 , 4186.66666667 , 4109.74358974 , 4125.12820513 , 4175.8974359 , 4895.38461538 , 4130.25641026 , 4124.61538462 , 2037.0 , 2035.0 , 14.721 , 0.0 , 0.0 , 0.0 , 0.0 , 

83.0 , 4116.41025641 , 4104.1025641 , 4116.92307692 , 4116.41025641 , 4118.97435897 , 4106.66666667 , 4095.8974359 , 4180.51282051 , 4109.23076923 , 4123.58974359 , 4175.8974359 , 4898.97435897 , 4115.38461538 , 4122.05128205 , 2035.0 , 2035.0 , 14.729 , 0.0 , 0.0 , 0.0 , 0.0 , 

84.0 , 4112.30769231 , 4105.12820513 , 4121.53846154 , 4113.84615385 , 4116.92307692 , 4113.33333333 , 4107.17948718 , 4197.43589744 , 4122.05128205 , 4124.1025641 , 4179.48717949 , 4893.33333333 , 4122.05128205 , 4125.64102564 , 2036.0 , 2035.0 , 14.736 , 0.0 , 0.0 , 0.0 , 0.0 , 

85.0 , 4113.33333333 , 4100.0 , 4122.05128205 , 4112.30769231 , 4116.41025641 , 4110.76923077 , 4103.58974359 , 4192.82051282 , 4114.87179487 , 4124.61538462 , 4174.35897436 , 4894.87179487 , 4112.82051282 , 4122.05128205 , 2036.0 , 2035.0 , 14.744 , 0.0 , 0.0 , 0.0 , 0.0 , 

86.0 , 4114.35897436 , 4110.25641026 , 4121.02564103 , 4117.43589744 , 4117.94871795 , 4110.76923077 , 4112.82051282 , 4211.28205128 , 4123.07692308 , 4128.71794872 , 4178.97435897 , 4894.87179487 , 4117.43589744 , 4124.61538462 , 2037.0 , 2036.0 , 14.752 , 0.0 , 0.0 , 0.0 , 0.0 , 

87.0 , 4111.28205128 , 4101.02564103 , 4121.53846154 , 4112.30769231 , 4118.97435897 , 4112.30769231 , 4111.28205128 , 4197.43589744 , 4120.51282051 , 4126.15384615 , 4174.35897436 , 4899.48717949 , 4106.66666667 , 4122.05128205 , 2038.0 , 2034.0 , 14.76 , 0.0 , 0.0 , 0.0 , 0.0 , 

88.0 , 4115.38461538 , 4113.84615385 , 4124.1025641 , 4116.92307692 , 4118.46153846 , 4118.46153846 , 4117.43589744 , 4204.61538462 , 4127.17948718 , 4129.74358974 , 4174.35897436 , 4895.8974359 , 4113.84615385 , 4122.05128205 , 2038.0 , 2036.0 , 14.768 , 0.0 , 0.0 , 0.0 , 0.0 , 

89.0 , 4117.43589744 , 4111.79487179 , 4123.58974359 , 4113.84615385 , 4118.97435897 , 4116.92307692 , 4114.87179487 , 4194.35897436 , 4118.97435897 , 4128.71794872 , 4170.76923077 , 4902.56410256 , 4105.64102564 , 4118.97435897 , 2038.0 , 2035.0 , 14.776 , 0.0 , 0.0 , 0.0 , 0.0 , 

90.0 , 4118.46153846 , 4121.53846154 , 4120.51282051 , 4120.0 , 4118.46153846 , 4119.48717949 , 4121.02564103 , 4194.35897436 , 4121.53846154 , 4125.64102564 , 4174.35897436 , 4903.07692308 , 4114.87179487 , 4121.53846154 , 2038.0 , 2036.0 , 14.784 , 0.0 , 0.0 , 0.0 , 0.0 , 

91.0 , 4116.92307692 , 4120.51282051 , 4117.94871795 , 4122.05128205 , 4116.92307692 , 4115.38461538 , 4112.30769231 , 4181.53846154 , 4114.35897436 , 4122.05128205 , 4171.28205128 , 4902.05128205 , 4113.33333333 , 4122.56410256 , 2039.0 , 2036.0 , 14.791 , 0.0 , 0.0 , 0.0 , 0.0 , 

92.0 , 4121.02564103 , 4124.1025641 , 4118.46153846 , 4123.07692308 , 4117.43589744 , 4114.87179487 , 4109.74358974 , 4174.87179487 , 4109.74358974 , 4123.58974359 , 4171.79487179 , 4898.46153846 , 4118.46153846 , 4125.12820513 , 2040.0 , 2035.0 , 14.799 , 0.0 , 0.0 , 0.0 , 0.0 , 

93.0 , 4118.97435897 , 4114.35897436 , 4120.0 , 4120.0 , 4115.38461538 , 4111.28205128 , 4107.17948718 , 4169.74358974 , 4106.66666667 , 4120.0 , 4173.33333333 , 4900.0 , 4121.02564103 , 4123.07692308 , 2041.0 , 2035.0 , 14.807 , 0.0 , 0.0 , 0.0 , 0.0 , 

94.0 , 4120.51282051 , 4114.35897436 , 4120.51282051 , 4123.07692308 , 4113.84615385 , 4110.25641026 , 4103.07692308 , 4173.33333333 , 4108.20512821 , 4119.48717949 , 4174.87179487 , 4897.94871795 , 4126.15384615 , 4125.64102564 , 2042.0 , 2035.0 , 14.815 , 0.0 , 0.0 , 0.0 , 0.0 , 

95.0 , 4117.94871795 , 4114.87179487 , 4121.53846154 , 4122.05128205 , 4115.38461538 , 4110.76923077 , 4099.48717949 , 4184.1025641 , 4112.30769231 , 4123.58974359 , 4178.46153846 , 4896.92307692 , 4124.1025641 , 4129.23076923 , 2044.0 , 2036.0 , 14.823 , 0.0 , 0.0 , 0.0 , 0.0 , 

96.0 , 4116.41025641 , 4110.25641026 , 4120.51282051 , 4120.51282051 , 4116.92307692 , 4112.30769231 , 4104.61538462 , 4183.58974359 , 4114.87179487 , 4125.12820513 , 4177.43589744 , 4896.92307692 , 4120.51282051 , 4126.15384615 , 2044.0 , 2036.0 , 14.831 , 0.0 , 0.0 , 0.0 , 0.0 , 

97.0 , 4110.76923077 , 4108.71794872 , 4122.05128205 , 4122.05128205 , 4114.35897436 , 4110.25641026 , 4108.20512821 , 4201.02564103 , 4125.12820513 , 4126.66666667 , 4178.46153846 , 4895.8974359 , 4125.64102564 , 4122.56410256 , 2045.0 , 2033.0 , 14.839 , 0.0 , 0.0 , 0.0 , 0.0 , 

98.0 , 4110.76923077 , 4104.1025641 , 4121.53846154 , 4117.43589744 , 4115.8974359 , 4110.76923077 , 4105.64102564 , 4200.0 , 4118.97435897 , 4127.17948718 , 4176.41025641 , 4897.94871795 , 4116.92307692 , 4122.56410256 , 2046.0 , 2033.0 , 14.847 , 0.0 , 0.0 , 0.0 , 0.0 , 

99.0 , 4111.79487179 , 4109.74358974 , 4119.48717949 , 4116.92307692 , 4116.41025641 , 4115.8974359 , 4114.87179487 , 4213.84615385 , 4124.1025641 , 4128.71794872 , 4180.51282051 , 4896.41025641 , 4115.8974359 , 4126.15384615 , 2046.0 , 2032.0 , 14.854 , 0.0 , 0.0 , 0.0 , 0.0 , 

100.0 , 4113.33333333 , 4106.66666667 , 4118.46153846 , 4113.33333333 , 4117.43589744 , 4115.8974359 , 4114.35897436 , 4201.53846154 , 4118.46153846 , 4124.61538462 , 4172.30769231 , 4897.94871795 , 4103.07692308 , 4118.46153846 , 2045.0 , 2034.0 , 14.863 , 0.0 , 0.0 , 0.0 , 0.0 , 

101.0 , 4113.84615385 , 4116.41025641 , 4122.56410256 , 4118.46153846 , 4116.41025641 , 4117.94871795 , 4117.43589744 , 4209.23076923 , 4121.02564103 , 4125.64102564 , 4171.79487179 , 4895.8974359 , 4104.61538462 , 4116.92307692 , 2045.0 , 2032.0 , 14.87 , 0.0 , 0.0 , 0.0 , 0.0 , 

102.0 , 4115.8974359 , 4110.76923077 , 4123.58974359 , 4118.46153846 , 4117.94871795 , 4117.94871795 , 4114.35897436 , 4184.1025641 , 4110.76923077 , 4123.58974359 , 4169.23076923 , 4903.07692308 , 4096.92307692 , 4118.97435897 , 2044.0 , 2032.0 , 14.878 , 0.0 , 0.0 , 0.0 , 0.0 , 

103.0 , 4118.46153846 , 4124.1025641 , 4120.0 , 4121.02564103 , 4116.92307692 , 4115.38461538 , 4119.48717949 , 4187.17948718 , 4122.56410256 , 4124.1025641 , 4175.38461538 , 4901.53846154 , 4112.82051282 , 4126.66666667 , 2043.0 , 2033.0 , 14.886 , 0.0 , 0.0 , 0.0 , 0.0 , 

104.0 , 4118.97435897 , 4121.02564103 , 4116.41025641 , 4115.8974359 , 4115.38461538 , 4112.82051282 , 4109.23076923 , 4171.79487179 , 4112.30769231 , 4120.51282051 , 4170.76923077 , 4901.02564103 , 4108.71794872 , 4122.56410256 , 2043.0 , 2033.0 , 14.894 , 0.0 , 0.0 , 0.0 , 0.0 , 

105.0 , 4120.0 , 4127.69230769 , 4117.43589744 , 4122.56410256 , 4115.38461538 , 4120.0 , 4112.82051282 , 4178.46153846 , 4113.33333333 , 4125.64102564 , 4174.87179487 , 4897.43589744 , 4123.07692308 , 4122.56410256 , 2043.0 , 2032.0 , 14.902 , 0.0 , 0.0 , 0.0 , 0.0 , 

106.0 , 4116.92307692 , 4116.92307692 , 4117.94871795 , 4121.02564103 , 4118.46153846 , 4115.8974359 , 4107.17948718 , 4169.23076923 , 4108.20512821 , 4123.58974359 , 4174.87179487 , 4903.07692308 , 4120.51282051 , 4124.61538462 , 2043.0 , 2032.0 , 14.909 , 0.0 , 0.0 , 0.0 , 0.0 , 

107.0 , 4116.41025641 , 4128.20512821 , 4117.94871795 , 4127.17948718 , 4116.92307692 , 4112.30769231 , 4111.79487179 , 4187.17948718 , 4120.51282051 , 4121.53846154 , 4179.48717949 , 4897.94871795 , 4131.28205128 , 4130.76923077 , 2044.0 , 2033.0 , 14.918 , 0.0 , 0.0 , 0.0 , 0.0 , 

108.0 , 4111.28205128 , 4117.94871795 , 4116.92307692 , 4118.46153846 , 4114.87179487 , 4110.76923077 , 4107.69230769 , 4174.35897436 , 4124.61538462 , 4121.53846154 , 4178.97435897 , 4893.84615385 , 4124.1025641 , 4126.66666667 , 2043.0 , 2032.0 , 14.925 , 0.0 , 0.0 , 0.0 , 0.0 , 

109.0 , 4109.74358974 , 4116.41025641 , 4115.8974359 , 4110.76923077 , 4116.92307692 , 4110.76923077 , 4107.17948718 , 4180.51282051 , 4136.92307692 , 4130.25641026 , 4182.56410256 , 4889.23076923 , 4131.79487179 , 4131.28205128 , 2044.0 , 2032.0 , 14.933 , 0.0 , 0.0 , 0.0 , 0.0 , 

110.0 , 4111.28205128 , 4112.30769231 , 4118.97435897 , 4108.71794872 , 4115.38461538 , 4108.71794872 , 4103.07692308 , 4185.64102564 , 4129.23076923 , 4130.76923077 , 4177.94871795 , 4893.84615385 , 4115.38461538 , 4126.15384615 , 2045.0 , 2031.0 , 14.941 , 0.0 , 0.0 , 0.0 , 0.0 , 

111.0 , 4110.76923077 , 4103.07692308 , 4122.05128205 , 4109.23076923 , 4115.8974359 , 4122.05128205 , 4120.0 , 4182.05128205 , 4112.82051282 , 4127.69230769 , 4175.8974359 , 4896.41025641 , 4100.51282051 , 4120.51282051 , 2043.0 , 2032.0 , 14.95 , 0.0 , 0.0 , 0.0 , 0.0 , 

112.0 , 4097.43589744 , 4081.53846154 , 4121.02564103 , 4095.38461538 , 4120.0 , 4127.17948718 , 4127.17948718 , 4182.56410256 , 4105.12820513 , 4123.58974359 , 4175.8974359 , 4897.43589744 , 4109.23076923 , 4127.17948718 , 2043.0 , 2032.0 , 14.957 , 0.0 , 0.0 , 0.0 , 0.0 , 

113.0 , 4102.05128205 , 4091.79487179 , 4118.97435897 , 4101.02564103 , 4120.51282051 , 4119.48717949 , 4117.94871795 , 4195.8974359 , 4110.25641026 , 4123.07692308 , 4176.41025641 , 4894.87179487 , 4121.02564103 , 4131.28205128 , 2043.0 , 2032.0 , 14.965 , 0.0 , 0.0 , 0.0 , 0.0 , 

114.0 , 4114.35897436 , 4113.84615385 , 4120.51282051 , 4116.41025641 , 4116.92307692 , 4115.38461538 , 4114.35897436 , 4205.64102564 , 4120.0 , 4125.64102564 , 4175.8974359 , 4897.94871795 , 4109.74358974 , 4122.56410256 , 2044.0 , 2032.0 , 14.973 , 0.0 , 0.0 , 0.0 , 0.0 , 

115.0 , 4119.48717949 , 4115.8974359 , 4121.53846154 , 4115.8974359 , 4118.46153846 , 4118.46153846 , 4119.48717949 , 4188.71794872 , 4118.46153846 , 4125.64102564 , 4170.76923077 , 4904.61538462 , 4100.0 , 4121.53846154 , 2045.0 , 2033.0 , 14.981 , 0.0 , 0.0 , 0.0 , 0.0 , 

116.0 , 4117.43589744 , 4121.53846154 , 4120.0 , 4120.51282051 , 4114.87179487 , 4115.38461538 , 4118.97435897 , 4191.79487179 , 4122.05128205 , 4124.61538462 , 4172.82051282 , 4904.61538462 , 4117.94871795 , 4129.23076923 , 2045.0 , 2035.0 , 14.988 , 0.0 , 0.0 , 0.0 , 0.0 , 

117.0 , 4121.02564103 , 4122.56410256 , 4117.94871795 , 4126.66666667 , 4112.30769231 , 4113.84615385 , 4108.71794872 , 4171.79487179 , 4110.76923077 , 4124.1025641 , 4173.33333333 , 4902.05128205 , 4116.92307692 , 4123.58974359 , 2044.0 , 2035.0 , 14.996 , 0.0 , 0.0 , 0.0 , 0.0 , 

118.0 , 4121.02564103 , 4125.64102564 , 4121.02564103 , 4126.15384615 , 4114.35897436 , 4116.92307692 , 4110.76923077 , 4180.0 , 4110.76923077 , 4127.69230769 , 4176.41025641 , 4898.97435897 , 4125.12820513 , 4122.56410256 , 2047.0 , 2033.0 , 15.004 , 0.0 , 0.0 , 0.0 , 0.0 , 

119.0 , 4120.0 , 4114.35897436 , 4121.02564103 , 4118.97435897 , 4116.92307692 , 4113.33333333 , 4104.61538462 , 4171.79487179 , 4106.66666667 , 4123.07692308 , 4170.76923077 , 4903.07692308 , 4122.05128205 , 4124.1025641 , 2047.0 , 2032.0 , 15.012 , 0.0 , 0.0 , 0.0 , 0.0 , 

120.0 , 4118.97435897 , 4117.94871795 , 4116.92307692 , 4122.05128205 , 4116.41025641 , 4112.30769231 , 4104.61538462 , 4182.56410256 , 4116.41025641 , 4123.07692308 , 4176.92307692 , 4897.94871795 , 4128.20512821 , 4127.17948718 , 2046.0 , 2032.0 , 15.02 , 0.0 , 0.0 , 0.0 , 0.0 , 

121.0 , 4115.8974359 , 4104.61538462 , 4117.43589744 , 4114.35897436 , 4118.46153846 , 4111.79487179 , 4098.46153846 , 4171.28205128 , 4110.25641026 , 4122.56410256 , 4174.35897436 , 4896.92307692 , 4121.53846154 , 4122.56410256 , 2045.0 , 2033.0 , 15.028 , 0.0 , 0.0 , 0.0 , 0.0 , 

122.0 , 4114.87179487 , 4107.69230769 , 4122.56410256 , 4114.35897436 , 4114.87179487 , 4111.28205128 , 4104.61538462 , 4193.84615385 , 4121.02564103 , 4127.17948718 , 4175.8974359 , 4893.33333333 , 4130.76923077 , 4125.64102564 , 2044.0 , 2034.0 , 15.036 , 0.0 , 0.0 , 0.0 , 0.0 , 

123.0 , 4112.82051282 , 4099.48717949 , 4118.46153846 , 4112.30769231 , 4115.8974359 , 4107.69230769 , 4102.56410256 , 4191.79487179 , 4117.94871795 , 4126.66666667 , 4173.33333333 , 4897.43589744 , 4113.33333333 , 4124.61538462 , 2045.0 , 2036.0 , 15.044 , 0.0 , 0.0 , 0.0 , 0.0 , 

124.0 , 4109.74358974 , 4110.25641026 , 4114.87179487 , 4116.41025641 , 4120.51282051 , 4115.38461538 , 4113.33333333 , 4206.66666667 , 4127.17948718 , 4128.71794872 , 4180.0 , 4894.87179487 , 4116.41025641 , 4126.15384615 , 2046.0 , 2038.0 , 15.052 , 0.0 , 0.0 , 0.0 , 0.0 , 

125.0 , 4108.71794872 , 4105.12820513 , 4118.97435897 , 4114.35897436 , 4118.46153846 , 4114.35897436 , 4109.23076923 , 4195.8974359 , 4122.05128205 , 4126.15384615 , 4175.38461538 , 4897.43589744 , 4110.25641026 , 4123.07692308 , 2048.0 , 2038.0 , 15.059 , 0.0 , 0.0 , 0.0 , 0.0 , 

126.0 , 4115.8974359 , 4116.92307692 , 4121.02564103 , 4118.46153846 , 4113.84615385 , 4113.84615385 , 4115.38461538 , 4207.17948718 , 4127.69230769 , 4129.23076923 , 4174.35897436 , 4893.84615385 , 4115.8974359 , 4122.56410256 , 2048.0 , 2038.0 , 15.067 , 0.0 , 0.0 , 0.0 , 0.0 , 

127.0 , 4115.8974359 , 4113.84615385 , 4118.46153846 , 4113.33333333 , 4115.38461538 , 4114.87179487 , 4115.8974359 , 4198.46153846 , 4117.43589744 , 4128.20512821 , 4170.76923077 , 4898.46153846 , 4107.69230769 , 4116.92307692 , 2049.0 , 2037.0 , 15.075 , 0.0 , 0.0 , 0.0 , 0.0 , 

128.0 , 4117.43589744 , 4121.53846154 , 4118.46153846 , 4117.94871795 , 4117.94871795 , 4118.97435897 , 4118.46153846 , 4191.28205128 , 4112.82051282 , 4125.64102564 , 4170.76923077 , 4901.53846154 , 4111.79487179 , 4120.51282051 , 2049.0 , 2039.0 , 15.083 , 0.0 , 0.0 , 0.0 , 0.0 , 

0.0 , 4117.43589744 , 4121.02564103 , 4120.51282051 , 4120.0 , 4116.92307692 , 4114.87179487 , 4110.25641026 , 4178.46153846 , 4110.76923077 , 4121.53846154 , 4170.25641026 , 4903.58974359 , 4106.15384615 , 4123.07692308 , 2046.0 , 2039.0 , 15.091 , 0.0 , 0.0 , 0.0 , 0.0 , 

1.0 , 4120.0 , 4123.58974359 , 4120.0 , 4121.53846154 , 4116.92307692 , 4116.41025641 , 4112.30769231 , 4172.82051282 , 4110.76923077 , 4121.53846154 , 4173.84615385 , 4901.53846154 , 4114.87179487 , 4124.1025641 , 2045.0 , 2039.0 , 15.098 , 0.0 , 0.0 , 0.0 , 0.0 , 

2.0 , 4117.43589744 , 4115.8974359 , 4118.97435897 , 4120.51282051 , 4116.92307692 , 4117.94871795 , 4109.74358974 , 4173.33333333 , 4107.69230769 , 4120.0 , 4175.8974359 , 4903.07692308 , 4124.61538462 , 4123.58974359 , 2044.0 , 2037.0 , 15.107 , 0.0 , 0.0 , 0.0 , 0.0 , 

3.0 , 4117.94871795 , 4113.84615385 , 4117.94871795 , 4123.58974359 , 4117.43589744 , 4115.38461538 , 4104.1025641 , 4173.84615385 , 4108.20512821 , 4121.02564103 , 4176.41025641 , 4902.05128205 , 4125.64102564 , 4124.1025641 , 2042.0 , 2037.0 , 15.115 , 0.0 , 0.0 , 0.0 , 0.0 , 

4.0 , 4116.41025641 , 4116.41025641 , 4118.46153846 , 4123.58974359 , 4113.33333333 , 4111.28205128 , 4105.12820513 , 4185.64102564 , 4117.43589744 , 4123.58974359 , 4178.97435897 , 4895.8974359 , 4126.66666667 , 4127.69230769 , 2042.0 , 2034.0 , 15.122 , 0.0 , 0.0 , 0.0 , 0.0 , 

5.0 , 4116.92307692 , 4111.28205128 , 4116.41025641 , 4119.48717949 , 4115.8974359 , 4111.28205128 , 4105.64102564 , 4181.02564103 , 4115.38461538 , 4124.1025641 , 4174.87179487 , 4894.87179487 , 4124.1025641 , 4129.74358974 , 2041.0 , 2033.0 , 15.131 , 0.0 , 0.0 , 0.0 , 0.0 , 

6.0 , 4114.35897436 , 4110.76923077 , 4118.46153846 , 4121.02564103 , 4116.92307692 , 4111.28205128 , 4106.66666667 , 4197.43589744 , 4126.15384615 , 4126.15384615 , 4177.94871795 , 4895.38461538 , 4127.69230769 , 4127.69230769 , 2041.0 , 2031.0 , 15.138 , 0.0 , 0.0 , 0.0 , 0.0 , 

7.0 , 4113.84615385 , 4104.61538462 , 4121.53846154 , 4117.94871795 , 4114.87179487 , 4110.76923077 , 4106.15384615 , 4193.84615385 , 4124.1025641 , 4126.66666667 , 4177.94871795 , 4898.46153846 , 4115.38461538 , 4122.56410256 , 2043.0 , 2033.0 , 15.147 , 0.0 , 0.0 , 0.0 , 0.0 , 

8.0 , 4113.84615385 , 4111.28205128 , 4121.02564103 , 4116.41025641 , 4113.84615385 , 4117.43589744 , 4116.92307692 , 4209.23076923 , 4129.74358974 , 4128.20512821 , 4180.0 , 4897.43589744 , 4115.8974359 , 4127.17948718 , 2043.0 , 2031.0 , 15.154 , 0.0 , 0.0 , 0.0 , 0.0 , 

9.0 , 4113.84615385 , 4104.1025641 , 4117.94871795 , 4112.30769231 , 4116.41025641 , 4115.8974359 , 4113.84615385 , 4198.46153846 , 4118.97435897 , 4125.64102564 , 4174.35897436 , 4902.05128205 , 4107.17948718 , 4125.12820513 , 2043.0 , 2031.0 , 15.162 , 0.0 , 0.0 , 0.0 , 0.0 , 

10.0 , 4112.82051282 , 4112.82051282 , 4121.53846154 , 4118.46153846 , 4116.41025641 , 4113.33333333 , 4115.8974359 , 4212.30769231 , 4125.64102564 , 4128.20512821 , 4177.43589744 , 4900.0 , 4113.84615385 , 4122.05128205 , 2046.0 , 2030.0 , 15.17 , 0.0 , 0.0 , 0.0 , 0.0 , 

11.0 , 4117.43589744 , 4113.33333333 , 4122.05128205 , 4110.76923077 , 4117.94871795 , 4123.07692308 , 4108.20512821 , 4194.35897436 , 4121.53846154 , 4125.12820513 , 4168.71794872 , 4898.97435897 , 4097.43589744 , 4118.46153846 , 2046.0 , 2031.0 , 15.177 , 0.0 , 0.0 , 0.0 , 0.0 , 

12.0 , 4122.05128205 , 4131.79487179 , 4117.94871795 , 4115.8974359 , 4115.38461538 , 4134.35897436 , 4115.38461538 , 4193.33333333 , 4132.30769231 , 4127.69230769 , 4172.82051282 , 4894.87179487 , 4114.87179487 , 4126.15384615 , 2047.0 , 2033.0 , 15.185 , 0.0 , 0.0 , 0.0 , 0.0 , 

13.0 , 4118.46153846 , 4118.97435897 , 4117.43589744 , 4118.97435897 , 4114.35897436 , 4120.51282051 , 4111.79487179 , 4156.41025641 , 4115.38461538 , 4125.12820513 , 4175.8974359 , 4901.53846154 , 4126.15384615 , 4123.58974359 , 2047.0 , 2035.0 , 15.193 , 0.0 , 0.0 , 0.0 , 0.0 , 

14.0 , 4120.0 , 4120.0 , 4119.48717949 , 4122.56410256 , 4115.8974359 , 4111.28205128 , 4107.17948718 , 4151.79487179 , 4106.66666667 , 4121.53846154 , 4180.51282051 , 4896.92307692 , 4126.15384615 , 4126.15384615 , 2048.0 , 2036.0 , 15.201 , 0.0 , 0.0 , 0.0 , 0.0 , 

15.0 , 4127.69230769 , 4127.17948718 , 4118.46153846 , 4121.02564103 , 4113.84615385 , 4108.20512821 , 4088.71794872 , 4166.15384615 , 4113.84615385 , 4117.94871795 , 4172.30769231 , 4896.41025641 , 4098.46153846 , 4122.56410256 , 2049.0 , 2036.0 , 15.209 , 0.0 , 0.0 , 0.0 , 0.0 , 

16.0 , 4132.30769231 , 4144.61538462 , 4118.97435897 , 4134.35897436 , 4111.28205128 , 4106.15384615 , 4095.8974359 , 4203.58974359 , 4141.53846154 , 4127.17948718 , 4175.8974359 , 4901.53846154 , 4116.92307692 , 4118.97435897 , 2049.0 , 2036.0 , 15.217 , 0.0 , 0.0 , 0.0 , 0.0 , 

17.0 , 4118.46153846 , 4120.51282051 , 4120.0 , 4128.20512821 , 4115.38461538 , 4104.1025641 , 4102.05128205 , 4191.28205128 , 4129.74358974 , 4128.71794872 , 4180.0 , 4905.64102564 , 4131.28205128 , 4122.56410256 , 2049.0 , 2036.0 , 15.225 , 0.0 , 0.0 , 0.0 , 0.0 , 

18.0 , 4112.30769231 , 4104.1025641 , 4116.92307692 , 4114.35897436 , 4117.43589744 , 4110.25641026 , 4104.1025641 , 4181.53846154 , 4116.92307692 , 4123.58974359 , 4181.53846154 , 4893.84615385 , 4130.25641026 , 4135.8974359 , 2049.0 , 2036.0 , 15.233 , 0.0 , 0.0 , 0.0 , 0.0 , 

19.0 , 4111.79487179 , 4102.05128205 , 4116.41025641 , 4112.30769231 , 4112.82051282 , 4107.69230769 , 4100.51282051 , 4188.71794872 , 4120.0 , 4121.53846154 , 4175.8974359 , 4893.84615385 , 4114.87179487 , 4129.74358974 , 2049.0 , 2038.0 , 15.24 , 0.0 , 0.0 , 0.0 , 0.0 , 

20.0 , 4111.79487179 , 4106.15384615 , 4118.97435897 , 4119.48717949 , 4116.41025641 , 4108.20512821 , 4109.74358974 , 4197.94871795 , 4124.1025641 , 4123.07692308 , 4176.41025641 , 4898.46153846 , 4113.84615385 , 4121.02564103 , 2049.0 , 2036.0 , 15.248 , 0.0 , 0.0 , 0.0 , 0.0 , 

21.0 , 4107.17948718 , 4102.05128205 , 4120.0 , 4115.38461538 , 4120.0 , 4111.79487179 , 4114.87179487 , 4204.1025641 , 4123.58974359 , 4122.56410256 , 4179.48717949 , 4896.92307692 , 4115.38461538 , 4124.61538462 , 2049.0 , 2035.0 , 15.257 , 0.0 , 0.0 , 0.0 , 0.0 , 

22.0 , 4114.87179487 , 4105.12820513 , 4120.0 , 4111.79487179 , 4118.46153846 , 4114.35897436 , 4113.84615385 , 4204.61538462 , 4125.12820513 , 4125.12820513 , 4175.8974359 , 4896.41025641 , 4111.79487179 , 4125.12820513 , 2049.0 , 2034.0 , 15.264 , 0.0 , 0.0 , 0.0 , 0.0 , 

23.0 , 4118.46153846 , 4112.82051282 , 4124.1025641 , 4113.33333333 , 4114.35897436 , 4115.38461538 , 4114.35897436 , 4211.79487179 , 4128.71794872 , 4127.69230769 , 4177.94871795 , 4897.94871795 , 4113.33333333 , 4120.0 , 2049.0 , 2034.0 , 15.272 , 0.0 , 0.0 , 0.0 , 0.0 , 

24.0 , 4116.92307692 , 4112.30769231 , 4122.56410256 , 4114.35897436 , 4116.92307692 , 4115.38461538 , 4112.82051282 , 4195.8974359 , 4121.02564103 , 4124.1025641 , 4174.87179487 , 4897.94871795 , 4110.76923077 , 4120.51282051 , 2048.0 , 2034.0 , 15.28 , 0.0 , 0.0 , 0.0 , 0.0 , 

25.0 , 4117.43589744 , 4122.56410256 , 4119.48717949 , 4117.94871795 , 4117.94871795 , 4114.87179487 , 4116.41025641 , 4201.53846154 , 4126.15384615 , 4124.61538462 , 4171.79487179 , 4895.8974359 , 4115.8974359 , 4126.15384615 , 2046.0 , 2034.0 , 15.288 , 0.0 , 0.0 , 0.0 , 0.0 , 

26.0 , 4120.51282051 , 4118.97435897 , 4118.97435897 , 4116.41025641 , 4117.94871795 , 4114.35897436 , 4111.79487179 , 4175.38461538 , 4112.30769231 , 4122.05128205 , 4168.71794872 , 4900.51282051 , 4108.20512821 , 4122.56410256 , 2047.0 , 2034.0 , 15.296 , 0.0 , 0.0 , 0.0 , 0.0 , 

27.0 , 4117.43589744 , 4121.53846154 , 4120.0 , 4123.07692308 , 4116.41025641 , 4113.33333333 , 4113.84615385 , 4175.8974359 , 4112.30769231 , 4121.53846154 , 4176.41025641 , 4901.02564103 , 4122.05128205 , 4124.61538462 , 2047.0 , 2035.0 , 15.304 , 0.0 , 0.0 , 0.0 , 0.0 , 

28.0 , 4116.41025641 , 4111.28205128 , 4120.0 , 4122.56410256 , 4116.41025641 , 4109.23076923 , 4107.17948718 , 4168.20512821 , 4103.58974359 , 4119.48717949 , 4171.79487179 , 4904.1025641 , 4120.51282051 , 4127.17948718 , 2048.0 , 2034.0 , 15.311 , 0.0 , 0.0 , 0.0 , 0.0 , 

29.0 , 4120.0 , 4119.48717949 , 4120.0 , 4122.56410256 , 4115.38461538 , 4112.82051282 , 4108.20512821 , 4186.15384615 , 4109.74358974 , 4120.51282051 , 4176.92307692 , 4898.46153846 , 4128.71794872 , 4130.76923077 , 2046.0 , 2034.0 , 15.319 , 0.0 , 0.0 , 0.0 , 0.0 , 

30.0 , 4117.43589744 , 4108.71794872 , 4117.94871795 , 4112.30769231 , 4116.41025641 , 4112.82051282 , 4099.48717949 , 4170.76923077 , 4104.61538462 , 4119.48717949 , 4177.94871795 , 4898.46153846 , 4121.53846154 , 4128.20512821 , 2046.0 , 2033.0 , 15.327 , 0.0 , 0.0 , 0.0 , 0.0 , 

31.0 , 4114.35897436 , 4115.38461538 , 4118.97435897 , 4118.97435897 , 4115.38461538 , 4114.35897436 , 4108.20512821 , 4189.23076923 , 4119.48717949 , 4126.15384615 , 4182.05128205 , 4895.38461538 , 4133.33333333 , 4131.28205128 , 2046.0 , 2034.0 , 15.335 , 0.0 , 0.0 , 0.0 , 0.0 , 

32.0 , 4113.33333333 , 4105.64102564 , 4120.0 , 4118.97435897 , 4114.35897436 , 4111.28205128 , 4104.1025641 , 4191.79487179 , 4117.94871795 , 4125.12820513 , 4176.41025641 , 4895.8974359 , 4122.56410256 , 4126.15384615 , 2046.0 , 2033.0 , 15.343 , 0.0 , 0.0 , 0.0 , 0.0 , 

33.0 , 4115.38461538 , 4108.71794872 , 4117.94871795 , 4117.94871795 , 4115.38461538 , 4112.82051282 , 4108.71794872 , 4208.71794872 , 4126.15384615 , 4127.17948718 , 4178.46153846 , 4890.76923077 , 4124.61538462 , 4125.12820513 , 2044.0 , 2036.0 , 15.351 , 0.0 , 0.0 , 0.0 , 0.0 , 

34.0 , 4114.35897436 , 4101.53846154 , 4116.41025641 , 4109.74358974 , 4116.92307692 , 4113.33333333 , 4108.20512821 , 4198.97435897 , 4123.58974359 , 4127.17948718 , 4174.87179487 , 4896.41025641 , 4112.82051282 , 4122.05128205 , 2043.0 , 2037.0 , 15.359 , 0.0 , 0.0 , 0.0 , 0.0 , 

35.0 , 4115.38461538 , 4113.84615385 , 4119.48717949 , 4114.87179487 , 4117.43589744 , 4120.0 , 4116.41025641 , 4204.61538462 , 4127.17948718 , 4128.20512821 , 4175.38461538 , 4896.41025641 , 4112.82051282 , 4121.53846154 , 2044.0 , 2038.0 , 15.367 , 0.0 , 0.0 , 0.0 , 0.0 , 

36.0 , 4114.35897436 , 4112.30769231 , 4122.56410256 , 4115.38461538 , 4117.94871795 , 4116.41025641 , 4116.41025641 , 4203.07692308 , 4118.46153846 , 4125.12820513 , 4170.76923077 , 4897.43589744 , 4106.66666667 , 4120.51282051 , 2044.0 , 2038.0 , 15.375 , 0.0 , 0.0 , 0.0 , 0.0 , 

37.0 , 4121.02564103 , 4116.41025641 , 4120.51282051 , 4118.46153846 , 4118.46153846 , 4116.41025641 , 4120.0 , 4199.48717949 , 4114.87179487 , 4124.61538462 , 4169.74358974 , 4897.43589744 , 4113.84615385 , 4123.58974359 , 2045.0 , 2035.0 , 15.382 , 0.0 , 0.0 , 0.0 , 0.0 , 

38.0 , 4121.02564103 , 4119.48717949 , 4120.51282051 , 4116.92307692 , 4116.92307692 , 4116.92307692 , 4111.79487179 , 4187.17948718 , 4111.79487179 , 4123.07692308 , 4169.23076923 , 4902.56410256 , 4110.76923077 , 4119.48717949 , 2047.0 , 2036.0 , 15.39 , 0.0 , 0.0 , 0.0 , 0.0 , 

39.0 , 4121.53846154 , 4123.58974359 , 4121.02564103 , 4121.53846154 , 4117.94871795 , 4117.94871795 , 4113.84615385 , 4179.48717949 , 4112.30769231 , 4124.1025641 , 4171.79487179 , 4902.56410256 , 4116.92307692 , 4120.51282051 , 2047.0 , 2036.0 , 15.398 , 0.0 , 0.0 , 0.0 , 0.0 , 

40.0 , 4120.0 , 4112.82051282 , 4121.02564103 , 4124.61538462 , 4116.41025641 , 4113.33333333 , 4118.97435897 , 4175.38461538 , 4120.51282051 , 4122.56410256 , 4177.94871795 , 4897.43589744 , 4132.30769231 , 4125.64102564 , 2047.0 , 2036.0 , 15.406 , 0.0 , 0.0 , 0.0 , 0.0 , 

41.0 , 4122.05128205 , 4106.66666667 , 4118.46153846 , 4120.0 , 4115.38461538 , 4113.33333333 , 4112.30769231 , 4163.07692308 , 4121.02564103 , 4118.97435897 , 4180.0 , 4894.87179487 , 4131.79487179 , 4127.17948718 , 2049.0 , 2038.0 , 15.414 , 0.0 , 0.0 , 0.0 , 0.0 , 

42.0 , 4118.97435897 , 4115.38461538 , 4117.94871795 , 4119.48717949 , 4113.84615385 , 4113.33333333 , 4105.64102564 , 4174.87179487 , 4126.66666667 , 4123.07692308 , 4183.07692308 , 4894.35897436 , 4128.20512821 , 4129.23076923 , 2049.0 , 2036.0 , 15.422 , 0.0 , 0.0 , 0.0 , 0.0 , 

43.0 , 4118.46153846 , 4108.71794872 , 4117.43589744 , 4116.41025641 , 4115.38461538 , 4111.79487179 , 4101.02564103 , 4165.12820513 , 4117.94871795 , 4124.61538462 , 4176.92307692 , 4897.43589744 , 4122.56410256 , 4127.69230769 , 2047.0 , 2035.0 , 15.43 , 0.0 , 0.0 , 0.0 , 0.0 , 

44.0 , 4116.41025641 , 4111.79487179 , 4117.94871795 , 4108.20512821 , 4115.38461538 , 4116.41025641 , 4108.20512821 , 4193.84615385 , 4120.0 , 4123.07692308 , 4174.87179487 , 4894.87179487 , 4125.64102564 , 4129.74358974 , 2046.0 , 2034.0 , 15.438 , 0.0 , 0.0 , 0.0 , 0.0 , 

45.0 , 4114.87179487 , 4109.74358974 , 4118.97435897 , 4101.02564103 , 4120.0 , 4120.0 , 4110.76923077 , 4207.17948718 , 4114.35897436 , 4120.51282051 , 4170.25641026 , 4896.92307692 , 4108.20512821 , 4126.66666667 , 2045.0 , 2034.0 , 15.445 , 0.0 , 0.0 , 0.0 , 0.0 , 

46.0 , 4110.76923077 , 4109.74358974 , 4121.02564103 , 4110.76923077 , 4120.0 , 4117.43589744 , 4114.35897436 , 4212.30769231 , 4127.17948718 , 4126.15384615 , 4176.92307692 , 4895.38461538 , 4115.38461538 , 4126.15384615 , 2044.0 , 2034.0 , 15.453 , 0.0 , 0.0 , 0.0 , 0.0 , 

47.0 , 4110.76923077 , 4095.38461538 , 4118.97435897 , 4109.74358974 , 4116.41025641 , 4110.76923077 , 4104.1025641 , 4185.12820513 , 4123.07692308 , 4125.12820513 , 4173.33333333 , 4897.94871795 , 4108.20512821 , 4121.53846154 , 2044.0 , 2034.0 , 15.462 , 0.0 , 0.0 , 0.0 , 0.0 , 

48.0 , 4114.87179487 , 4111.79487179 , 4120.0 , 4113.84615385 , 4114.35897436 , 4118.46153846 , 4115.38461538 , 4210.25641026 , 4128.20512821 , 4127.69230769 , 4173.84615385 , 4895.38461538 , 4112.30769231 , 4123.07692308 , 2044.0 , 2033.0 , 15.469 , 0.0 , 0.0 , 0.0 , 0.0 , 

49.0 , 4115.8974359 , 4110.76923077 , 4122.56410256 , 4113.84615385 , 4117.94871795 , 4120.51282051 , 4117.43589744 , 4201.02564103 , 4117.94871795 , 4125.64102564 , 4169.23076923 , 4900.0 , 4100.51282051 , 4119.48717949 , 2044.0 , 2034.0 , 15.478 , 0.0 , 0.0 , 0.0 , 0.0 , 

50.0 , 4118.97435897 , 4120.0 , 4123.07692308 , 4121.02564103 , 4118.46153846 , 4118.97435897 , 4120.51282051 , 4198.46153846 , 4122.05128205 , 4127.17948718 , 4174.35897436 , 4899.48717949 , 4110.25641026 , 4124.1025641 , 2043.0 , 2034.0 , 15.486 , 0.0 , 0.0 , 0.0 , 0.0 , 

51.0 , 4121.53846154 , 4115.8974359 , 4118.97435897 , 4118.46153846 , 4116.92307692 , 4113.84615385 , 4114.87179487 , 4181.53846154 , 4113.84615385 , 4125.64102564 , 4172.30769231 , 4901.02564103 , 4107.69230769 , 4123.07692308 , 2043.0 , 2034.0 , 15.493 , 0.0 , 0.0 , 0.0 , 0.0 , 

52.0 , 4122.56410256 , 4126.15384615 , 4117.94871795 , 4121.53846154 , 4117.43589744 , 4117.43589744 , 4117.94871795 , 4183.58974359 , 4115.8974359 , 4126.15384615 , 4175.38461538 , 4898.97435897 , 4123.07692308 , 4126.15384615 , 2044.0 , 2034.0 , 15.501 , 0.0 , 0.0 , 0.0 , 0.0 , 

53.0 , 4120.51282051 , 4119.48717949 , 4117.94871795 , 4118.97435897 , 4115.38461538 , 4115.8974359 , 4106.66666667 , 4170.25641026 , 4106.15384615 , 4120.51282051 , 4172.82051282 , 4903.07692308 , 4124.1025641 , 4124.1025641 , 2043.0 , 2035.0 , 15.508 , 0.0 , 0.0 , 0.0 , 0.0 , 

54.0 , 4122.05128205 , 4121.02564103 , 4118.46153846 , 4125.12820513 , 4113.84615385 , 4115.8974359 , 4106.66666667 , 4175.38461538 , 4108.20512821 , 4121.02564103 , 4175.38461538 , 4898.46153846 , 4128.20512821 , 4125.12820513 , 2044.0 , 2034.0 , 15.516 , 0.0 , 0.0 , 0.0 , 0.0 , 

55.0 , 4117.94871795 , 4109.23076923 , 4118.97435897 , 4118.46153846 , 4116.92307692 , 4111.79487179 , 4102.56410256 , 4176.92307692 , 4108.71794872 , 4122.56410256 , 4181.02564103 , 4896.41025641 , 4121.53846154 , 4125.64102564 , 2044.0 , 2034.0 , 15.524 , 0.0 , 0.0 , 0.0 , 0.0 , 

56.0 , 4119.48717949 , 4107.69230769 , 4118.46153846 , 4113.33333333 , 4116.92307692 , 4110.25641026 , 4103.58974359 , 4187.69230769 , 4114.35897436 , 4123.07692308 , 4184.1025641 , 4894.35897436 , 4125.12820513 , 4128.71794872 , 2046.0 , 2033.0 , 15.532 , 0.0 , 0.0 , 0.0 , 0.0 , 

57.0 , 4116.92307692 , 4103.07692308 , 4120.51282051 , 4113.84615385 , 4114.87179487 , 4107.69230769 , 4103.07692308 , 4193.84615385 , 4117.43589744 , 4121.02564103 , 4178.46153846 , 4894.87179487 , 4121.53846154 , 4125.64102564 , 2047.0 , 2034.0 , 15.54 , 0.0 , 0.0 , 0.0 , 0.0 , 

58.0 , 4115.38461538 , 4102.56410256 , 4120.0 , 4114.87179487 , 4116.92307692 , 4110.76923077 , 4108.71794872 , 4192.30769231 , 4117.43589744 , 4124.61538462 , 4176.41025641 , 4895.38461538 , 4116.92307692 , 4122.05128205 , 2049.0 , 2034.0 , 15.548 , 0.0 , 0.0 , 0.0 , 0.0 , 

59.0 , 4113.33333333 , 4106.66666667 , 4118.97435897 , 4112.82051282 , 4116.41025641 , 4113.84615385 , 4110.25641026 , 4204.1025641 , 4124.61538462 , 4127.69230769 , 4180.51282051 , 4896.41025641 , 4118.97435897 , 4126.66666667 , 2050.0 , 2033.0 , 15.557 , 0.0 , 0.0 , 0.0 , 0.0 , 

60.0 , 4115.8974359 , 4112.82051282 , 4120.0 , 4112.30769231 , 4114.87179487 , 4113.84615385 , 4111.28205128 , 4203.58974359 , 4121.02564103 , 4126.66666667 , 4177.43589744 , 4896.92307692 , 4114.35897436 , 4127.69230769 , 2050.0 , 2035.0 , 15.564 , 0.0 , 0.0 , 0.0 , 0.0 , 

61.0 , 4115.8974359 , 4120.51282051 , 4121.53846154 , 4114.87179487 , 4114.87179487 , 4114.87179487 , 4121.02564103 , 4211.28205128 , 4125.12820513 , 4128.20512821 , 4174.87179487 , 4895.8974359 , 4114.87179487 , 4123.58974359 , 2051.0 , 2036.0 , 15.572 , 0.0 , 0.0 , 0.0 , 0.0 , 

62.0 , 4117.94871795 , 4116.41025641 , 4118.97435897 , 4116.41025641 , 4118.97435897 , 4117.94871795 , 4118.97435897 , 4190.76923077 , 4117.94871795 , 4126.66666667 , 4169.74358974 , 4897.43589744 , 4109.74358974 , 4120.51282051 , 2052.0 , 2035.0 , 15.579 , 0.0 , 0.0 , 0.0 , 0.0 , 

63.0 , 4117.94871795 , 4125.64102564 , 4120.51282051 , 4121.53846154 , 4117.94871795 , 4118.46153846 , 4116.92307692 , 4196.92307692 , 4122.05128205 , 4126.15384615 , 4175.8974359 , 4897.43589744 , 4116.41025641 , 4124.1025641 , 2050.0 , 2039.0 , 15.587 , 0.0 , 0.0 , 0.0 , 0.0 , 

64.0 , 4119.48717949 , 4121.02564103 , 4121.53846154 , 4115.38461538 , 4117.43589744 , 4114.35897436 , 4110.25641026 , 4176.92307692 , 4108.71794872 , 4121.53846154 , 4174.87179487 , 4904.1025641 , 4107.69230769 , 4121.02564103 , 2051.0 , 2037.0 , 15.595 , 0.0 , 0.0 , 0.0 , 0.0 , 

65.0 , 4121.53846154 , 4125.12820513 , 4118.97435897 , 4118.97435897 , 4115.8974359 , 4117.94871795 , 4116.41025641 , 4178.97435897 , 4109.23076923 , 4123.07692308 , 4176.41025641 , 4900.51282051 , 4122.56410256 , 4123.58974359 , 2050.0 , 2036.0 , 15.603 , 0.0 , 0.0 , 0.0 , 0.0 , 

66.0 , 4118.97435897 , 4115.38461538 , 4117.43589744 , 4120.0 , 4115.8974359 , 4117.43589744 , 4108.20512821 , 4164.1025641 , 4101.53846154 , 4121.02564103 , 4168.71794872 , 4898.97435897 , 4122.56410256 , 4125.12820513 , 2048.0 , 2036.0 , 15.611 , 0.0 , 0.0 , 0.0 , 0.0 , 

67.0 , 4117.94871795 , 4125.64102564 , 4117.94871795 , 4123.07692308 , 4113.84615385 , 4114.87179487 , 4108.20512821 , 4183.07692308 , 4113.33333333 , 4123.07692308 , 4176.92307692 , 4896.41025641 , 4131.79487179 , 4128.71794872 , 2048.0 , 2033.0 , 15.619 , 0.0 , 0.0 , 0.0 , 0.0 , 

68.0 , 4117.43589744 , 4113.84615385 , 4116.92307692 , 4115.8974359 , 4113.84615385 , 4111.28205128 , 4101.53846154 , 4174.87179487 , 4107.17948718 , 4122.56410256 , 4180.0 , 4900.51282051 , 4125.64102564 , 4126.15384615 , 2048.0 , 2033.0 , 15.627 , 0.0 , 0.0 , 0.0 , 0.0 , 

69.0 , 4117.43589744 , 4116.41025641 , 4117.94871795 , 4122.56410256 , 4113.84615385 , 4114.35897436 , 4108.71794872 , 4187.69230769 , 4116.92307692 , 4126.66666667 , 4184.1025641 , 4894.35897436 , 4134.87179487 , 4129.23076923 , 2048.0 , 2033.0 , 15.635 , 0.0 , 0.0 , 0.0 , 0.0 , 

70.0 , 4114.35897436 , 4105.64102564 , 4119.48717949 , 4120.0 , 4114.35897436 , 4111.79487179 , 4104.61538462 , 4186.66666667 , 4114.35897436 , 4122.05128205 , 4176.92307692 , 4895.8974359 , 4120.0 , 4125.64102564 , 2048.0 , 2033.0 , 15.642 , 0.0 , 0.0 , 0.0 , 0.0 , 

71.0 , 4117.43589744 , 4114.35897436 , 4118.97435897 , 4122.05128205 , 4114.87179487 , 4115.38461538 , 4110.25641026 , 4206.15384615 , 4125.64102564 , 4125.64102564 , 4180.51282051 , 4895.38461538 , 4132.82051282 , 4127.69230769 , 2047.0 , 2032.0 , 15.651 , 0.0 , 0.0 , 0.0 , 0.0 , 

72.0 , 4115.38461538 , 4110.25641026 , 4118.97435897 , 4117.43589744 , 4113.84615385 , 4117.94871795 , 4114.35897436 , 4194.87179487 , 4123.07692308 , 4128.20512821 , 4178.97435897 , 4900.0 , 4123.58974359 , 4122.05128205 , 2045.0 , 2033.0 , 15.658 , 0.0 , 0.0 , 0.0 , 0.0 , 

73.0 , 4114.87179487 , 4115.38461538 , 4122.56410256 , 4115.38461538 , 4114.87179487 , 4122.56410256 , 4126.15384615 , 4184.61538462 , 4120.0 , 4125.64102564 , 4178.46153846 , 4896.41025641 , 4104.1025641 , 4118.46153846 , 2044.0 , 2033.0 , 15.666 , 0.0 , 0.0 , 0.0 , 0.0 , 

74.0 , 4114.87179487 , 4106.66666667 , 4123.07692308 , 4116.41025641 , 4115.38461538 , 4117.94871795 , 4118.46153846 , 4177.43589744 , 4117.43589744 , 4122.05128205 , 4173.84615385 , 4897.94871795 , 4100.0 , 4120.51282051 , 2047.0 , 2033.0 , 15.675 , 0.0 , 0.0 , 0.0 , 0.0 , 

75.0 , 4121.02564103 , 4112.30769231 , 4120.51282051 , 4126.66666667 , 4114.87179487 , 4113.84615385 , 4109.23076923 , 4184.1025641 , 4124.61538462 , 4127.17948718 , 4166.15384615 , 4905.12820513 , 4104.1025641 , 4118.97435897 , 2047.0 , 2034.0 , 15.682 , 0.0 , 0.0 , 0.0 , 0.0 , 

76.0 , 4120.51282051 , 4128.20512821 , 4123.58974359 , 4118.46153846 , 4115.8974359 , 4116.41025641 , 4108.71794872 , 4187.69230769 , 4122.05128205 , 4128.20512821 , 4164.61538462 , 4905.64102564 , 4083.58974359 , 4111.79487179 , 2047.0 , 2036.0 , 15.69 , 0.0 , 0.0 , 0.0 , 0.0 , 

77.0 , 4119.48717949 , 4129.23076923 , 4122.56410256 , 4112.30769231 , 4118.46153846 , 4120.51282051 , 4114.87179487 , 4167.69230769 , 4108.20512821 , 4122.05128205 , 4173.33333333 , 4898.46153846 , 4090.76923077 , 4118.46153846 , 2049.0 , 2035.0 , 15.698 , 0.0 , 0.0 , 0.0 , 0.0 , 

78.0 , 4120.0 , 4119.48717949 , 4117.43589744 , 4124.1025641 , 4116.41025641 , 4114.87179487 , 4116.92307692 , 4169.23076923 , 4112.82051282 , 4122.05128205 , 4180.51282051 , 4900.0 , 4127.69230769 , 4129.23076923 , 2051.0 , 2037.0 , 15.706 , 0.0 , 0.0 , 0.0 , 0.0 , 

79.0 , 4124.1025641 , 4118.46153846 , 4116.92307692 , 4129.74358974 , 4115.8974359 , 4110.25641026 , 4108.71794872 , 4173.84615385 , 4112.30769231 , 4124.1025641 , 4174.87179487 , 4904.61538462 , 4127.17948718 , 4125.64102564 , 2051.0 , 2037.0 , 15.713 , 0.0 , 0.0 , 0.0 , 0.0 , 

80.0 , 4120.51282051 , 4126.15384615 , 4117.43589744 , 4124.61538462 , 4113.84615385 , 4113.33333333 , 4105.64102564 , 4187.17948718 , 4112.30769231 , 4124.61538462 , 4178.97435897 , 4896.92307692 , 4127.69230769 , 4125.64102564 , 2051.0 , 2038.0 , 15.721 , 0.0 , 0.0 , 0.0 , 0.0 , 

81.0 , 4118.46153846 , 4110.25641026 , 4115.38461538 , 4119.48717949 , 4115.8974359 , 4112.30769231 , 4103.58974359 , 4169.74358974 , 4106.15384615 , 4121.53846154 , 4178.46153846 , 4895.8974359 , 4130.25641026 , 4128.71794872 , 2050.0 , 2034.0 , 15.729 , 0.0 , 0.0 , 0.0 , 0.0 , 

82.0 , 4118.46153846 , 4108.71794872 , 4117.94871795 , 4124.1025641 , 4115.8974359 , 4112.30769231 , 4112.30769231 , 4191.28205128 , 4121.53846154 , 4124.1025641 , 4180.0 , 4898.46153846 , 4129.74358974 , 4127.69230769 , 2050.0 , 2034.0 , 15.737 , 0.0 , 0.0 , 0.0 , 0.0 , 

83.0 , 4118.46153846 , 4104.61538462 , 4120.51282051 , 4113.84615385 , 4117.94871795 , 4110.76923077 , 4104.61538462 , 4191.28205128 , 4114.35897436 , 4124.1025641 , 4174.35897436 , 4901.02564103 , 4107.17948718 , 4121.53846154 , 2063.0 , 2031.0 , 15.745 , 0.0 , 0.0 , 0.0 , 0.0 , 

84.0 , 4115.38461538 , 4107.69230769 , 4121.02564103 , 4110.25641026 , 4117.94871795 , 4111.28205128 , 4109.74358974 , 4207.17948718 , 4118.46153846 , 4127.69230769 , 4179.48717949 , 4894.87179487 , 4115.8974359 , 4125.64102564 , 2047.0 , 2031.0 , 15.753 , 0.0 , 0.0 , 0.0 , 0.0 , 

85.0 , 4112.30769231 , 4096.92307692 , 4121.02564103 , 4107.69230769 , 4117.94871795 , 4110.76923077 , 4111.28205128 , 4199.48717949 , 4118.46153846 , 4128.20512821 , 4174.87179487 , 4896.92307692 , 4109.74358974 , 4122.05128205 , 2047.0 , 2032.0 , 15.761 , 0.0 , 0.0 , 0.0 , 0.0 , 

86.0 , 4112.30769231 , 4110.76923077 , 4122.56410256 , 4114.87179487 , 4116.92307692 , 4115.8974359 , 4118.97435897 , 4215.38461538 , 4127.17948718 , 4131.28205128 , 4174.35897436 , 4897.43589744 , 4112.82051282 , 4123.58974359 , 2046.0 , 2026.0 , 15.769 , 0.0 , 0.0 , 0.0 , 0.0 , 

87.0 , 4112.82051282 , 4107.17948718 , 4122.05128205 , 4110.76923077 , 4118.97435897 , 4114.35897436 , 4113.33333333 , 4200.0 , 4113.84615385 , 4125.64102564 , 4170.25641026 , 4902.56410256 , 4101.53846154 , 4123.07692308 , 2046.0 , 2026.0 , 15.776 , 0.0 , 0.0 , 0.0 , 0.0 , 

88.0 , 4117.43589744 , 4117.94871795 , 4121.53846154 , 4115.38461538 , 4120.0 , 4116.92307692 , 4118.97435897 , 4202.05128205 , 4121.53846154 , 4124.61538462 , 4175.8974359 , 4897.94871795 , 4115.8974359 , 4127.69230769 , 2046.0 , 2029.0 , 15.784 , 0.0 , 0.0 , 0.0 , 0.0 , 

89.0 , 4119.48717949 , 4116.41025641 , 4120.51282051 , 4114.35897436 , 4117.94871795 , 4116.92307692 , 4112.30769231 , 4184.61538462 , 4116.92307692 , 4123.07692308 , 4174.87179487 , 4901.02564103 , 4110.25641026 , 4122.56410256 , 2045.0 , 2030.0 , 15.792 , 0.0 , 0.0 , 0.0 , 0.0 , 

90.0 , 4121.53846154 , 4127.69230769 , 4118.97435897 , 4120.51282051 , 4118.46153846 , 4116.41025641 , 4115.8974359 , 4182.05128205 , 4114.87179487 , 4125.12820513 , 4175.38461538 , 4901.53846154 , 4118.97435897 , 4123.58974359 , 2046.0 , 2033.0 , 15.8 , 0.0 , 0.0 , 0.0 , 0.0 , 

91.0 , 4119.48717949 , 4118.97435897 , 4117.94871795 , 4121.53846154 , 4117.94871795 , 4112.30769231 , 4111.79487179 , 4170.76923077 , 4107.17948718 , 4122.05128205 , 4171.79487179 , 4903.07692308 , 4121.02564103 , 4124.61538462 , 2045.0 , 2035.0 , 15.809 , 0.0 , 0.0 , 0.0 , 0.0 , 

92.0 , 4123.07692308 , 4118.97435897 , 4117.94871795 , 4123.07692308 , 4116.41025641 , 4113.84615385 , 4111.28205128 , 4173.84615385 , 4107.69230769 , 4122.05128205 , 4173.33333333 , 4899.48717949 , 4125.64102564 , 4126.66666667 , 2044.0 , 2037.0 , 15.816 , 0.0 , 0.0 , 0.0 , 0.0 , 

93.0 , 4118.97435897 , 4113.33333333 , 4119.48717949 , 4115.8974359 , 4115.38461538 , 4111.79487179 , 4103.58974359 , 4175.8974359 , 4106.66666667 , 4122.05128205 , 4174.35897436 , 4900.51282051 , 4122.05128205 , 4123.58974359 , 2043.0 , 2039.0 , 15.824 , 0.0 , 0.0 , 0.0 , 0.0 , 

94.0 , 4116.41025641 , 4109.23076923 , 4119.48717949 , 4117.94871795 , 4115.8974359 , 4110.76923077 , 4101.53846154 , 4181.02564103 , 4112.82051282 , 4122.56410256 , 4175.38461538 , 4898.46153846 , 4123.58974359 , 4123.58974359 , 2044.0 , 2039.0 , 15.832 , 0.0 , 0.0 , 0.0 , 0.0 , 

95.0 , 4113.84615385 , 4104.61538462 , 4120.0 , 4119.48717949 , 4116.41025641 , 4110.25641026 , 4103.07692308 , 4194.87179487 , 4118.46153846 , 4121.53846154 , 4176.41025641 , 4894.87179487 , 4121.02564103 , 4126.66666667 , 2045.0 , 2038.0 , 15.839 , 0.0 , 0.0 , 0.0 , 0.0 , 

96.0 , 4113.84615385 , 4105.12820513 , 4117.94871795 , 4114.87179487 , 4118.46153846 , 4110.25641026 , 4108.71794872 , 4195.38461538 , 4116.41025641 , 4123.07692308 , 4176.41025641 , 4894.87179487 , 4115.38461538 , 4126.66666667 , 2045.0 , 2036.0 , 15.847 , 0.0 , 0.0 , 0.0 , 0.0 , 

97.0 , 4110.76923077 , 4109.23076923 , 4116.92307692 , 4112.30769231 , 4116.92307692 , 4112.30769231 , 4110.76923077 , 4205.64102564 , 4124.61538462 , 4127.17948718 , 4177.94871795 , 4895.38461538 , 4121.53846154 , 4125.12820513 , 2047.0 , 2037.0 , 15.855 , 0.0 , 0.0 , 0.0 , 0.0 , 

98.0 , 4115.38461538 , 4107.17948718 , 4118.46153846 , 4113.84615385 , 4116.41025641 , 4114.35897436 , 4108.20512821 , 4201.02564103 , 4121.53846154 , 4125.12820513 , 4174.87179487 , 4896.92307692 , 4116.92307692 , 4125.12820513 , 2049.0 , 2035.0 , 15.863 , 0.0 , 0.0 , 0.0 , 0.0 , 

99.0 , 4116.92307692 , 4114.35897436 , 4120.51282051 , 4115.8974359 , 4116.92307692 , 4114.87179487 , 4119.48717949 , 4217.94871795 , 4124.61538462 , 4124.1025641 , 4177.94871795 , 4894.87179487 , 4113.84615385 , 4127.69230769 , 2050.0 , 2035.0 , 15.871 , 0.0 , 0.0 , 0.0 , 0.0 , 

100.0 , 4116.92307692 , 4110.25641026 , 4120.51282051 , 4111.79487179 , 4120.0 , 4114.35897436 , 4118.97435897 , 4202.05128205 , 4117.43589744 , 4125.12820513 , 4170.76923077 , 4897.94871795 , 4102.05128205 , 4123.07692308 , 2049.0 , 2033.0 , 15.879 , 0.0 , 0.0 , 0.0 , 0.0 , 

101.0 , 4118.97435897 , 4120.51282051 , 4120.51282051 , 4115.8974359 , 4118.46153846 , 4116.41025641 , 4116.92307692 , 4199.48717949 , 4123.58974359 , 4129.23076923 , 4170.25641026 , 4898.46153846 , 4111.28205128 , 4123.07692308 , 2051.0 , 2034.0 , 15.888 , 0.0 , 0.0 , 0.0 , 0.0 , 

102.0 , 4120.0 , 4115.8974359 , 4119.48717949 , 4115.8974359 , 4118.46153846 , 4114.87179487 , 4107.69230769 , 4177.43589744 , 4109.23076923 , 4123.58974359 , 4167.69230769 , 4902.05128205 , 4108.71794872 , 4120.51282051 , 2049.0 , 2036.0 , 15.896 , 0.0 , 0.0 , 0.0 , 0.0 , 

103.0 , 4119.48717949 , 4123.07692308 , 4119.48717949 , 4123.58974359 , 4115.8974359 , 4116.92307692 , 4114.87179487 , 4185.12820513 , 4116.41025641 , 4122.05128205 , 4173.33333333 , 4897.94871795 , 4126.66666667 , 4124.61538462 , 2050.0 , 2036.0 , 15.902 , 0.0 , 0.0 , 0.0 , 0.0 , 

104.0 , 4117.94871795 , 4117.94871795 , 4117.94871795 , 4115.8974359 , 4114.87179487 , 4113.33333333 , 4111.28205128 , 4151.79487179 , 4115.38461538 , 4117.94871795 , 4167.17948718 , 4899.48717949 , 4124.1025641 , 4121.53846154 , 2050.0 , 2033.0 , 15.91 , 0.0 , 0.0 , 0.0 , 0.0 , 

105.0 , 4117.43589744 , 4129.23076923 , 4117.94871795 , 4115.8974359 , 4115.38461538 , 4112.30769231 , 4117.94871795 , 4152.82051282 , 4122.56410256 , 4123.07692308 , 4174.35897436 , 4896.41025641 , 4133.84615385 , 4122.56410256 , 2050.0 , 2033.0 , 15.918 , 0.0 , 0.0 , 0.0 , 0.0 , 

106.0 , 4115.8974359 , 4114.35897436 , 4119.48717949 , 4119.48717949 , 4113.84615385 , 4110.76923077 , 4108.71794872 , 4154.35897436 , 4115.38461538 , 4123.58974359 , 4177.43589744 , 4900.0 , 4122.56410256 , 4121.02564103 , 2050.0 , 2033.0 , 15.926 , 0.0 , 0.0 , 0.0 , 0.0 , 

107.0 , 4116.92307692 , 4107.69230769 , 4119.48717949 , 4123.07692308 , 4113.33333333 , 4114.35897436 , 4107.69230769 , 4169.74358974 , 4110.76923077 , 4123.58974359 , 4180.51282051 , 4897.94871795 , 4126.66666667 , 4131.28205128 , 2049.0 , 2032.0 , 15.934 , 0.0 , 0.0 , 0.0 , 0.0 , 

108.0 , 4107.69230769 , 4090.76923077 , 4117.43589744 , 4104.1025641 , 4118.97435897 , 4112.82051282 , 4111.79487179 , 4161.02564103 , 4092.30769231 , 4122.56410256 , 4180.0 , 4897.43589744 , 4124.61538462 , 4137.43589744 , 2049.0 , 2032.0 , 15.942 , 0.0 , 0.0 , 0.0 , 0.0 , 

109.0 , 4101.53846154 , 4099.48717949 , 4117.43589744 , 4104.61538462 , 4120.51282051 , 4116.92307692 , 4128.71794872 , 4182.05128205 , 4103.07692308 , 4127.69230769 , 4184.1025641 , 4892.30769231 , 4136.41025641 , 4139.48717949 , 2048.0 , 2031.0 , 15.951 , 0.0 , 0.0 , 0.0 , 0.0 , 

110.0 , 4105.12820513 , 4102.56410256 , 4118.97435897 , 4113.84615385 , 4115.8974359 , 4114.87179487 , 4117.43589744 , 4193.84615385 , 4118.46153846 , 4127.17948718 , 4176.92307692 , 4898.46153846 , 4124.61538462 , 4131.79487179 , 2047.0 , 2031.0 , 15.958 , 0.0 , 0.0 , 0.0 , 0.0 , 

111.0 , 4119.48717949 , 4109.74358974 , 4121.53846154 , 4117.94871795 , 4116.92307692 , 4113.33333333 , 4109.74358974 , 4200.51282051 , 4123.07692308 , 4126.66666667 , 4170.76923077 , 4901.02564103 , 4112.82051282 , 4123.58974359 , 2046.0 , 2030.0 , 15.966 , 0.0 , 0.0 , 0.0 , 0.0 , 

112.0 , 4117.43589744 , 4108.71794872 , 4121.02564103 , 4111.79487179 , 4120.0 , 4112.82051282 , 4115.8974359 , 4204.1025641 , 4120.0 , 4126.66666667 , 4172.30769231 , 4898.46153846 , 4104.61538462 , 4118.97435897 , 2046.0 , 2032.0 , 15.974 , 0.0 , 0.0 , 0.0 , 0.0 , 

113.0 , 4114.35897436 , 4112.82051282 , 4117.43589744 , 4113.33333333 , 4120.0 , 4112.82051282 , 4120.0 , 4198.97435897 , 4120.51282051 , 4125.64102564 , 4173.84615385 , 4897.43589744 , 4107.17948718 , 4120.51282051 , 2046.0 , 2031.0 , 15.981 , 0.0 , 0.0 , 0.0 , 0.0 , 

114.0 , 4117.43589744 , 4117.43589744 , 4117.94871795 , 4115.8974359 , 4115.8974359 , 4112.30769231 , 4114.87179487 , 4197.94871795 , 4120.0 , 4123.07692308 , 4172.30769231 , 4902.05128205 , 4112.30769231 , 4121.02564103 , 2045.0 , 2033.0 , 15.99 , 0.0 , 0.0 , 0.0 , 0.0 , 

115.0 , 4122.05128205 , 4116.41025641 , 4119.48717949 , 4117.94871795 , 4116.41025641 , 4116.92307692 , 4117.94871795 , 4184.1025641 , 4113.84615385 , 4122.56410256 , 4168.71794872 , 4903.07692308 , 4111.28205128 , 4120.51282051 , 2043.0 , 2033.0 , 15.997 , 0.0 , 0.0 , 0.0 , 0.0 , 

116.0 , 4117.43589744 , 4121.02564103 , 4118.46153846 , 4121.02564103 , 4116.92307692 , 4117.43589744 , 4120.0 , 4185.64102564 , 4115.38461538 , 4125.12820513 , 4173.33333333 , 4900.0 , 4117.43589744 , 4125.12820513 , 2044.0 , 2033.0 , 16.005 , 0.0 , 0.0 , 0.0 , 0.0 , 

117.0 , 4120.0 , 4118.46153846 , 4117.43589744 , 4120.0 , 4117.43589744 , 4114.87179487 , 4110.25641026 , 4171.79487179 , 4107.17948718 , 4124.1025641 , 4172.82051282 , 4902.56410256 , 4119.48717949 , 4123.07692308 , 2044.0 , 2032.0 , 16.013 , 0.0 , 0.0 , 0.0 , 0.0 , 

118.0 , 4121.53846154 , 4121.53846154 , 4119.48717949 , 4122.56410256 , 4116.41025641 , 4115.38461538 , 4110.76923077 , 4182.05128205 , 4112.82051282 , 4125.12820513 , 4177.43589744 , 4899.48717949 , 4132.82051282 , 4125.12820513 , 2044.0 , 2030.0 , 16.021 , 0.0 , 0.0 , 0.0 , 0.0 , 

119.0 , 4120.0 , 4105.64102564 , 4118.46153846 , 4118.97435897 , 4116.92307692 , 4112.30769231 , 4101.53846154 , 4173.84615385 , 4104.61538462 , 4123.58974359 , 4176.92307692 , 4896.41025641 , 4124.61538462 , 4129.23076923 , 2043.0 , 2029.0 , 16.029 , 0.0 , 0.0 , 0.0 , 0.0 , 

120.0 , 4115.8974359 , 4107.69230769 , 4118.97435897 , 4120.51282051 , 4113.33333333 , 4112.30769231 , 4101.53846154 , 4192.82051282 , 4116.41025641 , 4126.15384615 , 4181.02564103 , 4893.33333333 , 4126.66666667 , 4132.30769231 , 2044.0 , 2027.0 , 16.036 , 0.0 , 0.0 , 0.0 , 0.0 , 

121.0 , 4110.76923077 , 4101.53846154 , 4120.0 , 4114.35897436 , 4112.82051282 , 4111.28205128 , 4100.51282051 , 4182.56410256 , 4114.87179487 , 4121.02564103 , 4175.38461538 , 4898.46153846 , 4113.84615385 , 4123.58974359 , 2044.0 , 2027.0 , 16.044 , 0.0 , 0.0 , 0.0 , 0.0 , 

122.0 , 4110.76923077 , 4106.66666667 , 4119.48717949 , 4115.38461538 , 4115.8974359 , 4112.30769231 , 4110.25641026 , 4201.53846154 , 4127.69230769 , 4122.05128205 , 4180.51282051 , 4894.87179487 , 4124.1025641 , 4125.12820513 , 2046.0 , 2027.0 , 16.053 , 0.0 , 0.0 , 0.0 , 0.0 , 

123.0 , 4114.87179487 , 4095.38461538 , 4116.92307692 , 4110.25641026 , 4117.94871795 , 4109.74358974 , 4104.61538462 , 4198.97435897 , 4122.56410256 , 4126.15384615 , 4177.43589744 , 4897.43589744 , 4115.8974359 , 4123.07692308 , 2046.0 , 2029.0 , 16.06 , 0.0 , 0.0 , 0.0 , 0.0 , 

124.0 , 4114.87179487 , 4110.76923077 , 4119.48717949 , 4116.41025641 , 4115.38461538 , 4114.35897436 , 4112.30769231 , 4212.82051282 , 4127.17948718 , 4130.76923077 , 4177.94871795 , 4896.41025641 , 4118.46153846 , 4122.56410256 , 2046.0 , 2030.0 , 16.068 , 0.0 , 0.0 , 0.0 , 0.0 , 

125.0 , 4113.84615385 , 4109.74358974 , 4121.02564103 , 4114.35897436 , 4117.43589744 , 4113.84615385 , 4112.30769231 , 4197.94871795 , 4118.97435897 , 4128.20512821 , 4173.33333333 , 4900.51282051 , 4105.64102564 , 4119.48717949 , 2048.0 , 2029.0 , 16.076 , 0.0 , 0.0 , 0.0 , 0.0 , 

126.0 , 4121.02564103 , 4120.0 , 4118.97435897 , 4116.92307692 , 4120.0 , 4117.94871795 , 4122.56410256 , 4205.64102564 , 4124.61538462 , 4131.79487179 , 4175.38461538 , 4897.43589744 , 4110.76923077 , 4121.53846154 , 2047.0 , 2029.0 , 16.084 , 0.0 , 0.0 , 0.0 , 0.0 , 

127.0 , 4117.94871795 , 4117.43589744 , 4118.46153846 , 4114.35897436 , 4117.43589744 , 4118.97435897 , 4118.97435897 , 4193.33333333 , 4117.43589744 , 4129.23076923 , 4170.76923077 , 4898.97435897 , 4106.15384615 , 4118.46153846 , 2048.0 , 2032.0 , 16.092 , 0.0 , 0.0 , 0.0 , 0.0 , 

128.0 , 4115.38461538 , 4122.56410256 , 4118.46153846 , 4122.05128205 , 4115.8974359 , 4120.0 , 4115.8974359 , 4182.05128205 , 4111.79487179 , 4123.07692308 , 4172.30769231 , 4899.48717949 , 4118.46153846 , 4125.64102564 , 2047.0 , 2031.0 , 16.1 , 0.0 , 0.0 , 0.0 , 0.0 , 

0.0 , 4117.94871795 , 4116.41025641 , 4117.43589744 , 4124.1025641 , 4116.92307692 , 4114.87179487 , 4108.71794872 , 4170.76923077 , 4104.1025641 , 4117.94871795 , 4172.30769231 , 4904.1025641 , 4116.92307692 , 4127.17948718 , 2046.0 , 2033.0 , 16.107 , 0.0 , 0.0 , 0.0 , 0.0 , 

1.0 , 4120.51282051 , 4118.97435897 , 4116.92307692 , 4123.58974359 , 4117.43589744 , 4114.87179487 , 4109.23076923 , 4171.79487179 , 4107.17948718 , 4122.05128205 , 4172.30769231 , 4902.05128205 , 4119.48717949 , 4125.12820513 , 2048.0 , 2032.0 , 16.115 , 0.0 , 0.0 , 0.0 , 0.0 , 

2.0 , 4113.33333333 , 4112.30769231 , 4118.46153846 , 4118.46153846 , 4115.38461538 , 4111.79487179 , 4102.56410256 , 4177.43589744 , 4108.71794872 , 4121.53846154 , 4171.79487179 , 4898.46153846 , 4123.58974359 , 4126.66666667 , 2046.0 , 2034.0 , 16.123 , 0.0 , 0.0 , 0.0 , 0.0 , 

3.0 , 4117.43589744 , 4111.28205128 , 4117.94871795 , 4122.56410256 , 4116.92307692 , 4110.25641026 , 4103.58974359 , 4178.97435897 , 4106.66666667 , 4120.51282051 , 4176.92307692 , 4897.43589744 , 4126.15384615 , 4132.30769231 , 2048.0 , 2034.0 , 16.131 , 0.0 , 0.0 , 0.0 , 0.0 , 

4.0 , 4117.43589744 , 4112.82051282 , 4120.0 , 4127.69230769 , 4114.87179487 , 4111.79487179 , 4111.28205128 , 4184.61538462 , 4118.97435897 , 4125.12820513 , 4184.1025641 , 4900.0 , 4127.69230769 , 4130.25641026 , 2047.0 , 2034.0 , 16.139 , 0.0 , 0.0 , 0.0 , 0.0 , 

5.0 , 4113.84615385 , 4108.20512821 , 4120.51282051 , 4120.0 , 4114.87179487 , 4112.82051282 , 4108.71794872 , 4181.02564103 , 4127.69230769 , 4128.71794872 , 4177.43589744 , 4900.0 , 4131.28205128 , 4124.1025641 , 2045.0 , 2034.0 , 16.147 , 0.0 , 0.0 , 0.0 , 0.0 , 

6.0 , 4108.71794872 , 4112.30769231 , 4118.97435897 , 4115.8974359 , 4117.43589744 , 4113.84615385 , 4114.35897436 , 4206.15384615 , 4137.43589744 , 4129.23076923 , 4174.87179487 , 4895.38461538 , 4133.84615385 , 4127.17948718 , 2046.0 , 2033.0 , 16.155 , 0.0 , 0.0 , 0.0 , 0.0 , 

7.0 , 4111.79487179 , 4109.74358974 , 4118.46153846 , 4113.84615385 , 4118.97435897 , 4113.84615385 , 4114.87179487 , 4194.35897436 , 4122.05128205 , 4128.20512821 , 4171.79487179 , 4897.94871795 , 4111.28205128 , 4126.15384615 , 2045.0 , 2033.0 , 16.163 , 0.0 , 0.0 , 0.0 , 0.0 , 

8.0 , 4122.56410256 , 4124.61538462 , 4121.02564103 , 4115.8974359 , 4113.84615385 , 4110.76923077 , 4103.07692308 , 4187.69230769 , 4111.79487179 , 4129.23076923 , 4177.43589744 , 4898.46153846 , 4122.56410256 , 4125.64102564 , 2042.0 , 2034.0 , 16.17 , 0.0 , 0.0 , 0.0 , 0.0 , 

9.0 , 4129.23076923 , 4123.58974359 , 4118.97435897 , 4113.84615385 , 4115.38461538 , 4110.25641026 , 4089.23076923 , 4174.87179487 , 4102.56410256 , 4120.0 , 4175.8974359 , 4898.46153846 , 4121.53846154 , 4124.1025641 , 2042.0 , 2036.0 , 16.178 , 0.0 , 0.0 , 0.0 , 0.0 , 

10.0 , 4119.48717949 , 4118.97435897 , 4119.48717949 , 4121.53846154 , 4119.48717949 , 4120.0 , 4112.30769231 , 4206.15384615 , 4123.07692308 , 4122.56410256 , 4175.38461538 , 4894.35897436 , 4109.74358974 , 4127.69230769 , 2042.0 , 2035.0 , 16.186 , 0.0 , 0.0 , 0.0 , 0.0 , 

11.0 , 4112.82051282 , 4102.56410256 , 4121.02564103 , 4117.43589744 , 4121.53846154 , 4117.94871795 , 4120.0 , 4190.25641026 , 4118.46153846 , 4126.15384615 , 4166.66666667 , 4902.05128205 , 4092.30769231 , 4122.56410256 , 2043.0 , 2035.0 , 16.194 , 0.0 , 0.0 , 0.0 , 0.0 , 

12.0 , 4122.05128205 , 4121.02564103 , 4120.0 , 4122.05128205 , 4118.46153846 , 4115.38461538 , 4117.94871795 , 4184.61538462 , 4117.43589744 , 4124.61538462 , 4173.84615385 , 4900.0 , 4120.0 , 4125.64102564 , 2043.0 , 2033.0 , 16.202 , 0.0 , 0.0 , 0.0 , 0.0 , 

13.0 , 4124.61538462 , 4119.48717949 , 4118.46153846 , 4124.61538462 , 4115.8974359 , 4114.87179487 , 4107.17948718 , 4167.17948718 , 4109.74358974 , 4120.0 , 4172.82051282 , 4899.48717949 , 4117.43589744 , 4124.1025641 , 2044.0 , 2033.0 , 16.21 , 0.0 , 0.0 , 0.0 , 0.0 , 

14.0 , 4118.97435897 , 4124.1025641 , 4118.97435897 , 4127.17948718 , 4116.41025641 , 4116.92307692 , 4113.33333333 , 4182.05128205 , 4116.41025641 , 4126.15384615 , 4175.38461538 , 4898.46153846 , 4119.48717949 , 4124.1025641 , 2044.0 , 2033.0 , 16.218 , 0.0 , 0.0 , 0.0 , 0.0 , 

15.0 , 4118.46153846 , 4116.92307692 , 4118.97435897 , 4118.46153846 , 4118.46153846 , 4111.79487179 , 4107.17948718 , 4171.79487179 , 4106.15384615 , 4124.1025641 , 4176.92307692 , 4904.61538462 , 4123.58974359 , 4123.58974359 , 2046.0 , 2032.0 , 16.226 , 0.0 , 0.0 , 0.0 , 0.0 , 

16.0 , 4123.07692308 , 4121.02564103 , 4119.48717949 , 4123.58974359 , 4114.87179487 , 4113.84615385 , 4109.23076923 , 4183.07692308 , 4113.84615385 , 4123.07692308 , 4182.05128205 , 4898.46153846 , 4136.92307692 , 4131.79487179 , 2046.0 , 2033.0 , 16.234 , 0.0 , 0.0 , 0.0 , 0.0 , 

17.0 , 4116.41025641 , 4111.79487179 , 4119.48717949 , 4119.48717949 , 4113.33333333 , 4110.25641026 , 4102.56410256 , 4189.23076923 , 4113.33333333 , 4123.07692308 , 4178.97435897 , 4894.87179487 , 4121.02564103 , 4129.23076923 , 2045.0 , 2034.0 , 16.241 , 0.0 , 0.0 , 0.0 , 0.0 , 

18.0 , 4112.82051282 , 4109.74358974 , 4115.8974359 , 4114.35897436 , 4115.38461538 , 4111.28205128 , 4107.69230769 , 4198.97435897 , 4116.92307692 , 4126.15384615 , 4178.97435897 , 4893.33333333 , 4115.38461538 , 4125.64102564 , 2043.0 , 2033.0 , 16.249 , 0.0 , 0.0 , 0.0 , 0.0 , 

19.0 , 4110.76923077 , 4098.97435897 , 4116.41025641 , 4109.23076923 , 4113.33333333 , 4110.76923077 , 4108.71794872 , 4199.48717949 , 4120.51282051 , 4126.66666667 , 4174.35897436 , 4896.41025641 , 4113.33333333 , 4123.58974359 , 2044.0 , 2035.0 , 16.257 , 0.0 , 0.0 , 0.0 , 0.0 , 

20.0 , 4114.35897436 , 4106.15384615 , 4119.48717949 , 4112.82051282 , 4115.38461538 , 4112.82051282 , 4109.74358974 , 4204.1025641 , 4123.58974359 , 4128.20512821 , 4173.33333333 , 4895.8974359 , 4113.33333333 , 4124.1025641 , 2044.0 , 2036.0 , 16.265 , 0.0 , 0.0 , 0.0 , 0.0 , 

21.0 , 4112.82051282 , 4109.23076923 , 4121.02564103 , 4113.33333333 , 4118.46153846 , 4115.8974359 , 4110.76923077 , 4208.20512821 , 4123.07692308 , 4127.17948718 , 4176.92307692 , 4898.46153846 , 4105.64102564 , 4123.07692308 , 2044.0 , 2035.0 , 16.273 , 0.0 , 0.0 , 0.0 , 0.0 , 

22.0 , 4116.41025641 , 4109.74358974 , 4121.02564103 , 4114.87179487 , 4118.46153846 , 4118.97435897 , 4112.82051282 , 4200.51282051 , 4120.0 , 4126.66666667 , 4173.33333333 , 4902.05128205 , 4105.64102564 , 4121.02564103 , 2043.0 , 2034.0 , 16.281 , 0.0 , 0.0 , 0.0 , 0.0 , 

23.0 , 4117.94871795 , 4118.46153846 , 4123.07692308 , 4118.46153846 , 4115.8974359 , 4118.46153846 , 4116.92307692 , 4204.1025641 , 4123.58974359 , 4128.20512821 , 4173.33333333 , 4901.02564103 , 4115.38461538 , 4119.48717949 , 2043.0 , 2034.0 , 16.289 , 0.0 , 0.0 , 0.0 , 0.0 , 

24.0 , 4121.53846154 , 4120.51282051 , 4120.51282051 , 4117.94871795 , 4119.48717949 , 4118.46153846 , 4119.48717949 , 4190.76923077 , 4115.38461538 , 4126.66666667 , 4171.28205128 , 4903.07692308 , 4114.35897436 , 4119.48717949 , 2043.0 , 2034.0 , 16.296 , 0.0 , 0.0 , 0.0 , 0.0 , 

25.0 , 4118.97435897 , 4126.15384615 , 4119.48717949 , 4121.53846154 , 4117.43589744 , 4117.94871795 , 4121.53846154 , 4192.82051282 , 4117.43589744 , 4125.64102564 , 4171.79487179 , 4903.07692308 , 4122.05128205 , 4123.58974359 , 2044.0 , 2033.0 , 16.304 , 0.0 , 0.0 , 0.0 , 0.0 , 

26.0 , 4117.43589744 , 4120.0 , 4119.48717949 , 4120.51282051 , 4115.8974359 , 4114.87179487 , 4109.23076923 , 4171.28205128 , 4105.64102564 , 4121.53846154 , 4170.25641026 , 4903.07692308 , 4114.35897436 , 4121.02564103 , 2044.0 , 2032.0 , 16.312 , 0.0 , 0.0 , 0.0 , 0.0 , 

27.0 , 4119.48717949 , 4122.05128205 , 4118.97435897 , 4123.07692308 , 4116.41025641 , 4115.8974359 , 4109.74358974 , 4181.02564103 , 4110.25641026 , 4122.56410256 , 4180.51282051 , 4898.97435897 , 4123.07692308 , 4127.17948718 , 2043.0 , 2033.0 , 16.32 , 0.0 , 0.0 , 0.0 , 0.0 , 

28.0 , 4121.53846154 , 4109.23076923 , 4117.94871795 , 4118.46153846 , 4115.8974359 , 4112.82051282 , 4104.61538462 , 4173.33333333 , 4108.71794872 , 4120.51282051 , 4178.46153846 , 4902.56410256 , 4123.07692308 , 4129.74358974 , 2045.0 , 2033.0 , 16.328 , 0.0 , 0.0 , 0.0 , 0.0 , 

29.0 , 4117.43589744 , 4113.84615385 , 4119.48717949 , 4120.0 , 4114.35897436 , 4111.28205128 , 4106.15384615 , 4191.28205128 , 4123.07692308 , 4122.05128205 , 4180.0 , 4897.43589744 , 4131.28205128 , 4129.74358974 , 2045.0 , 2032.0 , 16.336 , 0.0 , 0.0 , 0.0 , 0.0 , 

30.0 , 4112.82051282 , 4103.07692308 , 4118.97435897 , 4112.30769231 , 4117.94871795 , 4107.69230769 , 4100.51282051 , 4184.1025641 , 4115.38461538 , 4121.02564103 , 4177.94871795 , 4898.46153846 , 4115.38461538 , 4124.1025641 , 2045.0 , 2033.0 , 16.344 , 0.0 , 0.0 , 0.0 , 0.0 , 

31.0 , 4115.8974359 , 4109.74358974 , 4118.97435897 , 4116.41025641 , 4118.46153846 , 4109.23076923 , 4108.20512821 , 4204.1025641 , 4121.02564103 , 4126.15384615 , 4181.02564103 , 4897.43589744 , 4127.69230769 , 4130.25641026 , 2045.0 , 2033.0 , 16.352 , 0.0 , 0.0 , 0.0 , 0.0 , 

32.0 , 4113.84615385 , 4102.56410256 , 4119.48717949 , 4115.38461538 , 4115.38461538 , 4108.71794872 , 4104.1025641 , 4198.97435897 , 4118.46153846 , 4124.61538462 , 4174.87179487 , 4898.97435897 , 4120.0 , 4129.23076923 , 2044.0 , 2032.0 , 16.361 , 0.0 , 0.0 , 0.0 , 0.0 , 

33.0 , 4111.79487179 , 4111.79487179 , 4120.0 , 4117.94871795 , 4114.87179487 , 4115.38461538 , 4115.38461538 , 4212.82051282 , 4127.69230769 , 4127.17948718 , 4177.43589744 , 4895.8974359 , 4115.8974359 , 4127.69230769 , 2044.0 , 2034.0 , 16.367 , 0.0 , 0.0 , 0.0 , 0.0 , 

34.0 , 4112.82051282 , 4108.71794872 , 4121.02564103 , 4112.82051282 , 4118.97435897 , 4114.87179487 , 4117.43589744 , 4203.07692308 , 4121.02564103 , 4125.64102564 , 4172.30769231 , 4900.0 , 4104.61538462 , 4125.12820513 , 2045.0 , 2034.0 , 16.376 , 0.0 , 0.0 , 0.0 , 0.0 , 

35.0 , 4118.46153846 , 4121.02564103 , 4120.51282051 , 4116.41025641 , 4119.48717949 , 4115.38461538 , 4120.51282051 , 4203.07692308 , 4125.12820513 , 4126.66666667 , 4172.30769231 , 4895.8974359 , 4114.87179487 , 4127.17948718 , 2045.0 , 2033.0 , 16.383 , 0.0 , 0.0 , 0.0 , 0.0 , 

36.0 , 4117.43589744 , 4118.46153846 , 4118.46153846 , 4116.41025641 , 4117.43589744 , 4114.87179487 , 4115.8974359 , 4193.33333333 , 4117.94871795 , 4123.07692308 , 4169.74358974 , 4898.46153846 , 4105.64102564 , 4120.0 , 2043.0 , 2034.0 , 16.391 , 0.0 , 0.0 , 0.0 , 0.0 , 

37.0 , 4124.61538462 , 4123.07692308 , 4117.94871795 , 4122.56410256 , 4118.97435897 , 4118.46153846 , 4121.02564103 , 4183.07692308 , 4116.41025641 , 4125.12820513 , 4171.28205128 , 4900.51282051 , 4113.84615385 , 4117.43589744 , 2044.0 , 2035.0 , 16.399 , 0.0 , 0.0 , 0.0 , 0.0 , 

38.0 , 4122.05128205 , 4114.35897436 , 4120.0 , 4118.97435897 , 4117.94871795 , 4110.76923077 , 4112.30769231 , 4163.07692308 , 4121.02564103 , 4128.20512821 , 4175.38461538 , 4901.53846154 , 4125.64102564 , 4121.53846154 , 2044.0 , 2034.0 , 16.407 , 0.0 , 0.0 , 0.0 , 0.0 , 

39.0 , 4114.35897436 , 4108.71794872 , 4119.48717949 , 4120.0 , 4117.43589744 , 4105.64102564 , 4104.1025641 , 4159.48717949 , 4121.02564103 , 4126.15384615 , 4178.97435897 , 4897.43589744 , 4129.74358974 , 4128.20512821 , 2043.0 , 2035.0 , 16.415 , 0.0 , 0.0 , 0.0 , 0.0 , 

40.0 , 4113.33333333 , 4113.84615385 , 4117.94871795 , 4122.05128205 , 4116.41025641 , 4109.23076923 , 4105.64102564 , 4170.76923077 , 4117.43589744 , 4122.05128205 , 4180.51282051 , 4897.43589744 , 4126.66666667 , 4125.64102564 , 2042.0 , 2035.0 , 16.423 , 0.0 , 0.0 , 0.0 , 0.0 , 

41.0 , 4121.53846154 , 4117.43589744 , 4115.38461538 , 4120.51282051 , 4117.43589744 , 4111.79487179 , 4099.48717949 , 4158.97435897 , 4114.87179487 , 4123.07692308 , 4177.43589744 , 4897.94871795 , 4127.69230769 , 4124.1025641 , 2041.0 , 2035.0 , 16.43 , 0.0 , 0.0 , 0.0 , 0.0 , 

42.0 , 4118.97435897 , 4112.30769231 , 4116.41025641 , 4120.0 , 4116.41025641 , 4110.76923077 , 4091.79487179 , 4175.38461538 , 4126.66666667 , 4128.71794872 , 4179.48717949 , 4895.8974359 , 4136.92307692 , 4133.33333333 , 2040.0 , 2035.0 , 16.438 , 0.0 , 0.0 , 0.0 , 0.0 , 

43.0 , 4116.41025641 , 4104.61538462 , 4118.46153846 , 4117.94871795 , 4117.94871795 , 4111.28205128 , 4100.0 , 4190.25641026 , 4123.07692308 , 4128.20512821 , 4177.43589744 , 4897.94871795 , 4126.15384615 , 4133.33333333 , 2040.0 , 2036.0 , 16.446 , 0.0 , 0.0 , 0.0 , 0.0 , 

44.0 , 4115.8974359 , 4116.92307692 , 4121.02564103 , 4118.46153846 , 4117.94871795 , 4111.28205128 , 4112.82051282 , 4210.25641026 , 4128.20512821 , 4128.20512821 , 4182.56410256 , 4896.41025641 , 4121.53846154 , 4126.15384615 , 2041.0 , 2034.0 , 16.454 , 0.0 , 0.0 , 0.0 , 0.0 , 

45.0 , 4115.8974359 , 4110.76923077 , 4118.97435897 , 4113.84615385 , 4118.97435897 , 4109.23076923 , 4104.1025641 , 4193.33333333 , 4120.51282051 , 4127.17948718 , 4178.46153846 , 4897.94871795 , 4110.25641026 , 4119.48717949 , 2042.0 , 2035.0 , 16.462 , 0.0 , 0.0 , 0.0 , 0.0 , 

46.0 , 4114.87179487 , 4111.79487179 , 4120.0 , 4114.35897436 , 4119.48717949 , 4115.38461538 , 4115.38461538 , 4207.69230769 , 4125.64102564 , 4129.23076923 , 4177.94871795 , 4895.8974359 , 4116.41025641 , 4123.58974359 , 2042.0 , 2034.0 , 16.47 , 0.0 , 0.0 , 0.0 , 0.0 , 

47.0 , 4114.87179487 , 4105.64102564 , 4121.02564103 , 4109.23076923 , 4120.0 , 4116.92307692 , 4117.43589744 , 4194.35897436 , 4116.92307692 , 4125.12820513 , 4170.25641026 , 4902.56410256 , 4103.58974359 , 4120.0 , 2043.0 , 2032.0 , 16.478 , 0.0 , 0.0 , 0.0 , 0.0 , 

48.0 , 4118.46153846 , 4120.0 , 4123.07692308 , 4116.41025641 , 4117.94871795 , 4117.94871795 , 4117.94871795 , 4205.12820513 , 4124.1025641 , 4123.07692308 , 4173.84615385 , 4900.51282051 , 4109.74358974 , 4121.53846154 , 2043.0 , 2032.0 , 16.486 , 0.0 , 0.0 , 0.0 , 0.0 , 

49.0 , 4120.0 , 4114.87179487 , 4120.51282051 , 4114.87179487 , 4118.46153846 , 4118.46153846 , 4114.87179487 , 4186.66666667 , 4113.33333333 , 4119.48717949 , 4173.84615385 , 4901.02564103 , 4104.61538462 , 4120.51282051 , 2044.0 , 2032.0 , 16.494 , 0.0 , 0.0 , 0.0 , 0.0 , 

50.0 , 4118.97435897 , 4123.58974359 , 4120.0 , 4119.48717949 , 4117.43589744 , 4120.0 , 4122.05128205 , 4187.17948718 , 4116.92307692 , 4124.61538462 , 4176.92307692 , 4900.0 , 4116.41025641 , 4124.1025641 , 2043.0 , 2033.0 , 16.501 , 0.0 , 0.0 , 0.0 , 0.0 , 

51.0 , 4118.97435897 , 4117.94871795 , 4121.53846154 , 4121.53846154 , 4115.8974359 , 4114.87179487 , 4111.28205128 , 4174.87179487 , 4111.28205128 , 4125.64102564 , 4168.71794872 , 4903.58974359 , 4112.82051282 , 4122.56410256 , 2043.0 , 2035.0 , 16.509 , 0.0 , 0.0 , 0.0 , 0.0 , 

52.0 , 4124.61538462 , 4126.66666667 , 4119.48717949 , 4125.64102564 , 4119.48717949 , 4116.92307692 , 4113.84615385 , 4183.07692308 , 4114.87179487 , 4126.15384615 , 4172.30769231 , 4897.43589744 , 4125.64102564 , 4124.1025641 , 2042.0 , 2035.0 , 16.518 , 0.0 , 0.0 , 0.0 , 0.0 , 

53.0 , 4120.51282051 , 4117.43589744 , 4115.8974359 , 4119.48717949 , 4120.0 , 4113.84615385 , 4107.69230769 , 4172.82051282 , 4103.07692308 , 4120.0 , 4175.38461538 , 4898.46153846 , 4125.64102564 , 4123.58974359 , 2041.0 , 2035.0 , 16.525 , 0.0 , 0.0 , 0.0 , 0.0 , 

54.0 , 4118.46153846 , 4121.53846154 , 4117.94871795 , 4125.12820513 , 4116.41025641 , 4112.82051282 , 4106.66666667 , 4180.0 , 4108.71794872 , 4121.02564103 , 4181.02564103 , 4900.0 , 4131.79487179 , 4128.71794872 , 2040.0 , 2031.0 , 16.533 , 0.0 , 0.0 , 0.0 , 0.0 , 

55.0 , 4117.94871795 , 4113.33333333 , 4120.51282051 , 4122.56410256 , 4115.8974359 , 4112.30769231 , 4101.02564103 , 4181.02564103 , 4112.82051282 , 4122.56410256 , 4178.97435897 , 4901.02564103 , 4118.46153846 , 4127.69230769 , 2039.0 , 2029.0 , 16.541 , 0.0 , 0.0 , 0.0 , 0.0 , 

56.0 , 4117.43589744 , 4109.23076923 , 4118.97435897 , 4116.41025641 , 4118.46153846 , 4114.35897436 , 4104.1025641 , 4191.28205128 , 4114.35897436 , 4125.64102564 , 4177.43589744 , 4894.35897436 , 4117.43589744 , 4127.17948718 , 2041.0 , 2029.0 , 16.549 , 0.0 , 0.0 , 0.0 , 0.0 , 

57.0 , 4113.33333333 , 4103.58974359 , 4118.97435897 , 4110.25641026 , 4116.41025641 , 4111.28205128 , 4104.61538462 , 4198.97435897 , 4117.94871795 , 4125.12820513 , 4174.87179487 , 4894.87179487 , 4119.48717949 , 4124.61538462 , 2041.0 , 2029.0 , 16.557 , 0.0 , 0.0 , 0.0 , 0.0 , 

58.0 , 4119.48717949 , 4106.66666667 , 4118.97435897 , 4114.35897436 , 4116.92307692 , 4113.33333333 , 4109.74358974 , 4197.43589744 , 4119.48717949 , 4125.12820513 , 4174.87179487 , 4897.94871795 , 4117.43589744 , 4123.07692308 , 2040.0 , 2031.0 , 16.564 , 0.0 , 0.0 , 0.0 , 0.0 , 

59.0 , 4117.94871795 , 4108.20512821 , 4119.48717949 , 4117.43589744 , 4117.43589744 , 4116.41025641 , 4114.87179487 , 4207.69230769 , 4118.97435897 , 4126.66666667 , 4177.43589744 , 4899.48717949 , 4111.79487179 , 4125.64102564 , 2040.0 , 2033.0 , 16.572 , 0.0 , 0.0 , 0.0 , 0.0 , 

60.0 , 4115.8974359 , 4109.23076923 , 4120.0 , 4116.92307692 , 4117.94871795 , 4116.41025641 , 4115.38461538 , 4206.15384615 , 4116.41025641 , 4127.17948718 , 4175.8974359 , 4897.94871795 , 4107.17948718 , 4124.1025641 , 2042.0 , 2036.0 , 16.58 , 0.0 , 0.0 , 0.0 , 0.0 , 

61.0 , 4116.92307692 , 4118.46153846 , 4121.02564103 , 4118.97435897 , 4117.94871795 , 4115.38461538 , 4119.48717949 , 4211.79487179 , 4125.12820513 , 4129.74358974 , 4177.94871795 , 4896.41025641 , 4113.33333333 , 4119.48717949 , 2043.0 , 2038.0 , 16.588 , 0.0 , 0.0 , 0.0 , 0.0 , 

62.0 , 4118.97435897 , 4115.8974359 , 4118.97435897 , 4117.43589744 , 4120.0 , 4115.8974359 , 4118.46153846 , 4188.71794872 , 4117.43589744 , 4127.69230769 , 4174.87179487 , 4901.53846154 , 4110.25641026 , 4120.0 , 2043.0 , 2040.0 , 16.596 , 0.0 , 0.0 , 0.0 , 0.0 , 

63.0 , 4118.97435897 , 4122.56410256 , 4118.46153846 , 4122.05128205 , 4117.94871795 , 4116.92307692 , 4118.46153846 , 4190.76923077 , 4118.97435897 , 4125.12820513 , 4176.41025641 , 4898.97435897 , 4118.46153846 , 4129.23076923 , 2041.0 , 2040.0 , 16.604 , 0.0 , 0.0 , 0.0 , 0.0 , 

64.0 , 4123.07692308 , 4117.43589744 , 4117.43589744 , 4122.05128205 , 4117.43589744 , 4113.84615385 , 4107.69230769 , 4171.28205128 , 4106.15384615 , 4120.0 , 4170.25641026 , 4899.48717949 , 4112.30769231 , 4125.12820513 , 2041.0 , 2039.0 , 16.612 , 0.0 , 0.0 , 0.0 , 0.0 , 

65.0 , 4121.53846154 , 4121.53846154 , 4116.92307692 , 4123.58974359 , 4117.43589744 , 4112.82051282 , 4109.23076923 , 4180.51282051 , 4109.23076923 , 4121.02564103 , 4173.33333333 , 4900.51282051 , 4125.12820513 , 4123.58974359 , 2040.0 , 2038.0 , 16.621 , 0.0 , 0.0 , 0.0 , 0.0 , 

66.0 , 4118.46153846 , 4109.23076923 , 4116.92307692 , 4116.92307692 , 4117.43589744 , 4113.33333333 , 4102.05128205 , 4170.76923077 , 4105.64102564 , 4118.97435897 , 4170.76923077 , 4904.1025641 , 4121.02564103 , 4124.61538462 , 2041.0 , 2038.0 , 16.627 , 0.0 , 0.0 , 0.0 , 0.0 , 

67.0 , 4121.02564103 , 4118.97435897 , 4117.43589744 , 4123.07692308 , 4114.35897436 , 4116.41025641 , 4103.58974359 , 4189.74358974 , 4118.97435897 , 4122.56410256 , 4178.46153846 , 4894.87179487 , 4130.25641026 , 4131.28205128 , 2041.0 , 2037.0 , 16.635 , 0.0 , 0.0 , 0.0 , 0.0 , 

68.0 , 4121.02564103 , 4106.15384615 , 4116.92307692 , 4119.48717949 , 4115.8974359 , 4110.25641026 , 4104.61538462 , 4182.56410256 , 4119.48717949 , 4123.07692308 , 4182.56410256 , 4896.92307692 , 4121.53846154 , 4124.1025641 , 2042.0 , 2032.0 , 16.643 , 0.0 , 0.0 , 0.0 , 0.0 , 

69.0 , 4118.46153846 , 4109.23076923 , 4118.97435897 , 4122.05128205 , 4116.92307692 , 4111.28205128 , 4123.07692308 , 4195.38461538 , 4137.43589744 , 4128.20512821 , 4188.20512821 , 4895.38461538 , 4131.79487179 , 4121.53846154 , 2042.0 , 2033.0 , 16.651 , 0.0 , 0.0 , 0.0 , 0.0 , 

70.0 , 4117.94871795 , 4113.33333333 , 4120.51282051 , 4118.46153846 , 4115.8974359 , 4113.84615385 , 4115.8974359 , 4186.66666667 , 4133.33333333 , 4125.64102564 , 4177.43589744 , 4896.92307692 , 4120.0 , 4123.58974359 , 2043.0 , 2034.0 , 16.659 , 0.0 , 0.0 , 0.0 , 0.0 , 

71.0 , 4118.97435897 , 4121.53846154 , 4120.0 , 4116.92307692 , 4116.92307692 , 4118.46153846 , 4115.8974359 , 4197.43589744 , 4128.71794872 , 4125.64102564 , 4177.43589744 , 4896.92307692 , 4114.87179487 , 4131.28205128 , 2043.0 , 2034.0 , 16.667 , 0.0 , 0.0 , 0.0 , 0.0 , 

72.0 , 4112.30769231 , 4091.28205128 , 4119.48717949 , 4105.12820513 , 4117.94871795 , 4113.84615385 , 4117.43589744 , 4191.28205128 , 4110.25641026 , 4126.66666667 , 4177.43589744 , 4899.48717949 , 4101.02564103 , 4127.17948718 , 2046.0 , 2035.0 , 16.675 , 0.0 , 0.0 , 0.0 , 0.0 , 

73.0 , 4116.41025641 , 4096.92307692 , 4119.48717949 , 4111.79487179 , 4116.92307692 , 4111.79487179 , 4122.56410256 , 4198.46153846 , 4109.23076923 , 4129.74358974 , 4173.84615385 , 4893.84615385 , 4106.15384615 , 4124.1025641 , 2046.0 , 2033.0 , 16.683 , 0.0 , 0.0 , 0.0 , 0.0 , 

74.0 , 4118.46153846 , 4120.51282051 , 4120.0 , 4120.0 , 4116.92307692 , 4113.84615385 , 4113.33333333 , 4197.43589744 , 4114.87179487 , 4125.12820513 , 4168.71794872 , 4897.94871795 , 4107.17948718 , 4123.07692308 , 2045.0 , 2034.0 , 16.691 , 0.0 , 0.0 , 0.0 , 0.0 , 

75.0 , 4120.0 , 4127.69230769 , 4119.48717949 , 4124.1025641 , 4119.48717949 , 4120.0 , 4114.87179487 , 4186.66666667 , 4117.43589744 , 4123.58974359 , 4171.28205128 , 4904.61538462 , 4112.82051282 , 4127.17948718 , 2046.0 , 2034.0 , 16.698 , 0.0 , 0.0 , 0.0 , 0.0 , 

76.0 , 4117.94871795 , 4117.43589744 , 4117.94871795 , 4122.05128205 , 4116.92307692 , 4115.8974359 , 4113.33333333 , 4177.94871795 , 4111.79487179 , 4124.61538462 , 4172.30769231 , 4905.12820513 , 4112.30769231 , 4126.15384615 , 2045.0 , 2035.0 , 16.706 , 0.0 , 0.0 , 0.0 , 0.0 , 

77.0 , 4121.53846154 , 4122.05128205 , 4117.43589744 , 4121.53846154 , 4117.43589744 , 4113.33333333 , 4109.74358974 , 4170.76923077 , 4105.12820513 , 4122.56410256 , 4170.76923077 , 4900.0 , 4112.82051282 , 4122.56410256 , 2043.0 , 2033.0 , 16.714 , 0.0 , 0.0 , 0.0 , 0.0 , 

78.0 , 4116.92307692 , 4125.64102564 , 4120.51282051 , 4123.07692308 , 4117.94871795 , 4117.94871795 , 4113.33333333 , 4177.43589744 , 4112.30769231 , 4121.53846154 , 4175.8974359 , 4897.94871795 , 4123.58974359 , 4123.07692308 , 2042.0 , 2033.0 , 16.722 , 0.0 , 0.0 , 0.0 , 0.0 , 

79.0 , 4117.43589744 , 4116.41025641 , 4116.92307692 , 4122.56410256 , 4117.43589744 , 4116.92307692 , 4111.79487179 , 4172.30769231 , 4114.87179487 , 4121.02564103 , 4175.8974359 , 4898.46153846 , 4124.61538462 , 4124.1025641 , 2041.0 , 2032.0 , 16.73 , 0.0 , 0.0 , 0.0 , 0.0 , 

80.0 , 4118.97435897 , 4117.43589744 , 4111.79487179 , 4121.53846154 , 4115.38461538 , 4112.82051282 , 4108.71794872 , 4193.33333333 , 4120.51282051 , 4122.56410256 , 4181.02564103 , 4893.84615385 , 4128.71794872 , 4128.20512821 , 2041.0 , 2032.0 , 16.738 , 0.0 , 0.0 , 0.0 , 0.0 , 

81.0 , 4118.97435897 , 4109.23076923 , 4114.35897436 , 4116.41025641 , 4116.41025641 , 4111.28205128 , 4107.17948718 , 4185.64102564 , 4109.23076923 , 4122.56410256 , 4180.0 , 4897.43589744 , 4120.51282051 , 4127.69230769 , 2043.0 , 2031.0 , 16.746 , 0.0 , 0.0 , 0.0 , 0.0 , 

82.0 , 4116.92307692 , 4111.79487179 , 4120.0 , 4117.94871795 , 4115.8974359 , 4110.76923077 , 4115.38461538 , 4200.51282051 , 4122.05128205 , 4128.71794872 , 4180.0 , 4897.43589744 , 4124.61538462 , 4128.71794872 , 2042.0 , 2033.0 , 16.754 , 0.0 , 0.0 , 0.0 , 0.0 , 

83.0 , 4114.87179487 , 4101.02564103 , 4117.94871795 , 4112.30769231 , 4118.46153846 , 4108.71794872 , 4108.20512821 , 4196.41025641 , 4122.05128205 , 4129.74358974 , 4173.84615385 , 4896.92307692 , 4111.79487179 , 4125.12820513 , 2041.0 , 2034.0 , 16.761 , 0.0 , 0.0 , 0.0 , 0.0 , 

84.0 , 4113.33333333 , 4107.69230769 , 4118.97435897 , 4114.35897436 , 4120.0 , 4112.82051282 , 4113.33333333 , 4212.82051282 , 4127.17948718 , 4130.25641026 , 4181.02564103 , 4894.35897436 , 4114.87179487 , 4125.12820513 , 2044.0 , 2033.0 , 16.769 , 0.0 , 0.0 , 0.0 , 0.0 , 

85.0 , 4113.84615385 , 4106.15384615 , 4123.07692308 , 4113.84615385 , 4118.97435897 , 4112.82051282 , 4113.33333333 , 4196.41025641 , 4119.48717949 , 4126.66666667 , 4174.35897436 , 4901.02564103 , 4103.07692308 , 4119.48717949 , 2044.0 , 2034.0 , 16.777 , 0.0 , 0.0 , 0.0 , 0.0 , 

86.0 , 4115.8974359 , 4123.07692308 , 4122.05128205 , 4117.94871795 , 4115.38461538 , 4116.92307692 , 4120.0 , 4207.69230769 , 4126.66666667 , 4128.20512821 , 4171.28205128 , 4897.94871795 , 4111.28205128 , 4122.05128205 , 2042.0 , 2035.0 , 16.785 , 0.0 , 0.0 , 0.0 , 0.0 , 

87.0 , 4115.8974359 , 4115.38461538 , 4118.46153846 , 4112.82051282 , 4115.8974359 , 4116.92307692 , 4114.35897436 , 4194.35897436 , 4116.92307692 , 4124.61538462 , 4169.23076923 , 4900.51282051 , 4105.12820513 , 4121.53846154 , 2042.0 , 2034.0 , 16.793 , 0.0 , 0.0 , 0.0 , 0.0 , 

88.0 , 4118.97435897 , 4124.61538462 , 4117.94871795 , 4122.05128205 , 4117.43589744 , 4117.94871795 , 4119.48717949 , 4195.8974359 , 4123.07692308 , 4126.15384615 , 4174.35897436 , 4898.97435897 , 4117.43589744 , 4123.58974359 , 2042.0 , 2031.0 , 16.801 , 0.0 , 0.0 , 0.0 , 0.0 , 

89.0 , 4118.97435897 , 4121.02564103 , 4117.94871795 , 4120.51282051 , 4116.41025641 , 4115.38461538 , 4112.30769231 , 4179.48717949 , 4114.35897436 , 4124.61538462 , 4171.28205128 , 4901.02564103 , 4110.25641026 , 4121.02564103 , 2041.0 , 2030.0 , 16.809 , 0.0 , 0.0 , 0.0 , 0.0 , 

90.0 , 4122.56410256 , 4128.20512821 , 4118.46153846 , 4122.56410256 , 4115.8974359 , 4117.43589744 , 4115.38461538 , 4180.51282051 , 4112.30769231 , 4125.12820513 , 4175.38461538 , 4898.46153846 , 4121.02564103 , 4124.1025641 , 2042.0 , 2031.0 , 16.817 , 0.0 , 0.0 , 0.0 , 0.0 , 

91.0 , 4121.02564103 , 4120.0 , 4118.46153846 , 4122.05128205 , 4116.92307692 , 4111.79487179 , 4110.76923077 , 4170.76923077 , 4105.12820513 , 4122.56410256 , 4176.41025641 , 4901.02564103 , 4127.69230769 , 4126.15384615 , 2044.0 , 2029.0 , 16.825 , 0.0 , 0.0 , 0.0 , 0.0 , 

92.0 , 4121.02564103 , 4119.48717949 , 4116.92307692 , 4125.12820513 , 4116.92307692 , 4110.76923077 , 4108.71794872 , 4175.8974359 , 4106.15384615 , 4125.64102564 , 4180.51282051 , 4896.41025641 , 4134.35897436 , 4132.30769231 , 2042.0 , 2030.0 , 16.832 , 0.0 , 0.0 , 0.0 , 0.0 , 

93.0 , 4117.43589744 , 4109.23076923 , 4117.94871795 , 4120.0 , 4114.87179487 , 4109.23076923 , 4102.05128205 , 4180.0 , 4107.17948718 , 4126.15384615 , 4180.51282051 , 4895.8974359 , 4122.05128205 , 4129.74358974 , 2042.0 , 2029.0 , 16.84 , 0.0 , 0.0 , 0.0 , 0.0 , 

94.0 , 4117.43589744 , 4104.1025641 , 4120.0 , 4120.51282051 , 4116.41025641 , 4110.76923077 , 4104.61538462 , 4182.05128205 , 4111.79487179 , 4124.61538462 , 4177.43589744 , 4896.92307692 , 4121.53846154 , 4125.64102564 , 2044.0 , 2029.0 , 16.848 , 0.0 , 0.0 , 0.0 , 0.0 , 

95.0 , 4113.33333333 , 4103.07692308 , 4121.02564103 , 4120.0 , 4115.38461538 , 4112.82051282 , 4106.66666667 , 4195.38461538 , 4117.94871795 , 4125.12820513 , 4176.41025641 , 4896.92307692 , 4123.07692308 , 4123.07692308 , 2045.0 , 2033.0 , 16.856 , 0.0 , 0.0 , 0.0 , 0.0 , 

96.0 , 4113.33333333 , 4108.71794872 , 4118.97435897 , 4115.8974359 , 4116.41025641 , 4113.33333333 , 4110.25641026 , 4202.56410256 , 4119.48717949 , 4125.64102564 , 4177.94871795 , 4896.92307692 , 4114.87179487 , 4125.64102564 , 2044.0 , 2034.0 , 16.864 , 0.0 , 0.0 , 0.0 , 0.0 , 

97.0 , 4113.84615385 , 4110.25641026 , 4120.51282051 , 4114.35897436 , 4119.48717949 , 4112.30769231 , 4117.43589744 , 4207.17948718 , 4124.61538462 , 4127.69230769 , 4178.46153846 , 4896.41025641 , 4113.84615385 , 4128.71794872 , 2044.0 , 2034.0 , 16.872 , 0.0 , 0.0 , 0.0 , 0.0 , 

98.0 , 4120.51282051 , 4106.15384615 , 4121.53846154 , 4114.35897436 , 4121.02564103 , 4115.8974359 , 4118.97435897 , 4198.97435897 , 4120.51282051 , 4127.69230769 , 4171.79487179 , 4895.38461538 , 4109.23076923 , 4124.1025641 , 2045.0 , 2034.0 , 16.88 , 0.0 , 0.0 , 0.0 , 0.0 , 

99.0 , 4121.02564103 , 4123.07692308 , 4121.02564103 , 4119.48717949 , 4115.38461538 , 4120.0 , 4121.53846154 , 4211.28205128 , 4128.20512821 , 4128.71794872 , 4173.84615385 , 4895.38461538 , 4116.92307692 , 4124.1025641 , 2046.0 , 2036.0 , 16.888 , 0.0 , 0.0 , 0.0 , 0.0 , 

100.0 , 4118.46153846 , 4123.58974359 , 4118.97435897 , 4120.0 , 4115.8974359 , 4117.94871795 , 4114.87179487 , 4178.46153846 , 4115.38461538 , 4124.61538462 , 4170.76923077 , 4903.07692308 , 4114.87179487 , 4125.12820513 , 2045.0 , 2036.0 , 16.895 , 0.0 , 0.0 , 0.0 , 0.0 , 

101.0 , 4115.8974359 , 4124.1025641 , 4118.97435897 , 4124.61538462 , 4116.41025641 , 4116.41025641 , 4118.46153846 , 4172.30769231 , 4116.92307692 , 4125.64102564 , 4172.30769231 , 4899.48717949 , 4124.61538462 , 4127.17948718 , 2045.0 , 2037.0 , 16.903 , 0.0 , 0.0 , 0.0 , 0.0 , 

102.0 , 4117.94871795 , 4113.84615385 , 4116.41025641 , 4121.53846154 , 4116.41025641 , 4113.33333333 , 4110.76923077 , 4155.38461538 , 4112.30769231 , 4122.56410256 , 4170.76923077 , 4897.94871795 , 4115.38461538 , 4123.58974359 , 2047.0 , 2036.0 , 16.911 , 0.0 , 0.0 , 0.0 , 0.0 , 

103.0 , 4121.02564103 , 4121.53846154 , 4117.43589744 , 4124.61538462 , 4115.38461538 , 4115.8974359 , 4110.76923077 , 4166.66666667 , 4115.38461538 , 4124.1025641 , 4176.92307692 , 4898.97435897 , 4127.17948718 , 4127.69230769 , 2046.0 , 2037.0 , 16.919 , 0.0 , 0.0 , 0.0 , 0.0 , 

104.0 , 4121.02564103 , 4111.79487179 , 4118.46153846 , 4119.48717949 , 4115.8974359 , 4113.84615385 , 4103.58974359 , 4159.48717949 , 4101.02564103 , 4121.53846154 , 4171.28205128 , 4904.1025641 , 4121.53846154 , 4126.15384615 , 2046.0 , 2035.0 , 16.927 , 0.0 , 0.0 , 0.0 , 0.0 , 

105.0 , 4121.02564103 , 4123.58974359 , 4114.35897436 , 4121.53846154 , 4115.38461538 , 4111.28205128 , 4109.74358974 , 4184.1025641 , 4112.30769231 , 4122.56410256 , 4173.84615385 , 4896.41025641 , 4128.20512821 , 4131.79487179 , 2045.0 , 2035.0 , 16.935 , 0.0 , 0.0 , 0.0 , 0.0 , 

106.0 , 4118.46153846 , 4115.8974359 , 4112.82051282 , 4117.43589744 , 4115.38461538 , 4109.74358974 , 4105.64102564 , 4177.94871795 , 4109.74358974 , 4122.56410256 , 4176.41025641 , 4897.43589744 , 4119.48717949 , 4131.79487179 , 2045.0 , 2035.0 , 16.943 , 0.0 , 0.0 , 0.0 , 0.0 , 

107.0 , 4117.43589744 , 4113.33333333 , 4118.46153846 , 4123.07692308 , 4114.35897436 , 4115.38461538 , 4111.28205128 , 4191.28205128 , 4118.46153846 , 4127.17948718 , 4184.61538462 , 4896.92307692 , 4129.74358974 , 4130.25641026 , 2045.0 , 2035.0 , 16.951 , 0.0 , 0.0 , 0.0 , 0.0 , 

108.0 , 4114.35897436 , 4102.05128205 , 4122.05128205 , 4118.97435897 , 4114.87179487 , 4110.25641026 , 4107.17948718 , 4192.30769231 , 4119.48717949 , 4126.15384615 , 4180.0 , 4898.46153846 , 4120.51282051 , 4124.1025641 , 2043.0 , 2035.0 , 16.959 , 0.0 , 0.0 , 0.0 , 0.0 , 

109.0 , 4116.92307692 , 4110.76923077 , 4119.48717949 , 4116.92307692 , 4118.97435897 , 4111.28205128 , 4113.33333333 , 4202.05128205 , 4123.07692308 , 4128.20512821 , 4177.43589744 , 4894.87179487 , 4120.51282051 , 4127.17948718 , 2042.0 , 2035.0 , 16.967 , 0.0 , 0.0 , 0.0 , 0.0 , 

110.0 , 4114.87179487 , 4104.61538462 , 4119.48717949 , 4110.76923077 , 4118.46153846 , 4113.84615385 , 4113.33333333 , 4200.0 , 4118.46153846 , 4126.15384615 , 4172.82051282 , 4896.92307692 , 4111.79487179 , 4126.15384615 , 2042.0 , 2035.0 , 16.974 , 0.0 , 0.0 , 0.0 , 0.0 , 

111.0 , 4116.41025641 , 4109.74358974 , 4121.53846154 , 4113.33333333 , 4116.41025641 , 4115.38461538 , 4115.8974359 , 4202.56410256 , 4124.1025641 , 4128.20512821 , 4172.82051282 , 4897.43589744 , 4108.20512821 , 4120.0 , 2042.0 , 2036.0 , 16.983 , 0.0 , 0.0 , 0.0 , 0.0 , 

112.0 , 4118.46153846 , 4113.33333333 , 4121.53846154 , 4113.84615385 , 4116.92307692 , 4113.84615385 , 4115.38461538 , 4201.53846154 , 4122.05128205 , 4128.20512821 , 4174.87179487 , 4901.02564103 , 4101.53846154 , 4115.8974359 , 2041.0 , 2037.0 , 16.99 , 0.0 , 0.0 , 0.0 , 0.0 , 

113.0 , 4122.56410256 , 4114.87179487 , 4119.48717949 , 4117.43589744 , 4120.0 , 4116.41025641 , 4117.94871795 , 4196.41025641 , 4115.8974359 , 4125.64102564 , 4173.84615385 , 4901.53846154 , 4108.71794872 , 4122.56410256 , 2041.0 , 2036.0 , 16.998 , 0.0 , 0.0 , 0.0 , 0.0 , 

114.0 , 4121.02564103 , 4117.94871795 , 4122.05128205 , 4121.02564103 , 4118.46153846 , 4115.8974359 , 4113.84615385 , 4193.84615385 , 4117.94871795 , 4124.1025641 , 4172.82051282 , 4900.51282051 , 4117.43589744 , 4126.66666667 , 2039.0 , 2035.0 , 17.006 , 0.0 , 0.0 , 0.0 , 0.0 , 

115.0 , 4124.1025641 , 4125.64102564 , 4122.56410256 , 4121.53846154 , 4117.43589744 , 4116.41025641 , 4111.79487179 , 4176.92307692 , 4112.82051282 , 4123.58974359 , 4172.30769231 , 4901.02564103 , 4115.38461538 , 4127.17948718 , 2039.0 , 2034.0 , 17.014 , 0.0 , 0.0 , 0.0 , 0.0 , 

116.0 , 4122.05128205 , 4126.66666667 , 4118.46153846 , 4122.05128205 , 4116.41025641 , 4116.41025641 , 4113.33333333 , 4178.97435897 , 4113.84615385 , 4124.61538462 , 4174.35897436 , 4901.02564103 , 4124.1025641 , 4129.23076923 , 2039.0 , 2034.0 , 17.022 , 0.0 , 0.0 , 0.0 , 0.0 , 

117.0 , 4121.53846154 , 4116.92307692 , 4117.43589744 , 4120.51282051 , 4116.41025641 , 4114.35897436 , 4106.66666667 , 4172.82051282 , 4109.23076923 , 4123.58974359 , 4170.25641026 , 4902.05128205 , 4123.07692308 , 4126.15384615 , 2040.0 , 2034.0 , 17.029 , 0.0 , 0.0 , 0.0 , 0.0 , 

118.0 , 4120.0 , 4125.12820513 , 4120.0 , 4124.61538462 , 4114.87179487 , 4113.84615385 , 4109.23076923 , 4189.74358974 , 4115.8974359 , 4124.61538462 , 4178.97435897 , 4895.8974359 , 4129.23076923 , 4127.69230769 , 2040.0 , 2035.0 , 17.037 , 0.0 , 0.0 , 0.0 , 0.0 , 

119.0 , 4120.0 , 4113.33333333 , 4118.46153846 , 4121.02564103 , 4115.38461538 , 4110.76923077 , 4106.66666667 , 4176.41025641 , 4107.69230769 , 4121.53846154 , 4178.46153846 , 4895.38461538 , 4123.58974359 , 4128.20512821 , 2041.0 , 2036.0 , 17.045 , 0.0 , 0.0 , 0.0 , 0.0 , 

120.0 , 4118.46153846 , 4108.20512821 , 4118.97435897 , 4119.48717949 , 4113.84615385 , 4111.28205128 , 4107.69230769 , 4193.33333333 , 4120.51282051 , 4125.64102564 , 4177.94871795 , 4895.8974359 , 4128.20512821 , 4129.74358974 , 2041.0 , 2037.0 , 17.053 , 0.0 , 0.0 , 0.0 , 0.0 , 

121.0 , 4117.43589744 , 4099.48717949 , 4117.94871795 , 4110.76923077 , 4112.82051282 , 4110.76923077 , 4103.58974359 , 4194.35897436 , 4117.43589744 , 4124.61538462 , 4174.87179487 , 4899.48717949 , 4111.79487179 , 4124.61538462 , 2043.0 , 2035.0 , 17.061 , 0.0 , 0.0 , 0.0 , 0.0 , 

122.0 , 4115.8974359 , 4108.71794872 , 4117.43589744 , 4113.33333333 , 4114.87179487 , 4111.79487179 , 4114.35897436 , 4216.92307692 , 4123.58974359 , 4126.66666667 , 4180.0 , 4894.87179487 , 4117.94871795 , 4127.69230769 , 2044.0 , 2036.0 , 17.07 , 0.0 , 0.0 , 0.0 , 0.0 , 

123.0 , 4116.92307692 , 4101.02564103 , 4119.48717949 , 4110.76923077 , 4118.97435897 , 4108.20512821 , 4110.76923077 , 4201.53846154 , 4119.48717949 , 4127.69230769 , 4173.84615385 , 4898.97435897 , 4111.28205128 , 4125.64102564 , 2045.0 , 2035.0 , 17.076 , 0.0 , 0.0 , 0.0 , 0.0 , 

124.0 , 4120.51282051 , 4116.92307692 , 4121.02564103 , 4114.87179487 , 4116.41025641 , 4115.8974359 , 4116.92307692 , 4209.23076923 , 4129.74358974 , 4128.71794872 , 4177.43589744 , 4896.92307692 , 4116.41025641 , 4126.66666667 , 2044.0 , 2034.0 , 17.085 , 0.0 , 0.0 , 0.0 , 0.0 , 

125.0 , 4115.8974359 , 4113.84615385 , 4120.51282051 , 4112.82051282 , 4115.38461538 , 4120.51282051 , 4114.87179487 , 4198.46153846 , 4118.46153846 , 4124.1025641 , 4173.33333333 , 4898.46153846 , 4104.61538462 , 4122.05128205 , 2043.0 , 2033.0 , 17.092 , 0.0 , 0.0 , 0.0 , 0.0 , 

126.0 , 4120.0 , 4123.07692308 , 4120.51282051 , 4121.02564103 , 4119.48717949 , 4121.02564103 , 4120.0 , 4203.07692308 , 4121.02564103 , 4128.71794872 , 4171.28205128 , 4897.94871795 , 4117.43589744 , 4124.61538462 , 2044.0 , 2032.0 , 17.099 , 0.0 , 0.0 , 0.0 , 0.0 , 

127.0 , 4125.64102564 , 4123.07692308 , 4119.48717949 , 4120.0 , 4120.51282051 , 4115.38461538 , 4114.87179487 , 4183.07692308 , 4115.38461538 , 4127.17948718 , 4170.76923077 , 4901.02564103 , 4115.8974359 , 4123.58974359 , 2043.0 , 2032.0 , 17.108 , 0.0 , 0.0 , 0.0 , 0.0 , 

128.0 , 4126.15384615 , 4127.17948718 , 4117.94871795 , 4123.07692308 , 4117.94871795 , 4117.43589744 , 4120.51282051 , 4173.84615385 , 4108.20512821 , 4123.58974359 , 4177.94871795 , 4900.0 , 4118.46153846 , 4125.64102564 , 2043.0 , 2033.0 , 17.116 , 0.0 , 0.0 , 0.0 , 0.0 , 

0.0 , 4120.51282051 , 4115.8974359 , 4119.48717949 , 4121.53846154 , 4117.43589744 , 4114.87179487 , 4115.8974359 , 4170.76923077 , 4101.53846154 , 4121.53846154 , 4175.8974359 , 4903.58974359 , 4117.94871795 , 4123.58974359 , 2043.0 , 2033.0 , 17.124 , 0.0 , 0.0 , 0.0 , 0.0 , 

1.0 , 4122.05128205 , 4120.51282051 , 4119.48717949 , 4123.07692308 , 4117.94871795 , 4113.33333333 , 4109.23076923 , 4174.87179487 , 4112.30769231 , 4123.58974359 , 4175.8974359 , 4900.51282051 , 4129.23076923 , 4125.64102564 , 2043.0 , 2033.0 , 17.132 , 0.0 , 0.0 , 0.0 , 0.0 , 

2.0 , 4118.46153846 , 4117.94871795 , 4117.43589744 , 4120.0 , 4114.87179487 , 4108.20512821 , 4099.48717949 , 4180.0 , 4112.30769231 , 4124.61538462 , 4181.53846154 , 4897.94871795 , 4124.61538462 , 4127.69230769 , 2042.0 , 2033.0 , 17.141 , 0.0 , 0.0 , 0.0 , 0.0 , 

3.0 , 4117.43589744 , 4115.8974359 , 4116.41025641 , 4117.94871795 , 4114.87179487 , 4108.20512821 , 4106.66666667 , 4182.56410256 , 4107.69230769 , 4125.64102564 , 4181.53846154 , 4897.94871795 , 4128.20512821 , 4129.23076923 , 2043.0 , 2033.0 , 17.148 , 0.0 , 0.0 , 0.0 , 0.0 , 

4.0 , 4110.25641026 , 4122.05128205 , 4118.97435897 , 4111.28205128 , 4113.84615385 , 4113.33333333 , 4118.97435897 , 4180.51282051 , 4129.23076923 , 4125.12820513 , 4181.53846154 , 4895.8974359 , 4151.79487179 , 4127.17948718 , 2042.0 , 2033.0 , 17.156 , 0.0 , 0.0 , 0.0 , 0.0 , 

5.0 , 4108.71794872 , 4120.51282051 , 4121.53846154 , 4109.23076923 , 4114.87179487 , 4114.87179487 , 4116.41025641 , 4167.17948718 , 4137.43589744 , 4125.12820513 , 4180.51282051 , 4892.82051282 , 4139.48717949 , 4122.56410256 , 2041.0 , 2035.0 , 17.163 , 0.0 , 0.0 , 0.0 , 0.0 , 

6.0 , 4110.76923077 , 4114.87179487 , 4121.02564103 , 4116.92307692 , 4115.8974359 , 4112.82051282 , 4116.92307692 , 4192.82051282 , 4130.25641026 , 4130.25641026 , 4178.46153846 , 4893.84615385 , 4115.8974359 , 4124.61538462 , 2039.0 , 2033.0 , 17.172 , 0.0 , 0.0 , 0.0 , 0.0 , 

7.0 , 4112.82051282 , 4097.94871795 , 4116.92307692 , 4106.15384615 , 4120.0 , 4115.38461538 , 4120.0 , 4192.82051282 , 4116.41025641 , 4128.20512821 , 4170.25641026 , 4905.64102564 , 4115.8974359 , 4129.74358974 , 2038.0 , 2031.0 , 17.179 , 0.0 , 0.0 , 0.0 , 0.0 , 

8.0 , 4110.76923077 , 4099.48717949 , 4118.46153846 , 4094.35897436 , 4118.97435897 , 4120.51282051 , 4127.69230769 , 4204.61538462 , 4134.35897436 , 4126.66666667 , 4176.41025641 , 4906.66666667 , 4142.56410256 , 4137.94871795 , 2038.0 , 2033.0 , 17.188 , 0.0 , 0.0 , 0.0 , 0.0 , 

9.0 , 4113.33333333 , 4100.51282051 , 4121.02564103 , 4100.0 , 4119.48717949 , 4116.92307692 , 4119.48717949 , 4196.92307692 , 4128.71794872 , 4125.64102564 , 4171.28205128 , 4902.56410256 , 4126.66666667 , 4131.28205128 , 2039.0 , 2032.0 , 17.195 , 0.0 , 0.0 , 0.0 , 0.0 , 

10.0 , 4118.97435897 , 4120.51282051 , 4120.51282051 , 4118.97435897 , 4120.0 , 4115.38461538 , 4118.46153846 , 4206.15384615 , 4123.58974359 , 4130.25641026 , 4167.69230769 , 4896.92307692 , 4115.8974359 , 4122.05128205 , 2039.0 , 2032.0 , 17.203 , 0.0 , 0.0 , 0.0 , 0.0 , 

11.0 , 4122.05128205 , 4115.8974359 , 4119.48717949 , 4116.41025641 , 4120.51282051 , 4114.87179487 , 4111.79487179 , 4175.8974359 , 4107.69230769 , 4126.66666667 , 4167.17948718 , 4904.1025641 , 4104.1025641 , 4117.43589744 , 2039.0 , 2031.0 , 17.211 , 0.0 , 0.0 , 0.0 , 0.0 , 

12.0 , 4121.53846154 , 4124.1025641 , 4121.02564103 , 4120.51282051 , 4116.41025641 , 4116.92307692 , 4119.48717949 , 4180.51282051 , 4114.87179487 , 4125.64102564 , 4176.41025641 , 4903.07692308 , 4122.05128205 , 4126.15384615 , 2038.0 , 2033.0 , 17.219 , 0.0 , 0.0 , 0.0 , 0.0 , 

13.0 , 4120.0 , 4115.38461538 , 4119.48717949 , 4122.56410256 , 4114.87179487 , 4113.33333333 , 4111.79487179 , 4168.71794872 , 4107.69230769 , 4121.02564103 , 4173.33333333 , 4902.05128205 , 4123.58974359 , 4123.58974359 , 2040.0 , 2032.0 , 17.226 , 0.0 , 0.0 , 0.0 , 0.0 , 

14.0 , 4123.58974359 , 4121.53846154 , 4117.43589744 , 4128.71794872 , 4115.38461538 , 4115.8974359 , 4111.28205128 , 4178.46153846 , 4111.79487179 , 4125.64102564 , 4180.51282051 , 4896.92307692 , 4133.33333333 , 4126.15384615 , 2041.0 , 2032.0 , 17.234 , 0.0 , 0.0 , 0.0 , 0.0 , 

15.0 , 4121.02564103 , 4116.92307692 , 4117.43589744 , 4122.05128205 , 4114.87179487 , 4115.38461538 , 4107.17948718 , 4173.33333333 , 4108.20512821 , 4126.15384615 , 4180.51282051 , 4900.0 , 4125.64102564 , 4127.69230769 , 2043.0 , 2035.0 , 17.242 , 0.0 , 0.0 , 0.0 , 0.0 , 

16.0 , 4118.46153846 , 4121.02564103 , 4117.43589744 , 4122.56410256 , 4113.84615385 , 4115.38461538 , 4109.74358974 , 4187.69230769 , 4119.48717949 , 4126.66666667 , 4182.05128205 , 4896.92307692 , 4133.33333333 , 4132.30769231 , 2042.0 , 2036.0 , 17.25 , 0.0 , 0.0 , 0.0 , 0.0 , 

17.0 , 4117.94871795 , 4109.74358974 , 4117.43589744 , 4117.43589744 , 4114.87179487 , 4110.25641026 , 4103.07692308 , 4191.79487179 , 4117.94871795 , 4126.15384615 , 4179.48717949 , 4896.41025641 , 4124.1025641 , 4128.20512821 , 2041.0 , 2036.0 , 17.258 , 0.0 , 0.0 , 0.0 , 0.0 , 

18.0 , 4120.51282051 , 4110.76923077 , 4119.48717949 , 4116.92307692 , 4117.43589744 , 4112.30769231 , 4113.84615385 , 4200.51282051 , 4121.02564103 , 4126.66666667 , 4177.43589744 , 4895.38461538 , 4122.05128205 , 4126.66666667 , 2042.0 , 2036.0 , 17.267 , 0.0 , 0.0 , 0.0 , 0.0 , 

19.0 , 4113.84615385 , 4101.02564103 , 4122.05128205 , 4109.74358974 , 4118.46153846 , 4111.79487179 , 4115.8974359 , 4201.53846154 , 4124.1025641 , 4126.15384615 , 4173.33333333 , 4899.48717949 , 4112.30769231 , 4124.61538462 , 2041.0 , 2036.0 , 17.274 , 0.0 , 0.0 , 0.0 , 0.0 , 

20.0 , 4114.35897436 , 4103.58974359 , 4121.02564103 , 4109.23076923 , 4117.43589744 , 4113.84615385 , 4114.35897436 , 4205.12820513 , 4126.15384615 , 4130.25641026 , 4175.8974359 , 4898.46153846 , 4106.66666667 , 4125.12820513 , 2041.0 , 2034.0 , 17.282 , 0.0 , 0.0 , 0.0 , 0.0 , 

21.0 , 4113.33333333 , 4110.25641026 , 4118.97435897 , 4110.25641026 , 4114.87179487 , 4116.41025641 , 4115.8974359 , 4205.64102564 , 4123.07692308 , 4132.82051282 , 4178.46153846 , 4897.94871795 , 4103.07692308 , 4122.56410256 , 2042.0 , 2034.0 , 17.289 , 0.0 , 0.0 , 0.0 , 0.0 , 

22.0 , 4114.87179487 , 4113.33333333 , 4120.51282051 , 4112.30769231 , 4117.94871795 , 4120.51282051 , 4116.92307692 , 4194.87179487 , 4121.53846154 , 4130.25641026 , 4171.79487179 , 4900.0 , 4105.64102564 , 4120.0 , 2041.0 , 2034.0 , 17.297 , 0.0 , 0.0 , 0.0 , 0.0 , 

23.0 , 4116.41025641 , 4119.48717949 , 4124.61538462 , 4116.41025641 , 4118.97435897 , 4120.0 , 4115.8974359 , 4198.97435897 , 4127.17948718 , 4127.69230769 , 4169.23076923 , 4900.0 , 4112.82051282 , 4119.48717949 , 2043.0 , 2033.0 , 17.305 , 0.0 , 0.0 , 0.0 , 0.0 , 

24.0 , 4119.48717949 , 4122.56410256 , 4122.05128205 , 4118.97435897 , 4117.94871795 , 4115.8974359 , 4115.38461538 , 4183.58974359 , 4115.8974359 , 4124.1025641 , 4170.25641026 , 4900.0 , 4111.79487179 , 4120.0 , 2043.0 , 2032.0 , 17.313 , 0.0 , 0.0 , 0.0 , 0.0 , 

25.0 , 4118.97435897 , 4124.61538462 , 4117.94871795 , 4124.61538462 , 4115.38461538 , 4112.82051282 , 4117.43589744 , 4184.1025641 , 4113.33333333 , 4125.12820513 , 4174.87179487 , 4900.51282051 , 4125.12820513 , 4124.1025641 , 2045.0 , 2033.0 , 17.321 , 0.0 , 0.0 , 0.0 , 0.0 , 

26.0 , 4120.51282051 , 4116.41025641 , 4116.92307692 , 4121.53846154 , 4116.92307692 , 4112.82051282 , 4108.71794872 , 4171.28205128 , 4103.07692308 , 4124.1025641 , 4171.28205128 , 4904.1025641 , 4122.56410256 , 4122.56410256 , 2044.0 , 2034.0 , 17.328 , 0.0 , 0.0 , 0.0 , 0.0 , 

27.0 , 4122.56410256 , 4124.61538462 , 4118.97435897 , 4120.51282051 , 4114.35897436 , 4115.38461538 , 4111.28205128 , 4185.12820513 , 4110.25641026 , 4124.61538462 , 4176.92307692 , 4899.48717949 , 4127.69230769 , 4126.66666667 , 2045.0 , 2032.0 , 17.337 , 0.0 , 0.0 , 0.0 , 0.0 , 

28.0 , 4120.51282051 , 4109.74358974 , 4118.97435897 , 4118.46153846 , 4113.84615385 , 4110.76923077 , 4107.17948718 , 4174.35897436 , 4105.12820513 , 4121.53846154 , 4177.43589744 , 4900.0 , 4120.0 , 4130.25641026 , 2045.0 , 2031.0 , 17.345 , 0.0 , 0.0 , 0.0 , 0.0 , 

29.0 , 4115.38461538 , 4109.74358974 , 4118.97435897 , 4121.02564103 , 4115.38461538 , 4110.76923077 , 4107.69230769 , 4194.87179487 , 4116.41025641 , 4124.61538462 , 4180.51282051 , 4896.41025641 , 4128.20512821 , 4131.79487179 , 2042.0 , 2030.0 , 17.352 , 0.0 , 0.0 , 0.0 , 0.0 , 

30.0 , 4113.84615385 , 4102.05128205 , 4118.46153846 , 4111.28205128 , 4117.43589744 , 4109.23076923 , 4100.51282051 , 4187.17948718 , 4112.82051282 , 4125.12820513 , 4175.8974359 , 4897.94871795 , 4116.41025641 , 4122.56410256 , 2043.0 , 2030.0 , 17.36 , 0.0 , 0.0 , 0.0 , 0.0 , 

31.0 , 4117.43589744 , 4108.20512821 , 4119.48717949 , 4112.30769231 , 4115.8974359 , 4111.79487179 , 4110.76923077 , 4202.56410256 , 4124.61538462 , 4128.20512821 , 4180.0 , 4895.38461538 , 4126.66666667 , 4126.15384615 , 2043.0 , 2032.0 , 17.373 , 0.0 , 0.0 , 0.0 , 0.0 , 

32.0 , 4115.38461538 , 4101.02564103 , 4118.97435897 , 4110.25641026 , 4115.8974359 , 4111.28205128 , 4111.28205128 , 4198.46153846 , 4122.05128205 , 4125.64102564 , 4174.35897436 , 4897.94871795 , 4117.94871795 , 4125.64102564 , 2041.0 , 2033.0 , 17.376 , 0.0 , 0.0 , 0.0 , 0.0 , 

33.0 , 4113.84615385 , 4118.46153846 , 4120.0 , 4115.38461538 , 4117.43589744 , 4116.92307692 , 4121.02564103 , 4211.28205128 , 4128.71794872 , 4128.20512821 , 4177.43589744 , 4895.38461538 , 4118.46153846 , 4125.64102564 , 2039.0 , 2034.0 , 17.384 , 0.0 , 0.0 , 0.0 , 0.0 , 

34.0 , 4115.38461538 , 4115.8974359 , 4122.56410256 , 4114.87179487 , 4116.92307692 , 4116.41025641 , 4116.41025641 , 4199.48717949 , 4121.53846154 , 4129.74358974 , 4173.84615385 , 4898.46153846 , 4106.66666667 , 4123.58974359 , 2038.0 , 2034.0 , 17.393 , 0.0 , 0.0 , 0.0 , 0.0 , 

35.0 , 4121.53846154 , 4121.02564103 , 4122.05128205 , 4119.48717949 , 4117.43589744 , 4116.92307692 , 4117.43589744 , 4201.53846154 , 4123.58974359 , 4134.35897436 , 4173.33333333 , 4895.8974359 , 4112.82051282 , 4126.15384615 , 2039.0 , 2036.0 , 17.4 , 0.0 , 0.0 , 0.0 , 0.0 , 

36.0 , 4121.53846154 , 4121.02564103 , 4120.51282051 , 4115.38461538 , 4119.48717949 , 4116.41025641 , 4113.84615385 , 4191.79487179 , 4117.94871795 , 4129.23076923 , 4170.25641026 , 4901.53846154 , 4109.74358974 , 4121.53846154 , 2038.0 , 2037.0 , 17.408 , 0.0 , 0.0 , 0.0 , 0.0 , 

37.0 , 4124.1025641 , 4130.25641026 , 4121.53846154 , 4122.56410256 , 4118.46153846 , 4118.46153846 , 4122.05128205 , 4188.20512821 , 4113.33333333 , 4123.58974359 , 4170.76923077 , 4903.58974359 , 4114.87179487 , 4124.1025641 , 2038.0 , 2036.0 , 17.416 , 0.0 , 0.0 , 0.0 , 0.0 , 

38.0 , 4121.02564103 , 4123.07692308 , 4121.53846154 , 4127.69230769 , 4112.82051282 , 4113.84615385 , 4121.53846154 , 4173.84615385 , 4108.20512821 , 4120.0 , 4172.82051282 , 4903.58974359 , 4115.8974359 , 4130.25641026 , 2038.0 , 2034.0 , 17.423 , 0.0 , 0.0 , 0.0 , 0.0 , 

39.0 , 4121.02564103 , 4120.51282051 , 4117.94871795 , 4125.64102564 , 4113.33333333 , 4112.30769231 , 4113.84615385 , 4162.05128205 , 4114.35897436 , 4124.61538462 , 4178.97435897 , 4901.02564103 , 4125.64102564 , 4135.38461538 , 2038.0 , 2034.0 , 17.431 , 0.0 , 0.0 , 0.0 , 0.0 , 

40.0 , 4118.97435897 , 4122.56410256 , 4116.92307692 , 4121.53846154 , 4116.41025641 , 4113.84615385 , 4105.64102564 , 4166.66666667 , 4120.0 , 4127.17948718 , 4183.58974359 , 4898.97435897 , 4129.23076923 , 4132.30769231 , 2038.0 , 2032.0 , 17.439 , 0.0 , 0.0 , 0.0 , 0.0 , 

41.0 , 4122.56410256 , 4124.61538462 , 4118.46153846 , 4127.69230769 , 4116.41025641 , 4112.82051282 , 4101.53846154 , 4160.51282051 , 4103.07692308 , 4121.53846154 , 4173.33333333 , 4898.46153846 , 4127.69230769 , 4129.23076923 , 2038.0 , 2033.0 , 17.447 , 0.0 , 0.0 , 0.0 , 0.0 , 

42.0 , 4121.02564103 , 4121.02564103 , 4118.46153846 , 4128.20512821 , 4112.82051282 , 4109.23076923 , 4102.56410256 , 4176.92307692 , 4109.74358974 , 4123.07692308 , 4169.23076923 , 4897.43589744 , 4143.58974359 , 4132.30769231 , 2038.0 , 2033.0 , 17.455 , 0.0 , 0.0 , 0.0 , 0.0 , 

43.0 , 4117.94871795 , 4106.66666667 , 4116.41025641 , 4113.33333333 , 4118.46153846 , 4110.25641026 , 4103.07692308 , 4189.74358974 , 4125.12820513 , 4126.66666667 , 4172.82051282 , 4897.43589744 , 4142.56410256 , 4130.25641026 , 2040.0 , 2033.0 , 17.463 , 0.0 , 0.0 , 0.0 , 0.0 , 

44.0 , 4112.82051282 , 4109.23076923 , 4118.97435897 , 4111.28205128 , 4120.51282051 , 4114.35897436 , 4108.71794872 , 4215.8974359 , 4134.35897436 , 4129.74358974 , 4180.51282051 , 4894.87179487 , 4129.74358974 , 4127.17948718 , 2040.0 , 2034.0 , 17.471 , 0.0 , 0.0 , 0.0 , 0.0 , 

45.0 , 4114.87179487 , 4104.1025641 , 4120.51282051 , 4110.25641026 , 4118.46153846 , 4113.33333333 , 4106.15384615 , 4199.48717949 , 4119.48717949 , 4127.69230769 , 4172.82051282 , 4898.97435897 , 4105.12820513 , 4122.05128205 , 2039.0 , 2035.0 , 17.479 , 0.0 , 0.0 , 0.0 , 0.0 , 

46.0 , 4116.41025641 , 4111.79487179 , 4122.05128205 , 4111.28205128 , 4116.92307692 , 4113.84615385 , 4116.92307692 , 4208.71794872 , 4129.74358974 , 4130.25641026 , 4174.35897436 , 4896.92307692 , 4111.79487179 , 4122.56410256 , 2040.0 , 2034.0 , 17.486 , 0.0 , 0.0 , 0.0 , 0.0 , 

47.0 , 4115.38461538 , 4108.20512821 , 4121.53846154 , 4109.23076923 , 4118.97435897 , 4114.35897436 , 4114.87179487 , 4195.8974359 , 4122.05128205 , 4127.69230769 , 4171.79487179 , 4898.46153846 , 4105.12820513 , 4117.94871795 , 2043.0 , 2033.0 , 17.494 , 0.0 , 0.0 , 0.0 , 0.0 , 

48.0 , 4118.97435897 , 4123.07692308 , 4120.0 , 4119.48717949 , 4117.43589744 , 4116.41025641 , 4117.94871795 , 4205.12820513 , 4122.56410256 , 4130.25641026 , 4171.79487179 , 4897.94871795 , 4111.28205128 , 4122.05128205 , 2044.0 , 2032.0 , 17.502 , 0.0 , 0.0 , 0.0 , 0.0 , 

49.0 , 4119.48717949 , 4118.97435897 , 4118.46153846 , 4116.92307692 , 4117.43589744 , 4115.8974359 , 4115.8974359 , 4184.1025641 , 4114.87179487 , 4127.69230769 , 4168.20512821 , 4905.64102564 , 4102.56410256 , 4121.02564103 , 2042.0 , 2032.0 , 17.51 , 0.0 , 0.0 , 0.0 , 0.0 , 

50.0 , 4118.46153846 , 4128.71794872 , 4120.0 , 4122.05128205 , 4117.43589744 , 4119.48717949 , 4121.53846154 , 4184.1025641 , 4116.92307692 , 4126.66666667 , 4173.84615385 , 4902.56410256 , 4117.43589744 , 4124.1025641 , 2042.0 , 2033.0 , 17.518 , 0.0 , 0.0 , 0.0 , 0.0 , 

51.0 , 4119.48717949 , 4122.05128205 , 4120.0 , 4120.51282051 , 4120.0 , 4116.41025641 , 4110.25641026 , 4171.28205128 , 4108.71794872 , 4122.56410256 , 4170.25641026 , 4900.0 , 4116.92307692 , 4122.56410256 , 2042.0 , 2033.0 , 17.526 , 0.0 , 0.0 , 0.0 , 0.0 , 

52.0 , 4123.58974359 , 4127.17948718 , 4117.94871795 , 4121.53846154 , 4122.05128205 , 4115.8974359 , 4113.33333333 , 4180.51282051 , 4118.97435897 , 4125.64102564 , 4176.92307692 , 4897.43589744 , 4127.17948718 , 4127.17948718 , 2042.0 , 2034.0 , 17.534 , 0.0 , 0.0 , 0.0 , 0.0 , 

53.0 , 4118.97435897 , 4116.92307692 , 4117.94871795 , 4117.94871795 , 4117.94871795 , 4113.84615385 , 4108.71794872 , 4171.79487179 , 4109.23076923 , 4126.15384615 , 4178.97435897 , 4902.56410256 , 4126.66666667 , 4127.69230769 , 2042.0 , 2034.0 , 17.542 , 0.0 , 0.0 , 0.0 , 0.0 , 

54.0 , 4119.48717949 , 4118.97435897 , 4117.43589744 , 4123.07692308 , 4113.84615385 , 4115.8974359 , 4106.15384615 , 4184.61538462 , 4109.74358974 , 4126.66666667 , 4178.97435897 , 4896.92307692 , 4130.76923077 , 4128.20512821 , 2040.0 , 2033.0 , 17.55 , 0.0 , 0.0 , 0.0 , 0.0 , 

55.0 , 4118.46153846 , 4110.25641026 , 4116.92307692 , 4120.51282051 , 4118.46153846 , 4110.76923077 , 4100.51282051 , 4191.28205128 , 4115.38461538 , 4122.05128205 , 4177.43589744 , 4896.41025641 , 4117.94871795 , 4124.1025641 , 2040.0 , 2033.0 , 17.557 , 0.0 , 0.0 , 0.0 , 0.0 , 

56.0 , 4115.38461538 , 4106.15384615 , 4119.48717949 , 4114.87179487 , 4121.02564103 , 4110.76923077 , 4107.69230769 , 4196.41025641 , 4123.07692308 , 4124.61538462 , 4181.02564103 , 4897.94871795 , 4118.97435897 , 4125.64102564 , 2039.0 , 2034.0 , 17.565 , 0.0 , 0.0 , 0.0 , 0.0 , 

57.0 , 4107.69230769 , 4101.02564103 , 4122.56410256 , 4108.20512821 , 4115.38461538 , 4112.82051282 , 4107.69230769 , 4198.46153846 , 4123.58974359 , 4127.17948718 , 4180.0 , 4897.43589744 , 4118.97435897 , 4127.17948718 , 2041.0 , 2033.0 , 17.573 , 0.0 , 0.0 , 0.0 , 0.0 , 

58.0 , 4110.76923077 , 4107.17948718 , 4121.02564103 , 4112.82051282 , 4117.94871795 , 4117.43589744 , 4110.25641026 , 4201.02564103 , 4124.1025641 , 4126.15384615 , 4177.43589744 , 4894.87179487 , 4113.33333333 , 4126.66666667 , 2041.0 , 2034.0 , 17.581 , 0.0 , 0.0 , 0.0 , 0.0 , 

59.0 , 4112.30769231 , 4109.23076923 , 4121.53846154 , 4114.87179487 , 4120.0 , 4117.94871795 , 4114.87179487 , 4210.76923077 , 4127.17948718 , 4126.15384615 , 4177.94871795 , 4897.43589744 , 4109.74358974 , 4124.61538462 , 2043.0 , 2034.0 , 17.589 , 0.0 , 0.0 , 0.0 , 0.0 , 

60.0 , 4114.87179487 , 4108.71794872 , 4123.07692308 , 4111.79487179 , 4117.94871795 , 4117.94871795 , 4115.38461538 , 4202.05128205 , 4124.1025641 , 4128.20512821 , 4172.30769231 , 4900.0 , 4105.64102564 , 4121.53846154 , 2043.0 , 2032.0 , 17.597 , 0.0 , 0.0 , 0.0 , 0.0 , 

61.0 , 4116.41025641 , 4120.51282051 , 4123.07692308 , 4116.41025641 , 4116.92307692 , 4120.51282051 , 4116.92307692 , 4204.61538462 , 4126.15384615 , 4130.25641026 , 4172.82051282 , 4897.43589744 , 4109.74358974 , 4122.05128205 , 2045.0 , 2030.0 , 17.605 , 0.0 , 0.0 , 0.0 , 0.0 , 

62.0 , 4120.0 , 4120.51282051 , 4121.53846154 , 4118.46153846 , 4120.0 , 4118.46153846 , 4116.92307692 , 4184.61538462 , 4110.76923077 , 4128.20512821 , 4168.71794872 , 4902.05128205 , 4109.74358974 , 4122.56410256 , 2046.0 , 2029.0 , 17.614 , 0.0 , 0.0 , 0.0 , 0.0 , 

63.0 , 4118.97435897 , 4125.12820513 , 4121.02564103 , 4120.0 , 4116.92307692 , 4116.41025641 , 4121.53846154 , 4189.23076923 , 4113.84615385 , 4128.20512821 , 4172.30769231 , 4903.58974359 , 4124.1025641 , 4124.61538462 , 2047.0 , 2030.0 , 17.62 , 0.0 , 0.0 , 0.0 , 0.0 , 

64.0 , 4120.51282051 , 4120.0 , 4119.48717949 , 4120.51282051 , 4116.41025641 , 4113.84615385 , 4112.82051282 , 4170.76923077 , 4108.20512821 , 4123.58974359 , 4170.25641026 , 4905.12820513 , 4117.94871795 , 4122.05128205 , 2047.0 , 2030.0 , 17.629 , 0.0 , 0.0 , 0.0 , 0.0 , 

65.0 , 4122.56410256 , 4123.58974359 , 4120.0 , 4126.66666667 , 4117.43589744 , 4115.38461538 , 4110.25641026 , 4175.8974359 , 4112.30769231 , 4124.61538462 , 4173.84615385 , 4902.05128205 , 4123.58974359 , 4127.17948718 , 2047.0 , 2031.0 , 17.636 , 0.0 , 0.0 , 0.0 , 0.0 , 

66.0 , 4119.48717949 , 4108.20512821 , 4117.43589744 , 4118.97435897 , 4117.94871795 , 4111.79487179 , 4101.02564103 , 4168.20512821 , 4104.1025641 , 4123.58974359 , 4171.79487179 , 4903.58974359 , 4119.48717949 , 4126.15384615 , 2046.0 , 2030.0 , 17.644 , 0.0 , 0.0 , 0.0 , 0.0 , 

67.0 , 4117.43589744 , 4120.0 , 4117.94871795 , 4126.15384615 , 4114.87179487 , 4112.30769231 , 4109.74358974 , 4194.35897436 , 4111.79487179 , 4129.74358974 , 4179.48717949 , 4895.8974359 , 4132.30769231 , 4127.69230769 , 2047.0 , 2030.0 , 17.652 , 0.0 , 0.0 , 0.0 , 0.0 , 

68.0 , 4111.28205128 , 4110.76923077 , 4119.48717949 , 4124.61538462 , 4114.35897436 , 4109.74358974 , 4107.69230769 , 4180.51282051 , 4104.61538462 , 4127.17948718 , 4179.48717949 , 4894.35897436 , 4119.48717949 , 4125.64102564 , 2046.0 , 2032.0 , 17.66 , 0.0 , 0.0 , 0.0 , 0.0 , 

69.0 , 4108.71794872 , 4109.74358974 , 4120.0 , 4116.41025641 , 4115.8974359 , 4113.33333333 , 4117.94871795 , 4187.17948718 , 4121.53846154 , 4128.71794872 , 4184.1025641 , 4892.82051282 , 4126.66666667 , 4129.74358974 , 2047.0 , 2033.0 , 17.667 , 0.0 , 0.0 , 0.0 , 0.0 , 

70.0 , 4112.30769231 , 4103.07692308 , 4120.0 , 4108.71794872 , 4119.48717949 , 4113.33333333 , 4109.74358974 , 4190.25641026 , 4132.82051282 , 4131.28205128 , 4175.8974359 , 4899.48717949 , 4121.53846154 , 4124.61538462 , 2049.0 , 2033.0 , 17.676 , 0.0 , 0.0 , 0.0 , 0.0 , 

71.0 , 4117.94871795 , 4112.82051282 , 4120.51282051 , 4122.05128205 , 4119.48717949 , 4115.8974359 , 4107.69230769 , 4204.61538462 , 4137.94871795 , 4134.87179487 , 4171.79487179 , 4897.43589744 , 4121.02564103 , 4124.1025641 , 2050.0 , 2033.0 , 17.683 , 0.0 , 0.0 , 0.0 , 0.0 , 

72.0 , 4114.35897436 , 4105.12820513 , 4120.51282051 , 4116.92307692 , 4118.97435897 , 4115.38461538 , 4112.82051282 , 4185.12820513 , 4120.0 , 4130.76923077 , 4171.28205128 , 4896.41025641 , 4103.58974359 , 4123.58974359 , 2049.0 , 2033.0 , 17.691 , 0.0 , 0.0 , 0.0 , 0.0 , 

73.0 , 4117.94871795 , 4117.94871795 , 4120.51282051 , 4110.25641026 , 4119.48717949 , 4117.43589744 , 4125.12820513 , 4189.74358974 , 4120.51282051 , 4130.25641026 , 4176.92307692 , 4894.35897436 , 4106.15384615 , 4127.69230769 , 2051.0 , 2035.0 , 17.7 , 0.0 , 0.0 , 0.0 , 0.0 , 

74.0 , 4118.97435897 , 4120.51282051 , 4121.02564103 , 4110.25641026 , 4117.43589744 , 4113.84615385 , 4116.41025641 , 4195.38461538 , 4121.53846154 , 4128.20512821 , 4171.79487179 , 4899.48717949 , 4105.12820513 , 4122.56410256 , 2051.0 , 2035.0 , 17.707 , 0.0 , 0.0 , 0.0 , 0.0 , 

75.0 , 4118.97435897 , 4117.43589744 , 4121.53846154 , 4116.92307692 , 4117.94871795 , 4116.92307692 , 4114.35897436 , 4184.61538462 , 4116.41025641 , 4127.69230769 , 4168.71794872 , 4901.53846154 , 4110.25641026 , 4120.51282051 , 2048.0 , 2035.0 , 17.715 , 0.0 , 0.0 , 0.0 , 0.0 , 

76.0 , 4119.48717949 , 4117.43589744 , 4123.07692308 , 4117.94871795 , 4118.97435897 , 4118.97435897 , 4115.38461538 , 4175.8974359 , 4112.30769231 , 4126.66666667 , 4172.30769231 , 4904.1025641 , 4115.38461538 , 4123.07692308 , 2046.0 , 2034.0 , 17.723 , 0.0 , 0.0 , 0.0 , 0.0 , 

