['COUNTER', 'AF3', 'F7', 'F3', 'FC5', 'T7', 'P7', 'O1', 'O2', 'P8', 'T8', 'FC6', 'F4', 'F8', 'AF4', 'GYROX', 'GYROY', 'TIMESTAMP', 'FUNC_ID', 'FUNC_VALUE', 'MARKER', 'SYNC_SIGNAL']
64.0 , 4125.64102564 , 4129.23076923 , 3762.05128205 , 3986.66666667 , 4137.94871795 , 4120.51282051 , 4105.12820513 , 4134.87179487 , 4177.94871795 , 4135.8974359 , 4134.35897436 , 4118.46153846 , 4251.79487179 , 4257.43589744 , 2046.0 , 2057.0 , 64.774 , 0.0 , 0.0 , 0.0 , 0.0 , 

65.0 , 4130.25641026 , 4257.94871795 , 3881.53846154 , 4075.38461538 , 4135.38461538 , 4124.61538462 , 4110.76923077 , 4137.43589744 , 4240.51282051 , 4135.8974359 , 4194.87179487 , 4151.79487179 , 4345.64102564 , 4332.30769231 , 2047.0 , 2061.0 , 64.779 , 0.0 , 0.0 , 0.0 , 0.0 , 

66.0 , 4137.43589744 , 4406.66666667 , 4030.25641026 , 4164.61538462 , 4136.92307692 , 4127.17948718 , 4111.28205128 , 4139.48717949 , 4285.12820513 , 4135.8974359 , 4261.53846154 , 4183.58974359 , 4438.97435897 , 4426.15384615 , 2044.0 , 2068.0 , 64.79 , 0.0 , 0.0 , 0.0 , 0.0 , 

67.0 , 4131.79487179 , 4229.74358974 , 3887.69230769 , 4060.51282051 , 4137.43589744 , 4125.12820513 , 4099.48717949 , 4136.92307692 , 4203.58974359 , 4135.8974359 , 4180.51282051 , 4141.53846154 , 4308.71794872 , 4324.61538462 , 2044.0 , 2069.0 , 64.793 , 0.0 , 0.0 , 0.0 , 0.0 , 

68.0 , 4128.20512821 , 4094.35897436 , 3773.84615385 , 3990.76923077 , 4136.92307692 , 4123.58974359 , 4097.94871795 , 4135.8974359 , 4170.25641026 , 4135.8974359 , 4121.53846154 , 4113.84615385 , 4220.51282051 , 4236.92307692 , 2045.0 , 2069.0 , 64.803 , 0.0 , 0.0 , 0.0 , 0.0 , 

69.0 , 4133.84615385 , 4213.33333333 , 3877.94871795 , 4063.07692308 , 4140.0 , 4125.64102564 , 4104.61538462 , 4136.41025641 , 4225.12820513 , 4135.8974359 , 4173.33333333 , 4141.02564103 , 4297.43589744 , 4295.8974359 , 2043.0 , 2060.0 , 64.809 , 0.0 , 0.0 , 0.0 , 0.0 , 

70.0 , 4133.33333333 , 4257.43589744 , 3921.53846154 , 4082.56410256 , 4140.0 , 4126.15384615 , 4102.56410256 , 4136.41025641 , 4228.71794872 , 4135.8974359 , 4189.74358974 , 4146.15384615 , 4318.46153846 , 4318.97435897 , 2043.0 , 2053.0 , 64.819 , 0.0 , 0.0 , 0.0 , 0.0 , 

71.0 , 4130.76923077 , 4150.25641026 , 3846.15384615 , 4027.69230769 , 4140.0 , 4124.61538462 , 4101.53846154 , 4137.43589744 , 4185.12820513 , 4135.8974359 , 4145.64102564 , 4122.56410256 , 4249.23076923 , 4257.43589744 , 2038.0 , 2038.0 , 64.825 , 0.0 , 0.0 , 0.0 , 0.0 , 

72.0 , 4134.35897436 , 4106.15384615 , 3820.51282051 , 4014.35897436 , 4141.53846154 , 4125.12820513 , 4106.15384615 , 4138.46153846 , 4174.87179487 , 4135.8974359 , 4127.17948718 , 4113.33333333 , 4219.48717949 , 4227.17948718 , 2036.0 , 2033.0 , 64.835 , 0.0 , 0.0 , 0.0 , 0.0 , 

73.0 , 4137.94871795 , 4098.46153846 , 3812.82051282 , 4008.20512821 , 4144.61538462 , 4129.23076923 , 4109.74358974 , 4137.94871795 , 4172.82051282 , 4135.8974359 , 4120.0 , 4112.30769231 , 4202.05128205 , 4216.92307692 , 2041.0 , 2026.0 , 64.841 , 0.0 , 0.0 , 0.0 , 0.0 , 

74.0 , 4135.38461538 , 4117.94871795 , 3836.41025641 , 4014.35897436 , 4144.1025641 , 4130.25641026 , 4114.35897436 , 4137.43589744 , 4186.15384615 , 4135.8974359 , 4128.71794872 , 4122.56410256 , 4217.43589744 , 4226.66666667 , 2045.0 , 2026.0 , 64.851 , 0.0 , 0.0 , 0.0 , 0.0 , 

75.0 , 4136.92307692 , 4207.17948718 , 3928.71794872 , 4070.25641026 , 4144.61538462 , 4130.76923077 , 4120.0 , 4138.46153846 , 4223.07692308 , 4135.8974359 , 4174.87179487 , 4148.20512821 , 4290.25641026 , 4283.07692308 , 2047.0 , 2028.0 , 64.857 , 0.0 , 0.0 , 0.0 , 0.0 , 

76.0 , 4144.1025641 , 4247.69230769 , 3975.8974359 , 4100.51282051 , 4145.64102564 , 4131.79487179 , 4118.97435897 , 4138.97435897 , 4232.82051282 , 4135.8974359 , 4194.87179487 , 4158.46153846 , 4321.53846154 , 4315.38461538 , 2051.0 , 2029.0 , 64.864 , 0.0 , 0.0 , 0.0 , 0.0 , 

77.0 , 4145.64102564 , 4203.07692308 , 3942.05128205 , 4071.28205128 , 4145.64102564 , 4130.76923077 , 4116.41025641 , 4138.46153846 , 4211.79487179 , 4135.8974359 , 4168.20512821 , 4152.30769231 , 4285.64102564 , 4291.79487179 , 2053.0 , 2027.0 , 64.875 , 0.0 , 0.0 , 0.0 , 0.0 , 

78.0 , 4141.53846154 , 4226.15384615 , 3961.53846154 , 4085.64102564 , 4145.64102564 , 4128.20512821 , 4118.46153846 , 4135.8974359 , 4225.12820513 , 4134.87179487 , 4180.0 , 4160.51282051 , 4299.48717949 , 4303.07692308 , 2056.0 , 2026.0 , 64.88 , 0.0 , 0.0 , 0.0 , 0.0 , 

79.0 , 4143.07692308 , 4293.84615385 , 4020.51282051 , 4138.97435897 , 4143.58974359 , 4130.25641026 , 4117.43589744 , 4135.38461538 , 4250.25641026 , 4133.84615385 , 4219.48717949 , 4175.8974359 , 4348.71794872 , 4346.66666667 , 2060.0 , 2027.0 , 64.891 , 0.0 , 0.0 , 0.0 , 0.0 , 

80.0 , 4141.53846154 , 4208.20512821 , 3942.05128205 , 4098.46153846 , 4139.48717949 , 4131.79487179 , 4110.76923077 , 4137.94871795 , 4203.07692308 , 4134.87179487 , 4171.28205128 , 4155.8974359 , 4281.53846154 , 4294.35897436 , 2066.0 , 2027.0 , 64.896 , 0.0 , 0.0 , 0.0 , 0.0 , 

81.0 , 4141.02564103 , 4186.66666667 , 3925.12820513 , 4088.20512821 , 4141.53846154 , 4132.82051282 , 4116.41025641 , 4140.51282051 , 4191.28205128 , 4135.8974359 , 4145.64102564 , 4149.74358974 , 4254.87179487 , 4273.84615385 , 2065.0 , 2027.0 , 64.907 , 0.0 , 0.0 , 0.0 , 0.0 , 

82.0 , 4144.61538462 , 4292.30769231 , 4045.64102564 , 4155.8974359 , 4147.69230769 , 4134.35897436 , 4123.58974359 , 4139.48717949 , 4241.02564103 , 4136.41025641 , 4201.53846154 , 4171.28205128 , 4334.35897436 , 4340.51282051 , 2065.0 , 2028.0 , 64.912 , 0.0 , 0.0 , 0.0 , 0.0 , 

83.0 , 4144.1025641 , 4215.8974359 , 3998.97435897 , 4113.33333333 , 4147.69230769 , 4133.84615385 , 4109.74358974 , 4135.8974359 , 4217.94871795 , 4135.8974359 , 4179.48717949 , 4156.92307692 , 4290.76923077 , 4301.53846154 , 2064.0 , 2028.0 , 64.923 , 0.0 , 0.0 , 0.0 , 0.0 , 

84.0 , 4141.53846154 , 4187.69230769 , 3966.66666667 , 4093.84615385 , 4142.56410256 , 4128.20512821 , 4099.48717949 , 4135.8974359 , 4213.33333333 , 4134.87179487 , 4162.56410256 , 4151.28205128 , 4270.76923077 , 4283.07692308 , 2062.0 , 2028.0 , 64.928 , 0.0 , 0.0 , 0.0 , 0.0 , 

85.0 , 4141.53846154 , 4360.0 , 4124.1025641 , 4200.51282051 , 4141.02564103 , 4124.61538462 , 4106.15384615 , 4136.92307692 , 4276.92307692 , 4133.84615385 , 4240.0 , 4187.17948718 , 4395.38461538 , 4389.23076923 , 2061.0 , 2026.0 , 64.937 , 0.0 , 0.0 , 0.0 , 0.0 , 

86.0 , 4135.8974359 , 4245.12820513 , 4038.97435897 , 4151.28205128 , 4142.05128205 , 4124.1025641 , 4101.53846154 , 4136.41025641 , 4217.43589744 , 4134.35897436 , 4192.82051282 , 4164.1025641 , 4322.05128205 , 4324.61538462 , 2059.0 , 2024.0 , 64.943 , 0.0 , 0.0 , 0.0 , 0.0 , 

87.0 , 4123.58974359 , 3930.25641026 , 3754.87179487 , 3989.23076923 , 4141.53846154 , 4122.56410256 , 4087.69230769 , 4131.28205128 , 4103.07692308 , 4136.41025641 , 4047.17948718 , 4096.41025641 , 4095.38461538 , 4124.61538462 , 2058.0 , 2020.0 , 64.953 , 0.0 , 0.0 , 0.0 , 0.0 , 

88.0 , 4123.07692308 , 4003.07692308 , 3822.56410256 , 4046.66666667 , 4140.0 , 4124.1025641 , 4095.8974359 , 4128.20512821 , 4157.43589744 , 4140.0 , 4070.76923077 , 4109.23076923 , 4137.94871795 , 4154.35897436 , 2056.0 , 2017.0 , 64.959 , 0.0 , 0.0 , 0.0 , 0.0 , 

89.0 , 4128.20512821 , 4157.94871795 , 4004.1025641 , 4137.43589744 , 4138.46153846 , 4126.15384615 , 4104.61538462 , 4132.30769231 , 4208.20512821 , 4140.0 , 4127.69230769 , 4137.43589744 , 4240.0 , 4239.48717949 , 2053.0 , 2014.0 , 64.969 , 0.0 , 0.0 , 0.0 , 0.0 , 

90.0 , 4130.76923077 , 4141.02564103 , 4050.25641026 , 4132.82051282 , 4137.43589744 , 4127.17948718 , 4099.48717949 , 4141.02564103 , 4177.94871795 , 4137.43589744 , 4106.66666667 , 4129.74358974 , 4212.30769231 , 4218.97435897 , 2050.0 , 2011.0 , 64.975 , 0.0 , 0.0 , 0.0 , 0.0 , 

91.0 , 4134.35897436 , 4198.97435897 , 4177.94871795 , 4174.87179487 , 4137.94871795 , 4127.69230769 , 4087.69230769 , 4138.46153846 , 4190.76923077 , 4137.43589744 , 4131.79487179 , 4141.53846154 , 4242.56410256 , 4246.66666667 , 2051.0 , 2010.0 , 64.984 , 0.0 , 0.0 , 0.0 , 0.0 , 

92.0 , 4138.46153846 , 4187.69230769 , 4256.92307692 , 4166.66666667 , 4140.0 , 4123.58974359 , 4065.12820513 , 4130.25641026 , 4189.74358974 , 4137.43589744 , 4134.35897436 , 4143.07692308 , 4241.53846154 , 4244.1025641 , 2055.0 , 2010.0 , 64.991 , 0.0 , 0.0 , 0.0 , 0.0 , 

93.0 , 4136.92307692 , 4045.12820513 , 4197.43589744 , 4078.46153846 , 4139.48717949 , 4115.8974359 , 4037.94871795 , 4127.69230769 , 4144.61538462 , 4134.87179487 , 4072.30769231 , 4114.35897436 , 4139.48717949 , 4156.92307692 , 2059.0 , 2009.0 , 64.999 , 0.0 , 0.0 , 0.0 , 0.0 , 

94.0 , 4134.87179487 , 4002.56410256 , 4209.23076923 , 4061.02564103 , 4141.02564103 , 4115.8974359 , 4041.02564103 , 4129.23076923 , 4137.43589744 , 4134.87179487 , 4052.30769231 , 4103.58974359 , 4099.48717949 , 4123.58974359 , 2064.0 , 2013.0 , 65.007 , 0.0 , 0.0 , 0.0 , 0.0 , 

95.0 , 4138.97435897 , 4125.64102564 , 4375.38461538 , 4140.51282051 , 4143.07692308 , 4120.0 , 4066.66666667 , 4131.28205128 , 4189.74358974 , 4137.43589744 , 4111.79487179 , 4129.23076923 , 4191.28205128 , 4198.46153846 , 2064.0 , 2018.0 , 65.014 , 0.0 , 0.0 , 0.0 , 0.0 , 

96.0 , 4144.1025641 , 4146.15384615 , 4444.61538462 , 4146.66666667 , 4143.07692308 , 4118.46153846 , 4063.58974359 , 4130.76923077 , 4194.87179487 , 4135.8974359 , 4125.64102564 , 4136.41025641 , 4217.43589744 , 4219.48717949 , 2061.0 , 2024.0 , 65.023 , 0.0 , 0.0 , 0.0 , 0.0 , 

97.0 , 4140.51282051 , 4057.43589744 , 4392.82051282 , 4090.25641026 , 4142.05128205 , 4122.05128205 , 4036.41025641 , 4129.23076923 , 4157.94871795 , 4132.82051282 , 4084.1025641 , 4114.35897436 , 4150.76923077 , 4158.97435897 , 2057.0 , 2027.0 , 65.03 , 0.0 , 0.0 , 0.0 , 0.0 , 

98.0 , 4139.48717949 , 4034.87179487 , 4393.33333333 , 4078.46153846 , 4140.0 , 4130.25641026 , 4031.28205128 , 4128.20512821 , 4144.1025641 , 4134.87179487 , 4069.74358974 , 4098.97435897 , 4125.12820513 , 4133.33333333 , 2052.0 , 2029.0 , 65.04 , 0.0 , 0.0 , 0.0 , 0.0 , 

99.0 , 4141.02564103 , 4054.35897436 , 4432.82051282 , 4087.69230769 , 4138.97435897 , 4129.23076923 , 4044.61538462 , 4130.76923077 , 4151.79487179 , 4135.38461538 , 4075.38461538 , 4099.48717949 , 4138.97435897 , 4148.71794872 , 2043.0 , 2030.0 , 65.046 , 0.0 , 0.0 , 0.0 , 0.0 , 

100.0 , 4140.51282051 , 4107.17948718 , 4508.20512821 , 4117.94871795 , 4141.02564103 , 4124.61538462 , 4055.8974359 , 4131.28205128 , 4181.53846154 , 4134.35897436 , 4100.0 , 4117.43589744 , 4181.02564103 , 4185.64102564 , 2040.0 , 2029.0 , 65.055 , 0.0 , 0.0 , 0.0 , 0.0 , 

101.0 , 4141.02564103 , 4148.71794872 , 4581.02564103 , 4141.02564103 , 4141.02564103 , 4123.07692308 , 4057.43589744 , 4130.25641026 , 4196.92307692 , 4134.35897436 , 4122.56410256 , 4125.12820513 , 4212.82051282 , 4208.20512821 , 2041.0 , 2024.0 , 65.061 , 0.0 , 0.0 , 0.0 , 0.0 , 

102.0 , 4143.07692308 , 4138.97435897 , 4603.07692308 , 4124.1025641 , 4140.0 , 4122.56410256 , 4054.87179487 , 4134.35897436 , 4177.43589744 , 4134.35897436 , 4117.94871795 , 4114.87179487 , 4197.43589744 , 4197.43589744 , 2044.0 , 2023.0 , 65.071 , 0.0 , 0.0 , 0.0 , 0.0 , 

103.0 , 4140.51282051 , 4109.23076923 , 4603.58974359 , 4100.51282051 , 4138.46153846 , 4122.05128205 , 4056.92307692 , 4137.43589744 , 4158.97435897 , 4135.38461538 , 4099.48717949 , 4111.79487179 , 4170.76923077 , 4175.38461538 , 2047.0 , 2028.0 , 65.077 , 0.0 , 0.0 , 0.0 , 0.0 , 

104.0 , 4138.46153846 , 4148.71794872 , 4670.25641026 , 4131.28205128 , 4137.94871795 , 4121.53846154 , 4060.51282051 , 4131.79487179 , 4188.71794872 , 4136.41025641 , 4124.1025641 , 4127.69230769 , 4210.76923077 , 4197.94871795 , 2051.0 , 2032.0 , 65.087 , 0.0 , 0.0 , 0.0 , 0.0 , 

105.0 , 4142.56410256 , 4191.28205128 , 4730.25641026 , 4153.84615385 , 4138.97435897 , 4114.87179487 , 4051.79487179 , 4128.20512821 , 4208.20512821 , 4135.38461538 , 4150.76923077 , 4133.33333333 , 4244.1025641 , 4227.69230769 , 2052.0 , 2037.0 , 65.093 , 0.0 , 0.0 , 0.0 , 0.0 , 

106.0 , 4140.51282051 , 4090.25641026 , 4649.74358974 , 4083.58974359 , 4136.41025641 , 4107.69230769 , 4037.43589744 , 4131.28205128 , 4157.94871795 , 4135.38461538 , 4093.84615385 , 4105.64102564 , 4160.51282051 , 4169.23076923 , 2051.0 , 2050.0 , 65.103 , 0.0 , 0.0 , 0.0 , 0.0 , 

107.0 , 4134.35897436 , 3924.1025641 , 4512.30769231 , 3991.28205128 , 4130.76923077 , 4110.76923077 , 4037.94871795 , 4126.66666667 , 4098.46153846 , 4135.38461538 , 4014.87179487 , 4072.82051282 , 4042.05128205 , 4070.25641026 , 2052.0 , 2051.0 , 65.109 , 0.0 , 0.0 , 0.0 , 0.0 , 

108.0 , 4132.82051282 , 3889.23076923 , 4500.51282051 , 3985.64102564 , 4131.79487179 , 4114.35897436 , 4043.58974359 , 4123.58974359 , 4114.35897436 , 4134.35897436 , 4013.33333333 , 4067.17948718 , 4034.35897436 , 4059.48717949 , 2050.0 , 2048.0 , 65.118 , 0.0 , 0.0 , 0.0 , 0.0 , 

109.0 , 4140.0 , 4079.48717949 , 4690.25641026 , 4098.97435897 , 4134.87179487 , 4112.82051282 , 4045.64102564 , 4129.23076923 , 4202.05128205 , 4133.84615385 , 4103.58974359 , 4106.15384615 , 4169.74358974 , 4184.61538462 , 2047.0 , 2044.0 , 65.124 , 0.0 , 0.0 , 0.0 , 0.0 , 

110.0 , 4142.05128205 , 4146.66666667 , 4764.61538462 , 4129.74358974 , 4131.79487179 , 4110.76923077 , 4044.1025641 , 4128.71794872 , 4190.76923077 , 4134.35897436 , 4121.53846154 , 4115.38461538 , 4192.30769231 , 4230.25641026 , 2038.0 , 2035.0 , 65.133 , 0.0 , 0.0 , 0.0 , 0.0 , 

111.0 , 4134.35897436 , 3894.87179487 , 4559.48717949 , 3981.53846154 , 4131.79487179 , 4113.33333333 , 4041.53846154 , 4123.07692308 , 4063.58974359 , 4133.84615385 , 4004.61538462 , 4054.87179487 , 3997.94871795 , 4089.74358974 , 2035.0 , 2030.0 , 65.14 , 0.0 , 0.0 , 0.0 , 0.0 , 

112.0 , 4126.15384615 , 3664.61538462 , 4377.43589744 , 3852.82051282 , 4133.33333333 , 4114.35897436 , 4033.84615385 , 4121.02564103 , 4001.02564103 , 4135.38461538 , 3901.53846154 , 4004.61538462 , 3840.0 , 3965.64102564 , 2034.0 , 2028.0 , 65.149 , 0.0 , 0.0 , 0.0 , 0.0 , 

113.0 , 4125.64102564 , 3604.61538462 , 4334.35897436 , 3818.97435897 , 4133.33333333 , 4114.87179487 , 4030.76923077 , 4121.53846154 , 4011.28205128 , 4137.43589744 , 3868.20512821 , 4002.05128205 , 3798.97435897 , 3944.61538462 , 2036.0 , 2026.0 , 65.157 , 0.0 , 0.0 , 0.0 , 0.0 , 

114.0 , 4130.25641026 , 3640.0 , 4364.61538462 , 3843.58974359 , 4133.84615385 , 4117.43589744 , 4041.02564103 , 4125.64102564 , 4035.8974359 , 4137.43589744 , 3880.0 , 4017.43589744 , 3819.48717949 , 3986.66666667 , 2039.0 , 2028.0 , 65.164 , 0.0 , 0.0 , 0.0 , 0.0 , 

115.0 , 4138.97435897 , 3797.94871795 , 4515.38461538 , 3941.53846154 , 4134.35897436 , 4116.92307692 , 4050.25641026 , 4127.17948718 , 4104.61538462 , 4134.87179487 , 3958.97435897 , 4054.35897436 , 3943.07692308 , 4109.74358974 , 2040.0 , 2031.0 , 65.173 , 0.0 , 0.0 , 0.0 , 0.0 , 

116.0 , 4142.05128205 , 3880.0 , 4595.8974359 , 3984.1025641 , 4132.82051282 , 4114.35897436 , 4039.48717949 , 4122.56410256 , 4129.74358974 , 4134.35897436 , 4003.07692308 , 4077.43589744 , 4017.43589744 , 4176.41025641 , 2039.0 , 2034.0 , 65.18 , 0.0 , 0.0 , 0.0 , 0.0 , 

117.0 , 4137.43589744 , 3710.25641026 , 4422.56410256 , 3880.0 , 4130.25641026 , 4112.30769231 , 4025.64102564 , 4122.05128205 , 4045.12820513 , 4134.35897436 , 3918.97435897 , 4040.51282051 , 3892.82051282 , 4066.66666667 , 2039.0 , 2038.0 , 65.189 , 0.0 , 0.0 , 0.0 , 0.0 , 

118.0 , 4134.87179487 , 3619.48717949 , 4311.79487179 , 3832.82051282 , 4130.25641026 , 4108.71794872 , 4029.23076923 , 4123.58974359 , 4017.43589744 , 4134.35897436 , 3872.82051282 , 4010.76923077 , 3819.48717949 , 3991.28205128 , 2040.0 , 2041.0 , 65.195 , 0.0 , 0.0 , 0.0 , 0.0 , 

119.0 , 4132.82051282 , 3690.25641026 , 4363.58974359 , 3874.35897436 , 4132.30769231 , 4107.69230769 , 4035.8974359 , 4122.56410256 , 4060.0 , 4134.35897436 , 3916.92307692 , 4024.61538462 , 3877.43589744 , 4020.51282051 , 2041.0 , 2043.0 , 65.205 , 0.0 , 0.0 , 0.0 , 0.0 , 

120.0 , 4124.61538462 , 3664.61538462 , 4335.38461538 , 3858.46153846 , 4132.82051282 , 4110.25641026 , 4030.25641026 , 4122.56410256 , 4050.76923077 , 4134.35897436 , 3913.84615385 , 4026.15384615 , 3866.15384615 , 3993.84615385 , 2045.0 , 2048.0 , 65.211 , 0.0 , 0.0 , 0.0 , 0.0 , 

121.0 , 4123.58974359 , 3651.79487179 , 4302.56410256 , 3857.43589744 , 4132.82051282 , 4111.79487179 , 4028.20512821 , 4123.07692308 , 4046.15384615 , 4134.35897436 , 3899.48717949 , 4017.94871795 , 3842.56410256 , 3961.53846154 , 2049.0 , 2048.0 , 65.221 , 0.0 , 0.0 , 0.0 , 0.0 , 

122.0 , 4129.74358974 , 3717.94871795 , 4342.05128205 , 3893.84615385 , 4132.82051282 , 4111.28205128 , 4032.30769231 , 4122.05128205 , 4075.38461538 , 4133.84615385 , 3925.12820513 , 4020.0 , 3880.0 , 3974.87179487 , 2050.0 , 2050.0 , 65.227 , 0.0 , 0.0 , 0.0 , 0.0 , 

123.0 , 4129.74358974 , 3727.69230769 , 4346.66666667 , 3893.33333333 , 4131.79487179 , 4113.33333333 , 4034.87179487 , 4122.56410256 , 4084.61538462 , 4134.35897436 , 3944.1025641 , 4021.02564103 , 3905.64102564 , 3972.82051282 , 2051.0 , 2051.0 , 65.236 , 0.0 , 0.0 , 0.0 , 0.0 , 

124.0 , 4127.69230769 , 3675.38461538 , 4290.76923077 , 3862.05128205 , 4131.28205128 , 4113.33333333 , 4034.87179487 , 4120.0 , 4061.53846154 , 4134.87179487 , 3930.25641026 , 4014.35897436 , 3881.02564103 , 3938.46153846 , 2052.0 , 2049.0 , 65.243 , 0.0 , 0.0 , 0.0 , 0.0 , 

125.0 , 4125.64102564 , 3657.43589744 , 4252.30769231 , 3846.66666667 , 4132.30769231 , 4110.25641026 , 4033.84615385 , 4118.97435897 , 4049.23076923 , 4134.35897436 , 3915.38461538 , 4007.17948718 , 3857.43589744 , 3911.79487179 , 2056.0 , 2047.0 , 65.252 , 0.0 , 0.0 , 0.0 , 0.0 , 

126.0 , 4122.05128205 , 3585.64102564 , 4159.48717949 , 3794.87179487 , 4132.82051282 , 4112.30769231 , 4033.33333333 , 4122.56410256 , 4022.56410256 , 4133.84615385 , 3875.38461538 , 3984.1025641 , 3801.53846154 , 3852.82051282 , 2059.0 , 2037.0 , 65.259 , 0.0 , 0.0 , 0.0 , 0.0 , 

127.0 , 4123.07692308 , 3643.58974359 , 4182.05128205 , 3828.20512821 , 4132.82051282 , 4115.8974359 , 4043.58974359 , 4123.58974359 , 4065.12820513 , 4134.87179487 , 3906.15384615 , 3992.30769231 , 3846.15384615 , 3880.51282051 , 2059.0 , 2034.0 , 65.268 , 0.0 , 0.0 , 0.0 , 0.0 , 

128.0 , 4131.28205128 , 3908.20512821 , 4402.56410256 , 3980.0 , 4131.79487179 , 4116.41025641 , 4056.41025641 , 4124.1025641 , 4173.33333333 , 4136.92307692 , 4030.76923077 , 4049.74358974 , 4031.28205128 , 4041.53846154 , 2059.0 , 2033.0 , 65.274 , 0.0 , 0.0 , 0.0 , 0.0 , 

0.0 , 4126.66666667 , 3836.41025641 , 4330.25641026 , 3926.66666667 , 4129.74358974 , 4111.79487179 , 4042.56410256 , 4122.56410256 , 4110.25641026 , 4137.43589744 , 3997.43589744 , 4031.79487179 , 3984.61538462 , 4000.51282051 , 2060.0 , 2030.0 , 65.284 , 0.0 , 0.0 , 0.0 , 0.0 , 

1.0 , 4112.30769231 , 3469.74358974 , 3976.92307692 , 3708.71794872 , 4128.71794872 , 4109.74358974 , 4028.20512821 , 4117.94871795 , 3958.46153846 , 4136.92307692 , 3830.76923077 , 3947.17948718 , 3735.8974359 , 3769.74358974 , 2058.0 , 2030.0 , 65.291 , 0.0 , 0.0 , 0.0 , 0.0 , 

2.0 , 4109.74358974 , 3475.38461538 , 3956.92307692 , 3718.97435897 , 4128.20512821 , 4111.79487179 , 4041.53846154 , 4119.48717949 , 3998.46153846 , 4136.92307692 , 3832.82051282 , 3945.64102564 , 3740.0 , 3756.92307692 , 2054.0 , 2034.0 , 65.299 , 0.0 , 0.0 , 0.0 , 0.0 , 

3.0 , 4118.46153846 , 3712.30769231 , 4176.92307692 , 3863.58974359 , 4129.74358974 , 4113.33333333 , 4049.23076923 , 4125.12820513 , 4100.0 , 4137.94871795 , 3941.53846154 , 4002.05128205 , 3901.53846154 , 3902.56410256 , 2053.0 , 2037.0 , 65.308 , 0.0 , 0.0 , 0.0 , 0.0 , 

4.0 , 4120.0 , 3654.87179487 , 4137.94871795 , 3827.69230769 , 4130.25641026 , 4113.84615385 , 4038.46153846 , 4123.07692308 , 4051.28205128 , 4136.41025641 , 3919.48717949 , 3994.35897436 , 3860.0 , 3873.33333333 , 2051.0 , 2039.0 , 65.314 , 0.0 , 0.0 , 0.0 , 0.0 , 

5.0 , 4124.1025641 , 3667.17948718 , 4139.48717949 , 3831.28205128 , 4129.23076923 , 4114.87179487 , 4045.64102564 , 4121.53846154 , 4065.12820513 , 4134.87179487 , 3925.12820513 , 3995.38461538 , 3867.17948718 , 3871.79487179 , 2053.0 , 2040.0 , 65.323 , 0.0 , 0.0 , 0.0 , 0.0 , 

6.0 , 4128.71794872 , 3832.82051282 , 4275.8974359 , 3921.02564103 , 4128.71794872 , 4115.8974359 , 4052.82051282 , 4123.07692308 , 4137.94871795 , 4134.87179487 , 4001.53846154 , 4028.20512821 , 3987.17948718 , 3968.20512821 , 2055.0 , 2042.0 , 65.335 , 0.0 , 0.0 , 0.0 , 0.0 , 

7.0 , 4122.05128205 , 3704.1025641 , 4145.64102564 , 3837.94871795 , 4128.71794872 , 4114.35897436 , 4038.46153846 , 4121.53846154 , 4068.71794872 , 4135.8974359 , 3947.69230769 , 4001.53846154 , 3902.56410256 , 3887.69230769 , 2059.0 , 2049.0 , 65.34 , 0.0 , 0.0 , 0.0 , 0.0 , 

8.0 , 4114.35897436 , 3575.8974359 , 4006.15384615 , 3761.53846154 , 4128.20512821 , 4111.28205128 , 4033.84615385 , 4121.02564103 , 4022.56410256 , 4134.87179487 , 3889.74358974 , 3974.87179487 , 3809.23076923 , 3803.07692308 , 2063.0 , 2052.0 , 65.344 , 0.0 , 0.0 , 0.0 , 0.0 , 

9.0 , 4114.35897436 , 3632.82051282 , 4041.02564103 , 3796.41025641 , 4127.69230769 , 4111.28205128 , 4041.53846154 , 4123.07692308 , 4052.82051282 , 4133.33333333 , 3914.35897436 , 3984.1025641 , 3842.56410256 , 3836.92307692 , 2066.0 , 2062.0 , 65.355 , 0.0 , 0.0 , 0.0 , 0.0 , 

10.0 , 4113.33333333 , 3638.97435897 , 4038.97435897 , 3801.02564103 , 4127.17948718 , 4112.30769231 , 4041.02564103 , 4123.58974359 , 4051.79487179 , 4135.38461538 , 3917.94871795 , 3979.48717949 , 3844.1025641 , 3839.48717949 , 2066.0 , 2065.0 , 65.361 , 0.0 , 0.0 , 0.0 , 0.0 , 

11.0 , 4109.23076923 , 3597.43589744 , 3990.25641026 , 3775.8974359 , 4126.66666667 , 4111.28205128 , 4035.8974359 , 4121.53846154 , 4036.41025641 , 4136.41025641 , 3898.97435897 , 3968.20512821 , 3814.35897436 , 3809.23076923 , 2064.0 , 2064.0 , 65.37 , 0.0 , 0.0 , 0.0 , 0.0 , 

12.0 , 4113.33333333 , 3676.92307692 , 4049.23076923 , 3824.1025641 , 4128.20512821 , 4110.25641026 , 4039.48717949 , 4120.51282051 , 4069.74358974 , 4134.35897436 , 3935.8974359 , 3986.15384615 , 3871.79487179 , 3862.05128205 , 2063.0 , 2064.0 , 65.376 , 0.0 , 0.0 , 0.0 , 0.0 , 

13.0 , 4117.94871795 , 3750.76923077 , 4109.74358974 , 3865.12820513 , 4129.74358974 , 4113.84615385 , 4046.66666667 , 4120.51282051 , 4091.28205128 , 4133.84615385 , 3973.33333333 , 3999.48717949 , 3927.69230769 , 3915.38461538 , 2063.0 , 2063.0 , 65.385 , 0.0 , 0.0 , 0.0 , 0.0 , 

14.0 , 4114.87179487 , 3638.97435897 , 4003.07692308 , 3795.38461538 , 4129.23076923 , 4113.84615385 , 4045.64102564 , 4120.0 , 4043.07692308 , 4135.38461538 , 3921.53846154 , 3970.25641026 , 3849.74358974 , 3844.61538462 , 2066.0 , 2061.0 , 65.392 , 0.0 , 0.0 , 0.0 , 0.0 , 

15.0 , 4110.76923077 , 3542.56410256 , 3902.05128205 , 3736.92307692 , 4127.69230769 , 4108.71794872 , 4043.58974359 , 4120.0 , 4010.25641026 , 4134.87179487 , 3872.30769231 , 3947.17948718 , 3773.84615385 , 3776.41025641 , 2065.0 , 2059.0 , 65.401 , 0.0 , 0.0 , 0.0 , 0.0 , 

16.0 , 4116.92307692 , 3694.87179487 , 4023.58974359 , 3822.05128205 , 4128.71794872 , 4111.79487179 , 4055.38461538 , 4122.05128205 , 4075.38461538 , 4133.84615385 , 3941.02564103 , 3980.0 , 3874.87179487 , 3865.12820513 , 2065.0 , 2056.0 , 65.408 , 0.0 , 0.0 , 0.0 , 0.0 , 

17.0 , 4124.1025641 , 3863.58974359 , 4164.1025641 , 3908.20512821 , 4131.28205128 , 4117.43589744 , 4064.1025641 , 4123.58974359 , 4135.8974359 , 4134.35897436 , 4021.53846154 , 4015.8974359 , 3996.92307692 , 3977.94871795 , 2064.0 , 2058.0 , 65.417 , 0.0 , 0.0 , 0.0 , 0.0 , 

18.0 , 4125.12820513 , 3743.58974359 , 4044.1025641 , 3827.69230769 , 4130.76923077 , 4115.8974359 , 4051.79487179 , 4123.07692308 , 4072.82051282 , 4133.84615385 , 3969.23076923 , 3989.23076923 , 3917.43589744 , 3922.56410256 , 2067.0 , 2060.0 , 65.424 , 0.0 , 0.0 , 0.0 , 0.0 , 

19.0 , 4120.51282051 , 3580.0 , 3879.48717949 , 3731.79487179 , 4126.15384615 , 4112.82051282 , 4042.56410256 , 4120.0 , 4004.61538462 , 4134.87179487 , 3890.76923077 , 3953.33333333 , 3802.56410256 , 3841.02564103 , 2069.0 , 2061.0 , 65.433 , 0.0 , 0.0 , 0.0 , 0.0 , 

20.0 , 4121.02564103 , 3665.64102564 , 3945.64102564 , 3785.64102564 , 4126.15384615 , 4114.35897436 , 4057.94871795 , 4120.51282051 , 4052.82051282 , 4137.43589744 , 3926.15384615 , 3975.38461538 , 3863.07692308 , 3915.38461538 , 2069.0 , 2065.0 , 65.441 , 0.0 , 0.0 , 0.0 , 0.0 , 

21.0 , 4126.15384615 , 3801.02564103 , 4069.74358974 , 3862.05128205 , 4128.71794872 , 4115.8974359 , 4066.15384615 , 4124.61538462 , 4109.74358974 , 4137.43589744 , 3991.28205128 , 4009.23076923 , 3957.43589744 , 4026.15384615 , 2071.0 , 2071.0 , 65.449 , 0.0 , 0.0 , 0.0 , 0.0 , 

22.0 , 4128.20512821 , 3745.12820513 , 4028.71794872 , 3824.1025641 , 4129.23076923 , 4114.87179487 , 4054.35897436 , 4124.61538462 , 4062.05128205 , 4134.35897436 , 3967.17948718 , 3996.41025641 , 3912.82051282 , 4025.12820513 , 2072.0 , 2071.0 , 65.457 , 0.0 , 0.0 , 0.0 , 0.0 , 

23.0 , 4120.51282051 , 3667.17948718 , 3960.51282051 , 3779.48717949 , 4128.71794872 , 4111.79487179 , 4053.33333333 , 4121.53846154 , 4019.48717949 , 4133.84615385 , 3923.58974359 , 3980.0 , 3853.84615385 , 4003.07692308 , 2068.0 , 2067.0 , 65.464 , 0.0 , 0.0 , 0.0 , 0.0 , 

24.0 , 4121.53846154 , 3758.97435897 , 4045.12820513 , 3836.92307692 , 4130.25641026 , 4113.84615385 , 4066.66666667 , 4123.07692308 , 4080.51282051 , 4136.92307692 , 3966.15384615 , 4005.12820513 , 3921.02564103 , 4077.94871795 , 2066.0 , 2064.0 , 65.473 , 0.0 , 0.0 , 0.0 , 0.0 , 

25.0 , 4127.69230769 , 3836.41025641 , 4114.87179487 , 3871.79487179 , 4128.71794872 , 4118.97435897 , 4069.74358974 , 4124.1025641 , 4113.33333333 , 4137.43589744 , 4007.17948718 , 4018.97435897 , 3980.51282051 , 4136.41025641 , 2063.0 , 2054.0 , 65.478 , 0.0 , 0.0 , 0.0 , 0.0 , 

26.0 , 4127.69230769 , 3780.0 , 4050.76923077 , 3827.69230769 , 4125.64102564 , 4118.46153846 , 4068.20512821 , 4122.05128205 , 4065.64102564 , 4136.41025641 , 3973.33333333 , 3997.43589744 , 3934.87179487 , 4098.97435897 , 2062.0 , 2051.0 , 65.489 , 0.0 , 0.0 , 0.0 , 0.0 , 

27.0 , 4122.05128205 , 3741.53846154 , 3993.84615385 , 3804.1025641 , 4125.12820513 , 4114.87179487 , 4068.71794872 , 4123.58974359 , 4047.69230769 , 4135.8974359 , 3946.15384615 , 3986.15384615 , 3894.87179487 , 4055.8974359 , 2061.0 , 2046.0 , 65.494 , 0.0 , 0.0 , 0.0 , 0.0 , 

28.0 , 4121.02564103 , 3705.64102564 , 3948.71794872 , 3783.58974359 , 4126.15384615 , 4114.35897436 , 4066.15384615 , 4124.61538462 , 4047.69230769 , 4136.41025641 , 3937.43589744 , 3974.87179487 , 3874.35897436 , 4014.87179487 , 2061.0 , 2040.0 , 65.506 , 0.0 , 0.0 , 0.0 , 0.0 , 

29.0 , 4124.61538462 , 3705.12820513 , 3936.41025641 , 3783.07692308 , 4128.71794872 , 4114.87179487 , 4068.20512821 , 4122.56410256 , 4058.46153846 , 4136.41025641 , 3944.1025641 , 3969.23076923 , 3884.61538462 , 3998.46153846 , 2060.0 , 2040.0 , 65.51 , 0.0 , 0.0 , 0.0 , 0.0 , 

30.0 , 4128.20512821 , 3828.71794872 , 4021.02564103 , 3850.25641026 , 4130.25641026 , 4117.43589744 , 4073.84615385 , 4124.1025641 , 4110.25641026 , 4135.8974359 , 3995.38461538 , 3995.38461538 , 3965.64102564 , 4052.82051282 , 2061.0 , 2044.0 , 65.52 , 0.0 , 0.0 , 0.0 , 0.0 , 

31.0 , 4126.15384615 , 3810.76923077 , 3971.79487179 , 3836.41025641 , 4129.74358974 , 4116.41025641 , 4070.25641026 , 4123.58974359 , 4092.30769231 , 4135.8974359 , 3989.23076923 , 3996.92307692 , 3953.84615385 , 4029.23076923 , 2061.0 , 2045.0 , 65.526 , 0.0 , 0.0 , 0.0 , 0.0 , 

32.0 , 4118.46153846 , 3641.02564103 , 3795.8974359 , 3746.66666667 , 4127.69230769 , 4112.82051282 , 4066.15384615 , 4121.53846154 , 4024.1025641 , 4135.8974359 , 3916.92307692 , 3962.05128205 , 3849.23076923 , 3915.38461538 , 2060.0 , 2051.0 , 65.536 , 0.0 , 0.0 , 0.0 , 0.0 , 

33.0 , 4117.94871795 , 3651.28205128 , 3790.76923077 , 3756.92307692 , 4129.23076923 , 4115.8974359 , 4070.76923077 , 4121.02564103 , 4047.17948718 , 4136.41025641 , 3920.0 , 3958.97435897 , 3858.46153846 , 3898.97435897 , 2059.0 , 2051.0 , 65.541 , 0.0 , 0.0 , 0.0 , 0.0 , 

34.0 , 4119.48717949 , 3752.82051282 , 3867.17948718 , 3806.15384615 , 4129.23076923 , 4116.41025641 , 4070.76923077 , 4122.05128205 , 4089.74358974 , 4135.8974359 , 3965.64102564 , 3975.38461538 , 3921.02564103 , 3942.05128205 , 2059.0 , 2052.0 , 65.551 , 0.0 , 0.0 , 0.0 , 0.0 , 

35.0 , 4117.94871795 , 3709.74358974 , 3810.76923077 , 3779.48717949 , 4127.69230769 , 4111.79487179 , 4067.17948718 , 4123.07692308 , 4062.56410256 , 4134.87179487 , 3944.1025641 , 3965.12820513 , 3887.17948718 , 3903.58974359 , 2060.0 , 2052.0 , 65.557 , 0.0 , 0.0 , 0.0 , 0.0 , 

36.0 , 4115.38461538 , 3693.84615385 , 3782.05128205 , 3773.84615385 , 4126.66666667 , 4112.82051282 , 4071.28205128 , 4123.58974359 , 4059.48717949 , 4134.87179487 , 3930.25641026 , 3961.02564103 , 3872.30769231 , 3876.41025641 , 2060.0 , 2051.0 , 65.567 , 0.0 , 0.0 , 0.0 , 0.0 , 

37.0 , 4115.8974359 , 3776.92307692 , 3853.84615385 , 3819.48717949 , 4128.71794872 , 4118.46153846 , 4082.05128205 , 4122.56410256 , 4093.84615385 , 4135.38461538 , 3969.23076923 , 3977.43589744 , 3928.71794872 , 3917.94871795 , 2058.0 , 2054.0 , 65.574 , 0.0 , 0.0 , 0.0 , 0.0 , 

38.0 , 4115.38461538 , 3792.30769231 , 3860.0 , 3827.69230769 , 4129.23076923 , 4118.97435897 , 4081.53846154 , 4122.56410256 , 4092.82051282 , 4135.8974359 , 3984.1025641 , 3976.92307692 , 3938.46153846 , 3928.20512821 , 2055.0 , 2059.0 , 65.582 , 0.0 , 0.0 , 0.0 , 0.0 , 

39.0 , 4112.82051282 , 3741.53846154 , 3791.79487179 , 3793.84615385 , 4127.69230769 , 4119.48717949 , 4074.35897436 , 4124.1025641 , 4067.69230769 , 4135.8974359 , 3958.46153846 , 3964.1025641 , 3898.46153846 , 3891.79487179 , 2051.0 , 2060.0 , 65.59 , 0.0 , 0.0 , 0.0 , 0.0 , 

40.0 , 4106.15384615 , 3698.46153846 , 3725.12820513 , 3757.94871795 , 4126.66666667 , 4118.46153846 , 4073.33333333 , 4122.05128205 , 4056.92307692 , 4134.35897436 , 3931.79487179 , 3954.35897436 , 3868.20512821 , 3856.92307692 , 2049.0 , 2062.0 , 65.597 , 0.0 , 0.0 , 0.0 , 0.0 , 

41.0 , 4107.69230769 , 3684.61538462 , 3697.43589744 , 3752.30769231 , 4127.69230769 , 4116.92307692 , 4076.92307692 , 4122.05128205 , 4060.51282051 , 4133.84615385 , 3930.25641026 , 3953.33333333 , 3865.64102564 , 3847.17948718 , 2044.0 , 2063.0 , 65.607 , 0.0 , 0.0 , 0.0 , 0.0 , 

42.0 , 4114.35897436 , 3721.53846154 , 3723.58974359 , 3778.97435897 , 4129.23076923 , 4116.92307692 , 4081.53846154 , 4124.61538462 , 4072.82051282 , 4135.38461538 , 3952.30769231 , 3960.0 , 3893.84615385 , 3866.15384615 , 2041.0 , 2062.0 , 65.612 , 0.0 , 0.0 , 0.0 , 0.0 , 

43.0 , 4115.8974359 , 3791.79487179 , 3774.87179487 , 3810.76923077 , 4128.20512821 , 4117.94871795 , 4086.66666667 , 4122.56410256 , 4094.87179487 , 4135.38461538 , 3976.92307692 , 3970.76923077 , 3936.41025641 , 3905.64102564 , 2041.0 , 2062.0 , 65.624 , 0.0 , 0.0 , 0.0 , 0.0 , 

44.0 , 4115.38461538 , 3793.33333333 , 3758.46153846 , 3801.02564103 , 4127.69230769 , 4115.8974359 , 4087.17948718 , 4120.0 , 4091.28205128 , 4134.87179487 , 3970.25641026 , 3965.12820513 , 3933.84615385 , 3908.20512821 , 2041.0 , 2063.0 , 65.628 , 0.0 , 0.0 , 0.0 , 0.0 , 

45.0 , 4116.92307692 , 3737.43589744 , 3687.69230769 , 3764.61538462 , 4129.74358974 , 4114.35897436 , 4084.1025641 , 4123.07692308 , 4069.23076923 , 4135.38461538 , 3949.23076923 , 3949.23076923 , 3897.94871795 , 3871.28205128 , 2044.0 , 2065.0 , 65.639 , 0.0 , 0.0 , 0.0 , 0.0 , 

46.0 , 4112.82051282 , 3736.92307692 , 3674.87179487 , 3762.05128205 , 4126.66666667 , 4115.38461538 , 4084.61538462 , 4125.12820513 , 4070.76923077 , 4135.38461538 , 3950.76923077 , 3951.79487179 , 3902.05128205 , 3866.66666667 , 2048.0 , 2070.0 , 65.644 , 0.0 , 0.0 , 0.0 , 0.0 , 

47.0 , 4107.17948718 , 3751.28205128 , 3682.56410256 , 3770.76923077 , 4123.58974359 , 4116.41025641 , 4084.1025641 , 4122.05128205 , 4077.43589744 , 4133.84615385 , 3951.79487179 , 3963.07692308 , 3911.79487179 , 3878.97435897 , 2051.0 , 2069.0 , 65.654 , 0.0 , 0.0 , 0.0 , 0.0 , 

48.0 , 4108.71794872 , 3734.87179487 , 3654.35897436 , 3757.43589744 , 4125.12820513 , 4113.33333333 , 4082.05128205 , 4121.02564103 , 4073.33333333 , 4133.84615385 , 3941.53846154 , 3960.51282051 , 3896.92307692 , 3868.71794872 , 2051.0 , 2059.0 , 65.659 , 0.0 , 0.0 , 0.0 , 0.0 , 

49.0 , 4111.28205128 , 3794.35897436 , 3684.61538462 , 3783.07692308 , 4127.17948718 , 4110.76923077 , 4085.12820513 , 4122.56410256 , 4096.92307692 , 4135.8974359 , 3968.71794872 , 3964.1025641 , 3932.30769231 , 3896.92307692 , 2051.0 , 2054.0 , 65.669 , 0.0 , 0.0 , 0.0 , 0.0 , 

50.0 , 4111.79487179 , 3886.66666667 , 3748.71794872 , 3836.41025641 , 4126.15384615 , 4110.25641026 , 4088.20512821 , 4122.56410256 , 4126.15384615 , 4137.43589744 , 4007.69230769 , 3981.02564103 , 3995.8974359 , 3950.76923077 , 2051.0 , 2051.0 , 65.675 , 0.0 , 0.0 , 0.0 , 0.0 , 

51.0 , 4110.76923077 , 3830.76923077 , 3688.20512821 , 3812.30769231 , 4125.12820513 , 4108.71794872 , 4084.61538462 , 4122.05128205 , 4095.38461538 , 4136.41025641 , 3980.51282051 , 3972.30769231 , 3963.07692308 , 3922.05128205 , 2052.0 , 2047.0 , 65.685 , 0.0 , 0.0 , 0.0 , 0.0 , 

52.0 , 4109.23076923 , 3711.79487179 , 3566.15384615 , 3745.12820513 , 4124.1025641 , 4110.25641026 , 4087.69230769 , 4122.05128205 , 4050.25641026 , 4135.8974359 , 3925.12820513 , 3947.17948718 , 3878.97435897 , 3848.20512821 , 2048.0 , 2048.0 , 65.692 , 0.0 , 0.0 , 0.0 , 0.0 , 

53.0 , 4107.17948718 , 3725.64102564 , 3569.74358974 , 3751.28205128 , 4123.07692308 , 4113.33333333 , 4094.35897436 , 4123.07692308 , 4063.07692308 , 4136.41025641 , 3929.23076923 , 3948.71794872 , 3886.15384615 , 3855.38461538 , 2040.0 , 2051.0 , 65.701 , 0.0 , 0.0 , 0.0 , 0.0 , 

54.0 , 4106.15384615 , 3749.74358974 , 3594.35897436 , 3764.1025641 , 4123.58974359 , 4115.8974359 , 4090.76923077 , 4123.07692308 , 4071.28205128 , 4136.41025641 , 3937.94871795 , 3959.48717949 , 3903.58974359 , 3872.82051282 , 2036.0 , 2051.0 , 65.708 , 0.0 , 0.0 , 0.0 , 0.0 , 

55.0 , 4104.61538462 , 3746.66666667 , 3587.69230769 , 3763.58974359 , 4123.58974359 , 4115.38461538 , 4088.20512821 , 4121.02564103 , 4066.66666667 , 4135.8974359 , 3934.35897436 , 3960.0 , 3896.41025641 , 3865.12820513 , 2029.0 , 2047.0 , 65.718 , 0.0 , 0.0 , 0.0 , 0.0 , 

56.0 , 4111.28205128 , 3877.43589744 , 3691.79487179 , 3841.53846154 , 4123.58974359 , 4117.43589744 , 4100.51282051 , 4121.53846154 , 4122.56410256 , 4135.8974359 , 3993.33333333 , 3981.53846154 , 3984.61538462 , 3939.48717949 , 2028.0 , 2044.0 , 65.725 , 0.0 , 0.0 , 0.0 , 0.0 , 

57.0 , 4117.94871795 , 3956.92307692 , 3756.41025641 , 3882.05128205 , 4123.07692308 , 4119.48717949 , 4105.64102564 , 4123.58974359 , 4148.20512821 , 4135.8974359 , 4033.33333333 , 3993.84615385 , 4046.15384615 , 3995.38461538 , 2028.0 , 2042.0 , 65.731 , 0.0 , 0.0 , 0.0 , 0.0 , 

58.0 , 4115.38461538 , 3855.38461538 , 3661.02564103 , 3817.43589744 , 4123.58974359 , 4120.51282051 , 4101.53846154 , 4122.56410256 , 4095.38461538 , 4135.8974359 , 3985.64102564 , 3976.41025641 , 3972.30769231 , 3938.46153846 , 2031.0 , 2044.0 , 65.742 , 0.0 , 0.0 , 0.0 , 0.0 , 

59.0 , 4106.66666667 , 3786.66666667 , 3591.79487179 , 3781.02564103 , 4125.64102564 , 4120.0 , 4098.46153846 , 4122.05128205 , 4067.69230769 , 4135.8974359 , 3947.69230769 , 3962.05128205 , 3920.0 , 3891.79487179 , 2034.0 , 2048.0 , 65.747 , 0.0 , 0.0 , 0.0 , 0.0 , 

60.0 , 4105.64102564 , 3792.30769231 , 3585.64102564 , 3787.69230769 , 4126.15384615 , 4118.97435897 , 4096.41025641 , 4122.56410256 , 4072.82051282 , 4135.8974359 , 3945.12820513 , 3955.8974359 , 3927.69230769 , 3889.23076923 , 2038.0 , 2055.0 , 65.757 , 0.0 , 0.0 , 0.0 , 0.0 , 

61.0 , 4109.74358974 , 3804.1025641 , 3586.66666667 , 3792.82051282 , 4124.1025641 , 4117.94871795 , 4095.8974359 , 4121.02564103 , 4077.94871795 , 4136.41025641 , 3946.66666667 , 3956.92307692 , 3930.76923077 , 3888.71794872 , 2039.0 , 2058.0 , 65.762 , 0.0 , 0.0 , 0.0 , 0.0 , 

62.0 , 4113.84615385 , 3843.58974359 , 3625.12820513 , 3816.41025641 , 4124.1025641 , 4116.92307692 , 4098.46153846 , 4122.56410256 , 4096.92307692 , 4135.8974359 , 3966.66666667 , 3970.76923077 , 3954.35897436 , 3913.84615385 , 2040.0 , 2056.0 , 65.774 , 0.0 , 0.0 , 0.0 , 0.0 , 

63.0 , 4113.84615385 , 3874.35897436 , 3661.02564103 , 3836.41025641 , 4125.64102564 , 4116.41025641 , 4095.8974359 , 4124.1025641 , 4112.82051282 , 4134.87179487 , 3989.74358974 , 3977.94871795 , 3985.12820513 , 3942.56410256 , 2040.0 , 2056.0 , 65.778 , 0.0 , 0.0 , 0.0 , 0.0 , 

64.0 , 4113.33333333 , 3853.33333333 , 3641.53846154 , 3824.61538462 , 4126.15384615 , 4113.84615385 , 4095.38461538 , 4121.53846154 , 4103.58974359 , 4134.87179487 , 3983.58974359 , 3968.20512821 , 3972.30769231 , 3931.79487179 , 2040.0 , 2046.0 , 65.787 , 0.0 , 0.0 , 0.0 , 0.0 , 

65.0 , 4117.94871795 , 3898.46153846 , 3670.76923077 , 3846.66666667 , 4124.61538462 , 4115.38461538 , 4105.12820513 , 4121.53846154 , 4114.87179487 , 4134.87179487 , 3995.38461538 , 3973.33333333 , 3993.84615385 , 3952.30769231 , 2038.0 , 2043.0 , 65.793 , 0.0 , 0.0 , 0.0 , 0.0 , 

66.0 , 4116.92307692 , 3968.71794872 , 3728.71794872 , 3880.51282051 , 4124.1025641 , 4120.51282051 , 4110.76923077 , 4123.07692308 , 4125.64102564 , 4135.38461538 , 4020.51282051 , 3988.71794872 , 4041.53846154 , 3995.38461538 , 2036.0 , 2043.0 , 65.804 , 0.0 , 0.0 , 0.0 , 0.0 , 

67.0 , 4107.17948718 , 3914.35897436 , 3683.07692308 , 3846.15384615 , 4123.58974359 , 4120.0 , 4105.12820513 , 4124.61538462 , 4094.35897436 , 4134.35897436 , 3994.87179487 , 3978.46153846 , 4001.53846154 , 3962.05128205 , 2032.0 , 2042.0 , 65.809 , 0.0 , 0.0 , 0.0 , 0.0 , 

68.0 , 4105.12820513 , 3859.48717949 , 3642.56410256 , 3818.46153846 , 4123.58974359 , 4118.46153846 , 4101.53846154 , 4126.15384615 , 4083.58974359 , 4134.87179487 , 3970.76923077 , 3963.07692308 , 3958.97435897 , 3926.66666667 , 2032.0 , 2045.0 , 65.82 , 0.0 , 0.0 , 0.0 , 0.0 , 

69.0 , 4110.76923077 , 3869.23076923 , 3661.53846154 , 3828.71794872 , 4124.61538462 , 4120.0 , 4104.1025641 , 4124.1025641 , 4095.38461538 , 4136.92307692 , 3976.92307692 , 3965.12820513 , 3970.76923077 , 3939.48717949 , 2031.0 , 2048.0 , 65.825 , 0.0 , 0.0 , 0.0 , 0.0 , 

70.0 , 4109.23076923 , 3837.94871795 , 3631.79487179 , 3815.38461538 , 4124.1025641 , 4118.46153846 , 4096.92307692 , 4119.48717949 , 4085.64102564 , 4136.41025641 , 3964.61538462 , 3962.05128205 , 3952.30769231 , 3925.64102564 , 2033.0 , 2051.0 , 65.835 , 0.0 , 0.0 , 0.0 , 0.0 , 

71.0 , 4106.15384615 , 3795.8974359 , 3583.07692308 , 3793.33333333 , 4124.61538462 , 4117.43589744 , 4090.25641026 , 4121.53846154 , 4068.71794872 , 4134.87179487 , 3944.61538462 , 3951.79487179 , 3915.38461538 , 3889.74358974 , 2031.0 , 2046.0 , 65.841 , 0.0 , 0.0 , 0.0 , 0.0 , 

72.0 , 4108.20512821 , 3852.82051282 , 3631.28205128 , 3823.07692308 , 4124.61538462 , 4118.97435897 , 4095.8974359 , 4126.66666667 , 4091.79487179 , 4135.8974359 , 3969.23076923 , 3964.1025641 , 3952.82051282 , 3916.41025641 , 2032.0 , 2045.0 , 65.85 , 0.0 , 0.0 , 0.0 , 0.0 , 

73.0 , 4110.25641026 , 3921.02564103 , 3704.1025641 , 3862.05128205 , 4122.05128205 , 4117.94871795 , 4100.0 , 4125.12820513 , 4124.61538462 , 4136.41025641 , 4005.12820513 , 3983.07692308 , 4010.25641026 , 3966.15384615 , 2032.0 , 2043.0 , 65.858 , 0.0 , 0.0 , 0.0 , 0.0 , 

74.0 , 4110.25641026 , 3914.35897436 , 3704.61538462 , 3861.02564103 , 4122.56410256 , 4116.92307692 , 4096.41025641 , 4121.53846154 , 4124.61538462 , 4135.8974359 , 4006.15384615 , 3977.43589744 , 4007.17948718 , 3967.17948718 , 2034.0 , 2042.0 , 65.866 , 0.0 , 0.0 , 0.0 , 0.0 , 

75.0 , 4110.76923077 , 3922.05128205 , 3705.12820513 , 3861.53846154 , 4126.15384615 , 4121.53846154 , 4099.48717949 , 4121.53846154 , 4110.76923077 , 4136.41025641 , 4002.05128205 , 3974.35897436 , 3998.97435897 , 3961.53846154 , 2033.0 , 2043.0 , 65.875 , 0.0 , 0.0 , 0.0 , 0.0 , 

76.0 , 4108.71794872 , 3951.79487179 , 3733.84615385 , 3869.23076923 , 4124.1025641 , 4121.53846154 , 4105.12820513 , 4123.07692308 , 4107.69230769 , 4135.8974359 , 4008.20512821 , 3984.61538462 , 4014.35897436 , 3974.35897436 , 2030.0 , 2043.0 , 65.88 , 0.0 , 0.0 , 0.0 , 0.0 , 

77.0 , 4109.74358974 , 3932.30769231 , 3721.02564103 , 3857.94871795 , 4123.58974359 , 4117.94871795 , 4103.07692308 , 4123.07692308 , 4101.53846154 , 4134.35897436 , 4000.51282051 , 3988.20512821 , 4004.1025641 , 3967.69230769 , 2030.0 , 2044.0 , 65.891 , 0.0 , 0.0 , 0.0 , 0.0 , 

78.0 , 4107.69230769 , 3830.25641026 , 3620.51282051 , 3804.1025641 , 4128.71794872 , 4115.8974359 , 4093.33333333 , 4121.02564103 , 4063.07692308 , 4134.87179487 , 3954.87179487 , 3965.64102564 , 3931.28205128 , 3908.20512821 , 2029.0 , 2046.0 , 65.896 , 0.0 , 0.0 , 0.0 , 0.0 , 

79.0 , 4108.71794872 , 3837.43589744 , 3614.87179487 , 3811.28205128 , 4127.69230769 , 4118.46153846 , 4098.46153846 , 4121.53846154 , 4076.92307692 , 4134.87179487 , 3956.92307692 , 3966.15384615 , 3930.76923077 , 3910.25641026 , 2029.0 , 2045.0 , 65.907 , 0.0 , 0.0 , 0.0 , 0.0 , 

80.0 , 4115.38461538 , 4013.33333333 , 3769.74358974 , 3911.79487179 , 4124.1025641 , 4118.97435897 , 4108.20512821 , 4124.1025641 , 4156.41025641 , 4135.38461538 , 4036.41025641 , 4003.58974359 , 4054.87179487 , 4016.41025641 , 2030.0 , 2045.0 , 65.913 , 0.0 , 0.0 , 0.0 , 0.0 , 

81.0 , 4116.92307692 , 4003.07692308 , 3756.41025641 , 3901.02564103 , 4125.12820513 , 4117.43589744 , 4100.0 , 4124.61538462 , 4134.35897436 , 4136.92307692 , 4033.33333333 , 4001.53846154 , 4054.87179487 , 4018.97435897 , 2028.0 , 2045.0 , 65.922 , 0.0 , 0.0 , 0.0 , 0.0 , 

82.0 , 4109.74358974 , 3823.58974359 , 3579.48717949 , 3793.84615385 , 4125.12820513 , 4117.94871795 , 4093.33333333 , 4121.53846154 , 4046.15384615 , 4136.92307692 , 3950.25641026 , 3963.07692308 , 3926.66666667 , 3912.30769231 , 2029.0 , 2044.0 , 65.927 , 0.0 , 0.0 , 0.0 , 0.0 , 

83.0 , 4108.20512821 , 3828.20512821 , 3575.8974359 , 3801.53846154 , 4124.1025641 , 4119.48717949 , 4104.61538462 , 4121.53846154 , 4067.69230769 , 4136.41025641 , 3949.74358974 , 3964.1025641 , 3924.61538462 , 3909.74358974 , 2029.0 , 2040.0 , 65.941 , 0.0 , 0.0 , 0.0 , 0.0 , 

84.0 , 4113.84615385 , 3981.02564103 , 3723.07692308 , 3892.82051282 , 4122.56410256 , 4119.48717949 , 4109.23076923 , 4124.61538462 , 4144.1025641 , 4135.8974359 , 4023.58974359 , 3998.97435897 , 4036.41025641 , 4012.30769231 , 2031.0 , 2037.0 , 65.944 , 0.0 , 0.0 , 0.0 , 0.0 , 

85.0 , 4115.38461538 , 4024.61538462 , 3768.71794872 , 3908.71794872 , 4123.07692308 , 4117.94871795 , 4102.56410256 , 4122.56410256 , 4136.92307692 , 4134.87179487 , 4042.05128205 , 4009.23076923 , 4065.64102564 , 4061.02564103 , 2031.0 , 2029.0 , 65.954 , 0.0 , 0.0 , 0.0 , 0.0 , 

86.0 , 4115.8974359 , 4033.84615385 , 3774.87179487 , 3907.17948718 , 4124.1025641 , 4118.97435897 , 4105.12820513 , 4121.53846154 , 4114.87179487 , 4134.87179487 , 4036.92307692 , 4011.28205128 , 4059.48717949 , 4086.15384615 , 2030.0 , 2026.0 , 65.959 , 0.0 , 0.0 , 0.0 , 0.0 , 

87.0 , 4117.94871795 , 4044.1025641 , 3797.43589744 , 3911.79487179 , 4124.1025641 , 4122.05128205 , 4105.64102564 , 4123.07692308 , 4122.05128205 , 4135.8974359 , 4042.05128205 , 4015.8974359 , 4064.1025641 , 4120.0 , 2031.0 , 2025.0 , 65.97 , 0.0 , 0.0 , 0.0 , 0.0 , 

88.0 , 4118.46153846 , 4032.30769231 , 3810.76923077 , 3901.02564103 , 4124.1025641 , 4124.1025641 , 4103.07692308 , 4124.61538462 , 4123.58974359 , 4134.87179487 , 4040.0 , 4015.38461538 , 4062.05128205 , 4151.28205128 , 2036.0 , 2026.0 , 65.976 , 0.0 , 0.0 , 0.0 , 0.0 , 

89.0 , 4116.41025641 , 4000.0 , 3789.74358974 , 3876.41025641 , 4125.64102564 , 4121.53846154 , 4103.58974359 , 4124.61538462 , 4098.46153846 , 4134.87179487 , 4017.94871795 , 4009.23076923 , 4034.87179487 , 4163.58974359 , 2037.0 , 2030.0 , 65.985 , 0.0 , 0.0 , 0.0 , 0.0 , 

90.0 , 4118.46153846 , 3950.25641026 , 3747.69230769 , 3850.76923077 , 4124.61538462 , 4116.92307692 , 4102.56410256 , 4125.12820513 , 4078.97435897 , 4135.8974359 , 3993.33333333 , 4001.02564103 , 3992.30769231 , 4153.33333333 , 2040.0 , 2037.0 , 65.991 , 0.0 , 0.0 , 0.0 , 0.0 , 

91.0 , 4123.58974359 , 4029.23076923 , 3826.66666667 , 3902.05128205 , 4122.56410256 , 4114.87179487 , 4101.02564103 , 4125.12820513 , 4119.48717949 , 4134.87179487 , 4032.30769231 , 4019.48717949 , 4045.64102564 , 4211.79487179 , 2042.0 , 2043.0 , 66.0 , 0.0 , 0.0 , 0.0 , 0.0 , 

92.0 , 4123.58974359 , 4064.1025641 , 3860.51282051 , 3920.51282051 , 4124.1025641 , 4116.92307692 , 4097.43589744 , 4123.58974359 , 4118.97435897 , 4133.84615385 , 4044.61538462 , 4024.1025641 , 4067.17948718 , 4240.0 , 2047.0 , 2049.0 , 66.007 , 0.0 , 0.0 , 0.0 , 0.0 , 

93.0 , 4120.51282051 , 4014.35897436 , 3814.87179487 , 3893.84615385 , 4122.56410256 , 4118.97435897 , 4097.94871795 , 4122.05128205 , 4098.97435897 , 4135.38461538 , 4023.07692308 , 4013.33333333 , 4029.23076923 , 4213.84615385 , 2046.0 , 2052.0 , 66.015 , 0.0 , 0.0 , 0.0 , 0.0 , 

94.0 , 4125.64102564 , 4123.07692308 , 3917.43589744 , 3960.0 , 4121.02564103 , 4120.0 , 4107.17948718 , 4123.58974359 , 4158.46153846 , 4136.41025641 , 4078.46153846 , 4038.97435897 , 4108.71794872 , 4284.1025641 , 2047.0 , 2052.0 , 66.024 , 0.0 , 0.0 , 0.0 , 0.0 , 

95.0 , 4127.17948718 , 4188.71794872 , 3969.23076923 , 3986.15384615 , 4123.07692308 , 4118.46153846 , 4103.07692308 , 4123.58974359 , 4166.15384615 , 4135.8974359 , 4104.1025641 , 4045.12820513 , 4157.94871795 , 4326.66666667 , 2046.0 , 2052.0 , 66.03 , 0.0 , 0.0 , 0.0 , 0.0 , 

96.0 , 4118.97435897 , 4001.02564103 , 3779.48717949 , 3869.23076923 , 4122.56410256 , 4118.46153846 , 4091.28205128 , 4120.51282051 , 4068.71794872 , 4135.8974359 , 4013.33333333 , 3998.46153846 , 4022.56410256 , 4208.71794872 , 2043.0 , 2054.0 , 66.04 , 0.0 , 0.0 , 0.0 , 0.0 , 

97.0 , 4111.79487179 , 3902.05128205 , 3682.56410256 , 3822.05128205 , 4120.51282051 , 4119.48717949 , 4099.48717949 , 4123.07692308 , 4050.25641026 , 4135.8974359 , 3968.71794872 , 3978.97435897 , 3948.20512821 , 4136.41025641 , 2041.0 , 2054.0 , 66.045 , 0.0 , 0.0 , 0.0 , 0.0 , 

98.0 , 4117.43589744 , 4057.94871795 , 3828.20512821 , 3920.0 , 4122.05128205 , 4122.05128205 , 4112.82051282 , 4127.69230769 , 4128.20512821 , 4135.8974359 , 4037.43589744 , 4013.33333333 , 4051.28205128 , 4223.07692308 , 2040.0 , 2054.0 , 66.057 , 0.0 , 0.0 , 0.0 , 0.0 , 

99.0 , 4124.1025641 , 4124.1025641 , 3890.76923077 , 3953.84615385 , 4127.17948718 , 4121.02564103 , 4107.17948718 , 4122.56410256 , 4137.94871795 , 4135.8974359 , 4067.17948718 , 4025.64102564 , 4098.46153846 , 4271.28205128 , 2038.0 , 2054.0 , 66.061 , 0.0 , 0.0 , 0.0 , 0.0 , 

100.0 , 4125.12820513 , 4069.74358974 , 3839.48717949 , 3920.0 , 4127.69230769 , 4118.97435897 , 4103.58974359 , 4119.48717949 , 4106.15384615 , 4135.8974359 , 4046.66666667 , 4012.30769231 , 4067.69230769 , 4250.76923077 , 2039.0 , 2053.0 , 66.072 , 0.0 , 0.0 , 0.0 , 0.0 , 

101.0 , 4121.53846154 , 4081.02564103 , 3840.51282051 , 3927.69230769 , 4123.07692308 , 4118.97435897 , 4108.71794872 , 4122.05128205 , 4115.38461538 , 4135.8974359 , 4052.82051282 , 4017.43589744 , 4072.82051282 , 4254.35897436 , 2041.0 , 2050.0 , 66.077 , 0.0 , 0.0 , 0.0 , 0.0 , 

102.0 , 4123.07692308 , 4112.30769231 , 3859.48717949 , 3946.15384615 , 4122.56410256 , 4120.51282051 , 4107.69230769 , 4122.05128205 , 4130.76923077 , 4135.8974359 , 4064.61538462 , 4031.79487179 , 4094.35897436 , 4268.71794872 , 2043.0 , 2050.0 , 66.087 , 0.0 , 0.0 , 0.0 , 0.0 , 

103.0 , 4126.66666667 , 4084.1025641 , 3830.25641026 , 3927.69230769 , 4125.12820513 , 4121.02564103 , 4106.15384615 , 4122.05128205 , 4113.84615385 , 4135.8974359 , 4049.74358974 , 4031.28205128 , 4080.0 , 4260.0 , 2045.0 , 2047.0 , 66.094 , 0.0 , 0.0 , 0.0 , 0.0 , 

104.0 , 4122.56410256 , 4030.25641026 , 3774.87179487 , 3889.74358974 , 4123.58974359 , 4117.94871795 , 4106.66666667 , 4123.58974359 , 4088.71794872 , 4135.8974359 , 4020.51282051 , 4014.35897436 , 4034.35897436 , 4230.25641026 , 2045.0 , 2043.0 , 66.104 , 0.0 , 0.0 , 0.0 , 0.0 , 

105.0 , 4120.51282051 , 4072.30769231 , 3801.53846154 , 3908.20512821 , 4124.61538462 , 4116.92307692 , 4106.66666667 , 4120.0 , 4108.71794872 , 4135.8974359 , 4039.48717949 , 4021.53846154 , 4054.87179487 , 4249.74358974 , 2045.0 , 2043.0 , 66.109 , 0.0 , 0.0 , 0.0 , 0.0 , 

106.0 , 4124.61538462 , 4144.61538462 , 3864.1025641 , 3952.30769231 , 4128.20512821 , 4117.43589744 , 4109.74358974 , 4118.97435897 , 4146.66666667 , 4135.8974359 , 4079.48717949 , 4041.53846154 , 4120.51282051 , 4302.56410256 , 2044.0 , 2041.0 , 66.119 , 0.0 , 0.0 , 0.0 , 0.0 , 

107.0 , 4126.66666667 , 4170.76923077 , 3890.25641026 , 3971.28205128 , 4124.61538462 , 4117.43589744 , 4114.35897436 , 4124.61538462 , 4158.46153846 , 4135.8974359 , 4093.84615385 , 4048.71794872 , 4147.17948718 , 4328.20512821 , 2044.0 , 2041.0 , 66.125 , 0.0 , 0.0 , 0.0 , 0.0 , 

108.0 , 4122.05128205 , 4134.87179487 , 3860.0 , 3947.69230769 , 4121.53846154 , 4117.43589744 , 4112.30769231 , 4124.1025641 , 4128.71794872 , 4135.8974359 , 4074.35897436 , 4040.0 , 4113.33333333 , 4306.15384615 , 2045.0 , 2044.0 , 66.135 , 0.0 , 0.0 , 0.0 , 0.0 , 

109.0 , 4121.02564103 , 4035.8974359 , 3774.35897436 , 3891.28205128 , 4124.1025641 , 4120.0 , 4109.23076923 , 4120.51282051 , 4086.15384615 , 4135.8974359 , 4035.8974359 , 4021.02564103 , 4049.23076923 , 4255.8974359 , 2047.0 , 2047.0 , 66.141 , 0.0 , 0.0 , 0.0 , 0.0 , 

110.0 , 4122.56410256 , 4053.33333333 , 3783.07692308 , 3904.1025641 , 4125.64102564 , 4121.53846154 , 4109.74358974 , 4123.07692308 , 4113.33333333 , 4135.8974359 , 4049.74358974 , 4027.69230769 , 4066.15384615 , 4273.33333333 , 2048.0 , 2047.0 , 66.15 , 0.0 , 0.0 , 0.0 , 0.0 , 

111.0 , 4124.1025641 , 4135.38461538 , 3848.20512821 , 3949.23076923 , 4122.56410256 , 4117.94871795 , 4110.25641026 , 4126.15384615 , 4145.64102564 , 4135.38461538 , 4082.56410256 , 4048.20512821 , 4117.43589744 , 4315.8974359 , 2054.0 , 2046.0 , 66.159 , 0.0 , 0.0 , 0.0 , 0.0 , 

112.0 , 4123.07692308 , 4071.79487179 , 3793.33333333 , 3913.33333333 , 4120.51282051 , 4116.41025641 , 4105.12820513 , 4125.64102564 , 4109.23076923 , 4134.35897436 , 4052.82051282 , 4033.33333333 , 4076.92307692 , 4275.38461538 , 2055.0 , 2044.0 , 66.167 , 0.0 , 0.0 , 0.0 , 0.0 , 

113.0 , 4123.58974359 , 4027.17948718 , 3753.33333333 , 3891.28205128 , 4123.07692308 , 4121.02564103 , 4104.1025641 , 4125.12820513 , 4104.1025641 , 4133.84615385 , 4036.41025641 , 4021.53846154 , 4048.71794872 , 4250.25641026 , 2051.0 , 2040.0 , 66.174 , 0.0 , 0.0 , 0.0 , 0.0 , 

114.0 , 4122.56410256 , 4114.35897436 , 3821.53846154 , 3935.38461538 , 4124.61538462 , 4120.51282051 , 4107.69230769 , 4123.58974359 , 4142.56410256 , 4134.87179487 , 4078.97435897 , 4038.97435897 , 4104.61538462 , 4300.0 , 2050.0 , 2040.0 , 66.18 , 0.0 , 0.0 , 0.0 , 0.0 , 

115.0 , 4121.02564103 , 4113.84615385 , 3816.92307692 , 3932.82051282 , 4124.1025641 , 4118.46153846 , 4108.71794872 , 4122.05128205 , 4125.64102564 , 4136.92307692 , 4081.02564103 , 4038.97435897 , 4110.76923077 , 4303.07692308 , 2048.0 , 2041.0 , 66.19 , 0.0 , 0.0 , 0.0 , 0.0 , 

116.0 , 4120.51282051 , 4043.58974359 , 3754.35897436 , 3897.43589744 , 4122.56410256 , 4121.02564103 , 4109.23076923 , 4123.07692308 , 4093.33333333 , 4136.92307692 , 4047.17948718 , 4020.0 , 4064.61538462 , 4262.05128205 , 2048.0 , 2039.0 , 66.196 , 0.0 , 0.0 , 0.0 , 0.0 , 

117.0 , 4120.51282051 , 4049.23076923 , 3758.97435897 , 3902.05128205 , 4122.56410256 , 4124.1025641 , 4112.82051282 , 4123.58974359 , 4100.51282051 , 4135.8974359 , 4042.05128205 , 4020.51282051 , 4052.30769231 , 4260.51282051 , 2047.0 , 2037.0 , 66.206 , 0.0 , 0.0 , 0.0 , 0.0 , 

118.0 , 4118.46153846 , 4097.94871795 , 3809.23076923 , 3932.82051282 , 4125.12820513 , 4121.53846154 , 4116.41025641 , 4122.56410256 , 4125.12820513 , 4135.8974359 , 4068.71794872 , 4034.87179487 , 4085.64102564 , 4295.38461538 , 2045.0 , 2036.0 , 66.212 , 0.0 , 0.0 , 0.0 , 0.0 , 

119.0 , 4120.51282051 , 4122.05128205 , 3834.87179487 , 3947.69230769 , 4125.12820513 , 4118.46153846 , 4115.38461538 , 4123.58974359 , 4134.35897436 , 4136.41025641 , 4089.23076923 , 4041.53846154 , 4122.05128205 , 4322.56410256 , 2044.0 , 2035.0 , 66.222 , 0.0 , 0.0 , 0.0 , 0.0 , 

120.0 , 4123.58974359 , 4102.05128205 , 3804.1025641 , 3929.74358974 , 4123.07692308 , 4116.92307692 , 4110.25641026 , 4125.64102564 , 4120.51282051 , 4135.38461538 , 4076.41025641 , 4037.43589744 , 4107.17948718 , 4305.64102564 , 2045.0 , 2035.0 , 66.228 , 0.0 , 0.0 , 0.0 , 0.0 , 

121.0 , 4120.0 , 4100.51282051 , 3785.12820513 , 3923.58974359 , 4123.58974359 , 4115.8974359 , 4109.23076923 , 4126.15384615 , 4121.02564103 , 4134.35897436 , 4068.71794872 , 4037.94871795 , 4089.74358974 , 4287.69230769 , 2046.0 , 2035.0 , 66.239 , 0.0 , 0.0 , 0.0 , 0.0 , 

122.0 , 4117.43589744 , 4097.94871795 , 3777.43589744 , 3924.1025641 , 4125.64102564 , 4116.41025641 , 4109.74358974 , 4123.58974359 , 4124.1025641 , 4134.35897436 , 4069.74358974 , 4038.46153846 , 4088.20512821 , 4283.58974359 , 2048.0 , 2033.0 , 66.243 , 0.0 , 0.0 , 0.0 , 0.0 , 

123.0 , 4117.43589744 , 4063.58974359 , 3753.33333333 , 3909.23076923 , 4123.07692308 , 4116.41025641 , 4109.23076923 , 4122.05128205 , 4118.97435897 , 4134.35897436 , 4062.05128205 , 4029.74358974 , 4077.43589744 , 4269.23076923 , 2046.0 , 2033.0 , 66.252 , 0.0 , 0.0 , 0.0 , 0.0 , 

124.0 , 4117.94871795 , 4090.25641026 , 3778.46153846 , 3928.20512821 , 4122.05128205 , 4116.92307692 , 4111.28205128 , 4124.1025641 , 4138.97435897 , 4134.35897436 , 4077.43589744 , 4035.38461538 , 4102.05128205 , 4285.12820513 , 2045.0 , 2033.0 , 66.259 , 0.0 , 0.0 , 0.0 , 0.0 , 

125.0 , 4116.41025641 , 4146.15384615 , 3815.8974359 , 3955.8974359 , 4123.58974359 , 4118.46153846 , 4110.25641026 , 4124.1025641 , 4148.20512821 , 4134.35897436 , 4095.8974359 , 4046.66666667 , 4132.30769231 , 4309.23076923 , 2045.0 , 2031.0 , 66.269 , 0.0 , 0.0 , 0.0 , 0.0 , 

126.0 , 4111.28205128 , 4068.20512821 , 3734.87179487 , 3907.17948718 , 4119.48717949 , 4117.94871795 , 4103.07692308 , 4123.58974359 , 4100.51282051 , 4134.35897436 , 4054.35897436 , 4027.69230769 , 4073.33333333 , 4249.23076923 , 2044.0 , 2028.0 , 66.275 , 0.0 , 0.0 , 0.0 , 0.0 , 

127.0 , 4109.74358974 , 4010.76923077 , 3682.56410256 , 3881.53846154 , 4117.43589744 , 4116.41025641 , 4105.12820513 , 4126.66666667 , 4095.8974359 , 4134.35897436 , 4034.35897436 , 4013.33333333 , 4048.20512821 , 4199.48717949 , 2043.0 , 2021.0 , 66.284 , 0.0 , 0.0 , 0.0 , 0.0 , 

128.0 , 4116.92307692 , 4110.76923077 , 3767.17948718 , 3940.51282051 , 4123.58974359 , 4117.43589744 , 4114.35897436 , 4127.69230769 , 4152.30769231 , 4134.87179487 , 4086.15384615 , 4034.35897436 , 4125.64102564 , 4241.02564103 , 2043.0 , 2017.0 , 66.292 , 0.0 , 0.0 , 0.0 , 0.0 , 

0.0 , 4116.41025641 , 4138.97435897 , 3776.41025641 , 3948.20512821 , 4124.61538462 , 4116.92307692 , 4109.74358974 , 4125.12820513 , 4149.23076923 , 4135.8974359 , 4095.38461538 , 4040.0 , 4131.28205128 , 4238.97435897 , 2044.0 , 2016.0 , 66.3 , 0.0 , 0.0 , 0.0 , 0.0 , 

1.0 , 4108.71794872 , 4054.35897436 , 3681.53846154 , 3898.97435897 , 4120.51282051 , 4115.8974359 , 4102.56410256 , 4123.58974359 , 4107.17948718 , 4136.41025641 , 4052.30769231 , 4021.53846154 , 4064.61538462 , 4169.74358974 , 2045.0 , 2018.0 , 66.308 , 0.0 , 0.0 , 0.0 , 0.0 , 

2.0 , 4104.1025641 , 4004.1025641 , 3615.8974359 , 3872.82051282 , 4119.48717949 , 4115.38461538 , 4103.58974359 , 4122.05128205 , 4094.35897436 , 4135.8974359 , 4028.71794872 , 4009.74358974 , 4036.92307692 , 4117.43589744 , 2047.0 , 2021.0 , 66.314 , 0.0 , 0.0 , 0.0 , 0.0 , 

3.0 , 4106.66666667 , 4026.66666667 , 3623.07692308 , 3883.07692308 , 4121.02564103 , 4115.8974359 , 4106.66666667 , 4123.07692308 , 4117.43589744 , 4135.8974359 , 4043.07692308 , 4015.38461538 , 4060.51282051 , 4111.28205128 , 2046.0 , 2024.0 , 66.324 , 0.0 , 0.0 , 0.0 , 0.0 , 

4.0 , 4104.61538462 , 4081.53846154 , 3672.82051282 , 3912.30769231 , 4116.92307692 , 4114.35897436 , 4106.15384615 , 4125.64102564 , 4150.25641026 , 4135.8974359 , 4074.87179487 , 4029.74358974 , 4104.61538462 , 4133.33333333 , 2047.0 , 2024.0 , 66.33 , 0.0 , 0.0 , 0.0 , 0.0 , 

5.0 , 4101.53846154 , 4083.58974359 , 3669.23076923 , 3916.41025641 , 4112.82051282 , 4113.33333333 , 4104.1025641 , 4124.1025641 , 4147.69230769 , 4135.8974359 , 4076.41025641 , 4029.23076923 , 4104.61538462 , 4121.02564103 , 2046.0 , 2024.0 , 66.34 , 0.0 , 0.0 , 0.0 , 0.0 , 

6.0 , 4100.51282051 , 4012.82051282 , 3585.64102564 , 3876.41025641 , 4116.41025641 , 4113.33333333 , 4100.0 , 4121.02564103 , 4115.38461538 , 4135.8974359 , 4042.05128205 , 4010.25641026 , 4052.82051282 , 4053.33333333 , 2045.0 , 2023.0 , 66.345 , 0.0 , 0.0 , 0.0 , 0.0 , 

7.0 , 4098.97435897 , 3969.23076923 , 3529.23076923 , 3846.66666667 , 4121.02564103 , 4114.35897436 , 4098.46153846 , 4122.56410256 , 4102.56410256 , 4135.8974359 , 4022.56410256 , 4003.07692308 , 4026.66666667 , 4006.66666667 , 2044.0 , 2023.0 , 66.356 , 0.0 , 0.0 , 0.0 , 0.0 , 

8.0 , 4092.82051282 , 4015.8974359 , 3562.56410256 , 3873.84615385 , 4121.53846154 , 4114.35897436 , 4103.58974359 , 4124.1025641 , 4123.07692308 , 4135.8974359 , 4041.02564103 , 4012.82051282 , 4053.33333333 , 4017.43589744 , 2044.0 , 2024.0 , 66.363 , 0.0 , 0.0 , 0.0 , 0.0 , 

9.0 , 4089.74358974 , 4054.87179487 , 3593.33333333 , 3900.0 , 4120.0 , 4114.35897436 , 4107.69230769 , 4123.58974359 , 4133.84615385 , 4135.8974359 , 4057.43589744 , 4016.41025641 , 4073.33333333 , 4026.66666667 , 2043.0 , 2030.0 , 66.372 , 0.0 , 0.0 , 0.0 , 0.0 , 

10.0 , 4095.38461538 , 4034.87179487 , 3566.15384615 , 3884.61538462 , 4122.56410256 , 4115.38461538 , 4105.64102564 , 4121.53846154 , 4128.71794872 , 4135.8974359 , 4050.25641026 , 4008.20512821 , 4065.64102564 , 4007.17948718 , 2045.0 , 2033.0 , 66.377 , 0.0 , 0.0 , 0.0 , 0.0 , 

11.0 , 4100.0 , 4021.53846154 , 3542.05128205 , 3874.35897436 , 4125.12820513 , 4115.8974359 , 4104.61538462 , 4121.02564103 , 4126.15384615 , 4135.8974359 , 4044.1025641 , 4003.07692308 , 4058.46153846 , 3992.82051282 , 2046.0 , 2037.0 , 66.387 , 0.0 , 0.0 , 0.0 , 0.0 , 

12.0 , 4099.48717949 , 4048.71794872 , 3558.46153846 , 3892.82051282 , 4123.07692308 , 4115.38461538 , 4109.74358974 , 4122.56410256 , 4135.38461538 , 4134.87179487 , 4058.97435897 , 4009.74358974 , 4078.97435897 , 4003.58974359 , 2050.0 , 2039.0 , 66.393 , 0.0 , 0.0 , 0.0 , 0.0 , 

13.0 , 4097.43589744 , 4058.97435897 , 3557.43589744 , 3896.41025641 , 4119.48717949 , 4112.82051282 , 4109.74358974 , 4121.53846154 , 4140.0 , 4134.35897436 , 4067.17948718 , 4013.33333333 , 4095.8974359 , 4007.17948718 , 2053.0 , 2037.0 , 66.403 , 0.0 , 0.0 , 0.0 , 0.0 , 

14.0 , 4095.38461538 , 3981.02564103 , 3470.76923077 , 3852.30769231 , 4118.97435897 , 4111.28205128 , 4105.12820513 , 4120.51282051 , 4107.17948718 , 4134.87179487 , 4030.76923077 , 3995.38461538 , 4042.05128205 , 3954.35897436 , 2054.0 , 2030.0 , 66.409 , 0.0 , 0.0 , 0.0 , 0.0 , 

15.0 , 4093.84615385 , 3952.30769231 , 3432.30769231 , 3840.0 , 4119.48717949 , 4112.82051282 , 4109.74358974 , 4122.56410256 , 4104.61538462 , 4136.41025641 , 4019.48717949 , 3985.12820513 , 4017.94871795 , 3927.17948718 , 2054.0 , 2027.0 , 66.418 , 0.0 , 0.0 , 0.0 , 0.0 , 

16.0 , 4099.48717949 , 4071.79487179 , 3535.38461538 , 3904.1025641 , 4117.94871795 , 4116.92307692 , 4119.48717949 , 4125.12820513 , 4160.51282051 , 4137.43589744 , 4077.43589744 , 4012.30769231 , 4104.61538462 , 3997.43589744 , 2053.0 , 2022.0 , 66.425 , 0.0 , 0.0 , 0.0 , 0.0 , 

17.0 , 4102.05128205 , 4121.02564103 , 3573.33333333 , 3920.51282051 , 4117.43589744 , 4116.92307692 , 4118.46153846 , 4124.1025641 , 4157.94871795 , 4137.43589744 , 4093.33333333 , 4022.05128205 , 4134.87179487 , 4021.02564103 , 2052.0 , 2024.0 , 66.434 , 0.0 , 0.0 , 0.0 , 0.0 , 

18.0 , 4100.51282051 , 4077.43589744 , 3531.28205128 , 3890.25641026 , 4119.48717949 , 4116.92307692 , 4118.97435897 , 4125.64102564 , 4129.23076923 , 4137.43589744 , 4068.71794872 , 4009.23076923 , 4095.38461538 , 3985.12820513 , 2052.0 , 2026.0 , 66.442 , 0.0 , 0.0 , 0.0 , 0.0 , 

19.0 , 4103.07692308 , 4147.17948718 , 3598.46153846 , 3930.76923077 , 4121.02564103 , 4117.94871795 , 4126.15384615 , 4130.25641026 , 4177.43589744 , 4137.43589744 , 4107.69230769 , 4026.15384615 , 4152.30769231 , 4031.79487179 , 2051.0 , 2036.0 , 66.448 , 0.0 , 0.0 , 0.0 , 0.0 , 

20.0 , 4108.71794872 , 4228.20512821 , 3663.58974359 , 3973.33333333 , 4123.07692308 , 4118.46153846 , 4129.23076923 , 4130.25641026 , 4207.17948718 , 4137.43589744 , 4146.15384615 , 4051.28205128 , 4212.30769231 , 4089.23076923 , 2050.0 , 2040.0 , 66.458 , 0.0 , 0.0 , 0.0 , 0.0 , 

21.0 , 4107.17948718 , 4224.1025641 , 3640.51282051 , 3958.97435897 , 4123.07692308 , 4117.94871795 , 4122.05128205 , 4126.66666667 , 4183.07692308 , 4137.43589744 , 4136.41025641 , 4049.74358974 , 4197.43589744 , 4086.15384615 , 2051.0 , 2047.0 , 66.464 , 0.0 , 0.0 , 0.0 , 0.0 , 

22.0 , 4107.69230769 , 4269.23076923 , 3671.28205128 , 3980.51282051 , 4123.58974359 , 4117.94871795 , 4120.0 , 4127.17948718 , 4204.1025641 , 4135.8974359 , 4155.8974359 , 4053.33333333 , 4227.17948718 , 4114.35897436 , 2051.0 , 2047.0 , 66.474 , 0.0 , 0.0 , 0.0 , 0.0 , 

23.0 , 4110.25641026 , 4271.79487179 , 3673.33333333 , 3985.64102564 , 4125.12820513 , 4115.38461538 , 4120.51282051 , 4126.66666667 , 4203.07692308 , 4133.33333333 , 4158.97435897 , 4054.87179487 , 4238.46153846 , 4120.0 , 2048.0 , 2048.0 , 66.48 , 0.0 , 0.0 , 0.0 , 0.0 , 

24.0 , 4108.71794872 , 4169.23076923 , 3577.43589744 , 3927.17948718 , 4123.07692308 , 4113.84615385 , 4120.0 , 4123.07692308 , 4146.15384615 , 4132.30769231 , 4111.79487179 , 4032.82051282 , 4165.12820513 , 4054.87179487 , 2047.0 , 2047.0 , 66.491 , 0.0 , 0.0 , 0.0 , 0.0 , 

25.0 , 4105.64102564 , 4202.05128205 , 3606.15384615 , 3946.66666667 , 4117.94871795 , 4116.41025641 , 4126.15384615 , 4127.17948718 , 4171.79487179 , 4133.84615385 , 4128.71794872 , 4036.41025641 , 4181.02564103 , 4071.79487179 , 2045.0 , 2045.0 , 66.496 , 0.0 , 0.0 , 0.0 , 0.0 , 

26.0 , 4105.64102564 , 4290.25641026 , 3692.30769231 , 3995.38461538 , 4121.53846154 , 4116.41025641 , 4129.74358974 , 4132.82051282 , 4218.97435897 , 4136.41025641 , 4170.25641026 , 4056.92307692 , 4242.05128205 , 4127.17948718 , 2040.0 , 2041.0 , 66.505 , 0.0 , 0.0 , 0.0 , 0.0 , 

27.0 , 4103.58974359 , 4232.30769231 , 3641.53846154 , 3957.43589744 , 4124.61538462 , 4115.8974359 , 4123.58974359 , 4128.71794872 , 4179.48717949 , 4136.92307692 , 4140.0 , 4043.58974359 , 4199.48717949 , 4091.79487179 , 2037.0 , 2038.0 , 66.511 , 0.0 , 0.0 , 0.0 , 0.0 , 

28.0 , 4104.61538462 , 4168.20512821 , 3586.15384615 , 3924.1025641 , 4120.51282051 , 4120.0 , 4125.64102564 , 4123.07692308 , 4146.66666667 , 4136.41025641 , 4113.33333333 , 4026.15384615 , 4154.87179487 , 4051.79487179 , 2035.0 , 2035.0 , 66.521 , 0.0 , 0.0 , 0.0 , 0.0 , 

29.0 , 4108.20512821 , 4190.25641026 , 3614.87179487 , 3942.05128205 , 4123.07692308 , 4121.53846154 , 4132.30769231 , 4126.66666667 , 4166.15384615 , 4137.43589744 , 4129.23076923 , 4032.30769231 , 4176.92307692 , 4065.64102564 , 2035.0 , 2035.0 , 66.527 , 0.0 , 0.0 , 0.0 , 0.0 , 

30.0 , 4109.74358974 , 4232.30769231 , 3654.35897436 , 3961.02564103 , 4127.17948718 , 4120.51282051 , 4130.76923077 , 4130.76923077 , 4184.61538462 , 4137.43589744 , 4144.1025641 , 4045.64102564 , 4204.61538462 , 4093.33333333 , 2036.0 , 2038.0 , 66.537 , 0.0 , 0.0 , 0.0 , 0.0 , 

31.0 , 4110.25641026 , 4256.41025641 , 3669.23076923 , 3971.28205128 , 4123.07692308 , 4119.48717949 , 4131.79487179 , 4129.23076923 , 4181.53846154 , 4136.92307692 , 4150.25641026 , 4051.28205128 , 4217.43589744 , 4113.33333333 , 2037.0 , 2040.0 , 66.543 , 0.0 , 0.0 , 0.0 , 0.0 , 

32.0 , 4111.28205128 , 4248.71794872 , 3656.41025641 , 3971.79487179 , 4124.1025641 , 4118.97435897 , 4136.41025641 , 4127.17948718 , 4177.94871795 , 4137.43589744 , 4149.74358974 , 4050.76923077 , 4215.8974359 , 4114.35897436 , 2038.0 , 2040.0 , 66.554 , 0.0 , 0.0 , 0.0 , 0.0 , 

33.0 , 4111.28205128 , 4254.87179487 , 3656.92307692 , 3975.8974359 , 4128.20512821 , 4120.51282051 , 4135.38461538 , 4127.69230769 , 4193.33333333 , 4136.92307692 , 4159.48717949 , 4055.8974359 , 4229.23076923 , 4120.51282051 , 2041.0 , 2041.0 , 66.56 , 0.0 , 0.0 , 0.0 , 0.0 , 

34.0 , 4108.20512821 , 4262.56410256 , 3661.53846154 , 3974.35897436 , 4120.0 , 4120.0 , 4132.82051282 , 4126.15384615 , 4195.8974359 , 4137.43589744 , 4166.15384615 , 4063.58974359 , 4243.58974359 , 4127.17948718 , 2041.0 , 2040.0 , 66.569 , 0.0 , 0.0 , 0.0 , 0.0 , 

35.0 , 4107.69230769 , 4222.05128205 , 3624.61538462 , 3950.76923077 , 4121.02564103 , 4116.92307692 , 4134.35897436 , 4127.69230769 , 4170.25641026 , 4137.43589744 , 4145.12820513 , 4061.53846154 , 4213.33333333 , 4102.56410256 , 2042.0 , 2037.0 , 66.575 , 0.0 , 0.0 , 0.0 , 0.0 , 

36.0 , 4109.23076923 , 4222.05128205 , 3614.87179487 , 3953.84615385 , 4130.25641026 , 4116.41025641 , 4136.41025641 , 4128.71794872 , 4175.38461538 , 4135.8974359 , 4143.07692308 , 4060.51282051 , 4202.56410256 , 4100.51282051 , 2042.0 , 2036.0 , 66.583 , 0.0 , 0.0 , 0.0 , 0.0 , 

37.0 , 4110.25641026 , 4255.38461538 , 3631.79487179 , 3970.76923077 , 4128.20512821 , 4118.97435897 , 4139.48717949 , 4128.20512821 , 4189.74358974 , 4134.35897436 , 4154.87179487 , 4063.58974359 , 4222.05128205 , 4122.56410256 , 2046.0 , 2039.0 , 66.592 , 0.0 , 0.0 , 0.0 , 0.0 , 

38.0 , 4107.17948718 , 4224.1025641 , 3594.87179487 , 3950.76923077 , 4123.58974359 , 4118.46153846 , 4140.0 , 4128.20512821 , 4166.66666667 , 4134.35897436 , 4137.94871795 , 4054.35897436 , 4203.58974359 , 4104.61538462 , 2046.0 , 2039.0 , 66.599 , 0.0 , 0.0 , 0.0 , 0.0 , 

39.0 , 4110.25641026 , 4245.12820513 , 3604.1025641 , 3965.12820513 , 4128.20512821 , 4116.92307692 , 4145.12820513 , 4130.25641026 , 4182.05128205 , 4134.87179487 , 4148.71794872 , 4061.53846154 , 4218.97435897 , 4115.8974359 , 2047.0 , 2042.0 , 66.609 , 0.0 , 0.0 , 0.0 , 0.0 , 

40.0 , 4113.84615385 , 4322.56410256 , 3667.69230769 , 4005.12820513 , 4130.76923077 , 4117.43589744 , 4149.23076923 , 4131.28205128 , 4223.07692308 , 4134.35897436 , 4184.61538462 , 4082.05128205 , 4274.35897436 , 4165.64102564 , 2047.0 , 2051.0 , 66.615 , 0.0 , 0.0 , 0.0 , 0.0 , 

41.0 , 4111.28205128 , 4268.71794872 , 3610.76923077 , 3965.12820513 , 4127.17948718 , 4120.0 , 4140.51282051 , 4128.20512821 , 4187.69230769 , 4134.35897436 , 4153.33333333 , 4067.69230769 , 4236.92307692 , 4139.48717949 , 2046.0 , 2054.0 , 66.626 , 0.0 , 0.0 , 0.0 , 0.0 , 

42.0 , 4105.64102564 , 4178.46153846 , 3509.23076923 , 3912.82051282 , 4126.15384615 , 4121.53846154 , 4132.30769231 , 4126.15384615 , 4148.71794872 , 4134.35897436 , 4107.69230769 , 4044.1025641 , 4171.28205128 , 4088.20512821 , 2045.0 , 2057.0 , 66.631 , 0.0 , 0.0 , 0.0 , 0.0 , 

43.0 , 4106.15384615 , 4241.02564103 , 3551.79487179 , 3954.35897436 , 4127.69230769 , 4120.51282051 , 4141.53846154 , 4131.28205128 , 4192.82051282 , 4134.35897436 , 4141.53846154 , 4058.46153846 , 4220.51282051 , 4135.8974359 , 2043.0 , 2056.0 , 66.641 , 0.0 , 0.0 , 0.0 , 0.0 , 

44.0 , 4111.28205128 , 4307.69230769 , 3616.92307692 , 3990.25641026 , 4125.64102564 , 4118.46153846 , 4147.17948718 , 4134.87179487 , 4216.92307692 , 4134.35897436 , 4174.35897436 , 4073.33333333 , 4273.33333333 , 4195.8974359 , 2039.0 , 2051.0 , 66.645 , 0.0 , 0.0 , 0.0 , 0.0 , 

45.0 , 4115.8974359 , 4284.61538462 , 3601.02564103 , 3971.28205128 , 4122.05128205 , 4121.02564103 , 4143.07692308 , 4129.74358974 , 4190.76923077 , 4134.87179487 , 4159.48717949 , 4065.64102564 , 4249.23076923 , 4202.56410256 , 2036.0 , 2045.0 , 66.655 , 0.0 , 0.0 , 0.0 , 0.0 , 

46.0 , 4117.94871795 , 4294.87179487 , 3618.97435897 , 3978.46153846 , 4124.1025641 , 4126.15384615 , 4145.12820513 , 4127.69230769 , 4193.33333333 , 4134.35897436 , 4161.53846154 , 4066.66666667 , 4249.23076923 , 4231.79487179 , 2018.0 , 2038.0 , 66.661 , 0.0 , 0.0 , 0.0 , 0.0 , 

47.0 , 4116.92307692 , 4301.53846154 , 3653.84615385 , 3988.71794872 , 4128.20512821 , 4126.15384615 , 4149.74358974 , 4130.25641026 , 4191.79487179 , 4134.87179487 , 4165.12820513 , 4070.76923077 , 4254.35897436 , 4270.25641026 , 2030.0 , 2036.0 , 66.671 , 0.0 , 0.0 , 0.0 , 0.0 , 

48.0 , 4115.38461538 , 4255.8974359 , 3634.87179487 , 3960.51282051 , 4127.69230769 , 4126.15384615 , 4147.17948718 , 4130.76923077 , 4163.07692308 , 4135.38461538 , 4141.02564103 , 4066.15384615 , 4219.48717949 , 4276.41025641 , 2031.0 , 2037.0 , 66.677 , 0.0 , 0.0 , 0.0 , 0.0 , 

49.0 , 4114.87179487 , 4237.94871795 , 3627.69230769 , 3945.12820513 , 4126.66666667 , 4128.71794872 , 4146.66666667 , 4131.79487179 , 4162.56410256 , 4135.8974359 , 4128.20512821 , 4067.17948718 , 4201.53846154 , 4295.38461538 , 2036.0 , 2042.0 , 66.687 , 0.0 , 0.0 , 0.0 , 0.0 , 

50.0 , 4120.51282051 , 4306.66666667 , 3711.28205128 , 3986.66666667 , 4128.20512821 , 4131.28205128 , 4151.28205128 , 4134.35897436 , 4202.05128205 , 4137.43589744 , 4163.58974359 , 4083.07692308 , 4253.33333333 , 4373.84615385 , 2039.0 , 2047.0 , 66.693 , 0.0 , 0.0 , 0.0 , 0.0 , 

51.0 , 4127.17948718 , 4373.84615385 , 3782.56410256 , 4023.07692308 , 4128.20512821 , 4130.76923077 , 4148.20512821 , 4130.25641026 , 4214.87179487 , 4134.87179487 , 4193.84615385 , 4092.82051282 , 4299.48717949 , 4438.97435897 , 2042.0 , 2053.0 , 66.702 , 0.0 , 0.0 , 0.0 , 0.0 , 

52.0 , 4126.66666667 , 4343.58974359 , 3734.35897436 , 3998.97435897 , 4126.66666667 , 4128.71794872 , 4140.51282051 , 4125.64102564 , 4178.97435897 , 4130.76923077 , 4166.66666667 , 4083.58974359 , 4261.53846154 , 4426.15384615 , 2042.0 , 2053.0 , 66.709 , 0.0 , 0.0 , 0.0 , 0.0 , 

53.0 , 4125.12820513 , 4293.33333333 , 3677.43589744 , 3968.71794872 , 4125.12820513 , 4126.15384615 , 4141.53846154 , 4128.71794872 , 4167.17948718 , 4132.30769231 , 4139.48717949 , 4077.43589744 , 4222.56410256 , 4412.82051282 , 2042.0 , 2047.0 , 66.717 , 0.0 , 0.0 , 0.0 , 0.0 , 

54.0 , 4133.33333333 , 4361.02564103 , 3743.07692308 , 4010.25641026 , 4128.20512821 , 4130.25641026 , 4150.25641026 , 4129.74358974 , 4217.43589744 , 4135.38461538 , 4178.46153846 , 4096.41025641 , 4287.69230769 , 4475.38461538 , 2042.0 , 2042.0 , 66.725 , 0.0 , 0.0 , 0.0 , 0.0 , 

55.0 , 4137.94871795 , 4504.1025641 , 3863.07692308 , 4090.25641026 , 4129.23076923 , 4134.35897436 , 4158.46153846 , 4130.76923077 , 4261.53846154 , 4134.35897436 , 4242.05128205 , 4116.41025641 , 4388.71794872 , 4567.17948718 , 2041.0 , 2040.0 , 66.732 , 0.0 , 0.0 , 0.0 , 0.0 , 

56.0 , 4135.38461538 , 4502.05128205 , 3862.05128205 , 4087.17948718 , 4128.20512821 , 4132.82051282 , 4163.07692308 , 4135.8974359 , 4230.76923077 , 4134.35897436 , 4231.28205128 , 4107.17948718 , 4369.74358974 , 4582.05128205 , 2040.0 , 2035.0 , 66.742 , 0.0 , 0.0 , 0.0 , 0.0 , 

57.0 , 4130.25641026 , 4423.07692308 , 3797.94871795 , 4038.97435897 , 4128.71794872 , 4131.28205128 , 4160.51282051 , 4138.46153846 , 4195.38461538 , 4136.41025641 , 4190.25641026 , 4090.25641026 , 4304.1025641 , 4546.66666667 , 2042.0 , 2035.0 , 66.748 , 0.0 , 0.0 , 0.0 , 0.0 , 

58.0 , 4126.66666667 , 4427.17948718 , 3788.71794872 , 4033.84615385 , 4130.25641026 , 4132.82051282 , 4157.94871795 , 4138.46153846 , 4200.51282051 , 4135.38461538 , 4186.15384615 , 4090.76923077 , 4301.53846154 , 4530.76923077 , 2042.0 , 2036.0 , 66.758 , 0.0 , 0.0 , 0.0 , 0.0 , 

59.0 , 4124.61538462 , 4445.12820513 , 3804.61538462 , 4042.05128205 , 4129.74358974 , 4130.76923077 , 4158.97435897 , 4137.43589744 , 4214.35897436 , 4134.87179487 , 4192.82051282 , 4093.33333333 , 4321.53846154 , 4540.51282051 , 2042.0 , 2037.0 , 66.764 , 0.0 , 0.0 , 0.0 , 0.0 , 

60.0 , 4128.71794872 , 4438.46153846 , 3815.38461538 , 4043.58974359 , 4129.23076923 , 4129.23076923 , 4160.0 , 4134.35897436 , 4227.69230769 , 4135.38461538 , 4201.02564103 , 4097.94871795 , 4342.56410256 , 4572.82051282 , 2042.0 , 2042.0 , 66.774 , 0.0 , 0.0 , 0.0 , 0.0 , 

61.0 , 4131.28205128 , 4450.25641026 , 3815.38461538 , 4049.74358974 , 4129.74358974 , 4128.71794872 , 4157.43589744 , 4131.79487179 , 4225.64102564 , 4134.87179487 , 4209.74358974 , 4100.51282051 , 4357.94871795 , 4604.61538462 , 2040.0 , 2043.0 , 66.779 , 0.0 , 0.0 , 0.0 , 0.0 , 

62.0 , 4130.76923077 , 4458.97435897 , 3804.1025641 , 4047.69230769 , 4128.71794872 , 4129.23076923 , 4158.97435897 , 4135.8974359 , 4207.69230769 , 4134.87179487 , 4203.58974359 , 4093.33333333 , 4348.20512821 , 4607.69230769 , 2038.0 , 2044.0 , 66.79 , 0.0 , 0.0 , 0.0 , 0.0 , 

63.0 , 4128.71794872 , 4430.25641026 , 3786.15384615 , 4030.25641026 , 4127.69230769 , 4131.28205128 , 4159.48717949 , 4137.94871795 , 4208.20512821 , 4134.87179487 , 4190.25641026 , 4086.15384615 , 4331.79487179 , 4595.38461538 , 2035.0 , 2041.0 , 66.795 , 0.0 , 0.0 , 0.0 , 0.0 , 

64.0 , 4131.28205128 , 4435.8974359 , 3797.94871795 , 4042.05128205 , 4129.23076923 , 4134.87179487 , 4160.51282051 , 4136.92307692 , 4229.74358974 , 4134.87179487 , 4202.05128205 , 4090.76923077 , 4349.74358974 , 4619.48717949 , 2035.0 , 2040.0 , 66.804 , 0.0 , 0.0 , 0.0 , 0.0 , 

65.0 , 4135.8974359 , 4477.94871795 , 3820.51282051 , 4064.1025641 , 4130.25641026 , 4135.8974359 , 4168.20512821 , 4136.41025641 , 4232.30769231 , 4134.87179487 , 4215.8974359 , 4091.79487179 , 4375.8974359 , 4656.92307692 , 2038.0 , 2035.0 , 66.811 , 0.0 , 0.0 , 0.0 , 0.0 , 

66.0 , 4134.87179487 , 4483.58974359 , 3808.20512821 , 4056.92307692 , 4129.74358974 , 4134.35897436 , 4173.33333333 , 4135.38461538 , 4216.41025641 , 4135.38461538 , 4205.12820513 , 4084.61538462 , 4374.35897436 , 4653.33333333 , 2039.0 , 2035.0 , 66.822 , 0.0 , 0.0 , 0.0 , 0.0 , 

67.0 , 4130.25641026 , 4464.61538462 , 3784.1025641 , 4047.69230769 , 4130.25641026 , 4131.79487179 , 4169.74358974 , 4135.38461538 , 4217.94871795 , 4135.38461538 , 4201.53846154 , 4084.1025641 , 4373.84615385 , 4641.02564103 , 2041.0 , 2035.0 , 66.828 , 0.0 , 0.0 , 0.0 , 0.0 , 

68.0 , 4129.23076923 , 4433.84615385 , 3755.8974359 , 4033.84615385 , 4130.25641026 , 4132.30769231 , 4162.56410256 , 4138.97435897 , 4217.43589744 , 4134.87179487 , 4200.51282051 , 4081.02564103 , 4362.56410256 , 4640.51282051 , 2042.0 , 2039.0 , 66.836 , 0.0 , 0.0 , 0.0 , 0.0 , 

69.0 , 4129.23076923 , 4379.48717949 , 3703.58974359 , 3997.94871795 , 4129.74358974 , 4133.33333333 , 4160.51282051 , 4140.51282051 , 4199.48717949 , 4135.38461538 , 4171.79487179 , 4065.64102564 , 4320.51282051 , 4613.84615385 , 2045.0 , 2041.0 , 66.842 , 0.0 , 0.0 , 0.0 , 0.0 , 

70.0 , 4126.15384615 , 4355.38461538 , 3673.33333333 , 3983.07692308 , 4131.28205128 , 4131.79487179 , 4164.1025641 , 4134.87179487 , 4198.46153846 , 4135.8974359 , 4151.79487179 , 4060.51282051 , 4305.12820513 , 4586.15384615 , 2045.0 , 2045.0 , 66.852 , 0.0 , 0.0 , 0.0 , 0.0 , 

71.0 , 4124.61538462 , 4397.94871795 , 3695.8974359 , 4006.15384615 , 4130.25641026 , 4133.33333333 , 4167.17948718 , 4133.84615385 , 4218.46153846 , 4134.87179487 , 4173.33333333 , 4071.79487179 , 4338.97435897 , 4605.12820513 , 2045.0 , 2046.0 , 66.861 , 0.0 , 0.0 , 0.0 , 0.0 , 

72.0 , 4126.15384615 , 4412.82051282 , 3697.43589744 , 4012.82051282 , 4127.17948718 , 4135.38461538 , 4165.12820513 , 4134.35897436 , 4218.97435897 , 4133.84615385 , 4182.05128205 , 4073.33333333 , 4355.38461538 , 4616.41025641 , 2041.0 , 2049.0 , 66.867 , 0.0 , 0.0 , 0.0 , 0.0 , 

73.0 , 4128.20512821 , 4378.97435897 , 3665.64102564 , 4000.0 , 4129.74358974 , 4133.33333333 , 4167.17948718 , 4129.23076923 , 4214.35897436 , 4134.35897436 , 4168.20512821 , 4062.05128205 , 4352.30769231 , 4595.38461538 , 2039.0 , 2048.0 , 66.875 , 0.0 , 0.0 , 0.0 , 0.0 , 

74.0 , 4126.15384615 , 4378.97435897 , 3662.05128205 , 4002.56410256 , 4131.28205128 , 4129.74358974 , 4169.74358974 , 4128.71794872 , 4223.58974359 , 4134.35897436 , 4171.79487179 , 4058.46153846 , 4360.51282051 , 4581.02564103 , 2038.0 , 2041.0 , 66.882 , 0.0 , 0.0 , 0.0 , 0.0 , 

75.0 , 4126.66666667 , 4383.58974359 , 3654.35897436 , 3996.92307692 , 4128.71794872 , 4130.76923077 , 4170.25641026 , 4136.41025641 , 4212.30769231 , 4134.35897436 , 4171.28205128 , 4057.43589744 , 4343.07692308 , 4566.66666667 , 2035.0 , 2036.0 , 66.892 , 0.0 , 0.0 , 0.0 , 0.0 , 

76.0 , 4127.17948718 , 4376.41025641 , 3638.97435897 , 3990.25641026 , 4127.69230769 , 4130.25641026 , 4172.30769231 , 4140.0 , 4205.12820513 , 4135.38461538 , 4167.17948718 , 4053.84615385 , 4329.23076923 , 4554.35897436 , 2035.0 , 2026.0 , 66.898 , 0.0 , 0.0 , 0.0 , 0.0 , 

77.0 , 4124.61538462 , 4373.84615385 , 3627.69230769 , 3988.20512821 , 4130.25641026 , 4127.69230769 , 4173.33333333 , 4138.46153846 , 4215.38461538 , 4136.41025641 , 4168.20512821 , 4050.25641026 , 4344.1025641 , 4541.53846154 , 2033.0 , 2023.0 , 66.908 , 0.0 , 0.0 , 0.0 , 0.0 , 

78.0 , 4117.94871795 , 4321.53846154 , 3566.66666667 , 3957.43589744 , 4129.74358974 , 4126.15384615 , 4168.71794872 , 4136.41025641 , 4198.97435897 , 4135.8974359 , 4145.12820513 , 4035.38461538 , 4320.0 , 4498.97435897 , 2035.0 , 2023.0 , 66.913 , 0.0 , 0.0 , 0.0 , 0.0 , 

79.0 , 4116.92307692 , 4272.30769231 , 3522.56410256 , 3932.82051282 , 4129.23076923 , 4122.56410256 , 4164.1025641 , 4136.92307692 , 4183.07692308 , 4135.8974359 , 4122.05128205 , 4023.58974359 , 4286.66666667 , 4461.02564103 , 2040.0 , 2023.0 , 66.923 , 0.0 , 0.0 , 0.0 , 0.0 , 

80.0 , 4117.43589744 , 4292.82051282 , 3556.92307692 , 3938.46153846 , 4129.74358974 , 4120.51282051 , 4162.05128205 , 4136.41025641 , 4199.48717949 , 4135.8974359 , 4127.17948718 , 4025.12820513 , 4298.97435897 , 4455.38461538 , 2042.0 , 2026.0 , 66.928 , 0.0 , 0.0 , 0.0 , 0.0 , 

81.0 , 4117.43589744 , 4311.79487179 , 3587.69230769 , 3947.69230769 , 4129.74358974 , 4126.15384615 , 4162.56410256 , 4132.82051282 , 4214.35897436 , 4135.8974359 , 4134.35897436 , 4028.20512821 , 4315.8974359 , 4449.74358974 , 2044.0 , 2030.0 , 66.939 , 0.0 , 0.0 , 0.0 , 0.0 , 

82.0 , 4118.97435897 , 4310.25641026 , 3583.07692308 , 3954.87179487 , 4130.76923077 , 4128.71794872 , 4160.51282051 , 4130.76923077 , 4211.79487179 , 4135.8974359 , 4134.35897436 , 4026.66666667 , 4317.43589744 , 4439.48717949 , 2043.0 , 2032.0 , 66.944 , 0.0 , 0.0 , 0.0 , 0.0 , 

83.0 , 4121.53846154 , 4317.94871795 , 3582.56410256 , 3958.46153846 , 4130.76923077 , 4124.61538462 , 4160.51282051 , 4130.76923077 , 4208.71794872 , 4135.8974359 , 4133.33333333 , 4025.64102564 , 4316.41025641 , 4432.30769231 , 2042.0 , 2031.0 , 66.954 , 0.0 , 0.0 , 0.0 , 0.0 , 

84.0 , 4120.0 , 4296.41025641 , 3565.64102564 , 3944.1025641 , 4130.25641026 , 4124.61538462 , 4166.66666667 , 4130.76923077 , 4200.0 , 4135.8974359 , 4127.17948718 , 4023.58974359 , 4306.66666667 , 4409.23076923 , 2040.0 , 2033.0 , 66.96 , 0.0 , 0.0 , 0.0 , 0.0 , 

85.0 , 4117.43589744 , 4256.92307692 , 3526.15384615 , 3926.66666667 , 4130.25641026 , 4127.17948718 , 4170.25641026 , 4129.74358974 , 4196.41025641 , 4136.41025641 , 4119.48717949 , 4020.0 , 4291.79487179 , 4378.46153846 , 2040.0 , 2037.0 , 66.969 , 0.0 , 0.0 , 0.0 , 0.0 , 

86.0 , 4116.92307692 , 4245.12820513 , 3505.12820513 , 3921.02564103 , 4130.76923077 , 4126.15384615 , 4167.69230769 , 4131.79487179 , 4200.0 , 4135.8974359 , 4112.82051282 , 4014.87179487 , 4279.48717949 , 4354.87179487 , 2036.0 , 2042.0 , 66.976 , 0.0 , 0.0 , 0.0 , 0.0 , 

87.0 , 4117.94871795 , 4252.30769231 , 3502.05128205 , 3925.64102564 , 4130.76923077 , 4127.69230769 , 4168.71794872 , 4130.25641026 , 4191.28205128 , 4134.87179487 , 4106.66666667 , 4011.79487179 , 4276.92307692 , 4342.05128205 , 2035.0 , 2042.0 , 66.986 , 0.0 , 0.0 , 0.0 , 0.0 , 

88.0 , 4120.0 , 4255.8974359 , 3483.07692308 , 3930.25641026 , 4131.79487179 , 4129.74358974 , 4173.84615385 , 4130.25641026 , 4183.07692308 , 4135.38461538 , 4105.64102564 , 4010.76923077 , 4280.51282051 , 4326.66666667 , 2034.0 , 2045.0 , 66.992 , 0.0 , 0.0 , 0.0 , 0.0 , 

89.0 , 4120.0 , 4228.20512821 , 3432.82051282 , 3906.15384615 , 4132.30769231 , 4126.15384615 , 4171.28205128 , 4132.30769231 , 4187.69230769 , 4135.38461538 , 4103.58974359 , 4007.17948718 , 4272.30769231 , 4301.53846154 , 2034.0 , 2044.0 , 67.002 , 0.0 , 0.0 , 0.0 , 0.0 , 

90.0 , 4119.48717949 , 4198.97435897 , 3399.48717949 , 3886.15384615 , 4132.82051282 , 4123.07692308 , 4173.33333333 , 4132.82051282 , 4196.41025641 , 4134.35897436 , 4107.69230769 , 4008.20512821 , 4272.30769231 , 4295.8974359 , 2035.0 , 2039.0 , 67.009 , 0.0 , 0.0 , 0.0 , 0.0 , 

91.0 , 4121.53846154 , 4235.38461538 , 3415.8974359 , 3912.30769231 , 4132.82051282 , 4125.64102564 , 4183.58974359 , 4136.41025641 , 4214.35897436 , 4133.84615385 , 4123.58974359 , 4004.1025641 , 4303.07692308 , 4314.87179487 , 2035.0 , 2033.0 , 67.015 , 0.0 , 0.0 , 0.0 , 0.0 , 

92.0 , 4127.69230769 , 4264.61538462 , 3416.92307692 , 3927.69230769 , 4131.79487179 , 4128.71794872 , 4187.17948718 , 4138.97435897 , 4227.17948718 , 4134.35897436 , 4127.17948718 , 3991.28205128 , 4318.97435897 , 4322.56410256 , 2036.0 , 2030.0 , 67.025 , 0.0 , 0.0 , 0.0 , 0.0 , 

93.0 , 4123.58974359 , 4205.64102564 , 3367.69230769 , 3888.71794872 , 4129.23076923 , 4122.56410256 , 4178.97435897 , 4138.46153846 , 4198.97435897 , 4134.35897436 , 4100.0 , 3978.46153846 , 4282.05128205 , 4290.76923077 , 2037.0 , 2026.0 , 67.03 , 0.0 , 0.0 , 0.0 , 0.0 , 

94.0 , 4110.25641026 , 4147.69230769 , 3327.17948718 , 3854.35897436 , 4128.20512821 , 4117.94871795 , 4175.38461538 , 4137.43589744 , 4164.1025641 , 4134.35897436 , 4072.82051282 , 3964.61538462 , 4236.92307692 , 4248.20512821 , 2039.0 , 2027.0 , 67.042 , 0.0 , 0.0 , 0.0 , 0.0 , 

95.0 , 4105.64102564 , 4170.76923077 , 3342.05128205 , 3867.17948718 , 4129.23076923 , 4120.51282051 , 4180.51282051 , 4137.43589744 , 4182.05128205 , 4134.35897436 , 4082.56410256 , 3956.41025641 , 4248.20512821 , 4251.79487179 , 2045.0 , 2030.0 , 67.046 , 0.0 , 0.0 , 0.0 , 0.0 , 

96.0 , 4113.33333333 , 4178.46153846 , 3345.12820513 , 3866.15384615 , 4130.76923077 , 4123.07692308 , 4183.07692308 , 4139.48717949 , 4203.07692308 , 4134.35897436 , 4095.8974359 , 3958.46153846 , 4260.0 , 4264.1025641 , 2046.0 , 2031.0 , 67.057 , 0.0 , 0.0 , 0.0 , 0.0 , 

97.0 , 4114.35897436 , 4158.97435897 , 3321.02564103 , 3847.69230769 , 4128.20512821 , 4120.0 , 4175.38461538 , 4139.48717949 , 4188.20512821 , 4134.35897436 , 4088.20512821 , 3959.48717949 , 4239.48717949 , 4250.76923077 , 2050.0 , 2030.0 , 67.063 , 0.0 , 0.0 , 0.0 , 0.0 , 

98.0 , 4111.79487179 , 4186.15384615 , 3340.51282051 , 3862.56410256 , 4127.17948718 , 4118.46153846 , 4168.20512821 , 4134.87179487 , 4191.79487179 , 4134.35897436 , 4092.82051282 , 3961.02564103 , 4252.30769231 , 4256.92307692 , 2049.0 , 2030.0 , 67.072 , 0.0 , 0.0 , 0.0 , 0.0 , 

99.0 , 4113.84615385 , 4201.53846154 , 3360.51282051 , 3873.84615385 , 4130.25641026 , 4118.46153846 , 4168.20512821 , 4129.23076923 , 4207.69230769 , 4134.35897436 , 4100.51282051 , 3962.56410256 , 4281.53846154 , 4273.84615385 , 2048.0 , 2029.0 , 67.079 , 0.0 , 0.0 , 0.0 , 0.0 , 

100.0 , 4114.35897436 , 4136.92307692 , 3306.15384615 , 3836.41025641 , 4130.25641026 , 4118.97435897 , 4169.23076923 , 4128.71794872 , 4182.05128205 , 4134.35897436 , 4073.84615385 , 3953.33333333 , 4243.58974359 , 4243.07692308 , 2038.0 , 2028.0 , 67.087 , 0.0 , 0.0 , 0.0 , 0.0 , 

101.0 , 4109.23076923 , 4076.41025641 , 3252.30769231 , 3801.02564103 , 4127.69230769 , 4120.51282051 , 4170.25641026 , 4131.28205128 , 4157.94871795 , 4134.35897436 , 4043.07692308 , 3940.51282051 , 4191.28205128 , 4202.56410256 , 2035.0 , 2025.0 , 67.095 , 0.0 , 0.0 , 0.0 , 0.0 , 

102.0 , 4107.17948718 , 4108.71794872 , 3287.17948718 , 3822.05128205 , 4128.71794872 , 4118.97435897 , 4175.38461538 , 4132.30769231 , 4186.66666667 , 4135.8974359 , 4052.82051282 , 3942.56410256 , 4213.33333333 , 4216.41025641 , 2025.0 , 2023.0 , 67.106 , 0.0 , 0.0 , 0.0 , 0.0 , 

103.0 , 4107.69230769 , 4146.66666667 , 3331.79487179 , 3845.64102564 , 4129.23076923 , 4116.92307692 , 4180.51282051 , 4133.84615385 , 4202.56410256 , 4136.92307692 , 4067.69230769 , 3947.69230769 , 4238.46153846 , 4233.84615385 , 2023.0 , 2022.0 , 67.11 , 0.0 , 0.0 , 0.0 , 0.0 , 

104.0 , 4109.74358974 , 4106.15384615 , 3321.53846154 , 3829.23076923 , 4128.71794872 , 4118.97435897 , 4181.02564103 , 4135.38461538 , 4172.82051282 , 4136.41025641 , 4050.76923077 , 3940.0 , 4206.15384615 , 4212.30769231 , 2020.0 , 2023.0 , 67.119 , 0.0 , 0.0 , 0.0 , 0.0 , 

105.0 , 4113.33333333 , 4071.79487179 , 3320.51282051 , 3817.43589744 , 4129.74358974 , 4118.97435897 , 4181.02564103 , 4135.8974359 , 4162.05128205 , 4135.8974359 , 4036.92307692 , 3932.82051282 , 4176.92307692 , 4189.74358974 , 2020.0 , 2023.0 , 67.126 , 0.0 , 0.0 , 0.0 , 0.0 , 

106.0 , 4114.87179487 , 4122.05128205 , 3372.30769231 , 3842.56410256 , 4129.74358974 , 4115.38461538 , 4179.48717949 , 4131.79487179 , 4188.71794872 , 4136.41025641 , 4057.43589744 , 3943.58974359 , 4202.56410256 , 4202.05128205 , 2022.0 , 2021.0 , 67.135 , 0.0 , 0.0 , 0.0 , 0.0 , 

107.0 , 4115.8974359 , 4152.30769231 , 3402.05128205 , 3853.33333333 , 4128.71794872 , 4117.43589744 , 4173.84615385 , 4128.71794872 , 4193.84615385 , 4135.38461538 , 4073.33333333 , 3952.82051282 , 4231.28205128 , 4215.8974359 , 2026.0 , 2020.0 , 67.143 , 0.0 , 0.0 , 0.0 , 0.0 , 

108.0 , 4114.35897436 , 4101.53846154 , 3356.41025641 , 3820.0 , 4130.25641026 , 4120.0 , 4169.23076923 , 4128.71794872 , 4170.25641026 , 4134.87179487 , 4056.92307692 , 3941.53846154 , 4214.35897436 , 4185.64102564 , 2029.0 , 2022.0 , 67.152 , 0.0 , 0.0 , 0.0 , 0.0 , 

109.0 , 4110.25641026 , 4073.33333333 , 3317.43589744 , 3801.53846154 , 4131.79487179 , 4116.92307692 , 4173.84615385 , 4129.23076923 , 4170.25641026 , 4134.35897436 , 4042.56410256 , 3932.30769231 , 4198.46153846 , 4151.79487179 , 2035.0 , 2030.0 , 67.159 , 0.0 , 0.0 , 0.0 , 0.0 , 

110.0 , 4106.66666667 , 4081.53846154 , 3321.02564103 , 3805.64102564 , 4130.76923077 , 4115.38461538 , 4180.0 , 4130.76923077 , 4185.12820513 , 4134.35897436 , 4042.56410256 , 3933.33333333 , 4205.64102564 , 4141.53846154 , 2040.0 , 2038.0 , 67.165 , 0.0 , 0.0 , 0.0 , 0.0 , 

111.0 , 4109.23076923 , 4087.69230769 , 3344.1025641 , 3808.20512821 , 4130.25641026 , 4118.97435897 , 4182.56410256 , 4131.28205128 , 4192.82051282 , 4134.35897436 , 4047.17948718 , 3936.92307692 , 4217.94871795 , 4146.15384615 , 2050.0 , 2047.0 , 67.175 , 0.0 , 0.0 , 0.0 , 0.0 , 

112.0 , 4112.30769231 , 4080.0 , 3349.23076923 , 3800.51282051 , 4128.71794872 , 4117.94871795 , 4178.46153846 , 4127.17948718 , 4183.07692308 , 4134.35897436 , 4041.02564103 , 3933.84615385 , 4207.69230769 , 4137.94871795 , 2052.0 , 2049.0 , 67.181 , 0.0 , 0.0 , 0.0 , 0.0 , 

113.0 , 4111.28205128 , 4078.46153846 , 3342.56410256 , 3794.35897436 , 4128.71794872 , 4113.33333333 , 4175.8974359 , 4127.69230769 , 4172.82051282 , 4134.35897436 , 4031.79487179 , 3926.15384615 , 4193.84615385 , 4124.61538462 , 2053.0 , 2039.0 , 67.191 , 0.0 , 0.0 , 0.0 , 0.0 , 

114.0 , 4107.17948718 , 4116.92307692 , 3380.51282051 , 3811.28205128 , 4129.23076923 , 4111.28205128 , 4177.43589744 , 4132.30769231 , 4194.87179487 , 4132.82051282 , 4052.30769231 , 3929.23076923 , 4221.53846154 , 4148.71794872 , 2050.0 , 2033.0 , 67.197 , 0.0 , 0.0 , 0.0 , 0.0 , 

115.0 , 4109.74358974 , 4123.58974359 , 3405.64102564 , 3813.33333333 , 4129.74358974 , 4108.71794872 , 4174.35897436 , 4129.74358974 , 4204.61538462 , 4132.82051282 , 4065.64102564 , 3934.87179487 , 4235.38461538 , 4160.0 , 2047.0 , 2026.0 , 67.207 , 0.0 , 0.0 , 0.0 , 0.0 , 

116.0 , 4111.28205128 , 4054.87179487 , 3349.23076923 , 3772.30769231 , 4128.20512821 , 4107.17948718 , 4168.71794872 , 4127.69230769 , 4164.61538462 , 4133.84615385 , 4025.64102564 , 3920.51282051 , 4185.12820513 , 4111.79487179 , 2041.0 , 2014.0 , 67.213 , 0.0 , 0.0 , 0.0 , 0.0 , 

117.0 , 4105.12820513 , 4019.48717949 , 3306.15384615 , 3744.61538462 , 4128.20512821 , 4112.30769231 , 4175.38461538 , 4134.87179487 , 4144.61538462 , 4134.87179487 , 3990.25641026 , 3908.20512821 , 4150.76923077 , 4076.41025641 , 2042.0 , 2013.0 , 67.223 , 0.0 , 0.0 , 0.0 , 0.0 , 

118.0 , 4101.53846154 , 4055.38461538 , 3350.76923077 , 3764.61538462 , 4129.23076923 , 4118.46153846 , 4186.66666667 , 4138.46153846 , 4178.97435897 , 4135.8974359 , 4006.66666667 , 3917.43589744 , 4184.1025641 , 4106.15384615 , 2041.0 , 2014.0 , 67.228 , 0.0 , 0.0 , 0.0 , 0.0 , 

119.0 , 4105.12820513 , 4064.1025641 , 3384.61538462 , 3777.43589744 , 4129.74358974 , 4117.43589744 , 4187.69230769 , 4137.94871795 , 4192.82051282 , 4136.41025641 , 4014.87179487 , 3926.66666667 , 4205.12820513 , 4127.69230769 , 2042.0 , 2018.0 , 67.237 , 0.0 , 0.0 , 0.0 , 0.0 , 

120.0 , 4105.12820513 , 4058.46153846 , 3381.02564103 , 3774.87179487 , 4129.74358974 , 4112.30769231 , 4183.58974359 , 4137.94871795 , 4178.46153846 , 4134.87179487 , 4001.53846154 , 3929.23076923 , 4195.8974359 , 4116.92307692 , 2042.0 , 2028.0 , 67.244 , 0.0 , 0.0 , 0.0 , 0.0 , 

121.0 , 4099.48717949 , 4072.30769231 , 3398.46153846 , 3785.12820513 , 4127.69230769 , 4110.76923077 , 4175.38461538 , 4134.35897436 , 4180.51282051 , 4135.38461538 , 4005.64102564 , 3933.84615385 , 4200.51282051 , 4120.0 , 2043.0 , 2031.0 , 67.255 , 0.0 , 0.0 , 0.0 , 0.0 , 

122.0 , 4100.0 , 4088.20512821 , 3428.20512821 , 3801.02564103 , 4127.69230769 , 4110.25641026 , 4168.20512821 , 4128.20512821 , 4190.76923077 , 4137.43589744 , 4021.53846154 , 3941.02564103 , 4223.07692308 , 4134.87179487 , 2044.0 , 2034.0 , 67.26 , 0.0 , 0.0 , 0.0 , 0.0 , 

123.0 , 4106.15384615 , 4111.79487179 , 3450.25641026 , 3808.71794872 , 4127.69230769 , 4109.23076923 , 4170.25641026 , 4128.71794872 , 4191.79487179 , 4136.92307692 , 4029.23076923 , 3944.61538462 , 4239.48717949 , 4145.64102564 , 2047.0 , 2034.0 , 67.27 , 0.0 , 0.0 , 0.0 , 0.0 , 

124.0 , 4107.69230769 , 4105.12820513 , 3440.0 , 3798.46153846 , 4127.69230769 , 4110.25641026 , 4175.38461538 , 4131.79487179 , 4178.46153846 , 4134.87179487 , 4020.0 , 3938.46153846 , 4220.51282051 , 4136.41025641 , 2051.0 , 2034.0 , 67.277 , 0.0 , 0.0 , 0.0 , 0.0 , 

125.0 , 4102.05128205 , 4074.87179487 , 3421.53846154 , 3788.20512821 , 4128.20512821 , 4111.28205128 , 4174.87179487 , 4129.23076923 , 4175.8974359 , 4134.35897436 , 4013.33333333 , 3931.28205128 , 4202.05128205 , 4118.97435897 , 2061.0 , 2031.0 , 67.288 , 0.0 , 0.0 , 0.0 , 0.0 , 

126.0 , 4100.51282051 , 4071.79487179 , 3421.02564103 , 3784.61538462 , 4127.69230769 , 4110.25641026 , 4173.33333333 , 4128.20512821 , 4184.1025641 , 4134.35897436 , 4014.87179487 , 3930.76923077 , 4206.66666667 , 4113.33333333 , 2063.0 , 2030.0 , 67.294 , 0.0 , 0.0 , 0.0 , 0.0 , 

127.0 , 4099.48717949 , 4086.66666667 , 3425.64102564 , 3776.92307692 , 4127.69230769 , 4109.74358974 , 4171.79487179 , 4126.66666667 , 4180.0 , 4134.87179487 , 4012.82051282 , 3933.33333333 , 4205.64102564 , 4118.97435897 , 2058.0 , 2029.0 , 67.3 , 0.0 , 0.0 , 0.0 , 0.0 , 

128.0 , 4096.41025641 , 4077.43589744 , 3418.46153846 , 3767.17948718 , 4127.69230769 , 4110.76923077 , 4170.76923077 , 4127.17948718 , 4167.17948718 , 4134.35897436 , 4009.23076923 , 3935.8974359 , 4200.51282051 , 4119.48717949 , 2053.0 , 2028.0 , 67.309 , 0.0 , 0.0 , 0.0 , 0.0 , 

0.0 , 4097.43589744 , 4061.53846154 , 3400.51282051 , 3769.74358974 , 4126.66666667 , 4108.20512821 , 4167.69230769 , 4129.23076923 , 4167.69230769 , 4134.35897436 , 4008.71794872 , 3936.92307692 , 4207.17948718 , 4109.74358974 , 2047.0 , 2029.0 , 67.315 , 0.0 , 0.0 , 0.0 , 0.0 , 

1.0 , 4102.56410256 , 4058.46153846 , 3383.07692308 , 3778.46153846 , 4126.66666667 , 4110.25641026 , 4169.74358974 , 4128.20512821 , 4177.43589744 , 4135.8974359 , 4004.61538462 , 3938.97435897 , 4208.20512821 , 4100.51282051 , 2039.0 , 2027.0 , 67.326 , 0.0 , 0.0 , 0.0 , 0.0 , 

2.0 , 4100.51282051 , 4074.87179487 , 3391.28205128 , 3785.64102564 , 4126.15384615 , 4112.30769231 , 4181.53846154 , 4127.69230769 , 4184.1025641 , 4136.92307692 , 4005.12820513 , 3945.12820513 , 4214.87179487 , 4109.74358974 , 2035.0 , 2026.0 , 67.331 , 0.0 , 0.0 , 0.0 , 0.0 , 

3.0 , 4097.94871795 , 4087.17948718 , 3411.28205128 , 3789.74358974 , 4126.66666667 , 4113.84615385 , 4188.71794872 , 4129.74358974 , 4176.41025641 , 4136.92307692 , 4008.20512821 , 3946.66666667 , 4224.61538462 , 4117.94871795 , 2037.0 , 2028.0 , 67.341 , 0.0 , 0.0 , 0.0 , 0.0 , 

4.0 , 4095.38461538 , 4055.8974359 , 3393.33333333 , 3777.94871795 , 4129.23076923 , 4115.8974359 , 4178.97435897 , 4133.33333333 , 4155.8974359 , 4136.92307692 , 3991.79487179 , 3937.94871795 , 4201.02564103 , 4091.79487179 , 2041.0 , 2029.0 , 67.347 , 0.0 , 0.0 , 0.0 , 0.0 , 

5.0 , 4096.92307692 , 4071.79487179 , 3413.33333333 , 3792.30769231 , 4130.76923077 , 4116.41025641 , 4175.38461538 , 4136.41025641 , 4160.51282051 , 4135.8974359 , 4000.0 , 3943.58974359 , 4207.69230769 , 4093.33333333 , 2047.0 , 2031.0 , 67.355 , 0.0 , 0.0 , 0.0 , 0.0 , 

6.0 , 4102.05128205 , 4145.12820513 , 3488.71794872 , 3833.33333333 , 4128.71794872 , 4114.35897436 , 4177.94871795 , 4134.35897436 , 4187.69230769 , 4134.87179487 , 4039.48717949 , 3962.56410256 , 4259.48717949 , 4135.38461538 , 2049.0 , 2033.0 , 67.362 , 0.0 , 0.0 , 0.0 , 0.0 , 

7.0 , 4104.61538462 , 4158.97435897 , 3515.38461538 , 3842.05128205 , 4130.25641026 , 4112.82051282 , 4171.79487179 , 4128.71794872 , 4201.02564103 , 4134.87179487 , 4052.30769231 , 3970.25641026 , 4267.17948718 , 4145.12820513 , 2050.0 , 2035.0 , 67.372 , 0.0 , 0.0 , 0.0 , 0.0 , 

8.0 , 4100.51282051 , 4098.97435897 , 3468.71794872 , 3806.15384615 , 4130.76923077 , 4112.82051282 , 4159.48717949 , 4125.64102564 , 4183.58974359 , 4134.87179487 , 4030.25641026 , 3961.53846154 , 4226.15384615 , 4111.28205128 , 2047.0 , 2044.0 , 67.378 , 0.0 , 0.0 , 0.0 , 0.0 , 

9.0 , 4095.38461538 , 4033.84615385 , 3407.69230769 , 3765.64102564 , 4126.15384615 , 4114.35897436 , 4158.46153846 , 4124.61538462 , 4147.69230769 , 4134.87179487 , 4001.53846154 , 3942.05128205 , 4189.74358974 , 4070.25641026 , 2044.0 , 2047.0 , 67.388 , 0.0 , 0.0 , 0.0 , 0.0 , 

10.0 , 4096.41025641 , 4020.51282051 , 3405.12820513 , 3766.15384615 , 4126.66666667 , 4115.8974359 , 4166.66666667 , 4125.64102564 , 4143.58974359 , 4134.87179487 , 3993.84615385 , 3936.92307692 , 4183.58974359 , 4060.0 , 2040.0 , 2047.0 , 67.394 , 0.0 , 0.0 , 0.0 , 0.0 , 

11.0 , 4101.02564103 , 4094.35897436 , 3493.33333333 , 3817.43589744 , 4130.76923077 , 4116.92307692 , 4173.33333333 , 4131.28205128 , 4188.71794872 , 4134.87179487 , 4026.15384615 , 3958.97435897 , 4225.12820513 , 4107.17948718 , 2040.0 , 2043.0 , 67.404 , 0.0 , 0.0 , 0.0 , 0.0 , 

12.0 , 4104.61538462 , 4138.46153846 , 3553.33333333 , 3840.51282051 , 4130.25641026 , 4120.51282051 , 4173.33333333 , 4136.92307692 , 4201.02564103 , 4134.87179487 , 4043.58974359 , 3970.76923077 , 4247.17948718 , 4133.33333333 , 2048.0 , 2037.0 , 67.41 , 0.0 , 0.0 , 0.0 , 0.0 , 

13.0 , 4101.02564103 , 4056.92307692 , 3505.12820513 , 3794.35897436 , 4127.69230769 , 4121.02564103 , 4168.20512821 , 4134.35897436 , 4152.30769231 , 4134.87179487 , 4004.61538462 , 3951.28205128 , 4188.71794872 , 4082.05128205 , 2050.0 , 2034.0 , 67.419 , 0.0 , 0.0 , 0.0 , 0.0 , 

14.0 , 4098.97435897 , 4017.43589744 , 3500.51282051 , 3782.56410256 , 4129.23076923 , 4116.41025641 , 4168.71794872 , 4129.23076923 , 4134.87179487 , 4134.87179487 , 3986.15384615 , 3946.66666667 , 4155.38461538 , 4054.35897436 , 2052.0 , 2031.0 , 67.426 , 0.0 , 0.0 , 0.0 , 0.0 , 

15.0 , 4102.05128205 , 4065.64102564 , 3569.23076923 , 3815.8974359 , 4129.74358974 , 4117.43589744 , 4169.74358974 , 4131.28205128 , 4157.43589744 , 4136.41025641 , 4009.74358974 , 3962.56410256 , 4183.07692308 , 4073.33333333 , 2055.0 , 2029.0 , 67.434 , 0.0 , 0.0 , 0.0 , 0.0 , 

16.0 , 4107.69230769 , 4080.51282051 , 3613.33333333 , 3827.69230769 , 4129.23076923 , 4123.07692308 , 4168.71794872 , 4135.8974359 , 4169.23076923 , 4138.46153846 , 4026.66666667 , 3974.87179487 , 4197.94871795 , 4084.1025641 , 2058.0 , 2028.0 , 67.442 , 0.0 , 0.0 , 0.0 , 0.0 , 

17.0 , 4109.74358974 , 4089.74358974 , 3654.35897436 , 3840.0 , 4130.76923077 , 4122.05128205 , 4168.20512821 , 4130.25641026 , 4177.94871795 , 4137.94871795 , 4037.94871795 , 3983.07692308 , 4212.82051282 , 4101.53846154 , 2058.0 , 2033.0 , 67.449 , 0.0 , 0.0 , 0.0 , 0.0 , 

18.0 , 4108.20512821 , 4112.82051282 , 3678.97435897 , 3853.84615385 , 4132.30769231 , 4116.41025641 , 4170.76923077 , 4125.64102564 , 4187.17948718 , 4135.8974359 , 4042.56410256 , 3988.71794872 , 4233.84615385 , 4110.25641026 , 2057.0 , 2036.0 , 67.459 , 0.0 , 0.0 , 0.0 , 0.0 , 

19.0 , 4105.64102564 , 4116.41025641 , 3673.84615385 , 3854.87179487 , 4130.76923077 , 4113.84615385 , 4174.87179487 , 4127.69230769 , 4185.64102564 , 4134.35897436 , 4041.53846154 , 3995.8974359 , 4232.30769231 , 4104.61538462 , 2051.0 , 2040.0 , 67.467 , 0.0 , 0.0 , 0.0 , 0.0 , 

20.0 , 4109.74358974 , 4129.74358974 , 3697.94871795 , 3868.20512821 , 4130.25641026 , 4114.87179487 , 4180.51282051 , 4129.74358974 , 4185.64102564 , 4134.35897436 , 4055.38461538 , 4003.58974359 , 4235.8974359 , 4121.02564103 , 2045.0 , 2039.0 , 67.476 , 0.0 , 0.0 , 0.0 , 0.0 , 

21.0 , 4111.28205128 , 4134.87179487 , 3714.87179487 , 3870.76923077 , 4131.28205128 , 4115.8974359 , 4180.0 , 4129.74358974 , 4185.64102564 , 4134.35897436 , 4057.43589744 , 3995.38461538 , 4240.0 , 4124.61538462 , 2041.0 , 2040.0 , 67.481 , 0.0 , 0.0 , 0.0 , 0.0 , 

22.0 , 4105.12820513 , 4082.05128205 , 3667.17948718 , 3831.28205128 , 4130.25641026 , 4117.43589744 , 4171.79487179 , 4129.23076923 , 4168.71794872 , 4133.84615385 , 4029.23076923 , 3980.51282051 , 4201.53846154 , 4084.61538462 , 2041.0 , 2039.0 , 67.491 , 0.0 , 0.0 , 0.0 , 0.0 , 

23.0 , 4100.0 , 4022.05128205 , 3618.46153846 , 3798.97435897 , 4127.69230769 , 4117.43589744 , 4167.17948718 , 4130.25641026 , 4143.07692308 , 4135.38461538 , 4001.53846154 , 3974.35897436 , 4148.20512821 , 4043.58974359 , 2042.0 , 2037.0 , 67.495 , 0.0 , 0.0 , 0.0 , 0.0 , 

24.0 , 4103.07692308 , 4060.51282051 , 3663.58974359 , 3830.76923077 , 4128.20512821 , 4119.48717949 , 4178.97435897 , 4134.87179487 , 4154.35897436 , 4136.92307692 , 4011.28205128 , 3977.43589744 , 4166.15384615 , 4059.48717949 , 2044.0 , 2030.0 , 67.506 , 0.0 , 0.0 , 0.0 , 0.0 , 

25.0 , 4107.17948718 , 4162.05128205 , 3768.20512821 , 3887.17948718 , 4129.23076923 , 4123.58974359 , 4184.1025641 , 4135.8974359 , 4200.0 , 4136.92307692 , 4052.30769231 , 3994.35897436 , 4235.38461538 , 4119.48717949 , 2046.0 , 2026.0 , 67.513 , 0.0 , 0.0 , 0.0 , 0.0 , 

26.0 , 4108.20512821 , 4126.66666667 , 3758.97435897 , 3861.02564103 , 4130.25641026 , 4119.48717949 , 4167.69230769 , 4129.23076923 , 4185.12820513 , 4135.8974359 , 4047.17948718 , 3998.46153846 , 4212.30769231 , 4106.15384615 , 2048.0 , 2021.0 , 67.524 , 0.0 , 0.0 , 0.0 , 0.0 , 

27.0 , 4104.1025641 , 3999.48717949 , 3653.33333333 , 3794.35897436 , 4131.79487179 , 4112.82051282 , 4157.43589744 , 4126.15384615 , 4129.23076923 , 4134.87179487 , 3994.35897436 , 3979.48717949 , 4129.74358974 , 4028.71794872 , 2048.0 , 2023.0 , 67.529 , 0.0 , 0.0 , 0.0 , 0.0 , 

28.0 , 4098.97435897 , 4022.56410256 , 3665.12820513 , 3815.38461538 , 4130.76923077 , 4117.94871795 , 4167.17948718 , 4129.74358974 , 4144.61538462 , 4136.41025641 , 3997.43589744 , 3985.12820513 , 4150.25641026 , 4040.51282051 , 2051.0 , 2030.0 , 67.538 , 0.0 , 0.0 , 0.0 , 0.0 , 

29.0 , 4100.51282051 , 4106.66666667 , 3742.05128205 , 3864.1025641 , 4128.71794872 , 4122.56410256 , 4173.33333333 , 4130.25641026 , 4184.1025641 , 4136.92307692 , 4034.35897436 , 4007.69230769 , 4207.69230769 , 4097.94871795 , 2051.0 , 2032.0 , 67.544 , 0.0 , 0.0 , 0.0 , 0.0 , 

30.0 , 4104.61538462 , 4115.8974359 , 3767.69230769 , 3871.28205128 , 4131.28205128 , 4120.0 , 4175.8974359 , 4133.84615385 , 4188.71794872 , 4134.87179487 , 4044.61538462 , 4012.82051282 , 4214.35897436 , 4106.15384615 , 2051.0 , 2033.0 , 67.553 , 0.0 , 0.0 , 0.0 , 0.0 , 

31.0 , 4106.15384615 , 4182.56410256 , 3841.02564103 , 3914.35897436 , 4131.28205128 , 4121.02564103 , 4185.12820513 , 4137.94871795 , 4211.28205128 , 4135.38461538 , 4071.79487179 , 4022.56410256 , 4258.46153846 , 4142.05128205 , 2048.0 , 2033.0 , 67.558 , 0.0 , 0.0 , 0.0 , 0.0 , 

32.0 , 4105.64102564 , 4207.69230769 , 3869.74358974 , 3924.61538462 , 4127.17948718 , 4122.05128205 , 4180.0 , 4133.84615385 , 4207.69230769 , 4137.43589744 , 4077.43589744 , 4024.61538462 , 4263.58974359 , 4157.43589744 , 2047.0 , 2037.0 , 67.568 , 0.0 , 0.0 , 0.0 , 0.0 , 

33.0 , 4104.61538462 , 4060.51282051 , 3750.25641026 , 3834.87179487 , 4127.69230769 , 4121.53846154 , 4164.61538462 , 4129.74358974 , 4142.05128205 , 4136.92307692 , 4016.41025641 , 3996.41025641 , 4154.87179487 , 4072.82051282 , 2048.0 , 2043.0 , 67.575 , 0.0 , 0.0 , 0.0 , 0.0 , 

34.0 , 4098.46153846 , 3986.66666667 , 3693.84615385 , 3800.0 , 4131.28205128 , 4124.1025641 , 4163.07692308 , 4131.79487179 , 4122.05128205 , 4135.38461538 , 3986.15384615 , 3979.48717949 , 4111.28205128 , 4021.02564103 , 2046.0 , 2046.0 , 67.583 , 0.0 , 0.0 , 0.0 , 0.0 , 

35.0 , 4095.38461538 , 4048.71794872 , 3755.8974359 , 3847.69230769 , 4132.30769231 , 4125.64102564 , 4168.20512821 , 4131.28205128 , 4160.51282051 , 4135.8974359 , 4006.15384615 , 3992.30769231 , 4154.35897436 , 4050.76923077 , 2042.0 , 2048.0 , 67.592 , 0.0 , 0.0 , 0.0 , 0.0 , 

36.0 , 4100.0 , 4071.28205128 , 3784.61538462 , 3861.02564103 , 4129.74358974 , 4121.53846154 , 4164.1025641 , 4130.76923077 , 4175.38461538 , 4136.41025641 , 4015.38461538 , 4002.56410256 , 4164.1025641 , 4067.69230769 , 2038.0 , 2049.0 , 67.598 , 0.0 , 0.0 , 0.0 , 0.0 , 

37.0 , 4105.64102564 , 4064.1025641 , 3781.53846154 , 3854.87179487 , 4130.76923077 , 4120.51282051 , 4161.53846154 , 4130.25641026 , 4167.17948718 , 4135.8974359 , 4018.46153846 , 4005.64102564 , 4165.64102564 , 4068.20512821 , 2036.0 , 2050.0 , 67.608 , 0.0 , 0.0 , 0.0 , 0.0 , 

38.0 , 4103.58974359 , 4096.41025641 , 3811.28205128 , 3879.48717949 , 4132.30769231 , 4122.05128205 , 4166.15384615 , 4129.23076923 , 4175.38461538 , 4135.8974359 , 4032.82051282 , 4009.74358974 , 4197.43589744 , 4087.17948718 , 2035.0 , 2049.0 , 67.615 , 0.0 , 0.0 , 0.0 , 0.0 , 

39.0 , 4103.58974359 , 4139.48717949 , 3856.92307692 , 3909.74358974 , 4130.25641026 , 4122.05128205 , 4176.41025641 , 4136.41025641 , 4193.33333333 , 4135.8974359 , 4052.30769231 , 4018.46153846 , 4224.1025641 , 4114.35897436 , 2035.0 , 2047.0 , 67.625 , 0.0 , 0.0 , 0.0 , 0.0 , 

40.0 , 4105.64102564 , 4149.74358974 , 3866.66666667 , 3909.74358974 , 4128.71794872 , 4119.48717949 , 4178.46153846 , 4138.46153846 , 4184.61538462 , 4136.41025641 , 4059.48717949 , 4022.05128205 , 4218.97435897 , 4115.8974359 , 2039.0 , 2040.0 , 67.63 , 0.0 , 0.0 , 0.0 , 0.0 , 

41.0 , 4105.12820513 , 4096.92307692 , 3812.30769231 , 3873.84615385 , 4131.79487179 , 4119.48717949 , 4171.79487179 , 4129.74358974 , 4147.69230769 , 4135.8974359 , 4027.69230769 , 4007.17948718 , 4172.82051282 , 4072.82051282 , 2045.0 , 2035.0 , 67.641 , 0.0 , 0.0 , 0.0 , 0.0 , 

42.0 , 4103.58974359 , 4067.69230769 , 3784.1025641 , 3859.48717949 , 4132.82051282 , 4124.61538462 , 4168.20512821 , 4129.74358974 , 4139.48717949 , 4135.8974359 , 4004.1025641 , 3995.38461538 , 4144.61538462 , 4046.15384615 , 2058.0 , 2025.0 , 67.646 , 0.0 , 0.0 , 0.0 , 0.0 , 

43.0 , 4107.69230769 , 4103.07692308 , 3810.25641026 , 3878.97435897 , 4131.28205128 , 4125.64102564 , 4170.25641026 , 4132.82051282 , 4158.97435897 , 4135.8974359 , 4012.30769231 , 4005.64102564 , 4156.92307692 , 4055.38461538 , 2063.0 , 2021.0 , 67.657 , 0.0 , 0.0 , 0.0 , 0.0 , 

44.0 , 4111.79487179 , 4130.76923077 , 3826.66666667 , 3892.82051282 , 4132.30769231 , 4123.07692308 , 4172.30769231 , 4128.71794872 , 4170.25641026 , 4136.41025641 , 4016.41025641 , 4014.87179487 , 4168.71794872 , 4059.48717949 , 2065.0 , 2019.0 , 67.662 , 0.0 , 0.0 , 0.0 , 0.0 , 

45.0 , 4113.33333333 , 4152.82051282 , 3847.17948718 , 3908.71794872 , 4134.35897436 , 4127.17948718 , 4174.87179487 , 4133.33333333 , 4183.58974359 , 4134.87179487 , 4024.1025641 , 4023.07692308 , 4191.28205128 , 4075.38461538 , 2062.0 , 2021.0 , 67.672 , 0.0 , 0.0 , 0.0 , 0.0 , 

46.0 , 4110.25641026 , 4127.69230769 , 3830.25641026 , 3893.33333333 , 4133.84615385 , 4127.69230769 , 4171.28205128 , 4137.94871795 , 4176.92307692 , 4133.84615385 , 4014.87179487 , 4023.07692308 , 4186.15384615 , 4067.69230769 , 2059.0 , 2026.0 , 67.678 , 0.0 , 0.0 , 0.0 , 0.0 , 

47.0 , 4101.53846154 , 4057.43589744 , 3762.56410256 , 3849.74358974 , 4131.28205128 , 4120.51282051 , 4165.64102564 , 4135.38461538 , 4145.64102564 , 4135.8974359 , 3975.8974359 , 4005.64102564 , 4131.79487179 , 4023.07692308 , 2052.0 , 2037.0 , 67.689 , 0.0 , 0.0 , 0.0 , 0.0 , 

48.0 , 4095.38461538 , 4063.07692308 , 3763.07692308 , 3859.48717949 , 4127.69230769 , 4119.48717949 , 4171.79487179 , 4134.87179487 , 4146.66666667 , 4137.43589744 , 3969.74358974 , 4000.0 , 4123.07692308 , 4023.58974359 , 2051.0 , 2042.0 , 67.694 , 0.0 , 0.0 , 0.0 , 0.0 , 

49.0 , 4096.41025641 , 4095.38461538 , 3800.0 , 3883.58974359 , 4127.17948718 , 4120.51282051 , 4175.8974359 , 4136.41025641 , 4163.07692308 , 4136.92307692 , 3989.23076923 , 4006.15384615 , 4146.15384615 , 4045.12820513 , 2052.0 , 2045.0 , 67.704 , 0.0 , 0.0 , 0.0 , 0.0 , 

50.0 , 4101.02564103 , 4090.76923077 , 3811.28205128 , 3881.53846154 , 4130.76923077 , 4118.97435897 , 4167.69230769 , 4136.92307692 , 4164.61538462 , 4135.8974359 , 3992.30769231 , 4005.12820513 , 4149.74358974 , 4044.1025641 , 2054.0 , 2046.0 , 67.71 , 0.0 , 0.0 , 0.0 , 0.0 , 

51.0 , 4103.07692308 , 4157.94871795 , 3869.74358974 , 3915.8974359 , 4130.76923077 , 4120.51282051 , 4164.1025641 , 4135.38461538 , 4182.56410256 , 4136.41025641 , 4014.35897436 , 4014.87179487 , 4186.66666667 , 4077.43589744 , 2052.0 , 2045.0 , 67.72 , 0.0 , 0.0 , 0.0 , 0.0 , 

52.0 , 4106.15384615 , 4189.23076923 , 3879.48717949 , 3926.15384615 , 4129.74358974 , 4122.05128205 , 4165.12820513 , 4128.20512821 , 4181.02564103 , 4136.41025641 , 4018.46153846 , 4020.0 , 4189.74358974 , 4087.17948718 , 2050.0 , 2041.0 , 67.726 , 0.0 , 0.0 , 0.0 , 0.0 , 

53.0 , 4106.15384615 , 4106.66666667 , 3797.94871795 , 3884.1025641 , 4129.74358974 , 4117.43589744 , 4158.46153846 , 4122.56410256 , 4159.48717949 , 4135.8974359 , 3984.1025641 , 4002.05128205 , 4136.92307692 , 4039.48717949 , 2048.0 , 2036.0 , 67.735 , 0.0 , 0.0 , 0.0 , 0.0 , 

54.0 , 4104.1025641 , 4077.94871795 , 3772.82051282 , 3875.8974359 , 4129.23076923 , 4117.43589744 , 4159.48717949 , 4125.12820513 , 4167.17948718 , 4135.8974359 , 3977.94871795 , 3997.94871795 , 4137.43589744 , 4028.71794872 , 2045.0 , 2031.0 , 67.742 , 0.0 , 0.0 , 0.0 , 0.0 , 

55.0 , 4101.02564103 , 4105.64102564 , 3795.38461538 , 3887.17948718 , 4130.25641026 , 4120.51282051 , 4168.71794872 , 4131.28205128 , 4178.97435897 , 4135.8974359 , 3988.71794872 , 4007.69230769 , 4165.64102564 , 4049.74358974 , 2045.0 , 2029.0 , 67.749 , 0.0 , 0.0 , 0.0 , 0.0 , 

56.0 , 4098.97435897 , 4121.53846154 , 3813.84615385 , 3893.84615385 , 4131.79487179 , 4120.51282051 , 4172.82051282 , 4135.8974359 , 4180.0 , 4135.8974359 , 3988.20512821 , 4012.30769231 , 4167.69230769 , 4058.46153846 , 2047.0 , 2028.0 , 67.758 , 0.0 , 0.0 , 0.0 , 0.0 , 

57.0 , 4096.92307692 , 4126.15384615 , 3823.07692308 , 3901.02564103 , 4129.23076923 , 4120.0 , 4168.71794872 , 4136.41025641 , 4167.69230769 , 4135.8974359 , 3977.43589744 , 4012.82051282 , 4155.8974359 , 4050.25641026 , 2048.0 , 2026.0 , 67.764 , 0.0 , 0.0 , 0.0 , 0.0 , 

58.0 , 4097.43589744 , 4101.53846154 , 3801.53846154 , 3885.64102564 , 4126.66666667 , 4120.0 , 4166.15384615 , 4138.46153846 , 4142.56410256 , 4135.8974359 , 3954.87179487 , 4010.76923077 , 4129.74358974 , 4029.23076923 , 2050.0 , 2023.0 , 67.774 , 0.0 , 0.0 , 0.0 , 0.0 , 

59.0 , 4097.94871795 , 4095.8974359 , 3819.48717949 , 3885.64102564 , 4127.69230769 , 4118.46153846 , 4165.12820513 , 4137.94871795 , 4146.66666667 , 4135.8974359 , 3953.84615385 , 4011.79487179 , 4133.84615385 , 4037.43589744 , 2060.0 , 2022.0 , 67.78 , 0.0 , 0.0 , 0.0 , 0.0 , 

60.0 , 4101.02564103 , 4111.79487179 , 3861.53846154 , 3898.97435897 , 4129.74358974 , 4117.43589744 , 4156.92307692 , 4129.74358974 , 4164.1025641 , 4135.8974359 , 3963.07692308 , 4016.92307692 , 4150.25641026 , 4052.30769231 , 2065.0 , 2020.0 , 67.791 , 0.0 , 0.0 , 0.0 , 0.0 , 

61.0 , 4100.51282051 , 4085.64102564 , 3819.48717949 , 3878.46153846 , 4130.25641026 , 4117.94871795 , 4151.28205128 , 4125.12820513 , 4149.23076923 , 4135.8974359 , 3941.53846154 , 4011.79487179 , 4120.0 , 4017.94871795 , 2067.0 , 2021.0 , 67.796 , 0.0 , 0.0 , 0.0 , 0.0 , 

62.0 , 4099.48717949 , 4105.12820513 , 3814.87179487 , 3890.25641026 , 4128.71794872 , 4122.05128205 , 4160.51282051 , 4129.74358974 , 4158.97435897 , 4135.8974359 , 3947.17948718 , 4014.87179487 , 4132.82051282 , 4026.15384615 , 2065.0 , 2023.0 , 67.806 , 0.0 , 0.0 , 0.0 , 0.0 , 

63.0 , 4102.05128205 , 4147.17948718 , 3865.64102564 , 3920.51282051 , 4127.69230769 , 4122.56410256 , 4163.07692308 , 4130.76923077 , 4184.1025641 , 4135.8974359 , 3971.79487179 , 4025.12820513 , 4179.48717949 , 4070.25641026 , 2057.0 , 2027.0 , 67.812 , 0.0 , 0.0 , 0.0 , 0.0 , 

64.0 , 4103.58974359 , 4089.74358974 , 3817.43589744 , 3888.20512821 , 4130.25641026 , 4120.0 , 4156.92307692 , 4126.66666667 , 4158.97435897 , 4135.8974359 , 3942.56410256 , 4016.92307692 , 4146.66666667 , 4040.51282051 , 2054.0 , 2031.0 , 67.822 , 0.0 , 0.0 , 0.0 , 0.0 , 

65.0 , 4099.48717949 , 4057.94871795 , 3777.43589744 , 3872.30769231 , 4131.28205128 , 4121.53846154 , 4164.1025641 , 4127.17948718 , 4146.15384615 , 4135.8974359 , 3924.1025641 , 4008.20512821 , 4118.97435897 , 4014.35897436 , 2045.0 , 2039.0 , 67.827 , 0.0 , 0.0 , 0.0 , 0.0 , 

66.0 , 4098.46153846 , 4104.1025641 , 3826.15384615 , 3901.02564103 , 4129.74358974 , 4122.05128205 , 4171.79487179 , 4135.38461538 , 4162.05128205 , 4135.8974359 , 3941.02564103 , 4008.20512821 , 4145.12820513 , 4042.05128205 , 2041.0 , 2041.0 , 67.837 , 0.0 , 0.0 , 0.0 , 0.0 , 

67.0 , 4101.02564103 , 4116.41025641 , 3841.53846154 , 3905.64102564 , 4129.74358974 , 4120.51282051 , 4167.69230769 , 4140.0 , 4154.87179487 , 4136.41025641 , 3936.41025641 , 4008.71794872 , 4140.0 , 4042.05128205 , 2039.0 , 2041.0 , 67.843 , 0.0 , 0.0 , 0.0 , 0.0 , 

68.0 , 4101.02564103 , 4100.0 , 3823.07692308 , 3898.97435897 , 4129.23076923 , 4124.61538462 , 4167.69230769 , 4133.84615385 , 4138.46153846 , 4135.8974359 , 3921.02564103 , 4009.74358974 , 4116.41025641 , 4020.0 , 2035.0 , 2035.0 , 67.853 , 0.0 , 0.0 , 0.0 , 0.0 , 

69.0 , 4103.07692308 , 4084.61538462 , 3825.12820513 , 3898.46153846 , 4127.17948718 , 4125.12820513 , 4166.15384615 , 4131.79487179 , 4136.41025641 , 4135.8974359 , 3921.53846154 , 4004.1025641 , 4111.79487179 , 4017.43589744 , 2033.0 , 2031.0 , 67.86 , 0.0 , 0.0 , 0.0 , 0.0 , 

70.0 , 4105.64102564 , 4082.56410256 , 3837.43589744 , 3898.46153846 , 4127.17948718 , 4115.8974359 , 4160.51282051 , 4133.84615385 , 4144.1025641 , 4136.41025641 , 3927.17948718 , 4001.53846154 , 4120.51282051 , 4024.61538462 , 2035.0 , 2025.0 , 67.868 , 0.0 , 0.0 , 0.0 , 0.0 , 

71.0 , 4104.61538462 , 4096.92307692 , 3837.43589744 , 3900.0 , 4130.76923077 , 4115.8974359 , 4164.1025641 , 4128.20512821 , 4148.20512821 , 4135.8974359 , 3921.53846154 , 4007.17948718 , 4121.02564103 , 4027.17948718 , 2035.0 , 2024.0 , 67.875 , 0.0 , 0.0 , 0.0 , 0.0 , 

72.0 , 4102.56410256 , 4073.84615385 , 3796.41025641 , 3880.51282051 , 4133.33333333 , 4123.58974359 , 4167.17948718 , 4128.71794872 , 4138.97435897 , 4134.87179487 , 3903.58974359 , 4000.51282051 , 4100.51282051 , 4009.23076923 , 2039.0 , 2025.0 , 67.881 , 0.0 , 0.0 , 0.0 , 0.0 , 

73.0 , 4105.12820513 , 4053.33333333 , 3773.33333333 , 3873.33333333 , 4132.30769231 , 4122.05128205 , 4166.66666667 , 4136.41025641 , 4136.92307692 , 4135.38461538 , 3903.58974359 , 3996.41025641 , 4102.05128205 , 4004.1025641 , 2039.0 , 2027.0 , 67.892 , 0.0 , 0.0 , 0.0 , 0.0 , 

74.0 , 4107.17948718 , 4103.58974359 , 3817.43589744 , 3906.66666667 , 4130.76923077 , 4118.46153846 , 4168.71794872 , 4140.0 , 4158.46153846 , 4136.41025641 , 3929.23076923 , 4012.82051282 , 4146.15384615 , 4040.51282051 , 2040.0 , 2029.0 , 67.898 , 0.0 , 0.0 , 0.0 , 0.0 , 

75.0 , 4108.20512821 , 4136.92307692 , 3838.46153846 , 3920.51282051 , 4130.76923077 , 4123.07692308 , 4171.28205128 , 4138.46153846 , 4169.74358974 , 4135.8974359 , 3931.28205128 , 4021.02564103 , 4164.1025641 , 4062.05128205 , 2039.0 , 2026.0 , 67.909 , 0.0 , 0.0 , 0.0 , 0.0 , 

76.0 , 4107.69230769 , 4098.97435897 , 3793.84615385 , 3897.94871795 , 4129.23076923 , 4125.12820513 , 4168.20512821 , 4136.92307692 , 4147.17948718 , 4135.8974359 , 3902.05128205 , 4008.71794872 , 4133.84615385 , 4037.43589744 , 2039.0 , 2026.0 , 67.914 , 0.0 , 0.0 , 0.0 , 0.0 , 

77.0 , 4109.23076923 , 4082.05128205 , 3767.17948718 , 3894.87179487 , 4129.74358974 , 4120.0 , 4165.64102564 , 4136.41025641 , 4130.76923077 , 4136.41025641 , 3888.20512821 , 4001.02564103 , 4119.48717949 , 4024.1025641 , 2041.0 , 2025.0 , 67.924 , 0.0 , 0.0 , 0.0 , 0.0 , 

78.0 , 4109.23076923 , 4124.61538462 , 3798.46153846 , 3915.38461538 , 4131.28205128 , 4114.35897436 , 4165.12820513 , 4135.38461538 , 4150.76923077 , 4135.8974359 , 3902.56410256 , 4004.1025641 , 4143.07692308 , 4051.79487179 , 2042.0 , 2026.0 , 67.929 , 0.0 , 0.0 , 0.0 , 0.0 , 

79.0 , 4109.74358974 , 4124.1025641 , 3801.02564103 , 3908.20512821 , 4129.74358974 , 4114.35897436 , 4165.12820513 , 4137.43589744 , 4156.41025641 , 4135.8974359 , 3902.05128205 , 3999.48717949 , 4143.58974359 , 4055.8974359 , 2044.0 , 2031.0 , 67.939 , 0.0 , 0.0 , 0.0 , 0.0 , 

80.0 , 4106.66666667 , 4081.53846154 , 3754.87179487 , 3877.94871795 , 4127.69230769 , 4116.92307692 , 4162.56410256 , 4137.94871795 , 4134.35897436 , 4136.41025641 , 3874.35897436 , 3989.74358974 , 4109.23076923 , 4024.61538462 , 2046.0 , 2035.0 , 67.946 , 0.0 , 0.0 , 0.0 , 0.0 , 

81.0 , 4100.51282051 , 4076.92307692 , 3734.87179487 , 3871.28205128 , 4128.71794872 , 4118.97435897 , 4157.94871795 , 4131.28205128 , 4136.41025641 , 4135.38461538 , 3865.12820513 , 3989.74358974 , 4101.53846154 , 4016.92307692 , 2048.0 , 2040.0 , 67.955 , 0.0 , 0.0 , 0.0 , 0.0 , 

82.0 , 4100.0 , 4082.56410256 , 3736.41025641 , 3879.48717949 , 4129.74358974 , 4117.94871795 , 4155.8974359 , 4127.17948718 , 4148.71794872 , 4134.35897436 , 3873.33333333 , 3988.71794872 , 4117.43589744 , 4028.71794872 , 2046.0 , 2043.0 , 67.961 , 0.0 , 0.0 , 0.0 , 0.0 , 

83.0 , 4104.61538462 , 4074.87179487 , 3727.69230769 , 3879.48717949 , 4129.74358974 , 4117.94871795 , 4158.97435897 , 4129.74358974 , 4140.51282051 , 4134.35897436 , 3866.66666667 , 3982.05128205 , 4115.8974359 , 4025.64102564 , 2046.0 , 2043.0 , 67.972 , 0.0 , 0.0 , 0.0 , 0.0 , 

84.0 , 4103.07692308 , 4085.64102564 , 3730.76923077 , 3881.53846154 , 4129.74358974 , 4121.02564103 , 4160.51282051 , 4131.28205128 , 4142.56410256 , 4135.38461538 , 3857.94871795 , 3981.53846154 , 4115.8974359 , 4024.61538462 , 2043.0 , 2037.0 , 67.978 , 0.0 , 0.0 , 0.0 , 0.0 , 

85.0 , 4097.94871795 , 4088.20512821 , 3744.1025641 , 3887.69230769 , 4128.20512821 , 4121.53846154 , 4161.02564103 , 4130.76923077 , 4150.76923077 , 4135.38461538 , 3858.97435897 , 3986.15384615 , 4120.51282051 , 4033.33333333 , 2042.0 , 2032.0 , 67.987 , 0.0 , 0.0 , 0.0 , 0.0 , 

86.0 , 4100.0 , 4071.28205128 , 3732.30769231 , 3881.02564103 , 4128.71794872 , 4121.02564103 , 4161.53846154 , 4133.33333333 , 4131.28205128 , 4135.38461538 , 3848.71794872 , 3980.51282051 , 4104.61538462 , 4022.56410256 , 2038.0 , 2023.0 , 67.993 , 0.0 , 0.0 , 0.0 , 0.0 , 

87.0 , 4099.48717949 , 4069.23076923 , 3723.07692308 , 3875.38461538 , 4130.25641026 , 4123.58974359 , 4165.64102564 , 4133.33333333 , 4116.92307692 , 4136.41025641 , 3835.8974359 , 3970.25641026 , 4091.79487179 , 4004.61538462 , 2039.0 , 2020.0 , 68.003 , 0.0 , 0.0 , 0.0 , 0.0 , 

88.0 , 4096.92307692 , 4067.17948718 , 3744.1025641 , 3880.51282051 , 4130.25641026 , 4125.64102564 , 4171.28205128 , 4134.87179487 , 4129.23076923 , 4135.8974359 , 3837.94871795 , 3969.23076923 , 4095.38461538 , 4008.71794872 , 2039.0 , 2021.0 , 68.01 , 0.0 , 0.0 , 0.0 , 0.0 , 

89.0 , 4101.53846154 , 4081.53846154 , 3778.46153846 , 3891.79487179 , 4129.23076923 , 4125.64102564 , 4169.23076923 , 4133.84615385 , 4145.12820513 , 4135.8974359 , 3847.69230769 , 3977.43589744 , 4108.20512821 , 4026.66666667 , 2039.0 , 2024.0 , 68.016 , 0.0 , 0.0 , 0.0 , 0.0 , 

90.0 , 4107.17948718 , 4112.30769231 , 3795.8974359 , 3903.07692308 , 4128.20512821 , 4127.17948718 , 4161.53846154 , 4131.28205128 , 4143.07692308 , 4136.41025641 , 3849.74358974 , 3985.12820513 , 4120.51282051 , 4035.8974359 , 2042.0 , 2029.0 , 68.026 , 0.0 , 0.0 , 0.0 , 0.0 , 

91.0 , 4104.1025641 , 4082.05128205 , 3762.56410256 , 3889.74358974 , 4126.15384615 , 4125.12820513 , 4155.8974359 , 4131.28205128 , 4121.02564103 , 4135.8974359 , 3827.17948718 , 3979.48717949 , 4105.12820513 , 4020.0 , 2044.0 , 2036.0 , 68.032 , 0.0 , 0.0 , 0.0 , 0.0 , 

92.0 , 4101.53846154 , 4054.87179487 , 3741.53846154 , 3884.1025641 , 4127.17948718 , 4120.51282051 , 4160.0 , 4129.74358974 , 4117.43589744 , 4135.8974359 , 3810.25641026 , 3974.87179487 , 4094.87179487 , 4015.8974359 , 2045.0 , 2039.0 , 68.042 , 0.0 , 0.0 , 0.0 , 0.0 , 

93.0 , 4104.61538462 , 4105.64102564 , 3782.56410256 , 3913.33333333 , 4128.71794872 , 4118.97435897 , 4164.61538462 , 4128.20512821 , 4141.02564103 , 4135.8974359 , 3829.23076923 , 3981.53846154 , 4131.28205128 , 4045.12820513 , 2043.0 , 2041.0 , 68.048 , 0.0 , 0.0 , 0.0 , 0.0 , 

94.0 , 4108.20512821 , 4143.58974359 , 3813.33333333 , 3930.25641026 , 4130.25641026 , 4119.48717949 , 4163.07692308 , 4132.30769231 , 4153.33333333 , 4135.8974359 , 3848.71794872 , 3987.69230769 , 4164.61538462 , 4069.23076923 , 2043.0 , 2040.0 , 68.06 , 0.0 , 0.0 , 0.0 , 0.0 , 

95.0 , 4105.64102564 , 4098.97435897 , 3765.12820513 , 3897.94871795 , 4129.74358974 , 4115.8974359 , 4157.43589744 , 4133.84615385 , 4126.66666667 , 4134.35897436 , 3825.64102564 , 3974.87179487 , 4128.20512821 , 4042.05128205 , 2042.0 , 2038.0 , 68.065 , 0.0 , 0.0 , 0.0 , 0.0 , 

96.0 , 4106.15384615 , 4053.84615385 , 3714.87179487 , 3874.87179487 , 4128.71794872 , 4114.87179487 , 4164.61538462 , 4129.23076923 , 4096.41025641 , 4133.84615385 , 3792.82051282 , 3957.43589744 , 4081.02564103 , 4001.02564103 , 2042.0 , 2035.0 , 68.075 , 0.0 , 0.0 , 0.0 , 0.0 , 

97.0 , 4107.17948718 , 4087.17948718 , 3748.20512821 , 3902.05128205 , 4129.23076923 , 4117.94871795 , 4173.33333333 , 4129.23076923 , 4105.64102564 , 4135.8974359 , 3801.02564103 , 3959.48717949 , 4097.94871795 , 4013.33333333 , 2043.0 , 2031.0 , 68.079 , 0.0 , 0.0 , 0.0 , 0.0 , 

98.0 , 4104.1025641 , 4105.64102564 , 3772.30769231 , 3906.66666667 , 4131.28205128 , 4118.97435897 , 4169.74358974 , 4136.41025641 , 4116.92307692 , 4136.92307692 , 3809.23076923 , 3967.69230769 , 4110.76923077 , 4030.25641026 , 2045.0 , 2024.0 , 68.09 , 0.0 , 0.0 , 0.0 , 0.0 , 

99.0 , 4101.53846154 , 4052.30769231 , 3722.56410256 , 3867.69230769 , 4131.79487179 , 4118.46153846 , 4163.07692308 , 4136.41025641 , 4095.8974359 , 4135.38461538 , 3779.48717949 , 3961.53846154 , 4070.25641026 , 3997.43589744 , 2047.0 , 2021.0 , 68.095 , 0.0 , 0.0 , 0.0 , 0.0 , 

100.0 , 4107.69230769 , 4074.87179487 , 3733.84615385 , 3884.61538462 , 4133.33333333 , 4121.53846154 , 4167.69230769 , 4130.76923077 , 4110.25641026 , 4135.38461538 , 3782.05128205 , 3969.74358974 , 4086.15384615 , 4005.64102564 , 2051.0 , 2020.0 , 68.105 , 0.0 , 0.0 , 0.0 , 0.0 , 

101.0 , 4110.25641026 , 4191.28205128 , 3829.74358974 , 3951.28205128 , 4132.30769231 , 4123.58974359 , 4173.84615385 , 4130.76923077 , 4163.58974359 , 4136.41025641 , 3833.33333333 , 3999.48717949 , 4175.38461538 , 4079.48717949 , 2051.0 , 2021.0 , 68.111 , 0.0 , 0.0 , 0.0 , 0.0 , 

102.0 , 4107.17948718 , 4170.76923077 , 3811.28205128 , 3932.30769231 , 4130.25641026 , 4120.51282051 , 4169.23076923 , 4134.87179487 , 4142.05128205 , 4135.8974359 , 3823.58974359 , 3997.94871795 , 4168.71794872 , 4077.94871795 , 2050.0 , 2032.0 , 68.121 , 0.0 , 0.0 , 0.0 , 0.0 , 

