['COUNTER', 'AF3', 'F7', 'F3', 'FC5', 'T7', 'P7', 'O1', 'O2', 'P8', 'T8', 'FC6', 'F4', 'F8', 'AF4', 'GYROX', 'GYROY', 'TIMESTAMP', 'FUNC_ID', 'FUNC_VALUE', 'MARKER', 'SYNC_SIGNAL']
22.0 , 4133.33333333 , 4125.12820513 , 4144.1025641 , 4201.53846154 , 4132.82051282 , 4131.79487179 , 4152.30769231 , 4129.74358974 , 4140.51282051 , 4135.8974359 , 4182.05128205 , 4111.28205128 , 4158.46153846 , 4134.35897436 , 2043.0 , 2019.0 , 33.943 , 0.0 , 0.0 , 0.0 , 0.0 , 

23.0 , 4130.25641026 , 4135.38461538 , 4164.1025641 , 4203.07692308 , 4132.82051282 , 4133.33333333 , 4155.38461538 , 4128.71794872 , 4151.79487179 , 4136.41025641 , 4185.64102564 , 4115.38461538 , 4171.28205128 , 4139.48717949 , 2042.0 , 2023.0 , 33.952 , 0.0 , 0.0 , 0.0 , 0.0 , 

24.0 , 4129.74358974 , 4130.76923077 , 4160.0 , 4200.0 , 4130.76923077 , 4131.79487179 , 4155.8974359 , 4128.71794872 , 4152.30769231 , 4135.38461538 , 4186.66666667 , 4110.25641026 , 4168.71794872 , 4140.0 , 2043.0 , 2027.0 , 33.958 , 0.0 , 0.0 , 0.0 , 0.0 , 

25.0 , 4132.82051282 , 4118.97435897 , 4142.56410256 , 4196.41025641 , 4130.25641026 , 4128.71794872 , 4151.28205128 , 4127.17948718 , 4147.69230769 , 4134.87179487 , 4182.56410256 , 4105.64102564 , 4154.35897436 , 4132.82051282 , 2046.0 , 2035.0 , 33.969 , 0.0 , 0.0 , 0.0 , 0.0 , 

26.0 , 4129.23076923 , 4117.43589744 , 4146.15384615 , 4196.41025641 , 4130.76923077 , 4128.71794872 , 4149.74358974 , 4124.61538462 , 4140.51282051 , 4136.41025641 , 4181.53846154 , 4100.51282051 , 4153.33333333 , 4132.30769231 , 2046.0 , 2035.0 , 33.973 , 0.0 , 0.0 , 0.0 , 0.0 , 

27.0 , 4126.15384615 , 4128.20512821 , 4155.8974359 , 4203.07692308 , 4133.33333333 , 4130.76923077 , 4150.76923077 , 4126.66666667 , 4147.17948718 , 4136.92307692 , 4182.56410256 , 4100.51282051 , 4160.51282051 , 4140.0 , 2045.0 , 2039.0 , 34.092 , 0.0 , 0.0 , 0.0 , 0.0 , 

28.0 , 4129.74358974 , 4131.28205128 , 4149.74358974 , 4201.02564103 , 4132.30769231 , 4131.28205128 , 4149.23076923 , 4129.74358974 , 4156.92307692 , 4135.8974359 , 4184.1025641 , 4106.66666667 , 4160.51282051 , 4133.84615385 , 2045.0 , 2045.0 , 34.095 , 0.0 , 0.0 , 0.0 , 0.0 , 

29.0 , 4132.82051282 , 4119.48717949 , 4136.92307692 , 4190.76923077 , 4130.25641026 , 4131.79487179 , 4148.20512821 , 4129.23076923 , 4149.23076923 , 4135.8974359 , 4185.64102564 , 4107.17948718 , 4153.33333333 , 4123.07692308 , 2046.0 , 2045.0 , 34.095 , 0.0 , 0.0 , 0.0 , 0.0 , 

30.0 , 4128.71794872 , 4118.97435897 , 4137.94871795 , 4193.33333333 , 4131.79487179 , 4132.82051282 , 4147.69230769 , 4126.66666667 , 4144.61538462 , 4136.41025641 , 4186.15384615 , 4100.51282051 , 4152.30769231 , 4128.20512821 , 2045.0 , 2043.0 , 34.095 , 0.0 , 0.0 , 0.0 , 0.0 , 

31.0 , 4128.20512821 , 4137.43589744 , 4146.15384615 , 4203.07692308 , 4132.82051282 , 4132.30769231 , 4149.23076923 , 4126.15384615 , 4148.71794872 , 4135.8974359 , 4186.15384615 , 4104.61538462 , 4159.48717949 , 4137.94871795 , 2046.0 , 2041.0 , 34.095 , 0.0 , 0.0 , 0.0 , 0.0 , 

32.0 , 4130.25641026 , 4145.12820513 , 4151.28205128 , 4202.05128205 , 4131.79487179 , 4129.23076923 , 4151.28205128 , 4126.66666667 , 4147.69230769 , 4135.8974359 , 4189.23076923 , 4111.79487179 , 4161.53846154 , 4139.48717949 , 2044.0 , 2035.0 , 34.095 , 0.0 , 0.0 , 0.0 , 0.0 , 

33.0 , 4129.23076923 , 4132.82051282 , 4149.23076923 , 4197.94871795 , 4131.28205128 , 4129.23076923 , 4152.30769231 , 4127.69230769 , 4144.61538462 , 4135.8974359 , 4188.20512821 , 4107.69230769 , 4158.46153846 , 4137.43589744 , 2043.0 , 2032.0 , 34.095 , 0.0 , 0.0 , 0.0 , 0.0 , 

34.0 , 4127.17948718 , 4134.35897436 , 4142.05128205 , 4200.51282051 , 4130.76923077 , 4130.76923077 , 4151.79487179 , 4125.64102564 , 4145.64102564 , 4135.8974359 , 4186.15384615 , 4101.53846154 , 4166.66666667 , 4137.94871795 , 2042.0 , 2029.0 , 34.095 , 0.0 , 0.0 , 0.0 , 0.0 , 

35.0 , 4129.74358974 , 4143.58974359 , 4143.58974359 , 4201.02564103 , 4131.79487179 , 4131.79487179 , 4154.35897436 , 4125.64102564 , 4145.12820513 , 4135.8974359 , 4190.25641026 , 4106.15384615 , 4179.48717949 , 4137.94871795 , 2042.0 , 2025.0 , 34.095 , 0.0 , 0.0 , 0.0 , 0.0 , 

36.0 , 4129.74358974 , 4145.12820513 , 4164.1025641 , 4200.51282051 , 4133.33333333 , 4131.28205128 , 4154.35897436 , 4130.25641026 , 4151.28205128 , 4135.8974359 , 4197.94871795 , 4114.35897436 , 4187.17948718 , 4141.53846154 , 2042.0 , 2025.0 , 34.095 , 0.0 , 0.0 , 0.0 , 0.0 , 

37.0 , 4129.23076923 , 4142.56410256 , 4173.33333333 , 4202.56410256 , 4131.28205128 , 4131.28205128 , 4152.82051282 , 4130.76923077 , 4155.8974359 , 4135.8974359 , 4198.46153846 , 4115.38461538 , 4180.51282051 , 4140.51282051 , 2041.0 , 2027.0 , 34.095 , 0.0 , 0.0 , 0.0 , 0.0 , 

38.0 , 4127.69230769 , 4143.58974359 , 4168.71794872 , 4202.05128205 , 4130.76923077 , 4132.30769231 , 4153.33333333 , 4126.15384615 , 4153.33333333 , 4135.8974359 , 4191.79487179 , 4112.30769231 , 4167.69230769 , 4135.8974359 , 2040.0 , 2029.0 , 34.095 , 0.0 , 0.0 , 0.0 , 0.0 , 

39.0 , 4127.17948718 , 4142.56410256 , 4172.30769231 , 4200.0 , 4133.33333333 , 4132.30769231 , 4154.35897436 , 4125.64102564 , 4154.35897436 , 4135.8974359 , 4187.17948718 , 4113.84615385 , 4164.61538462 , 4144.61538462 , 2041.0 , 2033.0 , 34.095 , 0.0 , 0.0 , 0.0 , 0.0 , 

40.0 , 4130.25641026 , 4134.87179487 , 4170.25641026 , 4200.51282051 , 4132.82051282 , 4132.30769231 , 4149.23076923 , 4129.74358974 , 4151.28205128 , 4135.8974359 , 4185.64102564 , 4116.41025641 , 4168.20512821 , 4155.38461538 , 2041.0 , 2032.0 , 34.095 , 0.0 , 0.0 , 0.0 , 0.0 , 

41.0 , 4131.28205128 , 4132.30769231 , 4160.0 , 4201.53846154 , 4130.76923077 , 4131.28205128 , 4144.1025641 , 4129.23076923 , 4145.12820513 , 4135.8974359 , 4186.15384615 , 4113.84615385 , 4166.15384615 , 4153.84615385 , 2042.0 , 2032.0 , 34.095 , 0.0 , 0.0 , 0.0 , 0.0 , 

42.0 , 4127.17948718 , 4137.94871795 , 4163.07692308 , 4200.51282051 , 4130.76923077 , 4128.71794872 , 4144.61538462 , 4126.15384615 , 4149.23076923 , 4135.8974359 , 4188.20512821 , 4108.20512821 , 4164.1025641 , 4149.23076923 , 2042.0 , 2035.0 , 34.103 , 0.0 , 0.0 , 0.0 , 0.0 , 

43.0 , 4125.64102564 , 4144.61538462 , 4175.8974359 , 4201.53846154 , 4131.28205128 , 4128.20512821 , 4148.71794872 , 4126.15384615 , 4156.92307692 , 4135.8974359 , 4189.74358974 , 4108.20512821 , 4168.20512821 , 4154.87179487 , 2041.0 , 2036.0 , 34.109 , 0.0 , 0.0 , 0.0 , 0.0 , 

44.0 , 4126.66666667 , 4141.53846154 , 4176.41025641 , 4200.51282051 , 4131.28205128 , 4129.23076923 , 4148.71794872 , 4127.17948718 , 4152.82051282 , 4135.8974359 , 4187.17948718 , 4109.74358974 , 4167.17948718 , 4154.35897436 , 2041.0 , 2035.0 , 34.118 , 0.0 , 0.0 , 0.0 , 0.0 , 

45.0 , 4124.61538462 , 4131.79487179 , 4161.02564103 , 4195.8974359 , 4129.74358974 , 4126.66666667 , 4145.12820513 , 4125.64102564 , 4139.48717949 , 4135.8974359 , 4184.61538462 , 4107.17948718 , 4160.0 , 4140.0 , 2043.0 , 2036.0 , 34.123 , 0.0 , 0.0 , 0.0 , 0.0 , 

46.0 , 4125.12820513 , 4135.8974359 , 4161.02564103 , 4202.05128205 , 4128.20512821 , 4126.66666667 , 4147.69230769 , 4123.58974359 , 4143.58974359 , 4135.8974359 , 4190.76923077 , 4107.17948718 , 4165.64102564 , 4143.58974359 , 2044.0 , 2033.0 , 34.133 , 0.0 , 0.0 , 0.0 , 0.0 , 

47.0 , 4126.66666667 , 4145.64102564 , 4177.94871795 , 4206.66666667 , 4129.74358974 , 4129.23076923 , 4151.79487179 , 4128.20512821 , 4157.43589744 , 4135.8974359 , 4194.87179487 , 4107.17948718 , 4176.92307692 , 4156.92307692 , 2044.0 , 2032.0 , 34.139 , 0.0 , 0.0 , 0.0 , 0.0 , 

48.0 , 4123.58974359 , 4134.87179487 , 4165.12820513 , 4193.33333333 , 4131.28205128 , 4128.71794872 , 4151.28205128 , 4131.28205128 , 4148.20512821 , 4135.8974359 , 4187.69230769 , 4102.05128205 , 4164.1025641 , 4143.07692308 , 2044.0 , 2033.0 , 34.15 , 0.0 , 0.0 , 0.0 , 0.0 , 

49.0 , 4124.1025641 , 4120.51282051 , 4145.12820513 , 4181.53846154 , 4130.76923077 , 4127.69230769 , 4149.23076923 , 4125.12820513 , 4136.92307692 , 4135.8974359 , 4182.56410256 , 4098.97435897 , 4149.23076923 , 4126.15384615 , 2045.0 , 2034.0 , 34.156 , 0.0 , 0.0 , 0.0 , 0.0 , 

50.0 , 4131.28205128 , 4127.17948718 , 4162.56410256 , 4186.66666667 , 4131.28205128 , 4132.30769231 , 4152.82051282 , 4123.07692308 , 4147.69230769 , 4135.8974359 , 4185.64102564 , 4104.61538462 , 4161.53846154 , 4137.43589744 , 2045.0 , 2034.0 , 34.164 , 0.0 , 0.0 , 0.0 , 0.0 , 

51.0 , 4131.28205128 , 4126.15384615 , 4172.30769231 , 4189.23076923 , 4131.28205128 , 4133.84615385 , 4153.33333333 , 4129.23076923 , 4148.71794872 , 4135.8974359 , 4182.56410256 , 4105.64102564 , 4164.61538462 , 4142.56410256 , 2044.0 , 2034.0 , 34.173 , 0.0 , 0.0 , 0.0 , 0.0 , 

52.0 , 4129.74358974 , 4107.17948718 , 4151.28205128 , 4183.07692308 , 4132.30769231 , 4133.33333333 , 4152.82051282 , 4131.28205128 , 4137.94871795 , 4135.8974359 , 4175.8974359 , 4100.0 , 4144.1025641 , 4132.30769231 , 2043.0 , 2035.0 , 34.178 , 0.0 , 0.0 , 0.0 , 0.0 , 

53.0 , 4131.79487179 , 4122.56410256 , 4155.38461538 , 4186.66666667 , 4132.30769231 , 4132.82051282 , 4152.82051282 , 4124.61538462 , 4148.20512821 , 4135.8974359 , 4182.56410256 , 4098.97435897 , 4148.20512821 , 4136.41025641 , 2042.0 , 2035.0 , 34.188 , 0.0 , 0.0 , 0.0 , 0.0 , 

54.0 , 4134.35897436 , 4143.58974359 , 4171.28205128 , 4192.30769231 , 4131.79487179 , 4131.28205128 , 4152.82051282 , 4124.1025641 , 4157.94871795 , 4135.8974359 , 4188.20512821 , 4102.05128205 , 4164.1025641 , 4142.56410256 , 2042.0 , 2035.0 , 34.195 , 0.0 , 0.0 , 0.0 , 0.0 , 

55.0 , 4129.23076923 , 4127.17948718 , 4157.43589744 , 4186.15384615 , 4131.79487179 , 4131.28205128 , 4152.30769231 , 4127.69230769 , 4147.69230769 , 4135.8974359 , 4185.12820513 , 4100.51282051 , 4155.8974359 , 4136.92307692 , 2044.0 , 2036.0 , 34.205 , 0.0 , 0.0 , 0.0 , 0.0 , 

56.0 , 4126.66666667 , 4117.94871795 , 4149.23076923 , 4183.58974359 , 4131.79487179 , 4133.84615385 , 4152.30769231 , 4128.20512821 , 4143.58974359 , 4135.8974359 , 4184.1025641 , 4098.97435897 , 4155.38461538 , 4136.92307692 , 2041.0 , 2034.0 , 34.21 , 0.0 , 0.0 , 0.0 , 0.0 , 

57.0 , 4129.23076923 , 4133.84615385 , 4163.07692308 , 4188.71794872 , 4130.76923077 , 4132.82051282 , 4152.82051282 , 4127.69230769 , 4151.28205128 , 4135.8974359 , 4186.66666667 , 4101.02564103 , 4169.23076923 , 4142.56410256 , 2042.0 , 2033.0 , 34.221 , 0.0 , 0.0 , 0.0 , 0.0 , 

58.0 , 4130.76923077 , 4131.79487179 , 4165.64102564 , 4189.23076923 , 4131.79487179 , 4131.79487179 , 4151.79487179 , 4128.71794872 , 4153.33333333 , 4135.8974359 , 4185.64102564 , 4102.05128205 , 4164.61538462 , 4143.07692308 , 2041.0 , 2029.0 , 34.226 , 0.0 , 0.0 , 0.0 , 0.0 , 

59.0 , 4131.79487179 , 4110.76923077 , 4146.66666667 , 4184.1025641 , 4132.30769231 , 4132.30769231 , 4149.23076923 , 4129.74358974 , 4146.15384615 , 4135.8974359 , 4182.56410256 , 4099.48717949 , 4151.28205128 , 4136.92307692 , 2041.0 , 2029.0 , 34.236 , 0.0 , 0.0 , 0.0 , 0.0 , 

60.0 , 4133.84615385 , 4110.25641026 , 4136.41025641 , 4182.56410256 , 4133.33333333 , 4133.33333333 , 4150.25641026 , 4127.17948718 , 4138.97435897 , 4135.8974359 , 4181.53846154 , 4097.43589744 , 4151.79487179 , 4132.82051282 , 2039.0 , 2026.0 , 34.242 , 0.0 , 0.0 , 0.0 , 0.0 , 

61.0 , 4132.30769231 , 4129.23076923 , 4154.87179487 , 4186.15384615 , 4134.35897436 , 4132.82051282 , 4154.35897436 , 4128.71794872 , 4145.64102564 , 4135.8974359 , 4183.58974359 , 4098.97435897 , 4164.1025641 , 4144.61538462 , 2039.0 , 2027.0 , 34.251 , 0.0 , 0.0 , 0.0 , 0.0 , 

62.0 , 4129.23076923 , 4138.97435897 , 4173.33333333 , 4188.71794872 , 4132.82051282 , 4132.82051282 , 4156.92307692 , 4130.76923077 , 4154.35897436 , 4135.8974359 , 4188.71794872 , 4102.05128205 , 4173.33333333 , 4156.41025641 , 2037.0 , 2028.0 , 34.257 , 0.0 , 0.0 , 0.0 , 0.0 , 

63.0 , 4133.33333333 , 4131.28205128 , 4170.25641026 , 4187.17948718 , 4131.28205128 , 4133.84615385 , 4155.8974359 , 4128.71794872 , 4148.20512821 , 4135.8974359 , 4186.66666667 , 4102.56410256 , 4166.15384615 , 4147.17948718 , 2039.0 , 2029.0 , 34.267 , 0.0 , 0.0 , 0.0 , 0.0 , 

64.0 , 4137.43589744 , 4122.56410256 , 4161.53846154 , 4185.12820513 , 4132.30769231 , 4133.33333333 , 4153.84615385 , 4126.15384615 , 4141.02564103 , 4135.8974359 , 4174.87179487 , 4096.92307692 , 4152.30769231 , 4136.92307692 , 2038.0 , 2031.0 , 34.274 , 0.0 , 0.0 , 0.0 , 0.0 , 

65.0 , 4134.87179487 , 4118.46153846 , 4152.30769231 , 4180.51282051 , 4132.30769231 , 4131.28205128 , 4151.28205128 , 4127.17948718 , 4144.1025641 , 4135.8974359 , 4168.20512821 , 4090.25641026 , 4145.64102564 , 4132.82051282 , 2039.0 , 2036.0 , 34.284 , 0.0 , 0.0 , 0.0 , 0.0 , 

66.0 , 4130.25641026 , 4108.20512821 , 4137.94871795 , 4175.8974359 , 4131.79487179 , 4128.71794872 , 4147.17948718 , 4128.71794872 , 4147.17948718 , 4135.8974359 , 4169.74358974 , 4086.66666667 , 4142.56410256 , 4127.69230769 , 2041.0 , 2036.0 , 34.291 , 0.0 , 0.0 , 0.0 , 0.0 , 

67.0 , 4129.23076923 , 4108.71794872 , 4143.07692308 , 4180.0 , 4133.84615385 , 4129.74358974 , 4148.20512821 , 4128.71794872 , 4146.66666667 , 4135.8974359 , 4171.28205128 , 4087.69230769 , 4143.07692308 , 4131.28205128 , 2041.0 , 2037.0 , 34.298 , 0.0 , 0.0 , 0.0 , 0.0 , 

68.0 , 4128.71794872 , 4126.15384615 , 4162.56410256 , 4188.71794872 , 4132.82051282 , 4131.28205128 , 4154.35897436 , 4130.25641026 , 4149.23076923 , 4135.8974359 , 4172.82051282 , 4088.71794872 , 4152.30769231 , 4142.05128205 , 2041.0 , 2038.0 , 34.308 , 0.0 , 0.0 , 0.0 , 0.0 , 

69.0 , 4128.20512821 , 4124.61538462 , 4156.41025641 , 4182.05128205 , 4131.79487179 , 4130.76923077 , 4152.82051282 , 4130.76923077 , 4146.15384615 , 4135.8974359 , 4171.28205128 , 4085.12820513 , 4153.84615385 , 4136.41025641 , 2043.0 , 2034.0 , 34.313 , 0.0 , 0.0 , 0.0 , 0.0 , 

70.0 , 4126.66666667 , 4115.38461538 , 4147.69230769 , 4173.33333333 , 4132.30769231 , 4128.71794872 , 4146.15384615 , 4129.23076923 , 4145.12820513 , 4135.8974359 , 4169.74358974 , 4081.53846154 , 4148.20512821 , 4130.76923077 , 2045.0 , 2033.0 , 34.324 , 0.0 , 0.0 , 0.0 , 0.0 , 

71.0 , 4128.71794872 , 4125.64102564 , 4156.41025641 , 4182.05128205 , 4130.25641026 , 4129.74358974 , 4149.23076923 , 4129.23076923 , 4151.79487179 , 4135.8974359 , 4176.92307692 , 4084.1025641 , 4153.33333333 , 4138.97435897 , 2043.0 , 2028.0 , 34.329 , 0.0 , 0.0 , 0.0 , 0.0 , 

72.0 , 4131.79487179 , 4133.33333333 , 4156.41025641 , 4185.12820513 , 4130.25641026 , 4131.28205128 , 4153.33333333 , 4130.25641026 , 4147.17948718 , 4135.8974359 , 4176.41025641 , 4083.07692308 , 4156.92307692 , 4134.87179487 , 2042.0 , 2026.0 , 34.338 , 0.0 , 0.0 , 0.0 , 0.0 , 

73.0 , 4132.30769231 , 4127.69230769 , 4154.87179487 , 4180.51282051 , 4134.87179487 , 4131.28205128 , 4153.33333333 , 4128.71794872 , 4133.84615385 , 4135.8974359 , 4169.74358974 , 4081.02564103 , 4150.76923077 , 4126.66666667 , 2043.0 , 2024.0 , 34.346 , 0.0 , 0.0 , 0.0 , 0.0 , 

74.0 , 4128.20512821 , 4129.74358974 , 4162.56410256 , 4182.56410256 , 4135.8974359 , 4131.79487179 , 4154.35897436 , 4126.15384615 , 4137.43589744 , 4135.8974359 , 4176.41025641 , 4083.07692308 , 4150.76923077 , 4136.41025641 , 2042.0 , 2024.0 , 34.354 , 0.0 , 0.0 , 0.0 , 0.0 , 

75.0 , 4126.66666667 , 4129.74358974 , 4156.92307692 , 4180.0 , 4132.82051282 , 4130.76923077 , 4152.82051282 , 4128.20512821 , 4144.1025641 , 4135.8974359 , 4183.58974359 , 4082.05128205 , 4152.30769231 , 4143.58974359 , 2042.0 , 2026.0 , 34.36 , 0.0 , 0.0 , 0.0 , 0.0 , 

76.0 , 4126.15384615 , 4126.66666667 , 4154.87179487 , 4175.38461538 , 4131.28205128 , 4129.23076923 , 4148.20512821 , 4129.23076923 , 4140.0 , 4135.8974359 , 4178.97435897 , 4078.46153846 , 4153.33333333 , 4137.94871795 , 2043.0 , 2032.0 , 34.371 , 0.0 , 0.0 , 0.0 , 0.0 , 

77.0 , 4126.15384615 , 4133.84615385 , 4173.84615385 , 4182.56410256 , 4130.25641026 , 4130.76923077 , 4148.71794872 , 4128.71794872 , 4139.48717949 , 4135.8974359 , 4178.97435897 , 4082.05128205 , 4155.8974359 , 4137.94871795 , 2042.0 , 2034.0 , 34.376 , 0.0 , 0.0 , 0.0 , 0.0 , 

78.0 , 4127.69230769 , 4136.92307692 , 4174.35897436 , 4185.12820513 , 4130.25641026 , 4129.74358974 , 4147.69230769 , 4127.17948718 , 4141.02564103 , 4135.8974359 , 4180.51282051 , 4083.58974359 , 4155.38461538 , 4142.05128205 , 2043.0 , 2037.0 , 34.385 , 0.0 , 0.0 , 0.0 , 0.0 , 

79.0 , 4128.20512821 , 4130.25641026 , 4152.82051282 , 4178.97435897 , 4130.76923077 , 4126.66666667 , 4145.64102564 , 4126.15384615 , 4138.46153846 , 4135.8974359 , 4175.38461538 , 4077.43589744 , 4154.87179487 , 4137.43589744 , 2045.0 , 2047.0 , 34.392 , 0.0 , 0.0 , 0.0 , 0.0 , 

80.0 , 4126.66666667 , 4129.74358974 , 4149.74358974 , 4183.07692308 , 4129.23076923 , 4127.17948718 , 4147.17948718 , 4126.66666667 , 4146.15384615 , 4135.8974359 , 4176.92307692 , 4077.94871795 , 4162.56410256 , 4137.43589744 , 2045.0 , 2049.0 , 34.402 , 0.0 , 0.0 , 0.0 , 0.0 , 

81.0 , 4125.64102564 , 4130.25641026 , 4156.41025641 , 4182.56410256 , 4129.23076923 , 4128.71794872 , 4147.17948718 , 4128.20512821 , 4148.20512821 , 4135.8974359 , 4181.53846154 , 4083.07692308 , 4167.17948718 , 4138.97435897 , 2046.0 , 2049.0 , 34.408 , 0.0 , 0.0 , 0.0 , 0.0 , 

82.0 , 4127.17948718 , 4126.15384615 , 4150.25641026 , 4176.92307692 , 4130.25641026 , 4127.69230769 , 4146.66666667 , 4129.23076923 , 4138.46153846 , 4135.8974359 , 4175.8974359 , 4081.53846154 , 4156.41025641 , 4135.38461538 , 2046.0 , 2048.0 , 34.417 , 0.0 , 0.0 , 0.0 , 0.0 , 

83.0 , 4126.66666667 , 4131.28205128 , 4148.20512821 , 4181.53846154 , 4130.25641026 , 4126.66666667 , 4147.69230769 , 4128.20512821 , 4145.12820513 , 4135.8974359 , 4177.43589744 , 4083.07692308 , 4156.92307692 , 4137.94871795 , 2041.0 , 2041.0 , 34.424 , 0.0 , 0.0 , 0.0 , 0.0 , 

84.0 , 4128.71794872 , 4137.94871795 , 4154.87179487 , 4181.53846154 , 4129.23076923 , 4128.20512821 , 4148.71794872 , 4128.20512821 , 4154.35897436 , 4135.8974359 , 4184.1025641 , 4090.25641026 , 4166.66666667 , 4144.1025641 , 2041.0 , 2037.0 , 34.432 , 0.0 , 0.0 , 0.0 , 0.0 , 

85.0 , 4130.25641026 , 4133.33333333 , 4154.87179487 , 4175.8974359 , 4129.74358974 , 4127.69230769 , 4148.71794872 , 4129.74358974 , 4143.58974359 , 4135.8974359 , 4176.92307692 , 4089.23076923 , 4160.51282051 , 4140.51282051 , 2039.0 , 2032.0 , 34.44 , 0.0 , 0.0 , 0.0 , 0.0 , 

86.0 , 4129.23076923 , 4128.71794872 , 4148.20512821 , 4177.43589744 , 4131.79487179 , 4128.20512821 , 4150.76923077 , 4130.76923077 , 4135.8974359 , 4135.8974359 , 4167.17948718 , 4082.56410256 , 4151.79487179 , 4138.97435897 , 2039.0 , 2024.0 , 34.449 , 0.0 , 0.0 , 0.0 , 0.0 , 

87.0 , 4127.69230769 , 4138.97435897 , 4155.38461538 , 4183.07692308 , 4131.28205128 , 4129.74358974 , 4153.84615385 , 4129.23076923 , 4144.61538462 , 4135.8974359 , 4170.25641026 , 4081.53846154 , 4158.46153846 , 4148.20512821 , 2039.0 , 2022.0 , 34.455 , 0.0 , 0.0 , 0.0 , 0.0 , 

88.0 , 4127.17948718 , 4144.61538462 , 4168.71794872 , 4181.02564103 , 4129.74358974 , 4129.74358974 , 4152.82051282 , 4129.74358974 , 4148.71794872 , 4135.8974359 , 4172.82051282 , 4083.07692308 , 4161.53846154 , 4149.23076923 , 2037.0 , 2021.0 , 34.462 , 0.0 , 0.0 , 0.0 , 0.0 , 

89.0 , 4124.1025641 , 4131.79487179 , 4168.20512821 , 4172.30769231 , 4128.71794872 , 4127.17948718 , 4146.66666667 , 4126.66666667 , 4143.07692308 , 4135.8974359 , 4167.17948718 , 4081.02564103 , 4149.74358974 , 4138.97435897 , 2039.0 , 2025.0 , 34.471 , 0.0 , 0.0 , 0.0 , 0.0 , 

90.0 , 4123.58974359 , 4129.23076923 , 4168.20512821 , 4173.33333333 , 4128.20512821 , 4126.66666667 , 4144.1025641 , 4123.58974359 , 4143.07692308 , 4135.8974359 , 4167.17948718 , 4082.56410256 , 4148.20512821 , 4143.07692308 , 2041.0 , 2030.0 , 34.481 , 0.0 , 0.0 , 0.0 , 0.0 , 

91.0 , 4124.1025641 , 4139.48717949 , 4175.8974359 , 4181.02564103 , 4126.66666667 , 4126.15384615 , 4145.64102564 , 4126.66666667 , 4149.23076923 , 4135.8974359 , 4171.28205128 , 4084.61538462 , 4157.94871795 , 4154.35897436 , 2041.0 , 2032.0 , 34.487 , 0.0 , 0.0 , 0.0 , 0.0 , 

92.0 , 4122.56410256 , 4133.33333333 , 4171.79487179 , 4176.92307692 , 4127.69230769 , 4124.1025641 , 4144.1025641 , 4128.20512821 , 4152.82051282 , 4134.87179487 , 4168.71794872 , 4086.66666667 , 4155.8974359 , 4150.76923077 , 2042.0 , 2036.0 , 34.494 , 0.0 , 0.0 , 0.0 , 0.0 , 

93.0 , 4121.02564103 , 4131.79487179 , 4164.61538462 , 4174.35897436 , 4131.79487179 , 4124.61538462 , 4137.94871795 , 4125.64102564 , 4147.17948718 , 4133.84615385 , 4168.20512821 , 4090.76923077 , 4152.30769231 , 4146.66666667 , 2044.0 , 2037.0 , 34.503 , 0.0 , 0.0 , 0.0 , 0.0 , 

94.0 , 4124.1025641 , 4148.71794872 , 4171.28205128 , 4182.56410256 , 4131.28205128 , 4125.12820513 , 4140.51282051 , 4127.69230769 , 4145.64102564 , 4133.84615385 , 4177.94871795 , 4094.87179487 , 4162.56410256 , 4155.8974359 , 2045.0 , 2035.0 , 34.512 , 0.0 , 0.0 , 0.0 , 0.0 , 

95.0 , 4126.15384615 , 4148.20512821 , 4169.23076923 , 4177.94871795 , 4128.71794872 , 4123.07692308 , 4144.1025641 , 4129.23076923 , 4152.82051282 , 4134.35897436 , 4183.58974359 , 4095.8974359 , 4170.76923077 , 4156.41025641 , 2050.0 , 2033.0 , 34.517 , 0.0 , 0.0 , 0.0 , 0.0 , 

96.0 , 4125.12820513 , 4132.82051282 , 4153.84615385 , 4167.69230769 , 4132.30769231 , 4126.15384615 , 4146.15384615 , 4128.20512821 , 4150.76923077 , 4133.84615385 , 4173.84615385 , 4093.84615385 , 4160.0 , 4143.07692308 , 2052.0 , 2032.0 , 34.525 , 0.0 , 0.0 , 0.0 , 0.0 , 

97.0 , 4128.20512821 , 4129.74358974 , 4147.69230769 , 4172.82051282 , 4136.41025641 , 4130.25641026 , 4152.82051282 , 4128.71794872 , 4138.97435897 , 4134.35897436 , 4166.66666667 , 4089.74358974 , 4150.76923077 , 4136.92307692 , 2050.0 , 2030.0 , 34.534 , 0.0 , 0.0 , 0.0 , 0.0 , 

98.0 , 4132.82051282 , 4129.74358974 , 4155.8974359 , 4175.8974359 , 4137.43589744 , 4131.28205128 , 4157.43589744 , 4129.23076923 , 4134.87179487 , 4135.38461538 , 4167.69230769 , 4086.66666667 , 4158.97435897 , 4137.43589744 , 2050.0 , 2030.0 , 34.544 , 0.0 , 0.0 , 0.0 , 0.0 , 

99.0 , 4132.30769231 , 4129.74358974 , 4166.15384615 , 4174.35897436 , 4135.8974359 , 4135.8974359 , 4156.41025641 , 4128.71794872 , 4138.97435897 , 4136.41025641 , 4170.25641026 , 4091.79487179 , 4166.15384615 , 4142.56410256 , 2047.0 , 2032.0 , 34.55 , 0.0 , 0.0 , 0.0 , 0.0 , 

100.0 , 4133.33333333 , 4134.87179487 , 4172.30769231 , 4181.53846154 , 4136.92307692 , 4138.97435897 , 4160.0 , 4130.76923077 , 4142.05128205 , 4137.43589744 , 4170.76923077 , 4095.8974359 , 4159.48717949 , 4151.79487179 , 2046.0 , 2034.0 , 34.558 , 0.0 , 0.0 , 0.0 , 0.0 , 

101.0 , 4139.48717949 , 4131.79487179 , 4169.74358974 , 4183.07692308 , 4138.46153846 , 4137.94871795 , 4164.61538462 , 4132.82051282 , 4143.58974359 , 4136.92307692 , 4169.23076923 , 4090.76923077 , 4151.28205128 , 4150.76923077 , 2044.0 , 2036.0 , 34.565 , 0.0 , 0.0 , 0.0 , 0.0 , 

102.0 , 4137.94871795 , 4119.48717949 , 4159.48717949 , 4171.79487179 , 4140.0 , 4140.0 , 4161.02564103 , 4130.25641026 , 4140.0 , 4135.8974359 , 4164.61538462 , 4087.17948718 , 4145.12820513 , 4136.41025641 , 2042.0 , 2041.0 , 34.574 , 0.0 , 0.0 , 0.0 , 0.0 , 

103.0 , 4134.35897436 , 4113.33333333 , 4153.33333333 , 4166.66666667 , 4137.94871795 , 4144.1025641 , 4160.0 , 4126.66666667 , 4136.41025641 , 4135.38461538 , 4165.64102564 , 4088.71794872 , 4137.43589744 , 4131.79487179 , 2040.0 , 2042.0 , 34.581 , 0.0 , 0.0 , 0.0 , 0.0 , 

104.0 , 4137.43589744 , 4118.97435897 , 4157.94871795 , 4175.8974359 , 4137.43589744 , 4142.05128205 , 4163.58974359 , 4131.79487179 , 4141.53846154 , 4134.87179487 , 4166.66666667 , 4087.69230769 , 4138.46153846 , 4143.58974359 , 2037.0 , 2045.0 , 34.588 , 0.0 , 0.0 , 0.0 , 0.0 , 

105.0 , 4142.05128205 , 4132.30769231 , 4168.71794872 , 4185.12820513 , 4138.97435897 , 4138.46153846 , 4163.07692308 , 4136.41025641 , 4144.1025641 , 4134.87179487 , 4166.66666667 , 4086.15384615 , 4151.28205128 , 4155.38461538 , 2036.0 , 2045.0 , 34.597 , 0.0 , 0.0 , 0.0 , 0.0 , 

106.0 , 4140.0 , 4145.64102564 , 4186.66666667 , 4186.15384615 , 4137.94871795 , 4137.94871795 , 4160.51282051 , 4134.35897436 , 4145.64102564 , 4134.87179487 , 4170.76923077 , 4088.71794872 , 4163.58974359 , 4164.1025641 , 2036.0 , 2044.0 , 34.605 , 0.0 , 0.0 , 0.0 , 0.0 , 

107.0 , 4139.48717949 , 4145.64102564 , 4188.20512821 , 4184.61538462 , 4137.43589744 , 4136.41025641 , 4160.51282051 , 4133.33333333 , 4148.20512821 , 4134.87179487 , 4172.82051282 , 4089.74358974 , 4168.71794872 , 4168.71794872 , 2037.0 , 2043.0 , 34.612 , 0.0 , 0.0 , 0.0 , 0.0 , 

108.0 , 4142.05128205 , 4138.97435897 , 4173.84615385 , 4183.07692308 , 4137.94871795 , 4137.94871795 , 4160.51282051 , 4130.25641026 , 4144.61538462 , 4134.87179487 , 4169.23076923 , 4088.20512821 , 4169.74358974 , 4163.58974359 , 2036.0 , 2039.0 , 34.622 , 0.0 , 0.0 , 0.0 , 0.0 , 

109.0 , 4144.61538462 , 4144.1025641 , 4175.8974359 , 4184.61538462 , 4137.94871795 , 4141.53846154 , 4161.02564103 , 4127.17948718 , 4146.15384615 , 4134.87179487 , 4168.71794872 , 4092.82051282 , 4173.84615385 , 4161.02564103 , 2038.0 , 2034.0 , 34.629 , 0.0 , 0.0 , 0.0 , 0.0 , 

110.0 , 4141.53846154 , 4155.8974359 , 4186.15384615 , 4183.07692308 , 4137.94871795 , 4136.92307692 , 4158.97435897 , 4127.69230769 , 4150.25641026 , 4134.87179487 , 4175.38461538 , 4095.38461538 , 4178.46153846 , 4166.66666667 , 2039.0 , 2031.0 , 34.638 , 0.0 , 0.0 , 0.0 , 0.0 , 

111.0 , 4139.48717949 , 4142.05128205 , 4169.74358974 , 4172.82051282 , 4137.43589744 , 4131.28205128 , 4159.48717949 , 4131.79487179 , 4142.05128205 , 4134.87179487 , 4169.74358974 , 4091.28205128 , 4163.58974359 , 4156.41025641 , 2041.0 , 2025.0 , 34.644 , 0.0 , 0.0 , 0.0 , 0.0 , 

112.0 , 4140.51282051 , 4116.41025641 , 4148.20512821 , 4164.61538462 , 4137.94871795 , 4133.33333333 , 4160.51282051 , 4129.74358974 , 4133.33333333 , 4134.87179487 , 4151.28205128 , 4085.64102564 , 4140.0 , 4135.8974359 , 2041.0 , 2024.0 , 34.653 , 0.0 , 0.0 , 0.0 , 0.0 , 

113.0 , 4138.97435897 , 4117.43589744 , 4154.87179487 , 4167.69230769 , 4138.46153846 , 4135.8974359 , 4158.46153846 , 4127.17948718 , 4133.84615385 , 4134.87179487 , 4151.28205128 , 4085.64102564 , 4139.48717949 , 4140.51282051 , 2043.0 , 2023.0 , 34.66 , 0.0 , 0.0 , 0.0 , 0.0 , 

114.0 , 4137.43589744 , 4136.92307692 , 4181.53846154 , 4174.87179487 , 4134.87179487 , 4136.41025641 , 4157.94871795 , 4130.25641026 , 4140.51282051 , 4134.87179487 , 4168.20512821 , 4086.15384615 , 4155.8974359 , 4157.94871795 , 2044.0 , 2024.0 , 34.669 , 0.0 , 0.0 , 0.0 , 0.0 , 

115.0 , 4140.0 , 4139.48717949 , 4193.84615385 , 4173.33333333 , 4134.35897436 , 4137.43589744 , 4160.51282051 , 4130.25641026 , 4144.1025641 , 4134.87179487 , 4171.79487179 , 4085.12820513 , 4157.94871795 , 4158.46153846 , 2045.0 , 2026.0 , 34.676 , 0.0 , 0.0 , 0.0 , 0.0 , 

116.0 , 4142.05128205 , 4117.94871795 , 4169.74358974 , 4166.66666667 , 4136.92307692 , 4134.87179487 , 4158.46153846 , 4127.17948718 , 4138.97435897 , 4134.87179487 , 4158.46153846 , 4082.05128205 , 4144.61538462 , 4149.74358974 , 2044.0 , 2031.0 , 34.685 , 0.0 , 0.0 , 0.0 , 0.0 , 

117.0 , 4140.0 , 4112.82051282 , 4154.87179487 , 4168.20512821 , 4137.94871795 , 4134.87179487 , 4155.38461538 , 4127.69230769 , 4138.46153846 , 4134.87179487 , 4158.97435897 , 4083.07692308 , 4144.1025641 , 4149.23076923 , 2044.0 , 2034.0 , 34.693 , 0.0 , 0.0 , 0.0 , 0.0 , 

118.0 , 4136.41025641 , 4126.15384615 , 4172.30769231 , 4175.38461538 , 4136.92307692 , 4138.97435897 , 4157.94871795 , 4128.71794872 , 4146.66666667 , 4134.87179487 , 4170.76923077 , 4084.61538462 , 4153.33333333 , 4153.84615385 , 2044.0 , 2035.0 , 34.7 , 0.0 , 0.0 , 0.0 , 0.0 , 

119.0 , 4136.92307692 , 4123.07692308 , 4173.84615385 , 4172.30769231 , 4137.43589744 , 4137.43589744 , 4157.43589744 , 4127.69230769 , 4148.71794872 , 4134.87179487 , 4170.25641026 , 4083.58974359 , 4151.79487179 , 4154.87179487 , 2043.0 , 2036.0 , 34.709 , 0.0 , 0.0 , 0.0 , 0.0 , 

120.0 , 4140.0 , 4113.33333333 , 4159.48717949 , 4167.69230769 , 4137.43589744 , 4132.30769231 , 4155.8974359 , 4129.74358974 , 4142.56410256 , 4134.87179487 , 4164.1025641 , 4083.58974359 , 4145.64102564 , 4149.23076923 , 2042.0 , 2033.0 , 34.714 , 0.0 , 0.0 , 0.0 , 0.0 , 

121.0 , 4138.97435897 , 4124.1025641 , 4164.61538462 , 4171.28205128 , 4137.94871795 , 4134.35897436 , 4159.48717949 , 4130.76923077 , 4143.07692308 , 4134.87179487 , 4167.17948718 , 4084.1025641 , 4153.84615385 , 4151.28205128 , 2042.0 , 2031.0 , 34.725 , 0.0 , 0.0 , 0.0 , 0.0 , 

122.0 , 4135.8974359 , 4137.94871795 , 4176.92307692 , 4173.33333333 , 4139.48717949 , 4137.94871795 , 4164.1025641 , 4129.23076923 , 4147.17948718 , 4134.87179487 , 4171.79487179 , 4085.64102564 , 4163.07692308 , 4158.97435897 , 2039.0 , 2028.0 , 34.73 , 0.0 , 0.0 , 0.0 , 0.0 , 

123.0 , 4137.43589744 , 4129.74358974 , 4168.71794872 , 4168.71794872 , 4138.46153846 , 4136.41025641 , 4163.58974359 , 4128.71794872 , 4142.05128205 , 4134.87179487 , 4168.20512821 , 4088.20512821 , 4154.87179487 , 4147.69230769 , 2041.0 , 2028.0 , 34.74 , 0.0 , 0.0 , 0.0 , 0.0 , 

124.0 , 4140.0 , 4122.05128205 , 4157.94871795 , 4165.64102564 , 4137.94871795 , 4136.92307692 , 4162.56410256 , 4129.23076923 , 4135.38461538 , 4134.87179487 , 4165.12820513 , 4091.79487179 , 4144.1025641 , 4134.35897436 , 2041.0 , 2027.0 , 34.746 , 0.0 , 0.0 , 0.0 , 0.0 , 

125.0 , 4139.48717949 , 4136.41025641 , 4172.30769231 , 4174.35897436 , 4135.8974359 , 4141.53846154 , 4167.17948718 , 4131.79487179 , 4144.1025641 , 4134.87179487 , 4168.20512821 , 4093.84615385 , 4152.30769231 , 4147.17948718 , 2042.0 , 2031.0 , 34.757 , 0.0 , 0.0 , 0.0 , 0.0 , 

126.0 , 4147.17948718 , 4151.28205128 , 4194.87179487 , 4189.23076923 , 4138.46153846 , 4145.12820513 , 4174.87179487 , 4131.79487179 , 4154.35897436 , 4134.87179487 , 4173.33333333 , 4096.92307692 , 4168.20512821 , 4166.15384615 , 2043.0 , 2032.0 , 34.762 , 0.0 , 0.0 , 0.0 , 0.0 , 

127.0 , 4153.84615385 , 4133.84615385 , 4182.05128205 , 4183.07692308 , 4146.66666667 , 4144.1025641 , 4175.8974359 , 4130.76923077 , 4143.07692308 , 4134.87179487 , 4165.12820513 , 4095.38461538 , 4157.94871795 , 4157.94871795 , 2044.0 , 2037.0 , 34.771 , 0.0 , 0.0 , 0.0 , 0.0 , 

128.0 , 4155.38461538 , 4100.51282051 , 4153.33333333 , 4166.15384615 , 4147.69230769 , 4145.64102564 , 4175.8974359 , 4136.92307692 , 4131.28205128 , 4134.87179487 , 4150.25641026 , 4092.30769231 , 4133.33333333 , 4138.97435897 , 2045.0 , 2040.0 , 34.777 , 0.0 , 0.0 , 0.0 , 0.0 , 

0.0 , 4161.02564103 , 4106.66666667 , 4162.05128205 , 4175.38461538 , 4145.12820513 , 4152.30769231 , 4180.0 , 4139.48717949 , 4140.51282051 , 4134.87179487 , 4152.82051282 , 4093.33333333 , 4133.33333333 , 4140.0 , 2044.0 , 2043.0 , 34.787 , 0.0 , 0.0 , 0.0 , 0.0 , 

1.0 , 4170.25641026 , 4124.1025641 , 4171.28205128 , 4187.17948718 , 4150.76923077 , 4158.97435897 , 4185.64102564 , 4130.25641026 , 4145.64102564 , 4134.87179487 , 4159.48717949 , 4094.35897436 , 4145.12820513 , 4145.64102564 , 2043.0 , 2044.0 , 34.793 , 0.0 , 0.0 , 0.0 , 0.0 , 

2.0 , 4172.30769231 , 4101.53846154 , 4142.05128205 , 4172.30769231 , 4157.43589744 , 4160.0 , 4189.23076923 , 4126.66666667 , 4134.87179487 , 4134.87179487 , 4152.82051282 , 4089.23076923 , 4138.46153846 , 4134.87179487 , 2043.0 , 2044.0 , 34.803 , 0.0 , 0.0 , 0.0 , 0.0 , 

3.0 , 4174.35897436 , 4074.35897436 , 4122.05128205 , 4164.1025641 , 4156.41025641 , 4164.1025641 , 4194.35897436 , 4136.41025641 , 4127.69230769 , 4134.87179487 , 4147.69230769 , 4084.61538462 , 4122.05128205 , 4120.0 , 2042.0 , 2041.0 , 34.81 , 0.0 , 0.0 , 0.0 , 0.0 , 

4.0 , 4183.58974359 , 4087.69230769 , 4137.43589744 , 4178.97435897 , 4158.97435897 , 4173.84615385 , 4202.05128205 , 4138.97435897 , 4130.76923077 , 4134.87179487 , 4151.79487179 , 4085.12820513 , 4120.51282051 , 4121.02564103 , 2041.0 , 2039.0 , 34.818 , 0.0 , 0.0 , 0.0 , 0.0 , 

5.0 , 4188.20512821 , 4099.48717949 , 4145.64102564 , 4186.66666667 , 4164.61538462 , 4177.94871795 , 4209.23076923 , 4136.41025641 , 4130.76923077 , 4134.87179487 , 4151.28205128 , 4089.74358974 , 4122.56410256 , 4125.64102564 , 2040.0 , 2035.0 , 34.827 , 0.0 , 0.0 , 0.0 , 0.0 , 

6.0 , 4187.69230769 , 4085.64102564 , 4132.82051282 , 4183.07692308 , 4168.20512821 , 4177.43589744 , 4211.28205128 , 4135.38461538 , 4123.07692308 , 4134.87179487 , 4143.07692308 , 4091.28205128 , 4114.35897436 , 4120.51282051 , 2038.0 , 2031.0 , 34.833 , 0.0 , 0.0 , 0.0 , 0.0 , 

7.0 , 4188.71794872 , 4082.56410256 , 4125.12820513 , 4178.46153846 , 4165.12820513 , 4177.94871795 , 4211.28205128 , 4136.92307692 , 4124.1025641 , 4134.87179487 , 4138.97435897 , 4087.69230769 , 4110.76923077 , 4120.0 , 2035.0 , 2022.0 , 34.841 , 0.0 , 0.0 , 0.0 , 0.0 , 

8.0 , 4187.17948718 , 4085.64102564 , 4123.58974359 , 4171.28205128 , 4160.0 , 4175.8974359 , 4211.79487179 , 4137.94871795 , 4129.74358974 , 4134.87179487 , 4138.97435897 , 4086.15384615 , 4110.76923077 , 4121.53846154 , 2036.0 , 2020.0 , 34.85 , 0.0 , 0.0 , 0.0 , 0.0 , 

9.0 , 4183.07692308 , 4087.69230769 , 4127.17948718 , 4170.76923077 , 4160.0 , 4173.84615385 , 4207.69230769 , 4137.94871795 , 4130.76923077 , 4134.87179487 , 4137.94871795 , 4087.69230769 , 4114.87179487 , 4118.46153846 , 2038.0 , 2019.0 , 34.858 , 0.0 , 0.0 , 0.0 , 0.0 , 

10.0 , 4179.48717949 , 4096.92307692 , 4141.53846154 , 4179.48717949 , 4162.05128205 , 4172.82051282 , 4204.1025641 , 4136.92307692 , 4135.8974359 , 4134.87179487 , 4142.05128205 , 4092.82051282 , 4127.69230769 , 4123.58974359 , 2038.0 , 2019.0 , 34.865 , 0.0 , 0.0 , 0.0 , 0.0 , 

11.0 , 4174.87179487 , 4095.8974359 , 4150.25641026 , 4178.97435897 , 4158.46153846 , 4167.17948718 , 4205.12820513 , 4137.43589744 , 4140.0 , 4134.87179487 , 4149.74358974 , 4097.43589744 , 4136.41025641 , 4130.76923077 , 2039.0 , 2021.0 , 34.874 , 0.0 , 0.0 , 0.0 , 0.0 , 

12.0 , 4175.38461538 , 4088.20512821 , 4148.20512821 , 4176.41025641 , 4155.38461538 , 4165.12820513 , 4203.07692308 , 4139.48717949 , 4138.97435897 , 4134.87179487 , 4151.28205128 , 4099.48717949 , 4129.23076923 , 4128.20512821 , 2040.0 , 2023.0 , 34.881 , 0.0 , 0.0 , 0.0 , 0.0 , 

13.0 , 4173.84615385 , 4097.43589744 , 4154.35897436 , 4186.15384615 , 4159.48717949 , 4167.17948718 , 4194.87179487 , 4138.46153846 , 4138.46153846 , 4134.87179487 , 4152.30769231 , 4100.51282051 , 4129.23076923 , 4131.28205128 , 2041.0 , 2025.0 , 34.89 , 0.0 , 0.0 , 0.0 , 0.0 , 

14.0 , 4172.82051282 , 4097.94871795 , 4157.43589744 , 4186.15384615 , 4160.0 , 4163.58974359 , 4191.79487179 , 4137.43589744 , 4137.43589744 , 4134.87179487 , 4148.71794872 , 4096.92307692 , 4133.84615385 , 4138.97435897 , 2044.0 , 2028.0 , 34.898 , 0.0 , 0.0 , 0.0 , 0.0 , 

15.0 , 4170.76923077 , 4083.58974359 , 4147.17948718 , 4171.28205128 , 4153.84615385 , 4158.46153846 , 4189.74358974 , 4134.87179487 , 4136.41025641 , 4134.87179487 , 4144.1025641 , 4088.71794872 , 4126.66666667 , 4128.20512821 , 2044.0 , 2028.0 , 34.906 , 0.0 , 0.0 , 0.0 , 0.0 , 

16.0 , 4163.58974359 , 4085.12820513 , 4143.07692308 , 4166.66666667 , 4150.76923077 , 4158.46153846 , 4182.05128205 , 4134.87179487 , 4139.48717949 , 4134.87179487 , 4147.69230769 , 4090.25641026 , 4123.07692308 , 4117.43589744 , 2046.0 , 2027.0 , 34.912 , 0.0 , 0.0 , 0.0 , 0.0 , 

17.0 , 4151.79487179 , 4104.61538462 , 4150.25641026 , 4176.41025641 , 4151.28205128 , 4152.82051282 , 4174.35897436 , 4136.41025641 , 4144.1025641 , 4134.87179487 , 4155.38461538 , 4097.94871795 , 4136.41025641 , 4133.84615385 , 2046.0 , 2025.0 , 34.922 , 0.0 , 0.0 , 0.0 , 0.0 , 

18.0 , 4143.58974359 , 4131.28205128 , 4169.23076923 , 4183.58974359 , 4146.15384615 , 4142.05128205 , 4169.23076923 , 4136.92307692 , 4149.23076923 , 4134.87179487 , 4162.56410256 , 4095.8974359 , 4159.48717949 , 4161.02564103 , 2046.0 , 2026.0 , 34.927 , 0.0 , 0.0 , 0.0 , 0.0 , 

19.0 , 4139.48717949 , 4150.25641026 , 4187.17948718 , 4187.17948718 , 4139.48717949 , 4139.48717949 , 4164.1025641 , 4135.8974359 , 4155.8974359 , 4134.35897436 , 4169.23076923 , 4095.38461538 , 4171.28205128 , 4169.23076923 , 2048.0 , 2027.0 , 34.939 , 0.0 , 0.0 , 0.0 , 0.0 , 

20.0 , 4137.94871795 , 4143.58974359 , 4181.02564103 , 4181.53846154 , 4138.46153846 , 4142.05128205 , 4162.05128205 , 4135.38461538 , 4155.8974359 , 4135.38461538 , 4169.23076923 , 4102.05128205 , 4166.15384615 , 4158.97435897 , 2047.0 , 2026.0 , 34.943 , 0.0 , 0.0 , 0.0 , 0.0 , 

21.0 , 4136.41025641 , 4133.33333333 , 4167.69230769 , 4170.76923077 , 4138.46153846 , 4138.97435897 , 4160.51282051 , 4133.84615385 , 4150.76923077 , 4136.41025641 , 4165.64102564 , 4095.8974359 , 4160.0 , 4151.28205128 , 2046.0 , 2029.0 , 34.954 , 0.0 , 0.0 , 0.0 , 0.0 , 

22.0 , 4134.87179487 , 4135.38461538 , 4175.8974359 , 4177.43589744 , 4137.94871795 , 4136.92307692 , 4159.48717949 , 4129.74358974 , 4156.92307692 , 4135.8974359 , 4168.20512821 , 4088.71794872 , 4163.07692308 , 4158.46153846 , 2045.0 , 2030.0 , 34.959 , 0.0 , 0.0 , 0.0 , 0.0 , 

23.0 , 4137.94871795 , 4138.97435897 , 4188.71794872 , 4183.58974359 , 4137.43589744 , 4136.92307692 , 4159.48717949 , 4128.71794872 , 4165.12820513 , 4135.8974359 , 4170.25641026 , 4094.35897436 , 4167.69230769 , 4164.61538462 , 2047.0 , 2032.0 , 34.97 , 0.0 , 0.0 , 0.0 , 0.0 , 

24.0 , 4140.51282051 , 4136.92307692 , 4187.69230769 , 4172.82051282 , 4136.92307692 , 4134.87179487 , 4158.46153846 , 4127.17948718 , 4163.58974359 , 4135.8974359 , 4167.69230769 , 4094.87179487 , 4160.51282051 , 4158.46153846 , 2043.0 , 2031.0 , 34.974 , 0.0 , 0.0 , 0.0 , 0.0 , 

25.0 , 4135.38461538 , 4132.30769231 , 4184.1025641 , 4164.1025641 , 4135.8974359 , 4132.82051282 , 4154.35897436 , 4127.69230769 , 4160.51282051 , 4135.8974359 , 4167.17948718 , 4088.71794872 , 4153.84615385 , 4151.79487179 , 2042.0 , 2032.0 , 34.984 , 0.0 , 0.0 , 0.0 , 0.0 , 

26.0 , 4133.84615385 , 4128.71794872 , 4177.94871795 , 4167.17948718 , 4135.38461538 , 4131.28205128 , 4155.38461538 , 4127.17948718 , 4163.58974359 , 4135.8974359 , 4166.66666667 , 4087.69230769 , 4155.8974359 , 4147.17948718 , 2041.0 , 2030.0 , 34.99 , 0.0 , 0.0 , 0.0 , 0.0 , 

27.0 , 4133.33333333 , 4124.61538462 , 4167.69230769 , 4165.64102564 , 4136.92307692 , 4131.79487179 , 4157.94871795 , 4127.17948718 , 4164.61538462 , 4135.8974359 , 4166.15384615 , 4086.15384615 , 4149.74358974 , 4138.97435897 , 2041.0 , 2028.0 , 35.0 , 0.0 , 0.0 , 0.0 , 0.0 , 

28.0 , 4129.23076923 , 4126.66666667 , 4168.71794872 , 4163.58974359 , 4135.38461538 , 4132.30769231 , 4154.87179487 , 4127.69230769 , 4161.53846154 , 4135.8974359 , 4166.15384615 , 4085.64102564 , 4144.1025641 , 4142.05128205 , 2040.0 , 2024.0 , 35.007 , 0.0 , 0.0 , 0.0 , 0.0 , 

29.0 , 4128.20512821 , 4136.41025641 , 4181.53846154 , 4172.30769231 , 4131.28205128 , 4133.33333333 , 4153.84615385 , 4128.71794872 , 4169.23076923 , 4135.8974359 , 4169.74358974 , 4088.20512821 , 4155.8974359 , 4158.46153846 , 2039.0 , 2023.0 , 35.015 , 0.0 , 0.0 , 0.0 , 0.0 , 

30.0 , 4129.23076923 , 4128.20512821 , 4180.0 , 4167.17948718 , 4132.30769231 , 4131.79487179 , 4155.8974359 , 4129.23076923 , 4170.25641026 , 4135.8974359 , 4165.64102564 , 4080.51282051 , 4156.92307692 , 4152.30769231 , 2039.0 , 2021.0 , 35.023 , 0.0 , 0.0 , 0.0 , 0.0 , 

31.0 , 4129.23076923 , 4112.82051282 , 4163.07692308 , 4152.82051282 , 4135.8974359 , 4132.30769231 , 4155.8974359 , 4126.15384615 , 4154.35897436 , 4135.8974359 , 4152.82051282 , 4073.84615385 , 4138.46153846 , 4134.87179487 , 2040.0 , 2017.0 , 35.03 , 0.0 , 0.0 , 0.0 , 0.0 , 

32.0 , 4128.20512821 , 4130.76923077 , 4162.56410256 , 4157.43589744 , 4134.35897436 , 4133.33333333 , 4154.35897436 , 4125.64102564 , 4151.28205128 , 4135.8974359 , 4150.25641026 , 4081.02564103 , 4137.94871795 , 4149.74358974 , 2039.0 , 2017.0 , 35.039 , 0.0 , 0.0 , 0.0 , 0.0 , 

33.0 , 4131.28205128 , 4155.8974359 , 4183.07692308 , 4169.23076923 , 4137.43589744 , 4134.35897436 , 4154.87179487 , 4127.69230769 , 4160.0 , 4135.8974359 , 4155.38461538 , 4088.20512821 , 4141.02564103 , 4175.38461538 , 2041.0 , 2017.0 , 35.045 , 0.0 , 0.0 , 0.0 , 0.0 , 

34.0 , 4133.33333333 , 4170.25641026 , 4221.02564103 , 4173.84615385 , 4138.97435897 , 4134.87179487 , 4152.82051282 , 4126.15384615 , 4164.61538462 , 4135.8974359 , 4161.02564103 , 4088.71794872 , 4137.94871795 , 4189.23076923 , 2043.0 , 2019.0 , 35.056 , 0.0 , 0.0 , 0.0 , 0.0 , 

35.0 , 4134.35897436 , 4194.35897436 , 4259.48717949 , 4183.58974359 , 4131.79487179 , 4132.82051282 , 4150.25641026 , 4124.61538462 , 4167.17948718 , 4135.8974359 , 4166.66666667 , 4094.35897436 , 4143.07692308 , 4211.28205128 , 2044.0 , 2023.0 , 35.061 , 0.0 , 0.0 , 0.0 , 0.0 , 

36.0 , 4135.8974359 , 4203.07692308 , 4260.51282051 , 4190.25641026 , 4129.23076923 , 4129.23076923 , 4149.74358974 , 4126.66666667 , 4165.64102564 , 4135.8974359 , 4163.58974359 , 4098.46153846 , 4138.46153846 , 4225.64102564 , 2046.0 , 2025.0 , 35.071 , 0.0 , 0.0 , 0.0 , 0.0 , 

37.0 , 4137.94871795 , 4180.0 , 4228.71794872 , 4177.94871795 , 4133.84615385 , 4129.23076923 , 4147.17948718 , 4128.20512821 , 4158.97435897 , 4135.8974359 , 4153.33333333 , 4094.35897436 , 4118.97435897 , 4212.30769231 , 2046.0 , 2030.0 , 35.078 , 0.0 , 0.0 , 0.0 , 0.0 , 

38.0 , 4134.35897436 , 4173.84615385 , 4217.43589744 , 4169.74358974 , 4133.84615385 , 4128.71794872 , 4143.58974359 , 4125.12820513 , 4160.51282051 , 4135.8974359 , 4153.84615385 , 4088.20512821 , 4116.92307692 , 4198.46153846 , 2049.0 , 2030.0 , 35.088 , 0.0 , 0.0 , 0.0 , 0.0 , 

39.0 , 4130.25641026 , 4182.56410256 , 4221.53846154 , 4172.30769231 , 4128.71794872 , 4127.69230769 , 4144.61538462 , 4124.1025641 , 4164.61538462 , 4135.8974359 , 4156.92307692 , 4088.71794872 , 4129.23076923 , 4194.35897436 , 2047.0 , 2030.0 , 35.093 , 0.0 , 0.0 , 0.0 , 0.0 , 

40.0 , 4127.69230769 , 4172.82051282 , 4207.69230769 , 4171.28205128 , 4127.69230769 , 4126.15384615 , 4142.05128205 , 4127.17948718 , 4157.94871795 , 4135.8974359 , 4153.84615385 , 4088.20512821 , 4133.84615385 , 4186.15384615 , 2045.0 , 2026.0 , 35.103 , 0.0 , 0.0 , 0.0 , 0.0 , 

41.0 , 4124.1025641 , 4169.74358974 , 4196.41025641 , 4169.23076923 , 4127.69230769 , 4125.12820513 , 4136.92307692 , 4129.23076923 , 4153.84615385 , 4135.8974359 , 4158.46153846 , 4087.69230769 , 4136.92307692 , 4184.1025641 , 2045.0 , 2024.0 , 35.109 , 0.0 , 0.0 , 0.0 , 0.0 , 

42.0 , 4120.51282051 , 4178.97435897 , 4205.12820513 , 4168.20512821 , 4125.12820513 , 4125.64102564 , 4135.8974359 , 4128.71794872 , 4155.8974359 , 4135.8974359 , 4162.56410256 , 4089.74358974 , 4138.46153846 , 4187.17948718 , 2043.0 , 2019.0 , 35.12 , 0.0 , 0.0 , 0.0 , 0.0 , 

43.0 , 4120.51282051 , 4175.8974359 , 4205.64102564 , 4167.69230769 , 4124.1025641 , 4127.17948718 , 4137.94871795 , 4128.71794872 , 4155.8974359 , 4135.8974359 , 4160.51282051 , 4091.79487179 , 4133.33333333 , 4183.07692308 , 2043.0 , 2017.0 , 35.125 , 0.0 , 0.0 , 0.0 , 0.0 , 

44.0 , 4119.48717949 , 4178.46153846 , 4196.41025641 , 4169.74358974 , 4123.07692308 , 4124.61538462 , 4138.46153846 , 4128.71794872 , 4154.87179487 , 4135.8974359 , 4165.64102564 , 4093.33333333 , 4135.8974359 , 4181.53846154 , 2040.0 , 2016.0 , 35.134 , 0.0 , 0.0 , 0.0 , 0.0 , 

45.0 , 4114.35897436 , 4189.23076923 , 4200.0 , 4169.23076923 , 4123.07692308 , 4118.97435897 , 4136.41025641 , 4126.15384615 , 4156.92307692 , 4135.8974359 , 4172.30769231 , 4093.33333333 , 4144.1025641 , 4184.61538462 , 2039.0 , 2016.0 , 35.141 , 0.0 , 0.0 , 0.0 , 0.0 , 

46.0 , 4111.28205128 , 4188.20512821 , 4204.1025641 , 4166.66666667 , 4122.56410256 , 4116.92307692 , 4133.84615385 , 4124.1025641 , 4160.51282051 , 4135.8974359 , 4170.25641026 , 4092.30769231 , 4144.61538462 , 4183.58974359 , 2040.0 , 2019.0 , 35.149 , 0.0 , 0.0 , 0.0 , 0.0 , 

47.0 , 4112.82051282 , 4185.12820513 , 4195.8974359 , 4169.74358974 , 4123.07692308 , 4116.92307692 , 4131.28205128 , 4124.61538462 , 4156.92307692 , 4135.8974359 , 4167.69230769 , 4092.30769231 , 4145.64102564 , 4184.61538462 , 2040.0 , 2026.0 , 35.158 , 0.0 , 0.0 , 0.0 , 0.0 , 

48.0 , 4113.84615385 , 4185.12820513 , 4188.71794872 , 4168.71794872 , 4123.07692308 , 4115.38461538 , 4129.74358974 , 4124.61538462 , 4152.30769231 , 4135.8974359 , 4169.23076923 , 4092.30769231 , 4148.20512821 , 4181.02564103 , 2042.0 , 2031.0 , 35.165 , 0.0 , 0.0 , 0.0 , 0.0 , 

49.0 , 4109.74358974 , 4171.79487179 , 4175.38461538 , 4158.46153846 , 4121.02564103 , 4111.28205128 , 4126.66666667 , 4124.1025641 , 4155.38461538 , 4135.8974359 , 4168.20512821 , 4085.64102564 , 4135.38461538 , 4168.71794872 , 2043.0 , 2038.0 , 35.173 , 0.0 , 0.0 , 0.0 , 0.0 , 

50.0 , 4107.69230769 , 4158.97435897 , 4171.79487179 , 4159.48717949 , 4121.02564103 , 4111.28205128 , 4126.66666667 , 4123.58974359 , 4154.87179487 , 4135.8974359 , 4165.64102564 , 4086.15384615 , 4130.25641026 , 4164.1025641 , 2045.0 , 2040.0 , 35.179 , 0.0 , 0.0 , 0.0 , 0.0 , 

51.0 , 4109.23076923 , 4173.84615385 , 4191.28205128 , 4171.79487179 , 4118.97435897 , 4112.30769231 , 4126.15384615 , 4124.61538462 , 4154.35897436 , 4135.8974359 , 4170.25641026 , 4095.38461538 , 4152.30769231 , 4171.79487179 , 2045.0 , 2043.0 , 35.19 , 0.0 , 0.0 , 0.0 , 0.0 , 

52.0 , 4109.74358974 , 4180.0 , 4190.76923077 , 4166.15384615 , 4117.43589744 , 4109.23076923 , 4123.07692308 , 4125.12820513 , 4157.94871795 , 4135.8974359 , 4173.33333333 , 4092.30769231 , 4166.66666667 , 4171.28205128 , 2047.0 , 2043.0 , 35.195 , 0.0 , 0.0 , 0.0 , 0.0 , 

53.0 , 4105.64102564 , 4173.84615385 , 4167.69230769 , 4154.87179487 , 4115.38461538 , 4106.15384615 , 4124.1025641 , 4122.56410256 , 4160.0 , 4135.8974359 , 4174.87179487 , 4082.05128205 , 4172.82051282 , 4170.25641026 , 2048.0 , 2042.0 , 35.205 , 0.0 , 0.0 , 0.0 , 0.0 , 

54.0 , 4104.61538462 , 4186.15384615 , 4170.25641026 , 4162.56410256 , 4113.33333333 , 4107.17948718 , 4125.12820513 , 4121.53846154 , 4159.48717949 , 4135.8974359 , 4181.53846154 , 4081.53846154 , 4186.15384615 , 4182.05128205 , 2048.0 , 2036.0 , 35.211 , 0.0 , 0.0 , 0.0 , 0.0 , 

55.0 , 4102.05128205 , 4198.46153846 , 4187.69230769 , 4165.64102564 , 4113.33333333 , 4103.07692308 , 4119.48717949 , 4123.07692308 , 4158.46153846 , 4135.8974359 , 4185.64102564 , 4086.66666667 , 4181.02564103 , 4188.71794872 , 2047.0 , 2034.0 , 35.223 , 0.0 , 0.0 , 0.0 , 0.0 , 

56.0 , 4098.97435897 , 4185.12820513 , 4184.61538462 , 4155.38461538 , 4111.28205128 , 4096.92307692 , 4115.8974359 , 4124.61538462 , 4152.30769231 , 4135.8974359 , 4179.48717949 , 4089.74358974 , 4162.05128205 , 4184.61538462 , 2045.0 , 2028.0 , 35.227 , 0.0 , 0.0 , 0.0 , 0.0 , 

57.0 , 4093.84615385 , 4177.94871795 , 4178.97435897 , 4153.33333333 , 4106.15384615 , 4096.92307692 , 4115.8974359 , 4123.58974359 , 4148.71794872 , 4135.8974359 , 4173.84615385 , 4091.79487179 , 4166.15384615 , 4180.0 , 2042.0 , 2026.0 , 35.237 , 0.0 , 0.0 , 0.0 , 0.0 , 

58.0 , 4090.25641026 , 4194.35897436 , 4190.76923077 , 4156.92307692 , 4103.07692308 , 4095.38461538 , 4113.84615385 , 4123.58974359 , 4160.0 , 4135.8974359 , 4177.43589744 , 4096.41025641 , 4174.87179487 , 4183.07692308 , 2037.0 , 2023.0 , 35.243 , 0.0 , 0.0 , 0.0 , 0.0 , 

59.0 , 4087.17948718 , 4198.46153846 , 4200.51282051 , 4155.8974359 , 4104.61538462 , 4089.23076923 , 4109.23076923 , 4123.58974359 , 4170.76923077 , 4135.8974359 , 4181.53846154 , 4097.43589744 , 4165.12820513 , 4189.74358974 , 2036.0 , 2022.0 , 35.252 , 0.0 , 0.0 , 0.0 , 0.0 , 

60.0 , 4084.61538462 , 4191.79487179 , 4201.02564103 , 4153.84615385 , 4100.51282051 , 4087.17948718 , 4102.05128205 , 4123.07692308 , 4164.1025641 , 4135.8974359 , 4183.07692308 , 4095.38461538 , 4158.46153846 , 4194.87179487 , 2034.0 , 2023.0 , 35.259 , 0.0 , 0.0 , 0.0 , 0.0 , 

61.0 , 4081.02564103 , 4196.41025641 , 4208.20512821 , 4153.84615385 , 4094.87179487 , 4084.61538462 , 4097.43589744 , 4121.53846154 , 4152.82051282 , 4135.8974359 , 4184.61538462 , 4097.94871795 , 4165.64102564 , 4204.61538462 , 2035.0 , 2026.0 , 35.267 , 0.0 , 0.0 , 0.0 , 0.0 , 

62.0 , 4077.43589744 , 4205.64102564 , 4215.8974359 , 4154.87179487 , 4094.87179487 , 4076.41025641 , 4095.38461538 , 4122.05128205 , 4153.33333333 , 4135.8974359 , 4185.12820513 , 4102.05128205 , 4174.87179487 , 4215.38461538 , 2034.0 , 2028.0 , 35.274 , 0.0 , 0.0 , 0.0 , 0.0 , 

63.0 , 4073.33333333 , 4210.76923077 , 4212.30769231 , 4154.87179487 , 4092.82051282 , 4072.30769231 , 4084.1025641 , 4124.61538462 , 4164.61538462 , 4135.8974359 , 4186.66666667 , 4097.43589744 , 4183.07692308 , 4218.46153846 , 2035.0 , 2033.0 , 35.283 , 0.0 , 0.0 , 0.0 , 0.0 , 

64.0 , 4065.64102564 , 4212.82051282 , 4216.41025641 , 4153.33333333 , 4084.61538462 , 4067.69230769 , 4068.71794872 , 4118.46153846 , 4170.25641026 , 4135.8974359 , 4189.23076923 , 4092.30769231 , 4186.66666667 , 4219.48717949 , 2035.0 , 2034.0 , 35.291 , 0.0 , 0.0 , 0.0 , 0.0 , 

65.0 , 4060.51282051 , 4213.33333333 , 4231.79487179 , 4149.74358974 , 4078.97435897 , 4058.97435897 , 4067.17948718 , 4113.33333333 , 4165.12820513 , 4135.8974359 , 4185.64102564 , 4091.79487179 , 4187.69230769 , 4220.51282051 , 2038.0 , 2036.0 , 35.299 , 0.0 , 0.0 , 0.0 , 0.0 , 

66.0 , 4054.87179487 , 4204.1025641 , 4221.53846154 , 4140.0 , 4077.94871795 , 4055.38461538 , 4067.17948718 , 4113.33333333 , 4158.46153846 , 4135.8974359 , 4169.23076923 , 4087.69230769 , 4186.66666667 , 4209.74358974 , 2039.0 , 2034.0 , 35.307 , 0.0 , 0.0 , 0.0 , 0.0 , 

67.0 , 4052.82051282 , 4195.8974359 , 4197.43589744 , 4134.35897436 , 4078.97435897 , 4057.43589744 , 4063.07692308 , 4114.87179487 , 4156.41025641 , 4135.8974359 , 4161.53846154 , 4084.1025641 , 4180.0 , 4196.92307692 , 2041.0 , 2033.0 , 35.313 , 0.0 , 0.0 , 0.0 , 0.0 , 

68.0 , 4055.38461538 , 4200.0 , 4197.43589744 , 4135.8974359 , 4079.48717949 , 4056.92307692 , 4061.53846154 , 4114.35897436 , 4153.84615385 , 4135.8974359 , 4168.20512821 , 4084.61538462 , 4176.92307692 , 4196.41025641 , 2045.0 , 2032.0 , 35.324 , 0.0 , 0.0 , 0.0 , 0.0 , 

69.0 , 4055.38461538 , 4210.76923077 , 4211.79487179 , 4140.51282051 , 4078.46153846 , 4057.43589744 , 4065.12820513 , 4112.30769231 , 4153.84615385 , 4135.8974359 , 4171.79487179 , 4085.12820513 , 4191.79487179 , 4206.15384615 , 2045.0 , 2031.0 , 35.329 , 0.0 , 0.0 , 0.0 , 0.0 , 

70.0 , 4051.28205128 , 4221.53846154 , 4220.51282051 , 4148.71794872 , 4077.43589744 , 4060.51282051 , 4066.66666667 , 4109.23076923 , 4157.43589744 , 4135.8974359 , 4172.82051282 , 4085.12820513 , 4204.1025641 , 4216.92307692 , 2049.0 , 2031.0 , 35.34 , 0.0 , 0.0 , 0.0 , 0.0 , 

71.0 , 4051.79487179 , 4215.8974359 , 4215.38461538 , 4148.71794872 , 4078.46153846 , 4058.97435897 , 4066.15384615 , 4108.71794872 , 4154.35897436 , 4135.8974359 , 4171.79487179 , 4083.58974359 , 4190.25641026 , 4212.82051282 , 2050.0 , 2031.0 , 35.345 , 0.0 , 0.0 , 0.0 , 0.0 , 

72.0 , 4051.79487179 , 4203.58974359 , 4211.28205128 , 4144.61538462 , 4078.46153846 , 4054.87179487 , 4063.07692308 , 4112.82051282 , 4151.79487179 , 4135.8974359 , 4169.23076923 , 4085.12820513 , 4181.02564103 , 4202.56410256 , 2052.0 , 2032.0 , 35.356 , 0.0 , 0.0 , 0.0 , 0.0 , 

73.0 , 4049.74358974 , 4207.69230769 , 4224.1025641 , 4148.20512821 , 4077.43589744 , 4057.43589744 , 4061.53846154 , 4112.30769231 , 4154.35897436 , 4135.8974359 , 4174.35897436 , 4090.76923077 , 4192.30769231 , 4203.58974359 , 2052.0 , 2034.0 , 35.361 , 0.0 , 0.0 , 0.0 , 0.0 , 

74.0 , 4050.25641026 , 4214.87179487 , 4230.25641026 , 4149.23076923 , 4075.8974359 , 4060.0 , 4063.58974359 , 4114.35897436 , 4155.38461538 , 4135.8974359 , 4178.46153846 , 4089.74358974 , 4198.46153846 , 4205.64102564 , 2049.0 , 2039.0 , 35.372 , 0.0 , 0.0 , 0.0 , 0.0 , 

75.0 , 4053.33333333 , 4200.51282051 , 4217.94871795 , 4142.56410256 , 4075.8974359 , 4059.48717949 , 4066.66666667 , 4119.48717949 , 4154.35897436 , 4135.8974359 , 4169.23076923 , 4089.23076923 , 4194.87179487 , 4200.51282051 , 2048.0 , 2040.0 , 35.377 , 0.0 , 0.0 , 0.0 , 0.0 , 

76.0 , 4053.33333333 , 4195.8974359 , 4208.20512821 , 4145.12820513 , 4079.48717949 , 4057.94871795 , 4067.69230769 , 4119.48717949 , 4155.38461538 , 4135.8974359 , 4168.20512821 , 4091.79487179 , 4191.28205128 , 4200.0 , 2048.0 , 2042.0 , 35.386 , 0.0 , 0.0 , 0.0 , 0.0 , 

77.0 , 4054.35897436 , 4211.79487179 , 4213.33333333 , 4152.82051282 , 4081.02564103 , 4060.51282051 , 4070.25641026 , 4117.94871795 , 4154.35897436 , 4135.8974359 , 4180.51282051 , 4088.71794872 , 4192.30769231 , 4202.05128205 , 2048.0 , 2042.0 , 35.392 , 0.0 , 0.0 , 0.0 , 0.0 , 

78.0 , 4054.35897436 , 4206.66666667 , 4212.82051282 , 4152.30769231 , 4080.51282051 , 4067.69230769 , 4073.33333333 , 4117.43589744 , 4154.35897436 , 4135.8974359 , 4180.51282051 , 4087.69230769 , 4192.30769231 , 4200.51282051 , 2045.0 , 2042.0 , 35.402 , 0.0 , 0.0 , 0.0 , 0.0 , 

79.0 , 4055.38461538 , 4187.69230769 , 4205.12820513 , 4147.69230769 , 4084.1025641 , 4071.28205128 , 4078.46153846 , 4121.53846154 , 4155.38461538 , 4135.8974359 , 4169.23076923 , 4090.76923077 , 4186.66666667 , 4200.0 , 2044.0 , 2036.0 , 35.409 , 0.0 , 0.0 , 0.0 , 0.0 , 

80.0 , 4057.94871795 , 4186.66666667 , 4206.66666667 , 4147.69230769 , 4088.20512821 , 4071.79487179 , 4081.02564103 , 4123.58974359 , 4154.87179487 , 4135.8974359 , 4166.15384615 , 4089.74358974 , 4176.92307692 , 4200.0 , 2042.0 , 2033.0 , 35.417 , 0.0 , 0.0 , 0.0 , 0.0 , 

81.0 , 4057.94871795 , 4193.33333333 , 4204.61538462 , 4151.28205128 , 4088.20512821 , 4073.84615385 , 4080.51282051 , 4122.05128205 , 4154.35897436 , 4135.8974359 , 4168.71794872 , 4090.25641026 , 4174.35897436 , 4195.38461538 , 2040.0 , 2026.0 , 35.424 , 0.0 , 0.0 , 0.0 , 0.0 , 

82.0 , 4057.94871795 , 4195.8974359 , 4201.02564103 , 4151.79487179 , 4087.69230769 , 4075.8974359 , 4082.05128205 , 4121.53846154 , 4151.79487179 , 4135.8974359 , 4169.74358974 , 4094.87179487 , 4181.53846154 , 4193.84615385 , 2039.0 , 2022.0 , 35.434 , 0.0 , 0.0 , 0.0 , 0.0 , 

83.0 , 4057.43589744 , 4206.15384615 , 4209.23076923 , 4152.82051282 , 4085.64102564 , 4073.84615385 , 4084.1025641 , 4123.58974359 , 4154.35897436 , 4135.8974359 , 4172.30769231 , 4093.84615385 , 4189.23076923 , 4202.05128205 , 2040.0 , 2022.0 , 35.44 , 0.0 , 0.0 , 0.0 , 0.0 , 

84.0 , 4057.43589744 , 4207.69230769 , 4213.33333333 , 4154.87179487 , 4085.64102564 , 4073.33333333 , 4082.56410256 , 4120.0 , 4157.94871795 , 4135.8974359 , 4171.79487179 , 4089.74358974 , 4186.15384615 , 4204.1025641 , 2040.0 , 2023.0 , 35.447 , 0.0 , 0.0 , 0.0 , 0.0 , 

85.0 , 4061.02564103 , 4199.48717949 , 4207.69230769 , 4151.79487179 , 4088.20512821 , 4075.38461538 , 4080.0 , 4116.92307692 , 4159.48717949 , 4135.8974359 , 4166.15384615 , 4088.20512821 , 4178.97435897 , 4200.0 , 2040.0 , 2025.0 , 35.456 , 0.0 , 0.0 , 0.0 , 0.0 , 

86.0 , 4066.66666667 , 4203.58974359 , 4215.38461538 , 4153.84615385 , 4088.20512821 , 4074.35897436 , 4084.61538462 , 4121.02564103 , 4162.05128205 , 4135.8974359 , 4168.71794872 , 4092.82051282 , 4185.12820513 , 4203.58974359 , 2040.0 , 2028.0 , 35.463 , 0.0 , 0.0 , 0.0 , 0.0 , 

87.0 , 4066.66666667 , 4202.05128205 , 4220.0 , 4154.87179487 , 4086.15384615 , 4072.82051282 , 4086.66666667 , 4123.07692308 , 4161.02564103 , 4135.8974359 , 4168.71794872 , 4093.84615385 , 4184.1025641 , 4193.84615385 , 2042.0 , 2031.0 , 35.473 , 0.0 , 0.0 , 0.0 , 0.0 , 

88.0 , 4066.15384615 , 4180.51282051 , 4197.94871795 , 4146.66666667 , 4090.76923077 , 4078.46153846 , 4084.1025641 , 4120.51282051 , 4155.8974359 , 4135.8974359 , 4156.92307692 , 4086.15384615 , 4167.17948718 , 4172.82051282 , 2044.0 , 2034.0 , 35.479 , 0.0 , 0.0 , 0.0 , 0.0 , 

89.0 , 4070.25641026 , 4168.20512821 , 4187.69230769 , 4142.05128205 , 4096.92307692 , 4082.56410256 , 4087.17948718 , 4120.0 , 4155.8974359 , 4135.8974359 , 4153.84615385 , 4082.56410256 , 4165.12820513 , 4176.92307692 , 2044.0 , 2035.0 , 35.489 , 0.0 , 0.0 , 0.0 , 0.0 , 

90.0 , 4075.38461538 , 4167.17948718 , 4186.66666667 , 4142.56410256 , 4098.46153846 , 4082.56410256 , 4093.33333333 , 4121.53846154 , 4157.43589744 , 4135.8974359 , 4159.48717949 , 4088.20512821 , 4172.82051282 , 4194.35897436 , 2044.0 , 2036.0 , 35.495 , 0.0 , 0.0 , 0.0 , 0.0 , 

91.0 , 4077.43589744 , 4154.35897436 , 4171.79487179 , 4141.53846154 , 4097.94871795 , 4087.69230769 , 4096.92307692 , 4121.02564103 , 4153.33333333 , 4135.8974359 , 4155.8974359 , 4085.12820513 , 4163.58974359 , 4183.58974359 , 2046.0 , 2035.0 , 35.504 , 0.0 , 0.0 , 0.0 , 0.0 , 

92.0 , 4085.64102564 , 4152.82051282 , 4174.35897436 , 4147.69230769 , 4103.58974359 , 4097.43589744 , 4105.12820513 , 4123.58974359 , 4154.35897436 , 4135.8974359 , 4152.30769231 , 4082.05128205 , 4158.97435897 , 4172.82051282 , 2046.0 , 2034.0 , 35.51 , 0.0 , 0.0 , 0.0 , 0.0 , 

93.0 , 4097.43589744 , 4167.17948718 , 4188.71794872 , 4156.41025641 , 4110.76923077 , 4103.07692308 , 4116.92307692 , 4122.05128205 , 4161.02564103 , 4135.8974359 , 4156.41025641 , 4087.17948718 , 4169.23076923 , 4182.05128205 , 2047.0 , 2030.0 , 35.52 , 0.0 , 0.0 , 0.0 , 0.0 , 

94.0 , 4104.1025641 , 4156.92307692 , 4180.0 , 4154.35897436 , 4114.35897436 , 4109.74358974 , 4124.1025641 , 4121.02564103 , 4157.94871795 , 4135.8974359 , 4156.92307692 , 4088.20512821 , 4165.64102564 , 4174.87179487 , 2046.0 , 2029.0 , 35.526 , 0.0 , 0.0 , 0.0 , 0.0 , 

95.0 , 4109.23076923 , 4134.87179487 , 4160.0 , 4151.79487179 , 4118.46153846 , 4119.48717949 , 4131.28205128 , 4127.17948718 , 4144.61538462 , 4136.41025641 , 4150.25641026 , 4085.12820513 , 4148.20512821 , 4154.35897436 , 2045.0 , 2028.0 , 35.536 , 0.0 , 0.0 , 0.0 , 0.0 , 

96.0 , 4117.43589744 , 4127.69230769 , 4149.74358974 , 4151.79487179 , 4124.61538462 , 4129.23076923 , 4142.56410256 , 4128.20512821 , 4135.38461538 , 4137.43589744 , 4141.02564103 , 4083.07692308 , 4136.41025641 , 4150.76923077 , 2044.0 , 2030.0 , 35.542 , 0.0 , 0.0 , 0.0 , 0.0 , 

97.0 , 4125.64102564 , 4113.84615385 , 4136.41025641 , 4146.66666667 , 4129.74358974 , 4136.41025641 , 4150.25641026 , 4126.66666667 , 4136.92307692 , 4137.43589744 , 4130.76923077 , 4077.94871795 , 4128.20512821 , 4148.20512821 , 2045.0 , 2031.0 , 35.552 , 0.0 , 0.0 , 0.0 , 0.0 , 

98.0 , 4131.28205128 , 4097.43589744 , 4133.84615385 , 4146.66666667 , 4134.35897436 , 4141.02564103 , 4156.41025641 , 4128.71794872 , 4137.94871795 , 4136.92307692 , 4130.25641026 , 4075.38461538 , 4126.66666667 , 4138.97435897 , 2045.0 , 2035.0 , 35.559 , 0.0 , 0.0 , 0.0 , 0.0 , 

99.0 , 4140.51282051 , 4108.20512821 , 4149.74358974 , 4161.53846154 , 4142.05128205 , 4148.71794872 , 4163.58974359 , 4132.30769231 , 4137.43589744 , 4136.92307692 , 4137.43589744 , 4079.48717949 , 4129.23076923 , 4141.53846154 , 2044.0 , 2036.0 , 35.567 , 0.0 , 0.0 , 0.0 , 0.0 , 

100.0 , 4150.76923077 , 4114.35897436 , 4142.56410256 , 4168.20512821 , 4147.17948718 , 4157.43589744 , 4170.25641026 , 4129.23076923 , 4138.97435897 , 4136.92307692 , 4133.84615385 , 4078.46153846 , 4124.1025641 , 4141.02564103 , 2047.0 , 2040.0 , 35.574 , 0.0 , 0.0 , 0.0 , 0.0 , 

101.0 , 4157.43589744 , 4088.20512821 , 4112.30769231 , 4156.41025641 , 4147.17948718 , 4159.48717949 , 4178.97435897 , 4127.69230769 , 4131.79487179 , 4136.92307692 , 4122.05128205 , 4071.79487179 , 4110.76923077 , 4123.07692308 , 2047.0 , 2044.0 , 35.582 , 0.0 , 0.0 , 0.0 , 0.0 , 

102.0 , 4161.02564103 , 4071.79487179 , 4104.1025641 , 4155.38461538 , 4152.30769231 , 4164.1025641 , 4186.66666667 , 4134.35897436 , 4125.12820513 , 4136.92307692 , 4119.48717949 , 4070.25641026 , 4103.58974359 , 4116.92307692 , 2045.0 , 2046.0 , 35.592 , 0.0 , 0.0 , 0.0 , 0.0 , 

103.0 , 4166.15384615 , 4080.0 , 4113.33333333 , 4170.25641026 , 4159.48717949 , 4174.87179487 , 4193.84615385 , 4137.94871795 , 4130.76923077 , 4136.92307692 , 4122.05128205 , 4073.33333333 , 4104.61538462 , 4123.07692308 , 2044.0 , 2050.0 , 35.599 , 0.0 , 0.0 , 0.0 , 0.0 , 

104.0 , 4171.28205128 , 4078.97435897 , 4104.61538462 , 4171.79487179 , 4163.58974359 , 4177.43589744 , 4198.97435897 , 4136.41025641 , 4137.43589744 , 4136.92307692 , 4121.53846154 , 4073.33333333 , 4104.61538462 , 4117.43589744 , 2044.0 , 2048.0 , 35.608 , 0.0 , 0.0 , 0.0 , 0.0 , 

105.0 , 4177.94871795 , 4063.07692308 , 4086.15384615 , 4164.61538462 , 4168.20512821 , 4173.84615385 , 4202.05128205 , 4134.35897436 , 4133.84615385 , 4136.92307692 , 4121.53846154 , 4071.79487179 , 4096.41025641 , 4107.17948718 , 2044.0 , 2046.0 , 35.614 , 0.0 , 0.0 , 0.0 , 0.0 , 

106.0 , 4183.58974359 , 4056.41025641 , 4086.66666667 , 4167.17948718 , 4168.71794872 , 4177.94871795 , 4202.05128205 , 4135.38461538 , 4129.23076923 , 4136.41025641 , 4120.0 , 4071.28205128 , 4091.28205128 , 4106.66666667 , 2044.0 , 2045.0 , 35.624 , 0.0 , 0.0 , 0.0 , 0.0 , 

107.0 , 4186.15384615 , 4061.02564103 , 4093.84615385 , 4173.33333333 , 4168.20512821 , 4185.64102564 , 4208.71794872 , 4136.92307692 , 4132.82051282 , 4137.43589744 , 4117.94871795 , 4075.38461538 , 4093.84615385 , 4108.20512821 , 2043.0 , 2039.0 , 35.629 , 0.0 , 0.0 , 0.0 , 0.0 , 

108.0 , 4187.69230769 , 4064.1025641 , 4091.79487179 , 4175.8974359 , 4173.84615385 , 4189.23076923 , 4216.92307692 , 4137.94871795 , 4134.87179487 , 4135.8974359 , 4121.53846154 , 4077.94871795 , 4094.87179487 , 4107.17948718 , 2042.0 , 2036.0 , 35.64 , 0.0 , 0.0 , 0.0 , 0.0 , 

109.0 , 4192.30769231 , 4062.56410256 , 4094.87179487 , 4181.02564103 , 4176.92307692 , 4191.28205128 , 4220.0 , 4138.97435897 , 4128.20512821 , 4133.33333333 , 4122.56410256 , 4076.92307692 , 4094.35897436 , 4111.28205128 , 2039.0 , 2030.0 , 35.646 , 0.0 , 0.0 , 0.0 , 0.0 , 

110.0 , 4198.46153846 , 4064.61538462 , 4107.17948718 , 4182.56410256 , 4176.41025641 , 4191.79487179 , 4224.61538462 , 4140.0 , 4121.02564103 , 4134.35897436 , 4117.43589744 , 4075.8974359 , 4094.87179487 , 4114.87179487 , 2038.0 , 2028.0 , 35.654 , 0.0 , 0.0 , 0.0 , 0.0 , 

111.0 , 4204.1025641 , 4058.46153846 , 4098.46153846 , 4175.8974359 , 4183.58974359 , 4196.92307692 , 4234.87179487 , 4141.02564103 , 4120.0 , 4136.92307692 , 4110.25641026 , 4079.48717949 , 4087.69230769 , 4108.71794872 , 2036.0 , 2029.0 , 35.66 , 0.0 , 0.0 , 0.0 , 0.0 , 

112.0 , 4206.15384615 , 4051.28205128 , 4086.15384615 , 4174.35897436 , 4187.69230769 , 4205.12820513 , 4238.97435897 , 4137.94871795 , 4121.53846154 , 4136.92307692 , 4105.64102564 , 4077.43589744 , 4081.53846154 , 4096.92307692 , 2035.0 , 2029.0 , 35.67 , 0.0 , 0.0 , 0.0 , 0.0 , 

113.0 , 4211.28205128 , 4051.79487179 , 4098.46153846 , 4181.53846154 , 4185.64102564 , 4208.20512821 , 4241.02564103 , 4136.92307692 , 4122.56410256 , 4135.38461538 , 4108.71794872 , 4075.8974359 , 4085.12820513 , 4092.82051282 , 2035.0 , 2031.0 , 35.676 , 0.0 , 0.0 , 0.0 , 0.0 , 

114.0 , 4215.38461538 , 4045.64102564 , 4095.38461538 , 4178.46153846 , 4189.74358974 , 4207.17948718 , 4243.07692308 , 4137.94871795 , 4122.05128205 , 4136.41025641 , 4108.71794872 , 4078.97435897 , 4081.53846154 , 4093.84615385 , 2035.0 , 2030.0 , 35.685 , 0.0 , 0.0 , 0.0 , 0.0 , 

115.0 , 4218.97435897 , 4030.25641026 , 4066.15384615 , 4170.25641026 , 4194.35897436 , 4211.79487179 , 4243.58974359 , 4137.43589744 , 4116.41025641 , 4136.41025641 , 4098.46153846 , 4078.97435897 , 4069.23076923 , 4087.69230769 , 2036.0 , 2032.0 , 35.692 , 0.0 , 0.0 , 0.0 , 0.0 , 

116.0 , 4227.17948718 , 4028.20512821 , 4064.1025641 , 4178.46153846 , 4193.84615385 , 4220.0 , 4248.20512821 , 4137.94871795 , 4117.43589744 , 4134.87179487 , 4096.92307692 , 4078.46153846 , 4070.25641026 , 4083.58974359 , 2036.0 , 2033.0 , 35.7 , 0.0 , 0.0 , 0.0 , 0.0 , 

117.0 , 4231.79487179 , 4038.46153846 , 4079.48717949 , 4189.23076923 , 4198.46153846 , 4222.05128205 , 4255.38461538 , 4140.0 , 4123.07692308 , 4133.84615385 , 4106.15384615 , 4080.51282051 , 4077.94871795 , 4091.28205128 , 2038.0 , 2033.0 , 35.707 , 0.0 , 0.0 , 0.0 , 0.0 , 

118.0 , 4230.76923077 , 4037.94871795 , 4077.43589744 , 4185.12820513 , 4202.05128205 , 4221.53846154 , 4255.8974359 , 4141.02564103 , 4123.58974359 , 4134.87179487 , 4104.1025641 , 4075.38461538 , 4073.84615385 , 4094.35897436 , 2041.0 , 2033.0 , 35.716 , 0.0 , 0.0 , 0.0 , 0.0 , 

119.0 , 4230.25641026 , 4030.25641026 , 4073.33333333 , 4183.58974359 , 4201.02564103 , 4223.07692308 , 4259.48717949 , 4139.48717949 , 4122.05128205 , 4135.8974359 , 4097.94871795 , 4076.41025641 , 4072.82051282 , 4084.61538462 , 2042.0 , 2032.0 , 35.723 , 0.0 , 0.0 , 0.0 , 0.0 , 

120.0 , 4232.82051282 , 4013.33333333 , 4066.66666667 , 4184.1025641 , 4201.02564103 , 4226.15384615 , 4269.23076923 , 4139.48717949 , 4120.0 , 4135.8974359 , 4098.46153846 , 4083.07692308 , 4072.30769231 , 4074.35897436 , 2044.0 , 2030.0 , 35.732 , 0.0 , 0.0 , 0.0 , 0.0 , 

121.0 , 4235.38461538 , 4008.71794872 , 4063.07692308 , 4184.1025641 , 4203.07692308 , 4226.15384615 , 4271.79487179 , 4140.0 , 4118.46153846 , 4135.8974359 , 4102.05128205 , 4077.43589744 , 4064.61538462 , 4076.92307692 , 2045.0 , 2028.0 , 35.74 , 0.0 , 0.0 , 0.0 , 0.0 , 

122.0 , 4241.02564103 , 4023.58974359 , 4072.82051282 , 4184.1025641 , 4203.07692308 , 4225.64102564 , 4270.76923077 , 4141.53846154 , 4118.46153846 , 4135.8974359 , 4104.61538462 , 4072.82051282 , 4069.74358974 , 4085.12820513 , 2046.0 , 2027.0 , 35.747 , 0.0 , 0.0 , 0.0 , 0.0 , 

123.0 , 4242.05128205 , 4021.02564103 , 4067.69230769 , 4174.87179487 , 4203.07692308 , 4224.61538462 , 4271.28205128 , 4143.07692308 , 4114.87179487 , 4135.8974359 , 4103.58974359 , 4077.43589744 , 4080.51282051 , 4082.05128205 , 2049.0 , 2027.0 , 35.756 , 0.0 , 0.0 , 0.0 , 0.0 , 

124.0 , 4238.46153846 , 4006.66666667 , 4059.48717949 , 4170.25641026 , 4204.1025641 , 4223.07692308 , 4267.69230769 , 4141.02564103 , 4113.33333333 , 4135.8974359 , 4101.02564103 , 4078.97435897 , 4081.02564103 , 4071.79487179 , 2048.0 , 2027.0 , 35.762 , 0.0 , 0.0 , 0.0 , 0.0 , 

125.0 , 4236.92307692 , 4021.53846154 , 4078.97435897 , 4182.05128205 , 4201.02564103 , 4220.0 , 4264.1025641 , 4138.97435897 , 4123.07692308 , 4135.8974359 , 4109.23076923 , 4078.97435897 , 4088.71794872 , 4077.94871795 , 2049.0 , 2029.0 , 35.773 , 0.0 , 0.0 , 0.0 , 0.0 , 

126.0 , 4236.92307692 , 4044.61538462 , 4097.94871795 , 4189.23076923 , 4198.97435897 , 4216.92307692 , 4265.12820513 , 4138.97435897 , 4129.23076923 , 4135.8974359 , 4114.35897436 , 4081.53846154 , 4092.82051282 , 4089.23076923 , 2048.0 , 2031.0 , 35.779 , 0.0 , 0.0 , 0.0 , 0.0 , 

127.0 , 4234.35897436 , 4048.71794872 , 4103.58974359 , 4185.12820513 , 4196.92307692 , 4212.30769231 , 4257.94871795 , 4140.0 , 4123.07692308 , 4135.8974359 , 4110.76923077 , 4077.43589744 , 4085.12820513 , 4094.35897436 , 2048.0 , 2032.0 , 35.789 , 0.0 , 0.0 , 0.0 , 0.0 , 

128.0 , 4229.23076923 , 4049.74358974 , 4113.84615385 , 4187.17948718 , 4193.33333333 , 4208.20512821 , 4249.74358974 , 4139.48717949 , 4127.69230769 , 4135.8974359 , 4117.43589744 , 4075.38461538 , 4091.28205128 , 4106.15384615 , 2047.0 , 2034.0 , 35.794 , 0.0 , 0.0 , 0.0 , 0.0 , 

0.0 , 4222.05128205 , 4048.20512821 , 4109.23076923 , 4189.23076923 , 4191.79487179 , 4206.66666667 , 4251.28205128 , 4137.43589744 , 4140.0 , 4135.8974359 , 4122.05128205 , 4075.38461538 , 4097.43589744 , 4107.69230769 , 2047.0 , 2035.0 , 35.807 , 0.0 , 0.0 , 0.0 , 0.0 , 

1.0 , 4222.56410256 , 4045.64102564 , 4095.38461538 , 4182.56410256 , 4191.28205128 , 4203.58974359 , 4250.25641026 , 4137.94871795 , 4138.46153846 , 4135.8974359 , 4113.84615385 , 4070.25641026 , 4087.69230769 , 4096.41025641 , 2045.0 , 2036.0 , 35.811 , 0.0 , 0.0 , 0.0 , 0.0 , 

2.0 , 4223.58974359 , 4052.30769231 , 4102.56410256 , 4180.0 , 4188.71794872 , 4196.41025641 , 4241.53846154 , 4140.0 , 4133.33333333 , 4135.8974359 , 4109.23076923 , 4066.66666667 , 4090.25641026 , 4098.97435897 , 2044.0 , 2037.0 , 35.821 , 0.0 , 0.0 , 0.0 , 0.0 , 

3.0 , 4219.48717949 , 4057.43589744 , 4112.30769231 , 4182.05128205 , 4186.66666667 , 4195.38461538 , 4239.48717949 , 4138.46153846 , 4136.41025641 , 4135.8974359 , 4114.87179487 , 4070.25641026 , 4103.58974359 , 4108.71794872 , 2043.0 , 2034.0 , 35.826 , 0.0 , 0.0 , 0.0 , 0.0 , 

4.0 , 4216.92307692 , 4061.53846154 , 4110.25641026 , 4185.12820513 , 4184.61538462 , 4195.8974359 , 4240.51282051 , 4140.0 , 4140.0 , 4135.8974359 , 4120.51282051 , 4071.79487179 , 4104.61538462 , 4106.66666667 , 2041.0 , 2034.0 , 35.836 , 0.0 , 0.0 , 0.0 , 0.0 , 

5.0 , 4217.94871795 , 4067.69230769 , 4105.64102564 , 4186.15384615 , 4185.12820513 , 4192.82051282 , 4239.48717949 , 4145.64102564 , 4136.41025641 , 4135.8974359 , 4121.53846154 , 4069.74358974 , 4102.05128205 , 4104.61538462 , 2040.0 , 2031.0 , 35.843 , 0.0 , 0.0 , 0.0 , 0.0 , 

6.0 , 4217.43589744 , 4065.64102564 , 4107.17948718 , 4182.05128205 , 4186.15384615 , 4192.30769231 , 4239.48717949 , 4141.02564103 , 4137.94871795 , 4135.8974359 , 4116.92307692 , 4070.76923077 , 4102.56410256 , 4107.17948718 , 2037.0 , 2026.0 , 35.852 , 0.0 , 0.0 , 0.0 , 0.0 , 

7.0 , 4215.38461538 , 4064.1025641 , 4107.69230769 , 4180.0 , 4183.07692308 , 4194.35897436 , 4237.43589744 , 4134.35897436 , 4140.0 , 4135.8974359 , 4113.84615385 , 4073.84615385 , 4097.94871795 , 4103.07692308 , 2036.0 , 2023.0 , 35.859 , 0.0 , 0.0 , 0.0 , 0.0 , 

8.0 , 4213.84615385 , 4074.35897436 , 4108.71794872 , 4183.07692308 , 4180.51282051 , 4192.30769231 , 4233.33333333 , 4136.92307692 , 4137.43589744 , 4135.8974359 , 4119.48717949 , 4073.33333333 , 4098.46153846 , 4106.15384615 , 2036.0 , 2022.0 , 35.868 , 0.0 , 0.0 , 0.0 , 0.0 , 

9.0 , 4212.82051282 , 4084.61538462 , 4125.64102564 , 4187.17948718 , 4178.46153846 , 4190.76923077 , 4233.33333333 , 4138.97435897 , 4141.53846154 , 4135.8974359 , 4123.58974359 , 4073.84615385 , 4112.82051282 , 4119.48717949 , 2037.0 , 2022.0 , 35.876 , 0.0 , 0.0 , 0.0 , 0.0 , 

10.0 , 4212.82051282 , 4086.66666667 , 4145.12820513 , 4187.69230769 , 4175.38461538 , 4189.74358974 , 4231.79487179 , 4138.97435897 , 4144.61538462 , 4135.8974359 , 4122.05128205 , 4073.84615385 , 4121.02564103 , 4126.15384615 , 2035.0 , 2027.0 , 35.882 , 0.0 , 0.0 , 0.0 , 0.0 , 

11.0 , 4204.1025641 , 4085.64102564 , 4138.46153846 , 4183.58974359 , 4176.92307692 , 4181.53846154 , 4224.1025641 , 4139.48717949 , 4139.48717949 , 4136.41025641 , 4120.0 , 4070.25641026 , 4114.87179487 , 4120.51282051 , 2036.0 , 2031.0 , 35.891 , 0.0 , 0.0 , 0.0 , 0.0 , 

12.0 , 4195.38461538 , 4082.56410256 , 4126.66666667 , 4177.94871795 , 4177.43589744 , 4174.87179487 , 4219.48717949 , 4137.43589744 , 4135.8974359 , 4135.38461538 , 4118.97435897 , 4069.74358974 , 4110.76923077 , 4115.8974359 , 2036.0 , 2032.0 , 35.896 , 0.0 , 0.0 , 0.0 , 0.0 , 

13.0 , 4192.82051282 , 4086.66666667 , 4138.46153846 , 4180.0 , 4169.23076923 , 4175.38461538 , 4210.76923077 , 4134.35897436 , 4144.1025641 , 4134.35897436 , 4120.0 , 4071.28205128 , 4117.43589744 , 4118.46153846 , 2035.0 , 2031.0 , 35.908 , 0.0 , 0.0 , 0.0 , 0.0 , 

14.0 , 4191.79487179 , 4094.35897436 , 4141.02564103 , 4184.61538462 , 4169.23076923 , 4171.79487179 , 4202.56410256 , 4135.8974359 , 4148.71794872 , 4134.35897436 , 4121.53846154 , 4071.79487179 , 4127.69230769 , 4125.64102564 , 2036.0 , 2031.0 , 35.913 , 0.0 , 0.0 , 0.0 , 0.0 , 

15.0 , 4188.71794872 , 4099.48717949 , 4131.28205128 , 4183.07692308 , 4170.25641026 , 4162.56410256 , 4199.48717949 , 4131.79487179 , 4144.1025641 , 4134.35897436 , 4123.07692308 , 4071.79487179 , 4136.41025641 , 4134.35897436 , 2034.0 , 2028.0 , 35.923 , 0.0 , 0.0 , 0.0 , 0.0 , 

16.0 , 4183.07692308 , 4109.23076923 , 4141.02564103 , 4182.05128205 , 4160.51282051 , 4156.41025641 , 4196.92307692 , 4126.15384615 , 4140.51282051 , 4134.35897436 , 4130.25641026 , 4071.28205128 , 4144.1025641 , 4137.94871795 , 2035.0 , 2026.0 , 35.928 , 0.0 , 0.0 , 0.0 , 0.0 , 

17.0 , 4171.79487179 , 4124.61538462 , 4151.28205128 , 4183.58974359 , 4156.41025641 , 4153.84615385 , 4192.82051282 , 4128.71794872 , 4138.46153846 , 4135.38461538 , 4136.92307692 , 4067.17948718 , 4151.28205128 , 4136.92307692 , 2035.0 , 2025.0 , 35.938 , 0.0 , 0.0 , 0.0 , 0.0 , 

18.0 , 4168.71794872 , 4134.87179487 , 4149.74358974 , 4185.64102564 , 4157.94871795 , 4154.35897436 , 4193.33333333 , 4131.79487179 , 4139.48717949 , 4136.41025641 , 4138.46153846 , 4066.66666667 , 4158.46153846 , 4139.48717949 , 2036.0 , 2027.0 , 35.944 , 0.0 , 0.0 , 0.0 , 0.0 , 

19.0 , 4169.23076923 , 4135.8974359 , 4150.76923077 , 4186.15384615 , 4154.35897436 , 4153.33333333 , 4191.79487179 , 4129.74358974 , 4138.97435897 , 4136.41025641 , 4139.48717949 , 4074.35897436 , 4159.48717949 , 4145.64102564 , 2037.0 , 2028.0 , 35.954 , 0.0 , 0.0 , 0.0 , 0.0 , 

20.0 , 4164.61538462 , 4130.76923077 , 4154.87179487 , 4182.05128205 , 4152.82051282 , 4148.71794872 , 4186.66666667 , 4125.64102564 , 4136.41025641 , 4135.38461538 , 4142.05128205 , 4080.0 , 4156.92307692 , 4145.12820513 , 2037.0 , 2029.0 , 35.959 , 0.0 , 0.0 , 0.0 , 0.0 , 

21.0 , 4160.0 , 4131.79487179 , 4158.97435897 , 4176.92307692 , 4153.84615385 , 4146.15384615 , 4182.56410256 , 4128.71794872 , 4136.92307692 , 4134.87179487 , 4141.53846154 , 4074.87179487 , 4158.46153846 , 4139.48717949 , 2037.0 , 2029.0 , 35.969 , 0.0 , 0.0 , 0.0 , 0.0 , 

22.0 , 4165.12820513 , 4131.79487179 , 4164.1025641 , 4172.30769231 , 4153.84615385 , 4146.15384615 , 4180.0 , 4130.76923077 , 4137.43589744 , 4133.84615385 , 4137.43589744 , 4067.69230769 , 4155.8974359 , 4137.43589744 , 2036.0 , 2030.0 , 35.975 , 0.0 , 0.0 , 0.0 , 0.0 , 

23.0 , 4166.66666667 , 4125.12820513 , 4166.15384615 , 4169.23076923 , 4154.87179487 , 4145.12820513 , 4178.46153846 , 4127.69230769 , 4136.92307692 , 4134.35897436 , 4137.94871795 , 4074.35897436 , 4155.8974359 , 4142.05128205 , 2036.0 , 2033.0 , 35.985 , 0.0 , 0.0 , 0.0 , 0.0 , 

24.0 , 4161.02564103 , 4132.30769231 , 4167.17948718 , 4171.28205128 , 4149.74358974 , 4145.12820513 , 4178.97435897 , 4130.25641026 , 4137.43589744 , 4135.8974359 , 4147.69230769 , 4082.56410256 , 4160.51282051 , 4145.12820513 , 2035.0 , 2036.0 , 35.991 , 0.0 , 0.0 , 0.0 , 0.0 , 

25.0 , 4155.38461538 , 4146.15384615 , 4164.61538462 , 4173.33333333 , 4142.56410256 , 4142.05128205 , 4178.97435897 , 4135.8974359 , 4138.97435897 , 4137.43589744 , 4150.76923077 , 4077.94871795 , 4143.58974359 , 4136.92307692 , 2034.0 , 2039.0 , 36.001 , 0.0 , 0.0 , 0.0 , 0.0 , 

26.0 , 4148.71794872 , 4145.12820513 , 4158.97435897 , 4170.76923077 , 4140.51282051 , 4132.30769231 , 4169.74358974 , 4134.87179487 , 4140.0 , 4136.92307692 , 4145.64102564 , 4076.41025641 , 4146.15384615 , 4140.0 , 2034.0 , 2044.0 , 36.008 , 0.0 , 0.0 , 0.0 , 0.0 , 

27.0 , 4137.43589744 , 4142.05128205 , 4170.25641026 , 4168.20512821 , 4137.43589744 , 4121.53846154 , 4153.84615385 , 4128.71794872 , 4146.15384615 , 4136.41025641 , 4154.35897436 , 4085.12820513 , 4221.02564103 , 4162.05128205 , 2035.0 , 2046.0 , 36.016 , 0.0 , 0.0 , 0.0 , 0.0 , 

28.0 , 4123.58974359 , 4146.66666667 , 4189.74358974 , 4167.17948718 , 4129.23076923 , 4111.79487179 , 4141.53846154 , 4125.64102564 , 4155.8974359 , 4135.38461538 , 4170.25641026 , 4085.64102564 , 4283.58974359 , 4172.82051282 , 2033.0 , 2047.0 , 36.025 , 0.0 , 0.0 , 0.0 , 0.0 , 

29.0 , 4116.92307692 , 4148.20512821 , 4187.69230769 , 4166.15384615 , 4124.61538462 , 4105.12820513 , 4135.38461538 , 4124.61538462 , 4154.35897436 , 4135.38461538 , 4172.82051282 , 4083.07692308 , 4284.1025641 , 4176.41025641 , 2034.0 , 2045.0 , 36.03 , 0.0 , 0.0 , 0.0 , 0.0 , 

30.0 , 4115.8974359 , 4147.17948718 , 4175.8974359 , 4163.58974359 , 4124.61538462 , 4103.07692308 , 4131.28205128 , 4126.15384615 , 4145.12820513 , 4135.38461538 , 4171.28205128 , 4088.20512821 , 4349.23076923 , 4185.12820513 , 2034.0 , 2042.0 , 36.041 , 0.0 , 0.0 , 0.0 , 0.0 , 

31.0 , 4115.8974359 , 4140.0 , 4171.28205128 , 4157.94871795 , 4124.61538462 , 4105.64102564 , 4132.82051282 , 4128.20512821 , 4141.53846154 , 4134.87179487 , 4172.30769231 , 4088.71794872 , 4427.17948718 , 4180.0 , 2032.0 , 2035.0 , 36.046 , 0.0 , 0.0 , 0.0 , 0.0 , 

32.0 , 4115.8974359 , 4133.33333333 , 4172.30769231 , 4153.84615385 , 4120.51282051 , 4110.25641026 , 4138.97435897 , 4125.12820513 , 4146.66666667 , 4134.87179487 , 4170.76923077 , 4080.51282051 , 4385.12820513 , 4169.23076923 , 2033.0 , 2031.0 , 36.057 , 0.0 , 0.0 , 0.0 , 0.0 , 

33.0 , 4119.48717949 , 4131.79487179 , 4163.07692308 , 4154.35897436 , 4120.51282051 , 4114.35897436 , 4145.64102564 , 4127.17948718 , 4150.76923077 , 4134.87179487 , 4167.17948718 , 4077.43589744 , 4484.1025641 , 4168.71794872 , 2032.0 , 2024.0 , 36.062 , 0.0 , 0.0 , 0.0 , 0.0 , 

34.0 , 4123.07692308 , 4131.28205128 , 4154.87179487 , 4152.30769231 , 4128.20512821 , 4115.8974359 , 4147.69230769 , 4133.33333333 , 4151.79487179 , 4134.87179487 , 4164.1025641 , 4081.02564103 , 4832.30769231 , 4167.17948718 , 2032.0 , 2021.0 , 36.073 , 0.0 , 0.0 , 0.0 , 0.0 , 

35.0 , 4127.69230769 , 4139.48717949 , 4175.38461538 , 4157.94871795 , 4133.84615385 , 4116.41025641 , 4150.76923077 , 4131.79487179 , 4153.84615385 , 4134.87179487 , 4167.17948718 , 4087.69230769 , 5047.69230769 , 4173.33333333 , 2031.0 , 2021.0 , 36.079 , 0.0 , 0.0 , 0.0 , 0.0 , 

36.0 , 4131.28205128 , 4143.07692308 , 4191.28205128 , 4163.58974359 , 4131.79487179 , 4119.48717949 , 4156.41025641 , 4128.20512821 , 4149.74358974 , 4134.87179487 , 4169.74358974 , 4089.74358974 , 5012.30769231 , 4183.07692308 , 2029.0 , 2022.0 , 36.089 , 0.0 , 0.0 , 0.0 , 0.0 , 

37.0 , 4133.84615385 , 4127.17948718 , 4175.8974359 , 4157.94871795 , 4129.23076923 , 4124.61538462 , 4157.43589744 , 4130.25641026 , 4140.0 , 4134.87179487 , 4158.97435897 , 4089.23076923 , 4990.25641026 , 4174.35897436 , 2028.0 , 2025.0 , 36.093 , 0.0 , 0.0 , 0.0 , 0.0 , 

38.0 , 4138.46153846 , 4112.82051282 , 4164.61538462 , 4155.38461538 , 4132.82051282 , 4126.66666667 , 4155.8974359 , 4133.84615385 , 4138.46153846 , 4134.87179487 , 4151.79487179 , 4091.28205128 , 5024.1025641 , 4158.46153846 , 2029.0 , 2030.0 , 36.102 , 0.0 , 0.0 , 0.0 , 0.0 , 

39.0 , 4143.58974359 , 4104.61538462 , 4162.56410256 , 4157.94871795 , 4137.94871795 , 4127.17948718 , 4158.97435897 , 4130.76923077 , 4138.97435897 , 4134.87179487 , 4153.84615385 , 4095.38461538 , 5009.23076923 , 4152.30769231 , 2029.0 , 2032.0 , 36.108 , 0.0 , 0.0 , 0.0 , 0.0 , 

40.0 , 4142.05128205 , 4101.02564103 , 4148.71794872 , 4155.38461538 , 4135.38461538 , 4126.15384615 , 4159.48717949 , 4129.74358974 , 4137.43589744 , 4134.87179487 , 4151.79487179 , 4094.87179487 , 4994.35897436 , 4147.17948718 , 2030.0 , 2036.0 , 36.118 , 0.0 , 0.0 , 0.0 , 0.0 , 

41.0 , 4137.94871795 , 4108.71794872 , 4151.79487179 , 4154.35897436 , 4129.74358974 , 4122.05128205 , 4153.84615385 , 4134.87179487 , 4145.12820513 , 4134.87179487 , 4155.8974359 , 4093.84615385 , 4995.8974359 , 4153.33333333 , 2031.0 , 2036.0 , 36.125 , 0.0 , 0.0 , 0.0 , 0.0 , 

42.0 , 4133.33333333 , 4117.43589744 , 4170.25641026 , 4158.46153846 , 4131.79487179 , 4116.41025641 , 4147.17948718 , 4135.8974359 , 4149.74358974 , 4134.87179487 , 4163.07692308 , 4092.82051282 , 4989.74358974 , 4164.1025641 , 2031.0 , 2039.0 , 36.135 , 0.0 , 0.0 , 0.0 , 0.0 , 

43.0 , 4127.69230769 , 4113.33333333 , 4161.02564103 , 4155.8974359 , 4132.30769231 , 4114.87179487 , 4143.07692308 , 4128.71794872 , 4145.64102564 , 4134.87179487 , 4162.05128205 , 4086.15384615 , 4980.51282051 , 4157.94871795 , 2031.0 , 2040.0 , 36.141 , 0.0 , 0.0 , 0.0 , 0.0 , 

44.0 , 4123.58974359 , 4115.38461538 , 4147.17948718 , 4150.25641026 , 4125.64102564 , 4114.87179487 , 4141.02564103 , 4123.07692308 , 4145.64102564 , 4134.87179487 , 4158.97435897 , 4078.46153846 , 4973.84615385 , 4149.74358974 , 2032.0 , 2043.0 , 36.15 , 0.0 , 0.0 , 0.0 , 0.0 , 

45.0 , 4118.97435897 , 4122.56410256 , 4157.94871795 , 4150.25641026 , 4123.07692308 , 4111.79487179 , 4139.48717949 , 4125.12820513 , 4144.61538462 , 4134.87179487 , 4161.02564103 , 4080.51282051 , 4974.35897436 , 4153.33333333 , 2035.0 , 2043.0 , 36.158 , 0.0 , 0.0 , 0.0 , 0.0 , 

46.0 , 4117.43589744 , 4122.05128205 , 4162.05128205 , 4152.30769231 , 4122.05128205 , 4109.74358974 , 4137.43589744 , 4126.15384615 , 4138.46153846 , 4134.35897436 , 4161.02564103 , 4087.17948718 , 4965.64102564 , 4155.38461538 , 2035.0 , 2043.0 , 36.164 , 0.0 , 0.0 , 0.0 , 0.0 , 

47.0 , 4120.0 , 4123.07692308 , 4151.79487179 , 4152.30769231 , 4120.0 , 4108.71794872 , 4134.87179487 , 4124.61538462 , 4138.97435897 , 4133.84615385 , 4160.51282051 , 4085.12820513 , 4958.46153846 , 4151.79487179 , 2039.0 , 2040.0 , 36.174 , 0.0 , 0.0 , 0.0 , 0.0 , 

48.0 , 4121.02564103 , 4132.30769231 , 4160.51282051 , 4152.30769231 , 4123.07692308 , 4110.25641026 , 4136.41025641 , 4125.64102564 , 4141.53846154 , 4134.35897436 , 4166.15384615 , 4080.0 , 4961.53846154 , 4158.46153846 , 2039.0 , 2036.0 , 36.18 , 0.0 , 0.0 , 0.0 , 0.0 , 

49.0 , 4115.8974359 , 4141.53846154 , 4176.92307692 , 4154.35897436 , 4126.15384615 , 4113.33333333 , 4137.94871795 , 4124.61538462 , 4144.1025641 , 4134.35897436 , 4171.28205128 , 4080.51282051 , 4959.48717949 , 4167.69230769 , 2038.0 , 2030.0 , 36.19 , 0.0 , 0.0 , 0.0 , 0.0 , 

50.0 , 4114.35897436 , 4132.82051282 , 4169.74358974 , 4152.82051282 , 4122.56410256 , 4112.30769231 , 4138.46153846 , 4125.64102564 , 4146.15384615 , 4134.35897436 , 4169.23076923 , 4084.1025641 , 4944.61538462 , 4160.0 , 2037.0 , 2028.0 , 36.196 , 0.0 , 0.0 , 0.0 , 0.0 , 

51.0 , 4116.41025641 , 4127.69230769 , 4164.1025641 , 4151.79487179 , 4122.05128205 , 4109.74358974 , 4138.46153846 , 4127.69230769 , 4143.58974359 , 4135.8974359 , 4167.17948718 , 4084.61538462 , 4936.92307692 , 4152.30769231 , 2037.0 , 2026.0 , 36.206 , 0.0 , 0.0 , 0.0 , 0.0 , 

52.0 , 4119.48717949 , 4140.0 , 4175.8974359 , 4155.38461538 , 4124.61538462 , 4111.79487179 , 4141.53846154 , 4126.15384615 , 4141.53846154 , 4137.43589744 , 4169.23076923 , 4085.64102564 , 4936.92307692 , 4155.38461538 , 2038.0 , 2028.0 , 36.212 , 0.0 , 0.0 , 0.0 , 0.0 , 

53.0 , 4120.0 , 4140.51282051 , 4175.8974359 , 4153.84615385 , 4122.05128205 , 4113.84615385 , 4142.05128205 , 4125.12820513 , 4132.82051282 , 4136.92307692 , 4164.1025641 , 4085.64102564 , 4925.64102564 , 4153.33333333 , 2038.0 , 2029.0 , 36.223 , 0.0 , 0.0 , 0.0 , 0.0 , 

54.0 , 4118.46153846 , 4124.1025641 , 4163.07692308 , 4149.23076923 , 4121.53846154 , 4110.76923077 , 4139.48717949 , 4126.66666667 , 4123.07692308 , 4135.8974359 , 4152.30769231 , 4084.61538462 , 4904.61538462 , 4146.15384615 , 2037.0 , 2036.0 , 36.226 , 0.0 , 0.0 , 0.0 , 0.0 , 

55.0 , 4113.84615385 , 4122.05128205 , 4164.61538462 , 4150.76923077 , 4123.07692308 , 4108.71794872 , 4135.8974359 , 4124.61538462 , 4132.30769231 , 4135.8974359 , 4149.23076923 , 4086.66666667 , 4889.23076923 , 4147.17948718 , 2037.0 , 2037.0 , 36.238 , 0.0 , 0.0 , 0.0 , 0.0 , 

56.0 , 4114.35897436 , 4131.28205128 , 4171.79487179 , 4155.38461538 , 4123.07692308 , 4111.28205128 , 4134.35897436 , 4122.56410256 , 4145.12820513 , 4134.35897436 , 4156.41025641 , 4089.23076923 , 4890.76923077 , 4156.92307692 , 2038.0 , 2040.0 , 36.243 , 0.0 , 0.0 , 0.0 , 0.0 , 

57.0 , 4116.92307692 , 4125.64102564 , 4168.20512821 , 4152.82051282 , 4122.56410256 , 4112.30769231 , 4135.8974359 , 4125.12820513 , 4136.92307692 , 4134.87179487 , 4165.12820513 , 4085.12820513 , 4896.41025641 , 4166.15384615 , 2036.0 , 2040.0 , 36.253 , 0.0 , 0.0 , 0.0 , 0.0 , 

58.0 , 4118.97435897 , 4125.12820513 , 4177.43589744 , 4152.82051282 , 4125.64102564 , 4111.79487179 , 4139.48717949 , 4125.12820513 , 4134.87179487 , 4135.8974359 , 4167.69230769 , 4085.64102564 , 4894.35897436 , 4176.92307692 , 2038.0 , 2041.0 , 36.259 , 0.0 , 0.0 , 0.0 , 0.0 , 

59.0 , 4122.05128205 , 4139.48717949 , 4202.05128205 , 4164.61538462 , 4125.64102564 , 4114.35897436 , 4141.02564103 , 4125.12820513 , 4153.84615385 , 4135.38461538 , 4170.76923077 , 4096.41025641 , 4897.94871795 , 4186.66666667 , 2037.0 , 2040.0 , 36.269 , 0.0 , 0.0 , 0.0 , 0.0 , 

60.0 , 4123.58974359 , 4137.43589744 , 4202.56410256 , 4167.69230769 , 4123.07692308 , 4116.41025641 , 4145.12820513 , 4127.69230769 , 4156.92307692 , 4133.84615385 , 4175.38461538 , 4097.94871795 , 4895.38461538 , 4190.76923077 , 2040.0 , 2038.0 , 36.275 , 0.0 , 0.0 , 0.0 , 0.0 , 

61.0 , 4125.12820513 , 4118.97435897 , 4180.0 , 4155.38461538 , 4126.15384615 , 4116.92307692 , 4147.17948718 , 4128.20512821 , 4140.51282051 , 4133.84615385 , 4171.79487179 , 4085.64102564 , 4874.87179487 , 4183.58974359 , 2040.0 , 2038.0 , 36.284 , 0.0 , 0.0 , 0.0 , 0.0 , 

62.0 , 4127.17948718 , 4112.30769231 , 4175.8974359 , 4149.23076923 , 4128.20512821 , 4117.43589744 , 4147.69230769 , 4128.71794872 , 4132.82051282 , 4136.41025641 , 4164.1025641 , 4081.53846154 , 4857.94871795 , 4172.30769231 , 2041.0 , 2039.0 , 36.29 , 0.0 , 0.0 , 0.0 , 0.0 , 

63.0 , 4125.12820513 , 4116.92307692 , 4183.07692308 , 4153.33333333 , 4128.20512821 , 4120.0 , 4149.23076923 , 4129.23076923 , 4137.94871795 , 4137.43589744 , 4166.15384615 , 4087.17948718 , 4854.35897436 , 4168.20512821 , 2041.0 , 2038.0 , 36.299 , 0.0 , 0.0 , 0.0 , 0.0 , 

64.0 , 4124.61538462 , 4111.79487179 , 4173.84615385 , 4152.82051282 , 4128.20512821 , 4119.48717949 , 4148.20512821 , 4126.15384615 , 4137.94871795 , 4135.38461538 , 4169.74358974 , 4090.25641026 , 4846.15384615 , 4169.23076923 , 2042.0 , 2037.0 , 36.308 , 0.0 , 0.0 , 0.0 , 0.0 , 

65.0 , 4127.17948718 , 4098.97435897 , 4166.66666667 , 4149.74358974 , 4128.71794872 , 4116.41025641 , 4148.71794872 , 4126.15384615 , 4137.94871795 , 4134.87179487 , 4162.56410256 , 4091.79487179 , 4836.92307692 , 4165.64102564 , 2043.0 , 2036.0 , 36.314 , 0.0 , 0.0 , 0.0 , 0.0 , 

66.0 , 4124.61538462 , 4102.05128205 , 4172.30769231 , 4153.33333333 , 4126.66666667 , 4117.94871795 , 4152.82051282 , 4129.23076923 , 4144.61538462 , 4136.41025641 , 4162.05128205 , 4091.79487179 , 4836.41025641 , 4163.58974359 , 2042.0 , 2033.0 , 36.323 , 0.0 , 0.0 , 0.0 , 0.0 , 

67.0 , 4122.56410256 , 4110.25641026 , 4171.28205128 , 4156.41025641 , 4128.71794872 , 4122.56410256 , 4152.82051282 , 4129.23076923 , 4140.51282051 , 4136.41025641 , 4166.15384615 , 4093.84615385 , 4826.66666667 , 4166.66666667 , 2042.0 , 2034.0 , 36.329 , 0.0 , 0.0 , 0.0 , 0.0 , 

68.0 , 4126.66666667 , 4110.76923077 , 4169.23076923 , 4153.84615385 , 4130.76923077 , 4121.53846154 , 4151.28205128 , 4127.17948718 , 4134.87179487 , 4134.87179487 , 4159.48717949 , 4097.43589744 , 4811.79487179 , 4169.74358974 , 2042.0 , 2034.0 , 36.34 , 0.0 , 0.0 , 0.0 , 0.0 , 

69.0 , 4132.30769231 , 4119.48717949 , 4184.1025641 , 4160.0 , 4128.71794872 , 4122.56410256 , 4154.35897436 , 4128.71794872 , 4138.97435897 , 4134.87179487 , 4156.92307692 , 4100.51282051 , 4813.33333333 , 4167.17948718 , 2042.0 , 2034.0 , 36.346 , 0.0 , 0.0 , 0.0 , 0.0 , 

70.0 , 4136.41025641 , 4130.25641026 , 4190.25641026 , 4169.74358974 , 4130.25641026 , 4128.71794872 , 4157.43589744 , 4130.25641026 , 4144.1025641 , 4134.87179487 , 4169.23076923 , 4099.48717949 , 4821.53846154 , 4168.20512821 , 2043.0 , 2036.0 , 36.356 , 0.0 , 0.0 , 0.0 , 0.0 , 

71.0 , 4141.53846154 , 4113.33333333 , 4168.71794872 , 4163.07692308 , 4137.43589744 , 4130.25641026 , 4161.02564103 , 4129.74358974 , 4141.53846154 , 4134.87179487 , 4169.23076923 , 4097.43589744 , 4807.17948718 , 4169.23076923 , 2043.0 , 2036.0 , 36.362 , 0.0 , 0.0 , 0.0 , 0.0 , 

72.0 , 4137.94871795 , 4099.48717949 , 4161.53846154 , 4151.79487179 , 4135.8974359 , 4127.69230769 , 4160.51282051 , 4129.23076923 , 4138.97435897 , 4134.87179487 , 4156.92307692 , 4094.35897436 , 4785.12820513 , 4163.58974359 , 2043.0 , 2038.0 , 36.371 , 0.0 , 0.0 , 0.0 , 0.0 , 

73.0 , 4132.82051282 , 4113.84615385 , 4177.94871795 , 4155.38461538 , 4132.30769231 , 4126.15384615 , 4156.41025641 , 4128.71794872 , 4142.05128205 , 4134.87179487 , 4154.35897436 , 4094.35897436 , 4784.1025641 , 4162.56410256 , 2046.0 , 2041.0 , 36.376 , 0.0 , 0.0 , 0.0 , 0.0 , 

74.0 , 4134.35897436 , 4120.0 , 4178.46153846 , 4156.92307692 , 4131.79487179 , 4125.12820513 , 4153.33333333 , 4128.20512821 , 4143.58974359 , 4134.87179487 , 4156.41025641 , 4098.46153846 , 4780.0 , 4168.20512821 , 2046.0 , 2044.0 , 36.387 , 0.0 , 0.0 , 0.0 , 0.0 , 

75.0 , 4135.38461538 , 4117.43589744 , 4171.79487179 , 4152.82051282 , 4129.74358974 , 4125.64102564 , 4153.84615385 , 4129.23076923 , 4138.97435897 , 4135.38461538 , 4159.48717949 , 4099.48717949 , 4765.64102564 , 4171.28205128 , 2045.0 , 2042.0 , 36.393 , 0.0 , 0.0 , 0.0 , 0.0 , 

76.0 , 4129.74358974 , 4122.56410256 , 4182.56410256 , 4158.97435897 , 4127.69230769 , 4126.15384615 , 4153.33333333 , 4128.20512821 , 4134.87179487 , 4134.87179487 , 4166.66666667 , 4097.43589744 , 4758.46153846 , 4169.23076923 , 2046.0 , 2041.0 , 36.402 , 0.0 , 0.0 , 0.0 , 0.0 , 

77.0 , 4130.76923077 , 4125.12820513 , 4187.69230769 , 4167.69230769 , 4130.25641026 , 4125.64102564 , 4152.82051282 , 4124.1025641 , 4141.53846154 , 4133.84615385 , 4168.71794872 , 4097.43589744 , 4759.48717949 , 4169.23076923 , 2046.0 , 2039.0 , 36.409 , 0.0 , 0.0 , 0.0 , 0.0 , 

78.0 , 4133.84615385 , 4135.38461538 , 4184.61538462 , 4170.76923077 , 4131.28205128 , 4123.58974359 , 4153.84615385 , 4125.64102564 , 4147.69230769 , 4134.87179487 , 4169.23076923 , 4102.05128205 , 4762.05128205 , 4173.84615385 , 2046.0 , 2040.0 , 36.418 , 0.0 , 0.0 , 0.0 , 0.0 , 

79.0 , 4130.25641026 , 4142.56410256 , 4186.66666667 , 4168.71794872 , 4128.20512821 , 4125.12820513 , 4154.35897436 , 4131.28205128 , 4138.46153846 , 4135.8974359 , 4170.25641026 , 4104.1025641 , 4752.30769231 , 4173.84615385 , 2045.0 , 2040.0 , 36.424 , 0.0 , 0.0 , 0.0 , 0.0 , 

80.0 , 4129.74358974 , 4133.33333333 , 4185.64102564 , 4167.69230769 , 4128.71794872 , 4127.69230769 , 4151.28205128 , 4130.76923077 , 4133.84615385 , 4134.87179487 , 4169.74358974 , 4103.07692308 , 4739.48717949 , 4168.71794872 , 2045.0 , 2040.0 , 36.433 , 0.0 , 0.0 , 0.0 , 0.0 , 

81.0 , 4133.84615385 , 4133.33333333 , 4187.17948718 , 4166.15384615 , 4129.74358974 , 4121.53846154 , 4146.66666667 , 4127.69230769 , 4143.58974359 , 4133.84615385 , 4168.71794872 , 4101.53846154 , 4737.43589744 , 4169.23076923 , 2045.0 , 2039.0 , 36.441 , 0.0 , 0.0 , 0.0 , 0.0 , 

82.0 , 4133.84615385 , 4144.1025641 , 4191.79487179 , 4160.51282051 , 4129.23076923 , 4117.43589744 , 4150.76923077 , 4128.71794872 , 4145.12820513 , 4134.35897436 , 4169.74358974 , 4102.05128205 , 4732.30769231 , 4175.8974359 , 2041.0 , 2036.0 , 36.449 , 0.0 , 0.0 , 0.0 , 0.0 , 

83.0 , 4132.82051282 , 4147.69230769 , 4191.79487179 , 4163.58974359 , 4128.71794872 , 4124.61538462 , 4156.92307692 , 4129.74358974 , 4135.8974359 , 4134.35897436 , 4169.74358974 , 4104.61538462 , 4729.74358974 , 4184.1025641 , 2040.0 , 2032.0 , 36.457 , 0.0 , 0.0 , 0.0 , 0.0 , 

84.0 , 4135.8974359 , 4146.15384615 , 4189.74358974 , 4170.25641026 , 4130.25641026 , 4126.66666667 , 4155.8974359 , 4126.66666667 , 4136.41025641 , 4134.35897436 , 4171.79487179 , 4107.17948718 , 4732.30769231 , 4187.69230769 , 2042.0 , 2027.0 , 36.463 , 0.0 , 0.0 , 0.0 , 0.0 , 

85.0 , 4134.35897436 , 4141.02564103 , 4184.1025641 , 4162.56410256 , 4131.79487179 , 4120.51282051 , 4151.28205128 , 4125.64102564 , 4142.56410256 , 4134.35897436 , 4169.23076923 , 4105.64102564 , 4720.0 , 4174.87179487 , 2042.0 , 2026.0 , 36.475 , 0.0 , 0.0 , 0.0 , 0.0 , 

86.0 , 4130.25641026 , 4134.87179487 , 4182.05128205 , 4151.28205128 , 4131.28205128 , 4122.05128205 , 4152.82051282 , 4130.76923077 , 4142.05128205 , 4134.35897436 , 4164.61538462 , 4108.20512821 , 4702.56410256 , 4164.1025641 , 2044.0 , 2026.0 , 36.481 , 0.0 , 0.0 , 0.0 , 0.0 , 

87.0 , 4128.20512821 , 4137.94871795 , 4187.17948718 , 4153.33333333 , 4130.25641026 , 4124.1025641 , 4155.38461538 , 4131.28205128 , 4140.51282051 , 4135.8974359 , 4170.25641026 , 4113.84615385 , 4704.1025641 , 4176.92307692 , 2044.0 , 2028.0 , 36.49 , 0.0 , 0.0 , 0.0 , 0.0 , 

88.0 , 4130.25641026 , 4137.43589744 , 4189.74358974 , 4157.94871795 , 4130.25641026 , 4122.56410256 , 4154.35897436 , 4125.64102564 , 4141.02564103 , 4137.43589744 , 4172.30769231 , 4113.33333333 , 4704.61538462 , 4188.20512821 , 2043.0 , 2031.0 , 36.496 , 0.0 , 0.0 , 0.0 , 0.0 , 

89.0 , 4128.71794872 , 4139.48717949 , 4198.97435897 , 4157.94871795 , 4128.71794872 , 4121.53846154 , 4151.79487179 , 4124.61538462 , 4142.05128205 , 4136.92307692 , 4154.35897436 , 4109.74358974 , 4695.38461538 , 4183.07692308 , 2043.0 , 2037.0 , 36.506 , 0.0 , 0.0 , 0.0 , 0.0 , 

90.0 , 4125.64102564 , 4141.02564103 , 4202.56410256 , 4157.43589744 , 4128.71794872 , 4120.0 , 4150.25641026 , 4129.23076923 , 4138.97435897 , 4135.38461538 , 4136.41025641 , 4107.17948718 , 4685.12820513 , 4173.84615385 , 2043.0 , 2037.0 , 36.512 , 0.0 , 0.0 , 0.0 , 0.0 , 

91.0 , 4125.64102564 , 4124.1025641 , 4177.94871795 , 4153.33333333 , 4127.69230769 , 4118.46153846 , 4147.17948718 , 4128.20512821 , 4132.30769231 , 4134.87179487 , 4134.87179487 , 4103.07692308 , 4666.66666667 , 4168.20512821 , 2041.0 , 2037.0 , 36.521 , 0.0 , 0.0 , 0.0 , 0.0 , 

92.0 , 4129.23076923 , 4113.84615385 , 4163.58974359 , 4151.79487179 , 4126.15384615 , 4118.97435897 , 4147.17948718 , 4125.12820513 , 4133.33333333 , 4133.84615385 , 4138.46153846 , 4104.1025641 , 4650.76923077 , 4166.15384615 , 2041.0 , 2037.0 , 36.527 , 0.0 , 0.0 , 0.0 , 0.0 , 

93.0 , 4130.25641026 , 4130.25641026 , 4185.12820513 , 4156.92307692 , 4126.66666667 , 4120.51282051 , 4149.23076923 , 4125.64102564 , 4138.97435897 , 4134.35897436 , 4137.94871795 , 4105.64102564 , 4652.82051282 , 4168.71794872 , 2040.0 , 2035.0 , 36.537 , 0.0 , 0.0 , 0.0 , 0.0 , 

94.0 , 4127.69230769 , 4138.46153846 , 4190.25641026 , 4158.46153846 , 4130.25641026 , 4125.64102564 , 4149.74358974 , 4128.71794872 , 4138.97435897 , 4135.8974359 , 4137.94871795 , 4103.58974359 , 4647.17948718 , 4168.20512821 , 2041.0 , 2035.0 , 36.544 , 0.0 , 0.0 , 0.0 , 0.0 , 

95.0 , 4124.61538462 , 4126.66666667 , 4170.76923077 , 4152.82051282 , 4130.76923077 , 4126.15384615 , 4145.64102564 , 4130.76923077 , 4134.87179487 , 4137.43589744 , 4136.92307692 , 4102.05128205 , 4632.82051282 , 4165.64102564 , 2041.0 , 2033.0 , 36.553 , 0.0 , 0.0 , 0.0 , 0.0 , 

96.0 , 4124.61538462 , 4133.33333333 , 4171.79487179 , 4153.33333333 , 4128.20512821 , 4121.53846154 , 4144.61538462 , 4128.20512821 , 4141.02564103 , 4137.43589744 , 4136.92307692 , 4101.53846154 , 4641.02564103 , 4167.17948718 , 2041.0 , 2038.0 , 36.558 , 0.0 , 0.0 , 0.0 , 0.0 , 

97.0 , 4126.15384615 , 4150.76923077 , 4186.15384615 , 4158.97435897 , 4128.20512821 , 4122.05128205 , 4147.17948718 , 4126.66666667 , 4148.71794872 , 4136.92307692 , 4140.51282051 , 4101.02564103 , 4653.84615385 , 4170.25641026 , 2042.0 , 2039.0 , 36.569 , 0.0 , 0.0 , 0.0 , 0.0 , 

98.0 , 4128.20512821 , 4143.58974359 , 4186.66666667 , 4156.41025641 , 4129.23076923 , 4123.07692308 , 4147.69230769 , 4128.71794872 , 4142.05128205 , 4137.43589744 , 4138.97435897 , 4101.53846154 , 4634.87179487 , 4170.76923077 , 2046.0 , 2042.0 , 36.575 , 0.0 , 0.0 , 0.0 , 0.0 , 

99.0 , 4128.20512821 , 4130.25641026 , 4184.1025641 , 4150.76923077 , 4126.66666667 , 4118.97435897 , 4143.07692308 , 4127.17948718 , 4133.84615385 , 4137.94871795 , 4134.87179487 , 4100.0 , 4608.20512821 , 4167.69230769 , 2047.0 , 2043.0 , 36.584 , 0.0 , 0.0 , 0.0 , 0.0 , 

100.0 , 4126.15384615 , 4139.48717949 , 4190.76923077 , 4153.33333333 , 4125.12820513 , 4117.43589744 , 4142.56410256 , 4124.61538462 , 4140.0 , 4135.8974359 , 4135.8974359 , 4098.97435897 , 4606.66666667 , 4168.71794872 , 2046.0 , 2041.0 , 36.591 , 0.0 , 0.0 , 0.0 , 0.0 , 

101.0 , 4127.17948718 , 4141.53846154 , 4186.15384615 , 4155.8974359 , 4125.12820513 , 4121.02564103 , 4146.66666667 , 4123.07692308 , 4144.61538462 , 4133.33333333 , 4138.97435897 , 4098.46153846 , 4600.51282051 , 4172.30769231 , 2046.0 , 2039.0 , 36.599 , 0.0 , 0.0 , 0.0 , 0.0 , 

102.0 , 4127.17948718 , 4126.66666667 , 4169.74358974 , 4150.25641026 , 4124.61538462 , 4120.0 , 4144.1025641 , 4123.07692308 , 4137.94871795 , 4133.84615385 , 4136.41025641 , 4095.38461538 , 4583.58974359 , 4164.61538462 , 2045.0 , 2036.0 , 36.607 , 0.0 , 0.0 , 0.0 , 0.0 , 

103.0 , 4123.58974359 , 4133.84615385 , 4175.8974359 , 4149.23076923 , 4124.61538462 , 4118.46153846 , 4140.0 , 4125.12820513 , 4138.97435897 , 4135.8974359 , 4138.97435897 , 4097.94871795 , 4588.71794872 , 4157.43589744 , 2043.0 , 2032.0 , 36.614 , 0.0 , 0.0 , 0.0 , 0.0 , 

104.0 , 4118.97435897 , 4149.74358974 , 4190.25641026 , 4152.82051282 , 4124.1025641 , 4118.46153846 , 4140.51282051 , 4127.69230769 , 4141.53846154 , 4135.8974359 , 4141.53846154 , 4103.07692308 , 4591.79487179 , 4165.64102564 , 2042.0 , 2028.0 , 36.623 , 0.0 , 0.0 , 0.0 , 0.0 , 

105.0 , 4119.48717949 , 4140.0 , 4184.1025641 , 4152.82051282 , 4123.58974359 , 4117.43589744 , 4145.64102564 , 4128.20512821 , 4132.82051282 , 4135.8974359 , 4136.41025641 , 4099.48717949 , 4572.82051282 , 4173.33333333 , 2038.0 , 2029.0 , 36.629 , 0.0 , 0.0 , 0.0 , 0.0 , 

106.0 , 4121.02564103 , 4126.66666667 , 4177.94871795 , 4150.25641026 , 4126.15384615 , 4114.87179487 , 4143.58974359 , 4131.28205128 , 4129.23076923 , 4135.8974359 , 4134.87179487 , 4096.92307692 , 4557.43589744 , 4167.69230769 , 2037.0 , 2029.0 , 36.64 , 0.0 , 0.0 , 0.0 , 0.0 , 

107.0 , 4122.56410256 , 4127.17948718 , 4189.74358974 , 4151.28205128 , 4128.71794872 , 4116.92307692 , 4138.97435897 , 4131.28205128 , 4136.92307692 , 4136.41025641 , 4136.41025641 , 4106.66666667 , 4548.71794872 , 4162.56410256 , 2036.0 , 2032.0 , 36.645 , 0.0 , 0.0 , 0.0 , 0.0 , 

108.0 , 4121.53846154 , 4138.46153846 , 4197.94871795 , 4152.82051282 , 4125.64102564 , 4118.97435897 , 4140.51282051 , 4124.1025641 , 4141.53846154 , 4135.8974359 , 4137.94871795 , 4112.82051282 , 4540.51282051 , 4169.23076923 , 2035.0 , 2034.0 , 36.657 , 0.0 , 0.0 , 0.0 , 0.0 , 

109.0 , 4122.56410256 , 4150.76923077 , 4195.38461538 , 4156.92307692 , 4124.61538462 , 4116.92307692 , 4143.58974359 , 4123.58974359 , 4137.94871795 , 4135.8974359 , 4143.07692308 , 4111.28205128 , 4542.05128205 , 4178.97435897 , 2037.0 , 2035.0 , 36.66 , 0.0 , 0.0 , 0.0 , 0.0 , 

110.0 , 4126.15384615 , 4144.1025641 , 4187.69230769 , 4156.92307692 , 4126.66666667 , 4115.38461538 , 4140.0 , 4125.64102564 , 4134.35897436 , 4135.8974359 , 4143.58974359 , 4105.12820513 , 4537.94871795 , 4173.33333333 , 2037.0 , 2040.0 , 36.671 , 0.0 , 0.0 , 0.0 , 0.0 , 

111.0 , 4125.64102564 , 4120.51282051 , 4170.25641026 , 4146.15384615 , 4127.69230769 , 4117.94871795 , 4137.94871795 , 4125.12820513 , 4134.35897436 , 4135.38461538 , 4136.41025641 , 4099.48717949 , 4511.79487179 , 4157.43589744 , 2036.0 , 2040.0 , 36.676 , 0.0 , 0.0 , 0.0 , 0.0 , 

112.0 , 4122.05128205 , 4118.46153846 , 4165.12820513 , 4144.1025641 , 4127.17948718 , 4119.48717949 , 4143.07692308 , 4125.64102564 , 4138.46153846 , 4134.35897436 , 4135.38461538 , 4098.46153846 , 4500.0 , 4154.87179487 , 2036.0 , 2038.0 , 36.686 , 0.0 , 0.0 , 0.0 , 0.0 , 

113.0 , 4122.05128205 , 4133.33333333 , 4175.8974359 , 4147.17948718 , 4126.15384615 , 4117.43589744 , 4145.64102564 , 4127.17948718 , 4138.46153846 , 4133.84615385 , 4138.46153846 , 4102.05128205 , 4505.64102564 , 4160.0 , 2038.0 , 2036.0 , 36.692 , 0.0 , 0.0 , 0.0 , 0.0 , 

114.0 , 4123.58974359 , 4131.28205128 , 4173.33333333 , 4146.66666667 , 4126.66666667 , 4117.43589744 , 4143.07692308 , 4127.17948718 , 4137.43589744 , 4135.38461538 , 4136.41025641 , 4100.0 , 4496.41025641 , 4157.43589744 , 2039.0 , 2032.0 , 36.702 , 0.0 , 0.0 , 0.0 , 0.0 , 

115.0 , 4123.07692308 , 4125.64102564 , 4167.17948718 , 4145.12820513 , 4128.71794872 , 4119.48717949 , 4143.58974359 , 4128.71794872 , 4141.02564103 , 4136.92307692 , 4136.41025641 , 4095.8974359 , 4483.07692308 , 4154.35897436 , 2040.0 , 2028.0 , 36.709 , 0.0 , 0.0 , 0.0 , 0.0 , 

116.0 , 4122.05128205 , 4132.82051282 , 4182.05128205 , 4144.1025641 , 4126.66666667 , 4118.46153846 , 4145.64102564 , 4126.66666667 , 4138.46153846 , 4137.43589744 , 4136.41025641 , 4098.46153846 , 4482.05128205 , 4155.8974359 , 2041.0 , 2027.0 , 36.717 , 0.0 , 0.0 , 0.0 , 0.0 , 

117.0 , 4121.02564103 , 4134.35897436 , 4186.66666667 , 4140.51282051 , 4123.58974359 , 4120.0 , 4145.12820513 , 4123.07692308 , 4129.74358974 , 4136.92307692 , 4130.76923077 , 4097.43589744 , 4473.84615385 , 4153.33333333 , 2043.0 , 2025.0 , 36.724 , 0.0 , 0.0 , 0.0 , 0.0 , 

118.0 , 4121.53846154 , 4125.64102564 , 4170.76923077 , 4138.46153846 , 4125.12820513 , 4122.05128205 , 4143.07692308 , 4126.15384615 , 4133.33333333 , 4136.92307692 , 4131.79487179 , 4094.35897436 , 4460.0 , 4150.25641026 , 2043.0 , 2025.0 , 36.733 , 0.0 , 0.0 , 0.0 , 0.0 , 

119.0 , 4123.07692308 , 4127.69230769 , 4174.35897436 , 4144.1025641 , 4126.66666667 , 4118.97435897 , 4141.02564103 , 4128.20512821 , 4141.53846154 , 4137.43589744 , 4139.48717949 , 4098.46153846 , 4460.0 , 4161.02564103 , 2044.0 , 2031.0 , 36.74 , 0.0 , 0.0 , 0.0 , 0.0 , 

120.0 , 4122.05128205 , 4132.30769231 , 4188.20512821 , 4147.69230769 , 4125.12820513 , 4116.92307692 , 4140.0 , 4125.12820513 , 4137.43589744 , 4136.92307692 , 4136.92307692 , 4098.97435897 , 4456.92307692 , 4170.25641026 , 2044.0 , 2033.0 , 36.749 , 0.0 , 0.0 , 0.0 , 0.0 , 

121.0 , 4118.97435897 , 4132.30769231 , 4186.15384615 , 4150.25641026 , 4126.15384615 , 4116.92307692 , 4140.0 , 4124.1025641 , 4134.35897436 , 4136.92307692 , 4132.82051282 , 4093.33333333 , 4442.56410256 , 4163.07692308 , 2044.0 , 2037.0 , 36.756 , 0.0 , 0.0 , 0.0 , 0.0 , 

122.0 , 4121.02564103 , 4134.35897436 , 4181.53846154 , 4151.28205128 , 4126.15384615 , 4116.92307692 , 4139.48717949 , 4126.66666667 , 4134.87179487 , 4136.92307692 , 4132.82051282 , 4096.92307692 , 4435.38461538 , 4155.8974359 , 2044.0 , 2038.0 , 36.763 , 0.0 , 0.0 , 0.0 , 0.0 , 

123.0 , 4122.56410256 , 4134.87179487 , 4181.02564103 , 4149.74358974 , 4122.56410256 , 4116.41025641 , 4136.92307692 , 4124.61538462 , 4133.33333333 , 4136.92307692 , 4128.71794872 , 4102.05128205 , 4433.33333333 , 4157.94871795 , 2045.0 , 2041.0 , 36.774 , 0.0 , 0.0 , 0.0 , 0.0 , 

124.0 , 4121.02564103 , 4129.23076923 , 4171.28205128 , 4147.69230769 , 4123.07692308 , 4115.8974359 , 4136.41025641 , 4123.07692308 , 4133.84615385 , 4136.92307692 , 4125.12820513 , 4098.97435897 , 4423.07692308 , 4154.87179487 , 2045.0 , 2043.0 , 36.779 , 0.0 , 0.0 , 0.0 , 0.0 , 

125.0 , 4121.02564103 , 4134.35897436 , 4165.12820513 , 4149.74358974 , 4124.1025641 , 4113.84615385 , 4137.94871795 , 4126.66666667 , 4138.97435897 , 4136.92307692 , 4131.28205128 , 4096.92307692 , 4410.76923077 , 4151.79487179 , 2047.0 , 2044.0 , 36.791 , 0.0 , 0.0 , 0.0 , 0.0 , 

126.0 , 4123.07692308 , 4147.17948718 , 4174.87179487 , 4154.35897436 , 4121.53846154 , 4115.38461538 , 4138.46153846 , 4128.71794872 , 4143.07692308 , 4136.92307692 , 4136.41025641 , 4098.46153846 , 4409.23076923 , 4154.87179487 , 2047.0 , 2044.0 , 36.796 , 0.0 , 0.0 , 0.0 , 0.0 , 

127.0 , 4119.48717949 , 4144.1025641 , 4174.87179487 , 4150.25641026 , 4122.05128205 , 4116.41025641 , 4136.92307692 , 4126.66666667 , 4142.56410256 , 4136.92307692 , 4137.43589744 , 4096.92307692 , 4414.35897436 , 4153.84615385 , 2045.0 , 2042.0 , 36.805 , 0.0 , 0.0 , 0.0 , 0.0 , 

128.0 , 4117.94871795 , 4137.94871795 , 4167.17948718 , 4149.74358974 , 4126.15384615 , 4116.92307692 , 4137.43589744 , 4126.15384615 , 4137.43589744 , 4136.92307692 , 4140.51282051 , 4094.35897436 , 4409.23076923 , 4156.41025641 , 2043.0 , 2039.0 , 36.811 , 0.0 , 0.0 , 0.0 , 0.0 , 

0.0 , 4121.53846154 , 4140.51282051 , 4168.71794872 , 4150.25641026 , 4125.64102564 , 4117.94871795 , 4142.56410256 , 4125.64102564 , 4129.23076923 , 4136.92307692 , 4133.84615385 , 4088.71794872 , 4392.30769231 , 4154.87179487 , 2041.0 , 2039.0 , 36.82 , 0.0 , 0.0 , 0.0 , 0.0 , 

1.0 , 4122.56410256 , 4136.92307692 , 4164.61538462 , 4144.1025641 , 4124.1025641 , 4117.94871795 , 4142.56410256 , 4125.12820513 , 4128.20512821 , 4137.43589744 , 4125.12820513 , 4089.23076923 , 4382.56410256 , 4143.07692308 , 2042.0 , 2042.0 , 36.826 , 0.0 , 0.0 , 0.0 , 0.0 , 

2.0 , 4118.46153846 , 4131.28205128 , 4154.87179487 , 4138.46153846 , 4124.61538462 , 4116.41025641 , 4138.46153846 , 4125.12820513 , 4135.38461538 , 4136.92307692 , 4133.33333333 , 4097.94871795 , 4383.07692308 , 4142.56410256 , 2041.0 , 2041.0 , 36.837 , 0.0 , 0.0 , 0.0 , 0.0 , 

3.0 , 4119.48717949 , 4132.82051282 , 4157.94871795 , 4138.97435897 , 4122.56410256 , 4116.41025641 , 4140.51282051 , 4125.12820513 , 4140.0 , 4136.92307692 , 4140.51282051 , 4101.02564103 , 4381.53846154 , 4153.33333333 , 2040.0 , 2041.0 , 36.843 , 0.0 , 0.0 , 0.0 , 0.0 , 

4.0 , 4120.51282051 , 4140.51282051 , 4168.71794872 , 4144.1025641 , 4119.48717949 , 4116.41025641 , 4143.07692308 , 4125.12820513 , 4140.0 , 4137.43589744 , 4136.92307692 , 4104.61538462 , 4382.05128205 , 4161.53846154 , 2039.0 , 2043.0 , 36.851 , 0.0 , 0.0 , 0.0 , 0.0 , 

5.0 , 4118.97435897 , 4151.28205128 , 4182.05128205 , 4152.82051282 , 4122.05128205 , 4114.87179487 , 4141.02564103 , 4125.12820513 , 4144.61538462 , 4136.41025641 , 4144.1025641 , 4114.35897436 , 4386.66666667 , 4168.20512821 , 2038.0 , 2041.0 , 36.858 , 0.0 , 0.0 , 0.0 , 0.0 , 

6.0 , 4118.46153846 , 4150.76923077 , 4185.12820513 , 4153.84615385 , 4123.07692308 , 4113.84615385 , 4139.48717949 , 4126.15384615 , 4148.20512821 , 4134.87179487 , 4153.33333333 , 4112.82051282 , 4382.56410256 , 4167.17948718 , 2037.0 , 2039.0 , 36.867 , 0.0 , 0.0 , 0.0 , 0.0 , 

7.0 , 4120.0 , 4133.84615385 , 4168.71794872 , 4142.56410256 , 4120.51282051 , 4113.84615385 , 4138.46153846 , 4126.66666667 , 4138.46153846 , 4134.87179487 , 4141.53846154 , 4101.53846154 , 4365.12820513 , 4154.87179487 , 2038.0 , 2035.0 , 36.874 , 0.0 , 0.0 , 0.0 , 0.0 , 

8.0 , 4118.97435897 , 4123.07692308 , 4156.41025641 , 4136.41025641 , 4118.97435897 , 4113.33333333 , 4136.92307692 , 4125.64102564 , 4129.23076923 , 4134.87179487 , 4131.79487179 , 4101.02564103 , 4356.41025641 , 4148.71794872 , 2040.0 , 2029.0 , 36.88 , 0.0 , 0.0 , 0.0 , 0.0 , 

9.0 , 4115.38461538 , 4133.84615385 , 4171.28205128 , 4143.07692308 , 4121.02564103 , 4112.82051282 , 4137.43589744 , 4126.15384615 , 4138.46153846 , 4134.35897436 , 4143.07692308 , 4106.15384615 , 4368.20512821 , 4154.87179487 , 2040.0 , 2027.0 , 36.89 , 0.0 , 0.0 , 0.0 , 0.0 , 

10.0 , 4115.8974359 , 4145.12820513 , 4184.61538462 , 4150.25641026 , 4122.05128205 , 4112.30769231 , 4140.51282051 , 4125.64102564 , 4145.12820513 , 4134.87179487 , 4148.71794872 , 4108.20512821 , 4375.8974359 , 4160.0 , 2040.0 , 2025.0 , 36.897 , 0.0 , 0.0 , 0.0 , 0.0 , 

11.0 , 4116.41025641 , 4147.17948718 , 4182.56410256 , 4154.87179487 , 4121.53846154 , 4113.84615385 , 4138.46153846 , 4125.12820513 , 4142.05128205 , 4135.38461538 , 4141.53846154 , 4109.23076923 , 4369.23076923 , 4158.46153846 , 2042.0 , 2022.0 , 36.907 , 0.0 , 0.0 , 0.0 , 0.0 , 

12.0 , 4115.38461538 , 4141.02564103 , 4174.87179487 , 4149.74358974 , 4120.51282051 , 4113.84615385 , 4135.38461538 , 4124.1025641 , 4140.51282051 , 4134.87179487 , 4137.94871795 , 4108.20512821 , 4353.84615385 , 4153.84615385 , 2042.0 , 2023.0 , 36.913 , 0.0 , 0.0 , 0.0 , 0.0 , 

13.0 , 4112.30769231 , 4127.17948718 , 4161.02564103 , 4136.92307692 , 4120.51282051 , 4111.79487179 , 4135.38461538 , 4123.07692308 , 4133.33333333 , 4135.38461538 , 4137.43589744 , 4103.58974359 , 4330.76923077 , 4148.71794872 , 2044.0 , 2025.0 , 36.924 , 0.0 , 0.0 , 0.0 , 0.0 , 

14.0 , 4111.28205128 , 4127.17948718 , 4167.69230769 , 4137.43589744 , 4122.56410256 , 4112.30769231 , 4136.41025641 , 4123.07692308 , 4129.74358974 , 4135.38461538 , 4138.97435897 , 4103.07692308 , 4323.58974359 , 4155.8974359 , 2044.0 , 2027.0 , 36.929 , 0.0 , 0.0 , 0.0 , 0.0 , 

15.0 , 4110.76923077 , 4141.53846154 , 4183.07692308 , 4148.20512821 , 4122.56410256 , 4113.33333333 , 4133.84615385 , 4124.1025641 , 4138.97435897 , 4135.38461538 , 4141.02564103 , 4104.1025641 , 4333.84615385 , 4166.66666667 , 2046.0 , 2033.0 , 36.939 , 0.0 , 0.0 , 0.0 , 0.0 , 

16.0 , 4112.30769231 , 4143.07692308 , 4176.92307692 , 4144.1025641 , 4120.51282051 , 4111.79487179 , 4131.28205128 , 4123.58974359 , 4142.05128205 , 4135.38461538 , 4140.0 , 4104.61538462 , 4328.20512821 , 4162.56410256 , 2047.0 , 2033.0 , 36.945 , 0.0 , 0.0 , 0.0 , 0.0 , 

17.0 , 4112.30769231 , 4131.79487179 , 4169.74358974 , 4135.8974359 , 4119.48717949 , 4110.25641026 , 4130.76923077 , 4124.1025641 , 4136.92307692 , 4135.38461538 , 4137.94871795 , 4101.02564103 , 4312.30769231 , 4148.20512821 , 2047.0 , 2036.0 , 36.954 , 0.0 , 0.0 , 0.0 , 0.0 , 

18.0 , 4112.82051282 , 4123.07692308 , 4170.76923077 , 4137.94871795 , 4119.48717949 , 4111.79487179 , 4131.28205128 , 4127.69230769 , 4136.92307692 , 4134.87179487 , 4136.92307692 , 4098.97435897 , 4306.66666667 , 4142.56410256 , 2049.0 , 2039.0 , 36.959 , 0.0 , 0.0 , 0.0 , 0.0 , 

19.0 , 4111.28205128 , 4128.20512821 , 4172.30769231 , 4141.02564103 , 4119.48717949 , 4112.30769231 , 4133.84615385 , 4123.07692308 , 4144.1025641 , 4135.38461538 , 4139.48717949 , 4101.02564103 , 4309.74358974 , 4150.25641026 , 2051.0 , 2041.0 , 36.969 , 0.0 , 0.0 , 0.0 , 0.0 , 

20.0 , 4110.25641026 , 4132.30769231 , 4170.76923077 , 4138.46153846 , 4121.02564103 , 4112.82051282 , 4136.92307692 , 4119.48717949 , 4147.69230769 , 4135.8974359 , 4142.05128205 , 4104.1025641 , 4307.69230769 , 4152.30769231 , 2050.0 , 2042.0 , 36.976 , 0.0 , 0.0 , 0.0 , 0.0 , 

21.0 , 4111.79487179 , 4124.1025641 , 4166.15384615 , 4136.41025641 , 4122.05128205 , 4111.79487179 , 4135.38461538 , 4128.20512821 , 4144.1025641 , 4134.87179487 , 4140.51282051 , 4100.0 , 4301.02564103 , 4144.61538462 , 2050.0 , 2042.0 , 36.986 , 0.0 , 0.0 , 0.0 , 0.0 , 

22.0 , 4113.33333333 , 4121.53846154 , 4158.97435897 , 4136.92307692 , 4119.48717949 , 4111.79487179 , 4133.84615385 , 4131.79487179 , 4137.43589744 , 4134.35897436 , 4138.97435897 , 4097.43589744 , 4295.38461538 , 4140.51282051 , 2048.0 , 2039.0 , 36.993 , 0.0 , 0.0 , 0.0 , 0.0 , 

23.0 , 4113.33333333 , 4129.23076923 , 4157.43589744 , 4137.43589744 , 4118.97435897 , 4112.82051282 , 4134.87179487 , 4124.1025641 , 4135.38461538 , 4134.87179487 , 4138.46153846 , 4098.46153846 , 4288.20512821 , 4141.53846154 , 2046.0 , 2036.0 , 37.002 , 0.0 , 0.0 , 0.0 , 0.0 , 

24.0 , 4111.79487179 , 4129.74358974 , 4158.97435897 , 4137.43589744 , 4120.51282051 , 4111.79487179 , 4134.87179487 , 4122.56410256 , 4135.38461538 , 4136.92307692 , 4134.35897436 , 4097.43589744 , 4278.97435897 , 4138.97435897 , 2044.0 , 2035.0 , 37.009 , 0.0 , 0.0 , 0.0 , 0.0 , 

25.0 , 4110.76923077 , 4124.1025641 , 4156.41025641 , 4137.94871795 , 4120.51282051 , 4110.76923077 , 4135.8974359 , 4127.17948718 , 4131.28205128 , 4137.43589744 , 4128.71794872 , 4096.41025641 , 4274.87179487 , 4138.97435897 , 2043.0 , 2034.0 , 37.016 , 0.0 , 0.0 , 0.0 , 0.0 , 

26.0 , 4110.76923077 , 4122.56410256 , 4155.8974359 , 4138.97435897 , 4120.0 , 4111.79487179 , 4135.38461538 , 4127.69230769 , 4133.33333333 , 4136.92307692 , 4129.74358974 , 4101.02564103 , 4269.74358974 , 4139.48717949 , 2042.0 , 2035.0 , 37.025 , 0.0 , 0.0 , 0.0 , 0.0 , 

27.0 , 4110.76923077 , 4120.51282051 , 4161.53846154 , 4136.92307692 , 4121.53846154 , 4113.33333333 , 4134.35897436 , 4126.15384615 , 4138.97435897 , 4134.87179487 , 4133.84615385 , 4105.12820513 , 4260.0 , 4137.43589744 , 2040.0 , 2035.0 , 37.031 , 0.0 , 0.0 , 0.0 , 0.0 , 

28.0 , 4110.25641026 , 4126.66666667 , 4168.71794872 , 4135.38461538 , 4117.94871795 , 4112.30769231 , 4132.30769231 , 4126.15384615 , 4135.38461538 , 4134.87179487 , 4134.87179487 , 4102.05128205 , 4264.61538462 , 4145.12820513 , 2038.0 , 2036.0 , 37.041 , 0.0 , 0.0 , 0.0 , 0.0 , 

29.0 , 4112.30769231 , 4135.38461538 , 4171.28205128 , 4138.46153846 , 4112.82051282 , 4111.79487179 , 4134.35897436 , 4126.66666667 , 4130.76923077 , 4135.38461538 , 4135.38461538 , 4104.1025641 , 4274.87179487 , 4154.35897436 , 2036.0 , 2038.0 , 37.047 , 0.0 , 0.0 , 0.0 , 0.0 , 

30.0 , 4115.38461538 , 4135.8974359 , 4171.79487179 , 4141.02564103 , 4116.92307692 , 4112.82051282 , 4136.41025641 , 4126.15384615 , 4136.41025641 , 4134.87179487 , 4137.94871795 , 4107.69230769 , 4277.43589744 , 4160.51282051 , 2037.0 , 2038.0 , 37.058 , 0.0 , 0.0 , 0.0 , 0.0 , 

31.0 , 4115.38461538 , 4133.33333333 , 4177.43589744 , 4139.48717949 , 4123.07692308 , 4114.35897436 , 4136.92307692 , 4125.64102564 , 4139.48717949 , 4134.87179487 , 4138.46153846 , 4105.64102564 , 4280.0 , 4168.71794872 , 2037.0 , 2039.0 , 37.063 , 0.0 , 0.0 , 0.0 , 0.0 , 

32.0 , 4110.76923077 , 4133.84615385 , 4178.46153846 , 4140.51282051 , 4121.53846154 , 4115.38461538 , 4136.92307692 , 4123.58974359 , 4134.87179487 , 4134.35897436 , 4138.46153846 , 4104.61538462 , 4283.07692308 , 4173.33333333 , 2038.0 , 2037.0 , 37.074 , 0.0 , 0.0 , 0.0 , 0.0 , 

33.0 , 4112.30769231 , 4138.97435897 , 4175.8974359 , 4144.61538462 , 4118.46153846 , 4114.87179487 , 4138.46153846 , 4125.12820513 , 4136.41025641 , 4134.35897436 , 4144.61538462 , 4109.74358974 , 4286.15384615 , 4169.23076923 , 2040.0 , 2034.0 , 37.078 , 0.0 , 0.0 , 0.0 , 0.0 , 

34.0 , 4117.94871795 , 4134.35897436 , 4168.20512821 , 4142.05128205 , 4120.0 , 4113.33333333 , 4138.46153846 , 4128.20512821 , 4136.92307692 , 4135.38461538 , 4147.17948718 , 4111.79487179 , 4289.74358974 , 4161.53846154 , 2041.0 , 2034.0 , 37.088 , 0.0 , 0.0 , 0.0 , 0.0 , 

35.0 , 4120.0 , 4109.74358974 , 4149.74358974 , 4134.87179487 , 4123.58974359 , 4115.38461538 , 4140.0 , 4127.17948718 , 4131.79487179 , 4135.8974359 , 4137.43589744 , 4107.69230769 , 4282.05128205 , 4149.74358974 , 2042.0 , 2033.0 , 37.094 , 0.0 , 0.0 , 0.0 , 0.0 , 

36.0 , 4114.87179487 , 4102.56410256 , 4137.43589744 , 4134.35897436 , 4125.12820513 , 4117.94871795 , 4142.56410256 , 4123.58974359 , 4129.74358974 , 4134.87179487 , 4133.33333333 , 4104.61538462 , 4268.71794872 , 4140.51282051 , 2044.0 , 2032.0 , 37.105 , 0.0 , 0.0 , 0.0 , 0.0 , 

37.0 , 4113.84615385 , 4119.48717949 , 4147.17948718 , 4139.48717949 , 4124.1025641 , 4117.43589744 , 4144.1025641 , 4123.58974359 , 4126.66666667 , 4133.84615385 , 4138.46153846 , 4109.23076923 , 4265.12820513 , 4141.53846154 , 2044.0 , 2032.0 , 37.11 , 0.0 , 0.0 , 0.0 , 0.0 , 

38.0 , 4114.87179487 , 4116.92307692 , 4154.35897436 , 4138.46153846 , 4123.58974359 , 4115.8974359 , 4143.07692308 , 4124.1025641 , 4120.0 , 4134.87179487 , 4133.84615385 , 4110.76923077 , 4260.51282051 , 4136.41025641 , 2046.0 , 2032.0 , 37.12 , 0.0 , 0.0 , 0.0 , 0.0 , 

39.0 , 4113.84615385 , 4098.46153846 , 4142.05128205 , 4136.41025641 , 4124.1025641 , 4116.92307692 , 4143.07692308 , 4123.58974359 , 4125.12820513 , 4135.38461538 , 4124.61538462 , 4104.1025641 , 4247.69230769 , 4125.64102564 , 2046.0 , 2032.0 , 37.127 , 0.0 , 0.0 , 0.0 , 0.0 , 

40.0 , 4113.33333333 , 4096.92307692 , 4133.84615385 , 4137.43589744 , 4123.58974359 , 4115.8974359 , 4141.53846154 , 4125.12820513 , 4133.33333333 , 4135.38461538 , 4130.25641026 , 4098.97435897 , 4241.02564103 , 4124.1025641 , 2046.0 , 2033.0 , 37.137 , 0.0 , 0.0 , 0.0 , 0.0 , 

41.0 , 4115.38461538 , 4102.05128205 , 4137.94871795 , 4137.94871795 , 4123.07692308 , 4116.41025641 , 4139.48717949 , 4126.66666667 , 4131.28205128 , 4136.41025641 , 4138.97435897 , 4100.0 , 4243.07692308 , 4126.15384615 , 2048.0 , 2035.0 , 37.143 , 0.0 , 0.0 , 0.0 , 0.0 , 

42.0 , 4114.35897436 , 4104.61538462 , 4141.53846154 , 4137.43589744 , 4123.58974359 , 4118.46153846 , 4139.48717949 , 4128.20512821 , 4133.33333333 , 4135.8974359 , 4133.33333333 , 4098.97435897 , 4247.17948718 , 4123.07692308 , 2048.0 , 2036.0 , 37.151 , 0.0 , 0.0 , 0.0 , 0.0 , 

43.0 , 4111.28205128 , 4110.76923077 , 4138.97435897 , 4138.97435897 , 4122.05128205 , 4118.46153846 , 4140.51282051 , 4131.28205128 , 4142.05128205 , 4134.87179487 , 4128.20512821 , 4100.51282051 , 4247.69230769 , 4123.07692308 , 2049.0 , 2037.0 , 37.158 , 0.0 , 0.0 , 0.0 , 0.0 , 

44.0 , 4113.33333333 , 4109.74358974 , 4137.94871795 , 4137.43589744 , 4123.07692308 , 4117.94871795 , 4137.94871795 , 4128.71794872 , 4140.0 , 4134.87179487 , 4134.35897436 , 4103.58974359 , 4242.05128205 , 4125.12820513 , 2049.0 , 2039.0 , 37.167 , 0.0 , 0.0 , 0.0 , 0.0 , 

45.0 , 4116.92307692 , 4109.23076923 , 4140.0 , 4136.41025641 , 4125.12820513 , 4116.92307692 , 4135.8974359 , 4124.1025641 , 4138.97435897 , 4134.87179487 , 4138.46153846 , 4103.07692308 , 4241.02564103 , 4122.05128205 , 2052.0 , 2036.0 , 37.175 , 0.0 , 0.0 , 0.0 , 0.0 , 

46.0 , 4116.41025641 , 4109.74358974 , 4137.94871795 , 4138.97435897 , 4121.53846154 , 4114.87179487 , 4140.0 , 4124.1025641 , 4147.69230769 , 4134.87179487 , 4135.8974359 , 4105.64102564 , 4242.05128205 , 4120.51282051 , 2050.0 , 2033.0 , 37.181 , 0.0 , 0.0 , 0.0 , 0.0 , 

47.0 , 4116.92307692 , 4097.94871795 , 4128.71794872 , 4134.35897436 , 4118.97435897 , 4114.35897436 , 4141.02564103 , 4123.07692308 , 4142.56410256 , 4134.87179487 , 4128.71794872 , 4106.15384615 , 4230.25641026 , 4117.94871795 , 2047.0 , 2033.0 , 37.191 , 0.0 , 0.0 , 0.0 , 0.0 , 

48.0 , 4119.48717949 , 4097.43589744 , 4128.71794872 , 4130.76923077 , 4123.58974359 , 4117.43589744 , 4138.46153846 , 4124.1025641 , 4133.84615385 , 4134.87179487 , 4129.23076923 , 4102.56410256 , 4226.15384615 , 4113.84615385 , 2048.0 , 2028.0 , 37.197 , 0.0 , 0.0 , 0.0 , 0.0 , 

49.0 , 4117.94871795 , 4118.97435897 , 4143.07692308 , 4139.48717949 , 4123.58974359 , 4117.43589744 , 4137.94871795 , 4128.20512821 , 4137.43589744 , 4134.87179487 , 4138.97435897 , 4101.53846154 , 4238.97435897 , 4119.48717949 , 2049.0 , 2026.0 , 37.208 , 0.0 , 0.0 , 0.0 , 0.0 , 

50.0 , 4115.8974359 , 4123.07692308 , 4143.58974359 , 4140.0 , 4120.51282051 , 4116.92307692 , 4138.97435897 , 4127.69230769 , 4138.46153846 , 4134.87179487 , 4137.94871795 , 4102.05128205 , 4231.79487179 , 4123.58974359 , 2047.0 , 2025.0 , 37.212 , 0.0 , 0.0 , 0.0 , 0.0 , 

51.0 , 4114.35897436 , 4109.74358974 , 4134.87179487 , 4130.76923077 , 4121.53846154 , 4117.94871795 , 4140.51282051 , 4124.1025641 , 4134.87179487 , 4134.87179487 , 4127.69230769 , 4098.97435897 , 4211.79487179 , 4117.94871795 , 2046.0 , 2027.0 , 37.223 , 0.0 , 0.0 , 0.0 , 0.0 , 

52.0 , 4114.35897436 , 4110.76923077 , 4140.51282051 , 4133.84615385 , 4124.61538462 , 4118.46153846 , 4143.58974359 , 4124.61538462 , 4135.8974359 , 4134.87179487 , 4129.74358974 , 4099.48717949 , 4215.38461538 , 4119.48717949 , 2045.0 , 2030.0 , 37.228 , 0.0 , 0.0 , 0.0 , 0.0 , 

53.0 , 4114.35897436 , 4118.46153846 , 4146.66666667 , 4140.51282051 , 4122.56410256 , 4117.94871795 , 4140.0 , 4125.64102564 , 4137.43589744 , 4134.87179487 , 4137.94871795 , 4104.61538462 , 4225.12820513 , 4124.1025641 , 2045.0 , 2033.0 , 37.239 , 0.0 , 0.0 , 0.0 , 0.0 , 

54.0 , 4116.92307692 , 4110.76923077 , 4137.43589744 , 4134.87179487 , 4122.05128205 , 4117.94871795 , 4136.41025641 , 4124.61538462 , 4135.38461538 , 4134.87179487 , 4137.43589744 , 4104.61538462 , 4216.41025641 , 4118.46153846 , 2045.0 , 2039.0 , 37.244 , 0.0 , 0.0 , 0.0 , 0.0 , 

55.0 , 4118.46153846 , 4105.12820513 , 4131.79487179 , 4129.74358974 , 4123.58974359 , 4119.48717949 , 4137.43589744 , 4123.58974359 , 4135.38461538 , 4134.87179487 , 4130.25641026 , 4101.53846154 , 4209.74358974 , 4114.87179487 , 2045.0 , 2041.0 , 37.255 , 0.0 , 0.0 , 0.0 , 0.0 , 

56.0 , 4119.48717949 , 4112.30769231 , 4136.92307692 , 4134.87179487 , 4123.58974359 , 4122.05128205 , 4137.94871795 , 4124.61538462 , 4135.38461538 , 4134.87179487 , 4127.69230769 , 4106.15384615 , 4217.43589744 , 4120.0 , 2044.0 , 2043.0 , 37.26 , 0.0 , 0.0 , 0.0 , 0.0 , 

57.0 , 4117.94871795 , 4119.48717949 , 4142.56410256 , 4139.48717949 , 4125.64102564 , 4122.05128205 , 4136.41025641 , 4125.12820513 , 4142.05128205 , 4134.87179487 , 4135.8974359 , 4109.74358974 , 4221.53846154 , 4122.56410256 , 2044.0 , 2041.0 , 37.27 , 0.0 , 0.0 , 0.0 , 0.0 , 

58.0 , 4117.94871795 , 4115.38461538 , 4141.02564103 , 4140.0 , 4128.20512821 , 4120.51282051 , 4140.51282051 , 4124.61538462 , 4144.61538462 , 4134.87179487 , 4137.94871795 , 4105.64102564 , 4210.76923077 , 4118.46153846 , 2045.0 , 2039.0 , 37.276 , 0.0 , 0.0 , 0.0 , 0.0 , 

59.0 , 4117.94871795 , 4110.76923077 , 4136.41025641 , 4137.94871795 , 4125.64102564 , 4121.02564103 , 4142.56410256 , 4126.15384615 , 4133.33333333 , 4134.87179487 , 4128.71794872 , 4103.58974359 , 4197.94871795 , 4113.84615385 , 2044.0 , 2033.0 , 37.285 , 0.0 , 0.0 , 0.0 , 0.0 , 

60.0 , 4115.38461538 , 4105.64102564 , 4127.17948718 , 4131.28205128 , 4119.48717949 , 4122.56410256 , 4142.56410256 , 4129.23076923 , 4128.20512821 , 4134.87179487 , 4125.12820513 , 4104.1025641 , 4192.82051282 , 4110.25641026 , 2043.0 , 2029.0 , 37.291 , 0.0 , 0.0 , 0.0 , 0.0 , 

