['COUNTER', 'AF3', 'F7', 'F3', 'FC5', 'T7', 'P7', 'O1', 'O2', 'P8', 'T8', 'FC6', 'F4', 'F8', 'AF4', 'GYROX', 'GYROY', 'TIMESTAMP', 'FUNC_ID', 'FUNC_VALUE', 'MARKER', 'SYNC_SIGNAL']
36.0 , 5316.92307692 , 6609.74358974 , 6815.8974359 , 4271.28205128 , 4318.46153846 , 4031.28205128 , 4024.61538462 , 4230.25641026 , 3947.17948718 , 3927.69230769 , 4355.8974359 , 6058.97435897 , 6433.33333333 , 5666.66666667 , 2042.0 , 2036.0 , 197.679 , 0.0 , 0.0 , 0.0 , 0.0 , 

37.0 , 4688.20512821 , 6643.07692308 , 6800.0 , 3565.12820513 , 3834.35897436 , 3588.71794872 , 3581.53846154 , 3584.1025641 , 3165.64102564 , 3026.66666667 , 3743.58974359 , 6003.58974359 , 6489.23076923 , 5539.48717949 , 2041.0 , 2036.0 , 197.687 , 0.0 , 0.0 , 0.0 , 0.0 , 

38.0 , 4473.84615385 , 6644.61538462 , 6811.28205128 , 3314.35897436 , 3528.71794872 , 3270.25641026 , 3253.33333333 , 3353.33333333 , 2830.25641026 , 2600.0 , 3487.17948718 , 6042.05128205 , 6493.33333333 , 5575.38461538 , 2041.0 , 2036.0 , 197.696 , 0.0 , 0.0 , 0.0 , 0.0 , 

39.0 , 4733.33333333 , 6629.23076923 , 6783.58974359 , 3608.20512821 , 3630.76923077 , 3336.41025641 , 3312.82051282 , 3607.69230769 , 3122.56410256 , 2925.12820513 , 3704.61538462 , 6131.79487179 , 6469.74358974 , 5707.69230769 , 2040.0 , 2036.0 , 197.703 , 0.0 , 0.0 , 0.0 , 0.0 , 

40.0 , 4747.69230769 , 6550.76923077 , 6711.28205128 , 3646.66666667 , 3688.71794872 , 3399.48717949 , 3376.92307692 , 3627.17948718 , 3182.05128205 , 3012.82051282 , 3736.41025641 , 6058.46153846 , 6387.69230769 , 5663.58974359 , 2040.0 , 2036.0 , 197.71 , 0.0 , 0.0 , 0.0 , 0.0 , 

41.0 , 4617.43589744 , 6535.38461538 , 6720.51282051 , 3511.28205128 , 3614.87179487 , 3335.8974359 , 3313.33333333 , 3501.53846154 , 3034.35897436 , 2844.61538462 , 3620.0 , 6001.53846154 , 6350.76923077 , 5610.76923077 , 2040.0 , 2034.0 , 197.719 , 0.0 , 0.0 , 0.0 , 0.0 , 

42.0 , 4670.76923077 , 6479.48717949 , 6700.0 , 3588.71794872 , 3643.07692308 , 3352.30769231 , 3328.71794872 , 3568.20512821 , 3113.84615385 , 2927.17948718 , 3675.8974359 , 5956.92307692 , 6290.76923077 , 5596.41025641 , 2041.0 , 2032.0 , 197.871 , 0.0 , 0.0 , 0.0 , 0.0 , 

43.0 , 4692.82051282 , 6429.23076923 , 6676.92307692 , 3621.02564103 , 3673.84615385 , 3383.58974359 , 3362.56410256 , 3593.84615385 , 3157.43589744 , 2982.05128205 , 3703.07692308 , 5902.05128205 , 6258.97435897 , 5574.87179487 , 2042.0 , 2030.0 , 197.875 , 0.0 , 0.0 , 0.0 , 0.0 , 

44.0 , 4647.69230769 , 6377.94871795 , 6658.46153846 , 3585.12820513 , 3658.97435897 , 3374.35897436 , 3354.87179487 , 3560.51282051 , 3119.48717949 , 2939.48717949 , 3674.35897436 , 5840.51282051 , 6205.64102564 , 5518.46153846 , 2041.0 , 2030.0 , 197.875 , 0.0 , 0.0 , 0.0 , 0.0 , 

45.0 , 4656.92307692 , 6353.84615385 , 6638.97435897 , 3605.64102564 , 3668.20512821 , 3378.97435897 , 3357.94871795 , 3581.02564103 , 3142.56410256 , 2965.12820513 , 3691.28205128 , 5818.97435897 , 6160.0 , 5506.66666667 , 2042.0 , 2032.0 , 197.875 , 0.0 , 0.0 , 0.0 , 0.0 , 

46.0 , 4634.87179487 , 6309.74358974 , 6622.05128205 , 3597.94871795 , 3663.58974359 , 3375.38461538 , 3354.35897436 , 3568.71794872 , 3135.8974359 , 2961.53846154 , 3679.48717949 , 5786.66666667 , 6131.28205128 , 5473.84615385 , 2042.0 , 2033.0 , 197.875 , 0.0 , 0.0 , 0.0 , 0.0 , 

47.0 , 4636.92307692 , 6247.69230769 , 6602.56410256 , 3599.48717949 , 3662.56410256 , 3380.51282051 , 3358.97435897 , 3574.35897436 , 3140.0 , 2968.20512821 , 3685.12820513 , 5749.74358974 , 6107.17948718 , 5446.15384615 , 2043.0 , 2032.0 , 197.875 , 0.0 , 0.0 , 0.0 , 0.0 , 

48.0 , 4631.28205128 , 6277.43589744 , 6614.35897436 , 3603.07692308 , 3665.64102564 , 3382.56410256 , 3360.51282051 , 3573.84615385 , 3144.61538462 , 2974.35897436 , 3687.17948718 , 5764.61538462 , 6133.84615385 , 5459.48717949 , 2042.0 , 2033.0 , 197.875 , 0.0 , 0.0 , 0.0 , 0.0 , 

49.0 , 4639.48717949 , 6294.87179487 , 6631.28205128 , 3609.74358974 , 3668.71794872 , 3381.02564103 , 3357.94871795 , 3581.02564103 , 3151.28205128 , 2978.46153846 , 3695.8974359 , 5795.38461538 , 6147.69230769 , 5480.51282051 , 2044.0 , 2033.0 , 197.875 , 0.0 , 0.0 , 0.0 , 0.0 , 

50.0 , 4662.05128205 , 6365.12820513 , 6661.02564103 , 3614.35897436 , 3672.30769231 , 3384.1025641 , 3363.07692308 , 3592.30769231 , 3157.43589744 , 2984.61538462 , 3709.23076923 , 5850.25641026 , 6219.48717949 , 5507.17948718 , 2044.0 , 2034.0 , 197.875 , 0.0 , 0.0 , 0.0 , 0.0 , 

50.0 , 4662.05128205 , 6365.12820513 , 6661.02564103 , 3614.35897436 , 3672.30769231 , 3384.1025641 , 3363.07692308 , 3592.30769231 , 3157.43589744 , 2984.61538462 , 3709.23076923 , 5850.25641026 , 6219.48717949 , 5507.17948718 , 2044.0 , 2034.0 , 197.875 , 0.0 , 0.0 , 0.0 , 0.0 , 

51.0 , 4701.53846154 , 6536.41025641 , 6746.15384615 , 3619.48717949 , 3677.94871795 , 3391.28205128 , 3371.79487179 , 3606.66666667 , 3161.53846154 , 2990.25641026 , 3721.53846154 , 5993.33333333 , 6385.64102564 , 5655.8974359 , 2043.0 , 2037.0 , 197.875 , 0.0 , 0.0 , 0.0 , 0.0 , 

52.0 , 4740.51282051 , 6634.35897436 , 6794.35897436 , 3625.64102564 , 3684.1025641 , 3395.38461538 , 3375.8974359 , 3622.05128205 , 3163.58974359 , 2995.38461538 , 3730.76923077 , 6081.02564103 , 6473.33333333 , 5755.38461538 , 2043.0 , 2037.0 , 197.875 , 0.0 , 0.0 , 0.0 , 0.0 , 

53.0 , 4773.84615385 , 6754.87179487 , 6843.07692308 , 3627.17948718 , 3688.20512821 , 3397.43589744 , 3375.38461538 , 3642.56410256 , 3167.69230769 , 3002.05128205 , 3748.71794872 , 6194.87179487 , 6591.28205128 , 5874.35897436 , 2043.0 , 2037.0 , 197.875 , 0.0 , 0.0 , 0.0 , 0.0 , 

54.0 , 4797.43589744 , 6810.76923077 , 6860.51282051 , 3629.74358974 , 3694.35897436 , 3403.07692308 , 3377.94871795 , 3653.84615385 , 3175.38461538 , 3010.76923077 , 3756.41025641 , 6251.79487179 , 6643.58974359 , 5949.23076923 , 2043.0 , 2037.0 , 197.875 , 0.0 , 0.0 , 0.0 , 0.0 , 

55.0 , 4809.23076923 , 6799.48717949 , 6869.23076923 , 3640.0 , 3699.48717949 , 3411.79487179 , 3387.69230769 , 3654.87179487 , 3183.07692308 , 3016.41025641 , 3757.94871795 , 6281.53846154 , 6652.82051282 , 5977.94871795 , 2045.0 , 2037.0 , 197.875 , 0.0 , 0.0 , 0.0 , 0.0 , 

56.0 , 4810.25641026 , 6708.71794872 , 6840.51282051 , 3646.66666667 , 3702.05128205 , 3411.79487179 , 3395.8974359 , 3653.84615385 , 3186.66666667 , 3021.02564103 , 3759.48717949 , 6235.38461538 , 6583.58974359 , 5941.53846154 , 2043.0 , 2035.0 , 197.875 , 0.0 , 0.0 , 0.0 , 0.0 , 

57.0 , 4791.28205128 , 6674.87179487 , 6825.64102564 , 3645.64102564 , 3706.15384615 , 3411.28205128 , 3400.0 , 3647.69230769 , 3191.28205128 , 3028.20512821 , 3760.0 , 6185.64102564 , 6530.25641026 , 5881.53846154 , 2042.0 , 2035.0 , 197.875 , 0.0 , 0.0 , 0.0 , 0.0 , 

58.0 , 4776.41025641 , 6615.8974359 , 6805.12820513 , 3646.15384615 , 3710.76923077 , 3418.97435897 , 3403.07692308 , 3646.66666667 , 3193.33333333 , 3035.38461538 , 3757.43589744 , 6165.64102564 , 6480.0 , 5847.17948718 , 2044.0 , 2035.0 , 197.875 , 0.0 , 0.0 , 0.0 , 0.0 , 

59.0 , 4757.43589744 , 6488.71794872 , 6745.12820513 , 3650.76923077 , 3710.76923077 , 3423.58974359 , 3405.64102564 , 3645.12820513 , 3193.33333333 , 3041.53846154 , 3752.30769231 , 6034.87179487 , 6362.56410256 , 5736.41025641 , 2044.0 , 2035.0 , 197.875 , 0.0 , 0.0 , 0.0 , 0.0 , 

60.0 , 4740.0 , 6481.53846154 , 6739.48717949 , 3655.8974359 , 3709.74358974 , 3422.56410256 , 3405.64102564 , 3640.0 , 3198.46153846 , 3044.61538462 , 3748.20512821 , 5986.66666667 , 6347.17948718 , 5706.15384615 , 2042.0 , 2035.0 , 197.879 , 0.0 , 0.0 , 0.0 , 0.0 , 

61.0 , 4707.69230769 , 6361.02564103 , 6682.05128205 , 3657.43589744 , 3709.74358974 , 3424.61538462 , 3405.12820513 , 3627.17948718 , 3202.56410256 , 3044.61538462 , 3737.94871795 , 5890.25641026 , 6240.0 , 5599.48717949 , 2042.0 , 2033.0 , 197.885 , 0.0 , 0.0 , 0.0 , 0.0 , 

62.0 , 4686.66666667 , 6282.56410256 , 6633.84615385 , 3659.48717949 , 3711.79487179 , 3427.17948718 , 3406.66666667 , 3619.48717949 , 3203.58974359 , 3048.71794872 , 3733.84615385 , 5808.71794872 , 6162.05128205 , 5516.92307692 , 2041.0 , 2031.0 , 197.892 , 0.0 , 0.0 , 0.0 , 0.0 , 

63.0 , 4664.61538462 , 6208.71794872 , 6590.25641026 , 3660.0 , 3711.79487179 , 3426.66666667 , 3405.12820513 , 3610.25641026 , 3204.1025641 , 3052.30769231 , 3730.76923077 , 5703.58974359 , 6070.25641026 , 5446.15384615 , 2042.0 , 2034.0 , 197.901 , 0.0 , 0.0 , 0.0 , 0.0 , 

64.0 , 4665.64102564 , 6211.28205128 , 6612.82051282 , 3661.53846154 , 3715.8974359 , 3431.79487179 , 3408.20512821 , 3618.97435897 , 3210.76923077 , 3058.97435897 , 3737.43589744 , 5690.76923077 , 6085.12820513 , 5449.74358974 , 2041.0 , 2033.0 , 197.908 , 0.0 , 0.0 , 0.0 , 0.0 , 

65.0 , 4651.28205128 , 6181.53846154 , 6591.28205128 , 3661.53846154 , 3716.41025641 , 3430.76923077 , 3409.23076923 , 3617.43589744 , 3211.79487179 , 3062.56410256 , 3731.79487179 , 5685.64102564 , 6066.66666667 , 5433.84615385 , 2039.0 , 2034.0 , 197.917 , 0.0 , 0.0 , 0.0 , 0.0 , 

66.0 , 4627.17948718 , 6105.12820513 , 6527.17948718 , 3653.84615385 , 3709.23076923 , 3419.48717949 , 3401.02564103 , 3602.05128205 , 3203.58974359 , 3054.87179487 , 3718.97435897 , 5608.71794872 , 5942.05128205 , 5354.35897436 , 2039.0 , 2035.0 , 197.923 , 0.0 , 0.0 , 0.0 , 0.0 , 

67.0 , 4601.53846154 , 6084.61538462 , 6508.20512821 , 3646.15384615 , 3702.05128205 , 3415.8974359 , 3395.38461538 , 3588.20512821 , 3193.84615385 , 3048.20512821 , 3710.76923077 , 5599.48717949 , 5913.84615385 , 5340.51282051 , 2040.0 , 2034.0 , 197.931 , 0.0 , 0.0 , 0.0 , 0.0 , 

68.0 , 4589.23076923 , 6058.46153846 , 6506.66666667 , 3635.8974359 , 3687.17948718 , 3401.02564103 , 3382.56410256 , 3578.46153846 , 3181.02564103 , 3030.76923077 , 3700.51282051 , 5593.84615385 , 5921.02564103 , 5329.23076923 , 2037.0 , 2035.0 , 197.939 , 0.0 , 0.0 , 0.0 , 0.0 , 

69.0 , 4570.25641026 , 6058.46153846 , 6502.56410256 , 3623.07692308 , 3669.74358974 , 3379.48717949 , 3363.07692308 , 3555.8974359 , 3163.07692308 , 3006.66666667 , 3680.0 , 5599.48717949 , 5926.15384615 , 5307.17948718 , 2038.0 , 2036.0 , 197.947 , 0.0 , 0.0 , 0.0 , 0.0 , 

70.0 , 4559.48717949 , 6054.35897436 , 6489.74358974 , 3613.84615385 , 3658.97435897 , 3370.76923077 , 3350.76923077 , 3544.61538462 , 3151.28205128 , 2995.38461538 , 3675.38461538 , 5625.12820513 , 5923.58974359 , 5317.43589744 , 2037.0 , 2036.0 , 197.955 , 0.0 , 0.0 , 0.0 , 0.0 , 

71.0 , 4560.51282051 , 6055.38461538 , 6490.25641026 , 3612.30769231 , 3651.79487179 , 3368.20512821 , 3346.15384615 , 3538.46153846 , 3141.02564103 , 2994.87179487 , 3676.92307692 , 5633.84615385 , 5942.56410256 , 5332.30769231 , 2036.0 , 2035.0 , 197.963 , 0.0 , 0.0 , 0.0 , 0.0 , 

72.0 , 4564.61538462 , 6067.69230769 , 6507.69230769 , 3612.30769231 , 3645.64102564 , 3368.20512821 , 3343.07692308 , 3535.8974359 , 3140.51282051 , 2995.38461538 , 3679.48717949 , 5676.41025641 , 5974.87179487 , 5352.30769231 , 2036.0 , 2035.0 , 197.971 , 0.0 , 0.0 , 0.0 , 0.0 , 

73.0 , 4572.30769231 , 6077.94871795 , 6521.02564103 , 3613.84615385 , 3649.23076923 , 3370.25641026 , 3343.58974359 , 3545.12820513 , 3146.66666667 , 2999.48717949 , 3680.0 , 5721.02564103 , 5985.64102564 , 5362.56410256 , 2034.0 , 2035.0 , 197.979 , 0.0 , 0.0 , 0.0 , 0.0 , 

74.0 , 4584.61538462 , 6090.25641026 , 6533.84615385 , 3622.05128205 , 3657.43589744 , 3372.82051282 , 3349.23076923 , 3557.94871795 , 3154.35897436 , 3009.23076923 , 3686.66666667 , 5739.48717949 , 6000.51282051 , 5402.56410256 , 2032.0 , 2032.0 , 197.986 , 0.0 , 0.0 , 0.0 , 0.0 , 

75.0 , 4595.38461538 , 6091.79487179 , 6542.05128205 , 3625.64102564 , 3662.56410256 , 3375.38461538 , 3354.35897436 , 3558.46153846 , 3154.35897436 , 3012.82051282 , 3691.79487179 , 5737.94871795 , 6008.20512821 , 5453.84615385 , 2032.0 , 2032.0 , 197.994 , 0.0 , 0.0 , 0.0 , 0.0 , 

76.0 , 4590.25641026 , 6099.48717949 , 6538.97435897 , 3626.66666667 , 3665.12820513 , 3382.56410256 , 3358.97435897 , 3560.51282051 , 3157.94871795 , 3016.92307692 , 3694.87179487 , 5733.84615385 , 5999.48717949 , 5442.56410256 , 2030.0 , 2030.0 , 198.002 , 0.0 , 0.0 , 0.0 , 0.0 , 

77.0 , 4590.76923077 , 6110.25641026 , 6540.51282051 , 3631.28205128 , 3663.58974359 , 3382.05128205 , 3360.0 , 3567.69230769 , 3165.12820513 , 3026.66666667 , 3695.8974359 , 5736.92307692 , 5993.33333333 , 5443.58974359 , 2029.0 , 2028.0 , 198.01 , 0.0 , 0.0 , 0.0 , 0.0 , 

78.0 , 4571.79487179 , 6080.0 , 6512.82051282 , 3631.79487179 , 3659.48717949 , 3374.87179487 , 3358.97435897 , 3555.38461538 , 3162.05128205 , 3024.61538462 , 3690.25641026 , 5682.05128205 , 5949.74358974 , 5398.97435897 , 2029.0 , 2027.0 , 198.019 , 0.0 , 0.0 , 0.0 , 0.0 , 

79.0 , 4556.92307692 , 6078.46153846 , 6498.97435897 , 3624.1025641 , 3660.0 , 3376.41025641 , 3358.46153846 , 3542.56410256 , 3152.82051282 , 3012.82051282 , 3685.12820513 , 5660.0 , 5938.97435897 , 5368.20512821 , 2030.0 , 2027.0 , 198.026 , 0.0 , 0.0 , 0.0 , 0.0 , 

80.0 , 4534.87179487 , 6015.38461538 , 6455.38461538 , 3611.28205128 , 3648.71794872 , 3368.71794872 , 3343.07692308 , 3527.17948718 , 3138.97435897 , 2996.92307692 , 3667.17948718 , 5610.76923077 , 5888.20512821 , 5302.56410256 , 2030.0 , 2026.0 , 198.034 , 0.0 , 0.0 , 0.0 , 0.0 , 

81.0 , 4511.28205128 , 5965.64102564 , 6435.38461538 , 3599.48717949 , 3624.1025641 , 3346.15384615 , 3321.53846154 , 3502.05128205 , 3118.97435897 , 2972.82051282 , 3647.17948718 , 5615.38461538 , 5865.64102564 , 5274.87179487 , 2033.0 , 2027.0 , 198.042 , 0.0 , 0.0 , 0.0 , 0.0 , 

82.0 , 4474.87179487 , 5919.48717949 , 6405.64102564 , 3588.20512821 , 3608.71794872 , 3327.17948718 , 3308.20512821 , 3473.84615385 , 3099.48717949 , 2952.82051282 , 3629.74358974 , 5597.94871795 , 5825.12820513 , 5223.58974359 , 2033.0 , 2027.0 , 198.05 , 0.0 , 0.0 , 0.0 , 0.0 , 

83.0 , 4454.87179487 , 5886.66666667 , 6367.69230769 , 3570.25641026 , 3595.38461538 , 3313.33333333 , 3290.25641026 , 3461.53846154 , 3084.1025641 , 2943.07692308 , 3619.48717949 , 5557.94871795 , 5792.30769231 , 5198.46153846 , 2034.0 , 2027.0 , 198.057 , 0.0 , 0.0 , 0.0 , 0.0 , 

84.0 , 4440.51282051 , 5880.0 , 6368.20512821 , 3553.33333333 , 3580.51282051 , 3303.58974359 , 3272.82051282 , 3454.35897436 , 3080.0 , 2937.43589744 , 3612.30769231 , 5558.46153846 , 5797.43589744 , 5203.58974359 , 2036.0 , 2029.0 , 198.066 , 0.0 , 0.0 , 0.0 , 0.0 , 

85.0 , 4460.0 , 5938.46153846 , 6432.82051282 , 3561.02564103 , 3583.58974359 , 3306.15384615 , 3278.97435897 , 3470.76923077 , 3092.82051282 , 2944.1025641 , 3624.61538462 , 5652.30769231 , 5854.87179487 , 5257.94871795 , 2038.0 , 2028.0 , 198.074 , 0.0 , 0.0 , 0.0 , 0.0 , 

86.0 , 4491.28205128 , 5986.66666667 , 6478.97435897 , 3579.48717949 , 3595.8974359 , 3315.38461538 , 3296.41025641 , 3488.71794872 , 3103.58974359 , 2961.53846154 , 3637.43589744 , 5713.33333333 , 5902.05128205 , 5300.51282051 , 2040.0 , 2028.0 , 198.081 , 0.0 , 0.0 , 0.0 , 0.0 , 

87.0 , 4517.94871795 , 6046.66666667 , 6504.61538462 , 3578.46153846 , 3598.46153846 , 3318.46153846 , 3300.51282051 , 3497.94871795 , 3105.12820513 , 2967.17948718 , 3647.17948718 , 5760.0 , 5967.17948718 , 5371.79487179 , 2041.0 , 2028.0 , 198.089 , 0.0 , 0.0 , 0.0 , 0.0 , 

88.0 , 4536.41025641 , 6095.8974359 , 6531.28205128 , 3576.41025641 , 3602.56410256 , 3322.05128205 , 3302.05128205 , 3505.12820513 , 3108.20512821 , 2968.71794872 , 3654.87179487 , 5797.43589744 , 6018.46153846 , 5427.69230769 , 2043.0 , 2029.0 , 198.097 , 0.0 , 0.0 , 0.0 , 0.0 , 

89.0 , 4560.51282051 , 6128.20512821 , 6569.23076923 , 3589.74358974 , 3609.74358974 , 3332.30769231 , 3309.23076923 , 3520.0 , 3117.43589744 , 2981.02564103 , 3666.66666667 , 5865.12820513 , 6055.38461538 , 5485.12820513 , 2044.0 , 2031.0 , 198.108 , 0.0 , 0.0 , 0.0 , 0.0 , 

90.0 , 4571.79487179 , 6127.69230769 , 6568.71794872 , 3593.84615385 , 3605.64102564 , 3336.92307692 , 3311.28205128 , 3523.07692308 , 3115.8974359 , 2983.58974359 , 3668.20512821 , 5866.66666667 , 6040.51282051 , 5496.41025641 , 2046.0 , 2031.0 , 198.115 , 0.0 , 0.0 , 0.0 , 0.0 , 

91.0 , 4581.02564103 , 6180.0 , 6600.0 , 3591.28205128 , 3611.79487179 , 3340.0 , 3316.92307692 , 3529.74358974 , 3126.66666667 , 2989.23076923 , 3677.43589744 , 5917.94871795 , 6097.43589744 , 5560.0 , 2046.0 , 2030.0 , 198.12 , 0.0 , 0.0 , 0.0 , 0.0 , 

92.0 , 4595.38461538 , 6173.33333333 , 6603.07692308 , 3594.35897436 , 3622.56410256 , 3341.02564103 , 3320.51282051 , 3534.87179487 , 3136.92307692 , 2995.38461538 , 3682.05128205 , 5953.33333333 , 6108.20512821 , 5583.07692308 , 2046.0 , 2029.0 , 198.127 , 0.0 , 0.0 , 0.0 , 0.0 , 

93.0 , 4605.12820513 , 6203.07692308 , 6620.51282051 , 3605.12820513 , 3623.07692308 , 3345.64102564 , 3323.58974359 , 3535.8974359 , 3137.94871795 , 2998.46153846 , 3685.12820513 , 5989.23076923 , 6131.79487179 , 5592.30769231 , 2046.0 , 2030.0 , 198.136 , 0.0 , 0.0 , 0.0 , 0.0 , 

94.0 , 4611.79487179 , 6236.92307692 , 6629.74358974 , 3609.74358974 , 3620.0 , 3347.69230769 , 3329.74358974 , 3544.1025641 , 3138.97435897 , 3006.15384615 , 3691.79487179 , 6007.69230769 , 6166.66666667 , 5636.92307692 , 2046.0 , 2032.0 , 198.143 , 0.0 , 0.0 , 0.0 , 0.0 , 

95.0 , 4605.12820513 , 6246.15384615 , 6626.66666667 , 3608.71794872 , 3625.64102564 , 3350.25641026 , 3332.30769231 , 3544.1025641 , 3144.1025641 , 3013.33333333 , 3695.8974359 , 5996.41025641 , 6156.41025641 , 5628.20512821 , 2045.0 , 2031.0 , 198.152 , 0.0 , 0.0 , 0.0 , 0.0 , 

96.0 , 4613.33333333 , 6256.41025641 , 6637.94871795 , 3613.33333333 , 3636.41025641 , 3358.46153846 , 3333.84615385 , 3545.64102564 , 3148.71794872 , 3019.48717949 , 3699.48717949 , 6020.51282051 , 6151.28205128 , 5634.87179487 , 2046.0 , 2031.0 , 198.159 , 0.0 , 0.0 , 0.0 , 0.0 , 

97.0 , 4614.87179487 , 6247.17948718 , 6637.43589744 , 3620.0 , 3635.8974359 , 3360.0 , 3338.97435897 , 3549.74358974 , 3150.76923077 , 3025.12820513 , 3698.97435897 , 5997.94871795 , 6137.94871795 , 5612.82051282 , 2045.0 , 2033.0 , 198.168 , 0.0 , 0.0 , 0.0 , 0.0 , 

98.0 , 4617.43589744 , 6238.46153846 , 6634.35897436 , 3621.53846154 , 3632.82051282 , 3357.94871795 , 3345.12820513 , 3554.87179487 , 3154.35897436 , 3030.25641026 , 3702.05128205 , 5980.51282051 , 6138.97435897 , 5611.28205128 , 2046.0 , 2034.0 , 198.175 , 0.0 , 0.0 , 0.0 , 0.0 , 

99.0 , 4617.43589744 , 6226.15384615 , 6629.74358974 , 3622.05128205 , 3638.97435897 , 3365.12820513 , 3348.71794872 , 3556.92307692 , 3160.51282051 , 3033.84615385 , 3708.71794872 , 5951.79487179 , 6128.20512821 , 5581.53846154 , 2043.0 , 2033.0 , 198.183 , 0.0 , 0.0 , 0.0 , 0.0 , 

100.0 , 4633.84615385 , 6277.94871795 , 6668.71794872 , 3626.66666667 , 3645.64102564 , 3371.28205128 , 3347.69230769 , 3569.23076923 , 3167.17948718 , 3040.0 , 3718.97435897 , 6006.15384615 , 6183.07692308 , 5628.20512821 , 2042.0 , 2035.0 , 198.19 , 0.0 , 0.0 , 0.0 , 0.0 , 

101.0 , 4635.38461538 , 6254.87179487 , 6662.05128205 , 3628.20512821 , 3645.64102564 , 3371.28205128 , 3348.20512821 , 3572.30769231 , 3170.76923077 , 3047.17948718 , 3717.94871795 , 5994.35897436 , 6174.35897436 , 5621.02564103 , 2043.0 , 2033.0 , 198.199 , 0.0 , 0.0 , 0.0 , 0.0 , 

102.0 , 4638.46153846 , 6249.23076923 , 6658.46153846 , 3631.28205128 , 3648.20512821 , 3376.41025641 , 3354.35897436 , 3576.41025641 , 3174.35897436 , 3049.23076923 , 3723.07692308 , 5988.20512821 , 6182.56410256 , 5623.07692308 , 2040.0 , 2034.0 , 198.207 , 0.0 , 0.0 , 0.0 , 0.0 , 

103.0 , 4629.74358974 , 6221.53846154 , 6642.05128205 , 3637.94871795 , 3654.87179487 , 3382.05128205 , 3361.53846154 , 3577.43589744 , 3177.94871795 , 3053.84615385 , 3725.12820513 , 5968.20512821 , 6160.51282051 , 5609.74358974 , 2041.0 , 2034.0 , 198.214 , 0.0 , 0.0 , 0.0 , 0.0 , 

104.0 , 4623.58974359 , 6183.58974359 , 6636.92307692 , 3643.07692308 , 3654.87179487 , 3381.02564103 , 3364.61538462 , 3581.02564103 , 3182.56410256 , 3062.05128205 , 3726.66666667 , 5940.51282051 , 6120.0 , 5574.35897436 , 2039.0 , 2034.0 , 198.223 , 0.0 , 0.0 , 0.0 , 0.0 , 

105.0 , 4613.84615385 , 6141.53846154 , 6610.76923077 , 3645.12820513 , 3654.87179487 , 3382.56410256 , 3366.15384615 , 3574.87179487 , 3187.17948718 , 3067.69230769 , 3723.07692308 , 5903.58974359 , 6074.35897436 , 5538.97435897 , 2039.0 , 2034.0 , 198.231 , 0.0 , 0.0 , 0.0 , 0.0 , 

106.0 , 4608.71794872 , 6126.15384615 , 6580.0 , 3647.17948718 , 3662.56410256 , 3390.76923077 , 3368.71794872 , 3573.33333333 , 3194.87179487 , 3070.76923077 , 3722.56410256 , 5867.17948718 , 6036.92307692 , 5529.23076923 , 2040.0 , 2033.0 , 198.239 , 0.0 , 0.0 , 0.0 , 0.0 , 

107.0 , 4592.30769231 , 6087.17948718 , 6546.66666667 , 3650.25641026 , 3666.15384615 , 3392.82051282 , 3371.28205128 , 3573.84615385 , 3193.33333333 , 3073.33333333 , 3720.0 , 5812.30769231 , 5983.07692308 , 5483.07692308 , 2039.0 , 2032.0 , 198.247 , 0.0 , 0.0 , 0.0 , 0.0 , 

108.0 , 4580.0 , 6046.66666667 , 6534.87179487 , 3655.38461538 , 3664.61538462 , 3392.30769231 , 3375.8974359 , 3576.92307692 , 3194.35897436 , 3076.92307692 , 3722.56410256 , 5755.8974359 , 5937.94871795 , 5442.05128205 , 2040.0 , 2033.0 , 198.255 , 0.0 , 0.0 , 0.0 , 0.0 , 

109.0 , 4577.43589744 , 6040.51282051 , 6536.41025641 , 3658.46153846 , 3666.66666667 , 3393.84615385 , 3379.48717949 , 3576.92307692 , 3202.05128205 , 3084.1025641 , 3724.1025641 , 5751.79487179 , 5932.82051282 , 5455.38461538 , 2040.0 , 2033.0 , 198.262 , 0.0 , 0.0 , 0.0 , 0.0 , 

110.0 , 4571.28205128 , 6000.0 , 6513.33333333 , 3657.43589744 , 3668.71794872 , 3396.41025641 , 3380.51282051 , 3578.46153846 , 3206.66666667 , 3091.28205128 , 3725.64102564 , 5726.15384615 , 5917.43589744 , 5420.0 , 2042.0 , 2032.0 , 198.271 , 0.0 , 0.0 , 0.0 , 0.0 , 

111.0 , 4561.02564103 , 5982.05128205 , 6507.69230769 , 3658.97435897 , 3669.74358974 , 3400.51282051 , 3379.48717949 , 3579.48717949 , 3205.12820513 , 3093.33333333 , 3726.15384615 , 5717.43589744 , 5923.58974359 , 5383.58974359 , 2040.0 , 2032.0 , 198.278 , 0.0 , 0.0 , 0.0 , 0.0 , 

112.0 , 4549.23076923 , 5967.69230769 , 6488.20512821 , 3662.05128205 , 3666.66666667 , 3404.61538462 , 3378.97435897 , 3573.33333333 , 3208.71794872 , 3094.87179487 , 3725.12820513 , 5701.53846154 , 5905.12820513 , 5363.58974359 , 2040.0 , 2032.0 , 198.286 , 0.0 , 0.0 , 0.0 , 0.0 , 

113.0 , 4553.33333333 , 5963.58974359 , 6481.02564103 , 3660.0 , 3667.17948718 , 3401.53846154 , 3379.48717949 , 3570.25641026 , 3210.25641026 , 3097.94871795 , 3723.58974359 , 5702.56410256 , 5896.92307692 , 5370.25641026 , 2043.0 , 2031.0 , 198.293 , 0.0 , 0.0 , 0.0 , 0.0 , 

114.0 , 4552.82051282 , 5973.84615385 , 6492.82051282 , 3661.02564103 , 3673.33333333 , 3401.53846154 , 3382.05128205 , 3574.87179487 , 3209.74358974 , 3100.51282051 , 3727.69230769 , 5706.66666667 , 5907.17948718 , 5368.71794872 , 2043.0 , 2032.0 , 198.302 , 0.0 , 0.0 , 0.0 , 0.0 , 

115.0 , 4562.05128205 , 6012.30769231 , 6517.43589744 , 3666.15384615 , 3673.84615385 , 3409.23076923 , 3386.66666667 , 3585.64102564 , 3214.35897436 , 3104.61538462 , 3735.38461538 , 5745.64102564 , 5946.66666667 , 5405.12820513 , 2043.0 , 2030.0 , 198.31 , 0.0 , 0.0 , 0.0 , 0.0 , 

116.0 , 4565.12820513 , 6028.71794872 , 6529.23076923 , 3671.28205128 , 3671.79487179 , 3412.82051282 , 3389.74358974 , 3591.28205128 , 3221.53846154 , 3110.76923077 , 3736.41025641 , 5756.41025641 , 5956.92307692 , 5421.02564103 , 2042.0 , 2030.0 , 198.318 , 0.0 , 0.0 , 0.0 , 0.0 , 

117.0 , 4578.97435897 , 6036.41025641 , 6534.35897436 , 3672.82051282 , 3680.0 , 3411.28205128 , 3390.76923077 , 3597.43589744 , 3225.12820513 , 3114.87179487 , 3741.53846154 , 5737.94871795 , 5944.61538462 , 5451.28205128 , 2042.0 , 2029.0 , 198.326 , 0.0 , 0.0 , 0.0 , 0.0 , 

118.0 , 4587.69230769 , 6065.12820513 , 6556.41025641 , 3675.38461538 , 3686.66666667 , 3414.35897436 , 3393.84615385 , 3597.94871795 , 3227.17948718 , 3121.02564103 , 3748.71794872 , 5747.17948718 , 5964.1025641 , 5476.41025641 , 2040.0 , 2027.0 , 198.333 , 0.0 , 0.0 , 0.0 , 0.0 , 

119.0 , 4608.20512821 , 6096.41025641 , 6595.38461538 , 3682.56410256 , 3682.05128205 , 3418.46153846 , 3396.92307692 , 3608.71794872 , 3232.30769231 , 3128.20512821 , 3758.97435897 , 5818.97435897 , 6016.92307692 , 5509.23076923 , 2038.0 , 2028.0 , 198.34 , 0.0 , 0.0 , 0.0 , 0.0 , 

120.0 , 4619.48717949 , 6117.94871795 , 6620.51282051 , 3688.71794872 , 3685.64102564 , 3420.51282051 , 3398.97435897 , 3617.94871795 , 3238.46153846 , 3130.76923077 , 3764.1025641 , 5867.69230769 , 6045.64102564 , 5519.48717949 , 2034.0 , 2025.0 , 198.349 , 0.0 , 0.0 , 0.0 , 0.0 , 

121.0 , 4641.53846154 , 6180.51282051 , 6644.1025641 , 3688.71794872 , 3692.82051282 , 3424.1025641 , 3405.64102564 , 3629.23076923 , 3243.58974359 , 3133.33333333 , 3773.33333333 , 5913.84615385 , 6106.15384615 , 5593.84615385 , 2033.0 , 2023.0 , 198.356 , 0.0 , 0.0 , 0.0 , 0.0 , 

122.0 , 4660.0 , 6244.61538462 , 6670.25641026 , 3688.20512821 , 3694.35897436 , 3428.71794872 , 3412.30769231 , 3636.41025641 , 3244.1025641 , 3140.51282051 , 3778.46153846 , 5957.94871795 , 6170.76923077 , 5663.07692308 , 2028.0 , 2023.0 , 198.365 , 0.0 , 0.0 , 0.0 , 0.0 , 

123.0 , 4681.02564103 , 6270.25641026 , 6712.82051282 , 3693.84615385 , 3696.41025641 , 3432.82051282 , 3413.84615385 , 3648.20512821 , 3249.23076923 , 3146.15384615 , 3790.25641026 , 6028.71794872 , 6209.74358974 , 5727.17948718 , 2026.0 , 2022.0 , 198.373 , 0.0 , 0.0 , 0.0 , 0.0 , 

124.0 , 4698.46153846 , 6321.02564103 , 6738.97435897 , 3700.0 , 3700.51282051 , 3435.8974359 , 3415.8974359 , 3654.35897436 , 3255.8974359 , 3149.23076923 , 3796.92307692 , 6090.25641026 , 6268.71794872 , 5755.8974359 , 2025.0 , 2022.0 , 198.381 , 0.0 , 0.0 , 0.0 , 0.0 , 

125.0 , 4725.64102564 , 6441.53846154 , 6801.02564103 , 3705.64102564 , 3704.61538462 , 3440.51282051 , 3421.53846154 , 3668.20512821 , 3262.05128205 , 3160.0 , 3808.71794872 , 6198.46153846 , 6394.35897436 , 5869.23076923 , 2024.0 , 2021.0 , 198.388 , 0.0 , 0.0 , 0.0 , 0.0 , 

126.0 , 4758.46153846 , 6512.82051282 , 6834.87179487 , 3709.74358974 , 3708.20512821 , 3441.53846154 , 3425.64102564 , 3684.1025641 , 3265.12820513 , 3167.69230769 , 3819.48717949 , 6247.69230769 , 6455.38461538 , 5948.71794872 , 2022.0 , 2021.0 , 198.396 , 0.0 , 0.0 , 0.0 , 0.0 , 

127.0 , 4802.56410256 , 6775.38461538 , 6920.0 , 3711.28205128 , 3713.84615385 , 3443.07692308 , 3427.69230769 , 3701.53846154 , 3273.33333333 , 3167.69230769 , 3832.82051282 , 6553.33333333 , 6737.94871795 , 6150.76923077 , 2021.0 , 2020.0 , 198.404 , 0.0 , 0.0 , 0.0 , 0.0 , 

128.0 , 4857.94871795 , 6934.87179487 , 6966.15384615 , 3713.84615385 , 3717.43589744 , 3449.74358974 , 3430.76923077 , 3722.56410256 , 3280.51282051 , 3170.76923077 , 3844.61538462 , 6708.71794872 , 6915.8974359 , 6244.61538462 , 2020.0 , 2021.0 , 198.412 , 0.0 , 0.0 , 0.0 , 0.0 , 

0.0 , 4908.71794872 , 7130.76923077 , 7063.58974359 , 3721.02564103 , 3722.05128205 , 3456.92307692 , 3434.87179487 , 3745.64102564 , 3283.58974359 , 3178.97435897 , 3861.53846154 , 6970.76923077 , 7108.20512821 , 6602.56410256 , 2019.0 , 2022.0 , 198.42 , 0.0 , 0.0 , 0.0 , 0.0 , 

1.0 , 4967.17948718 , 7250.25641026 , 7111.79487179 , 3726.66666667 , 3726.15384615 , 3458.97435897 , 3441.02564103 , 3767.69230769 , 3285.64102564 , 3184.61538462 , 3877.43589744 , 7218.46153846 , 7219.48717949 , 6882.05128205 , 2019.0 , 2023.0 , 198.428 , 0.0 , 0.0 , 0.0 , 0.0 , 

2.0 , 5018.46153846 , 7502.05128205 , 7185.64102564 , 3728.71794872 , 3730.25641026 , 3461.53846154 , 3447.69230769 , 3778.46153846 , 3291.28205128 , 3190.25641026 , 3887.17948718 , 7529.74358974 , 7475.8974359 , 7165.12820513 , 2019.0 , 2023.0 , 198.436 , 0.0 , 0.0 , 0.0 , 0.0 , 

3.0 , 5051.28205128 , 7537.43589744 , 7205.64102564 , 3733.33333333 , 3736.41025641 , 3466.15384615 , 3447.17948718 , 3787.17948718 , 3297.43589744 , 3194.35897436 , 3893.84615385 , 7583.58974359 , 7523.58974359 , 7314.35897436 , 2019.0 , 2022.0 , 198.444 , 0.0 , 0.0 , 0.0 , 0.0 , 

4.0 , 5070.25641026 , 7589.74358974 , 7263.07692308 , 3737.94871795 , 3740.51282051 , 3468.20512821 , 3447.69230769 , 3797.94871795 , 3301.53846154 , 3196.41025641 , 3903.58974359 , 7628.20512821 , 7579.48717949 , 7553.84615385 , 2020.0 , 2023.0 , 198.452 , 0.0 , 0.0 , 0.0 , 0.0 , 

5.0 , 5112.82051282 , 7616.92307692 , 7308.20512821 , 3742.05128205 , 3741.02564103 , 3471.79487179 , 3456.92307692 , 3810.76923077 , 3305.64102564 , 3201.02564103 , 3917.43589744 , 7637.43589744 , 7624.61538462 , 7658.46153846 , 2021.0 , 2024.0 , 198.458 , 0.0 , 0.0 , 0.0 , 0.0 , 

6.0 , 5133.33333333 , 7616.41025641 , 7320.51282051 , 3746.15384615 , 3744.1025641 , 3475.38461538 , 3461.02564103 , 3813.33333333 , 3309.23076923 , 3207.17948718 , 3918.97435897 , 7603.07692308 , 7618.46153846 , 7624.1025641 , 2023.0 , 2025.0 , 198.466 , 0.0 , 0.0 , 0.0 , 0.0 , 

7.0 , 5140.0 , 7611.79487179 , 7334.87179487 , 3748.20512821 , 3750.76923077 , 3476.92307692 , 3461.53846154 , 3819.48717949 , 3312.82051282 , 3213.33333333 , 3920.51282051 , 7624.61538462 , 7612.82051282 , 7626.15384615 , 2026.0 , 2026.0 , 198.474 , 0.0 , 0.0 , 0.0 , 0.0 , 

8.0 , 5144.1025641 , 7594.35897436 , 7332.30769231 , 3750.76923077 , 3755.38461538 , 3484.61538462 , 3467.17948718 , 3823.07692308 , 3314.87179487 , 3221.53846154 , 3925.64102564 , 7594.35897436 , 7593.84615385 , 7601.53846154 , 2028.0 , 2026.0 , 198.483 , 0.0 , 0.0 , 0.0 , 0.0 , 

9.0 , 5162.56410256 , 7618.97435897 , 7356.92307692 , 3757.94871795 , 3758.46153846 , 3490.76923077 , 3470.25641026 , 3827.17948718 , 3319.48717949 , 3225.64102564 , 3932.30769231 , 7609.74358974 , 7623.07692308 , 7641.53846154 , 2029.0 , 2026.0 , 198.492 , 0.0 , 0.0 , 0.0 , 0.0 , 

10.0 , 5159.48717949 , 7593.33333333 , 7332.82051282 , 3759.48717949 , 3761.53846154 , 3492.30769231 , 3472.30769231 , 3829.23076923 , 3322.05128205 , 3228.71794872 , 3930.76923077 , 7604.1025641 , 7589.23076923 , 7586.66666667 , 2034.0 , 2027.0 , 198.499 , 0.0 , 0.0 , 0.0 , 0.0 , 

11.0 , 5153.84615385 , 7627.69230769 , 7336.41025641 , 3759.48717949 , 3763.58974359 , 3494.87179487 , 3479.48717949 , 3832.82051282 , 3326.15384615 , 3237.43589744 , 3933.33333333 , 7624.1025641 , 7630.76923077 , 7660.51282051 , 2034.0 , 2024.0 , 198.507 , 0.0 , 0.0 , 0.0 , 0.0 , 

12.0 , 5128.71794872 , 7593.33333333 , 7301.02564103 , 3764.61538462 , 3769.74358974 , 3495.38461538 , 3481.53846154 , 3817.43589744 , 3328.71794872 , 3243.58974359 , 3927.69230769 , 7589.23076923 , 7597.43589744 , 7600.51282051 , 2038.0 , 2023.0 , 198.514 , 0.0 , 0.0 , 0.0 , 0.0 , 

13.0 , 5099.48717949 , 7585.12820513 , 7264.1025641 , 3769.23076923 , 3777.94871795 , 3497.43589744 , 3480.0 , 3805.12820513 , 3331.28205128 , 3245.12820513 , 3924.61538462 , 7631.28205128 , 7556.92307692 , 7526.15384615 , 2039.0 , 2023.0 , 198.523 , 0.0 , 0.0 , 0.0 , 0.0 , 

14.0 , 5073.33333333 , 7546.66666667 , 7227.17948718 , 3770.25641026 , 3778.46153846 , 3503.58974359 , 3488.20512821 , 3798.97435897 , 3334.87179487 , 3248.71794872 , 3920.0 , 7622.05128205 , 7509.74358974 , 7450.25641026 , 2040.0 , 2023.0 , 198.53 , 0.0 , 0.0 , 0.0 , 0.0 , 

15.0 , 5049.23076923 , 7412.30769231 , 7170.76923077 , 3774.35897436 , 3777.94871795 , 3505.64102564 , 3494.87179487 , 3794.35897436 , 3343.07692308 , 3252.82051282 , 3918.97435897 , 7434.87179487 , 7368.20512821 , 7147.17948718 , 2041.0 , 2023.0 , 198.539 , 0.0 , 0.0 , 0.0 , 0.0 , 

16.0 , 5016.92307692 , 7340.0 , 7145.12820513 , 3778.97435897 , 3785.12820513 , 3505.12820513 , 3490.76923077 , 3784.1025641 , 3346.15384615 , 3256.41025641 , 3916.41025641 , 7346.15384615 , 7287.69230769 , 6973.33333333 , 2042.0 , 2025.0 , 198.547 , 0.0 , 0.0 , 0.0 , 0.0 , 

17.0 , 4988.20512821 , 7227.69230769 , 7106.66666667 , 3781.53846154 , 3786.15384615 , 3510.25641026 , 3491.79487179 , 3782.56410256 , 3348.71794872 , 3264.61538462 , 3916.41025641 , 7213.84615385 , 7177.94871795 , 6754.87179487 , 2045.0 , 2026.0 , 198.554 , 0.0 , 0.0 , 0.0 , 0.0 , 

18.0 , 4978.97435897 , 7162.05128205 , 7094.35897436 , 3786.66666667 , 3783.58974359 , 3516.41025641 , 3500.0 , 3785.12820513 , 3352.82051282 , 3271.79487179 , 3919.48717949 , 7087.17948718 , 7124.1025641 , 6611.28205128 , 2046.0 , 2027.0 , 198.562 , 0.0 , 0.0 , 0.0 , 0.0 , 

19.0 , 4982.56410256 , 7176.92307692 , 7101.02564103 , 3791.79487179 , 3790.25641026 , 3523.58974359 , 3503.07692308 , 3786.66666667 , 3358.46153846 , 3275.8974359 , 3927.17948718 , 7092.82051282 , 7130.76923077 , 6584.61538462 , 2047.0 , 2028.0 , 198.569 , 0.0 , 0.0 , 0.0 , 0.0 , 

20.0 , 4994.87179487 , 7243.07692308 , 7134.35897436 , 3794.87179487 , 3798.97435897 , 3526.66666667 , 3502.56410256 , 3797.43589744 , 3362.56410256 , 3276.92307692 , 3935.38461538 , 7193.33333333 , 7193.84615385 , 6728.71794872 , 2048.0 , 2028.0 , 198.577 , 0.0 , 0.0 , 0.0 , 0.0 , 

21.0 , 5001.53846154 , 7268.20512821 , 7152.82051282 , 3796.41025641 , 3797.43589744 , 3524.61538462 , 3508.71794872 , 3807.17948718 , 3367.17948718 , 3281.53846154 , 3942.05128205 , 7227.17948718 , 7233.33333333 , 6787.17948718 , 2050.0 , 2030.0 , 198.585 , 0.0 , 0.0 , 0.0 , 0.0 , 

22.0 , 5022.56410256 , 7340.0 , 7173.84615385 , 3798.97435897 , 3797.94871795 , 3529.74358974 , 3515.38461538 , 3814.35897436 , 3372.30769231 , 3290.25641026 , 3950.76923077 , 7313.33333333 , 7312.30769231 , 6895.38461538 , 2049.0 , 2030.0 , 198.593 , 0.0 , 0.0 , 0.0 , 0.0 , 

23.0 , 5033.84615385 , 7375.38461538 , 7190.76923077 , 3804.61538462 , 3806.15384615 , 3534.87179487 , 3514.87179487 , 3816.92307692 , 3377.43589744 , 3293.84615385 , 3953.84615385 , 7362.56410256 , 7348.20512821 , 6972.82051282 , 2050.0 , 2031.0 , 198.601 , 0.0 , 0.0 , 0.0 , 0.0 , 

24.0 , 5041.02564103 , 7353.33333333 , 7189.23076923 , 3807.17948718 , 3809.23076923 , 3533.84615385 , 3515.38461538 , 3821.53846154 , 3376.92307692 , 3296.92307692 , 3955.8974359 , 7333.33333333 , 7320.51282051 , 6938.46153846 , 2051.0 , 2032.0 , 198.609 , 0.0 , 0.0 , 0.0 , 0.0 , 

25.0 , 5033.33333333 , 7368.20512821 , 7187.69230769 , 3807.69230769 , 3808.20512821 , 3540.0 , 3522.56410256 , 3821.02564103 , 3379.48717949 , 3304.61538462 , 3955.8974359 , 7341.53846154 , 7333.33333333 , 6951.79487179 , 2050.0 , 2031.0 , 198.616 , 0.0 , 0.0 , 0.0 , 0.0 , 

26.0 , 5036.92307692 , 7333.33333333 , 7176.92307692 , 3810.25641026 , 3812.82051282 , 3545.64102564 , 3527.69230769 , 3824.61538462 , 3388.20512821 , 3307.17948718 , 3960.0 , 7299.48717949 , 7302.05128205 , 6885.12820513 , 2048.0 , 2033.0 , 198.625 , 0.0 , 0.0 , 0.0 , 0.0 , 

27.0 , 5033.33333333 , 7304.1025641 , 7162.05128205 , 3814.87179487 , 3818.97435897 , 3542.56410256 , 3526.15384615 , 3824.1025641 , 3390.76923077 , 3306.66666667 , 3962.05128205 , 7245.12820513 , 7264.61538462 , 6792.82051282 , 2048.0 , 2033.0 , 198.634 , 0.0 , 0.0 , 0.0 , 0.0 , 

28.0 , 5037.43589744 , 7369.74358974 , 7182.05128205 , 3818.46153846 , 3819.48717949 , 3543.58974359 , 3527.69230769 , 3830.25641026 , 3392.30769231 , 3315.38461538 , 3969.23076923 , 7311.28205128 , 7320.0 , 6863.07692308 , 2047.0 , 2031.0 , 198.64 , 0.0 , 0.0 , 0.0 , 0.0 , 

29.0 , 5023.58974359 , 7313.33333333 , 7164.61538462 , 3821.02564103 , 3821.53846154 , 3553.84615385 , 3536.41025641 , 3829.23076923 , 3395.38461538 , 3323.07692308 , 3969.74358974 , 7230.76923077 , 7263.58974359 , 6792.30769231 , 2045.0 , 2032.0 , 198.647 , 0.0 , 0.0 , 0.0 , 0.0 , 

30.0 , 5012.30769231 , 7251.79487179 , 7146.66666667 , 3824.1025641 , 3829.74358974 , 3558.46153846 , 3542.05128205 , 3827.69230769 , 3399.48717949 , 3324.61538462 , 3970.25641026 , 7139.48717949 , 7215.8974359 , 6645.12820513 , 2045.0 , 2033.0 , 198.655 , 0.0 , 0.0 , 0.0 , 0.0 , 

31.0 , 4998.97435897 , 7174.35897436 , 7124.1025641 , 3827.17948718 , 3832.82051282 , 3554.87179487 , 3540.51282051 , 3824.61538462 , 3401.53846154 , 3327.17948718 , 3967.17948718 , 7054.35897436 , 7149.23076923 , 6551.28205128 , 2045.0 , 2034.0 , 198.664 , 0.0 , 0.0 , 0.0 , 0.0 , 

32.0 , 4983.58974359 , 7069.74358974 , 7100.51282051 , 3830.76923077 , 3832.30769231 , 3557.94871795 , 3542.05128205 , 3824.61538462 , 3407.69230769 , 3333.33333333 , 3969.23076923 , 6840.0 , 7019.48717949 , 6423.58974359 , 2045.0 , 2034.0 , 198.672 , 0.0 , 0.0 , 0.0 , 0.0 , 

33.0 , 4960.0 , 6973.33333333 , 7075.8974359 , 3834.87179487 , 3833.84615385 , 3567.17948718 , 3549.74358974 , 3814.35897436 , 3411.79487179 , 3340.0 , 3965.64102564 , 6701.53846154 , 6923.07692308 , 6336.41025641 , 2044.0 , 2035.0 , 198.68 , 0.0 , 0.0 , 0.0 , 0.0 , 

34.0 , 4942.56410256 , 6822.56410256 , 7039.48717949 , 3841.53846154 , 3833.84615385 , 3569.74358974 , 3549.23076923 , 3811.79487179 , 3415.38461538 , 3345.64102564 , 3965.12820513 , 6554.87179487 , 6783.58974359 , 6185.64102564 , 2044.0 , 2036.0 , 198.688 , 0.0 , 0.0 , 0.0 , 0.0 , 

35.0 , 4931.28205128 , 6741.02564103 , 7018.46153846 , 3844.1025641 , 3834.35897436 , 3568.71794872 , 3546.66666667 , 3812.82051282 , 3415.8974359 , 3346.15384615 , 3966.15384615 , 6484.1025641 , 6702.56410256 , 6125.12820513 , 2044.0 , 2037.0 , 198.696 , 0.0 , 0.0 , 0.0 , 0.0 , 

36.0 , 4921.02564103 , 6649.23076923 , 6994.87179487 , 3844.1025641 , 3841.02564103 , 3573.33333333 , 3555.38461538 , 3810.76923077 , 3419.48717949 , 3347.69230769 , 3968.20512821 , 6357.94871795 , 6605.12820513 , 6046.66666667 , 2045.0 , 2037.0 , 198.704 , 0.0 , 0.0 , 0.0 , 0.0 , 

37.0 , 4915.8974359 , 6650.76923077 , 6994.87179487 , 3846.15384615 , 3849.23076923 , 3574.35897436 , 3558.97435897 , 3811.28205128 , 3424.61538462 , 3353.84615385 , 3968.71794872 , 6388.71794872 , 6614.87179487 , 6083.07692308 , 2045.0 , 2040.0 , 198.71 , 0.0 , 0.0 , 0.0 , 0.0 , 

38.0 , 4905.12820513 , 6550.76923077 , 6963.07692308 , 3851.28205128 , 3846.66666667 , 3572.30769231 , 3554.87179487 , 3813.33333333 , 3427.17948718 , 3360.51282051 , 3970.25641026 , 6302.56410256 , 6507.69230769 , 6010.25641026 , 2044.0 , 2041.0 , 198.718 , 0.0 , 0.0 , 0.0 , 0.0 , 

39.0 , 4896.92307692 , 6541.53846154 , 6951.79487179 , 3854.87179487 , 3847.17948718 , 3579.48717949 , 3562.56410256 , 3813.33333333 , 3428.20512821 , 3367.17948718 , 3971.28205128 , 6271.79487179 , 6483.07692308 , 5957.94871795 , 2045.0 , 2040.0 , 198.729 , 0.0 , 0.0 , 0.0 , 0.0 , 

40.0 , 4881.02564103 , 6493.84615385 , 6940.0 , 3854.87179487 , 3857.43589744 , 3586.15384615 , 3571.28205128 , 3810.76923077 , 3434.87179487 , 3372.30769231 , 3971.28205128 , 6224.61538462 , 6445.64102564 , 5900.0 , 2044.0 , 2042.0 , 198.736 , 0.0 , 0.0 , 0.0 , 0.0 , 

41.0 , 4874.35897436 , 6472.30769231 , 6942.56410256 , 3857.43589744 , 3861.53846154 , 3585.64102564 , 3567.69230769 , 3817.43589744 , 3442.56410256 , 3377.43589744 , 3976.92307692 , 6204.61538462 , 6431.28205128 , 5866.15384615 , 2045.0 , 2042.0 , 198.745 , 0.0 , 0.0 , 0.0 , 0.0 , 

42.0 , 4855.38461538 , 6404.61538462 , 6908.20512821 , 3857.43589744 , 3851.79487179 , 3583.58974359 , 3564.1025641 , 3810.25641026 , 3440.51282051 , 3375.8974359 , 3968.20512821 , 6127.69230769 , 6363.58974359 , 5810.25641026 , 2045.0 , 2038.0 , 198.751 , 0.0 , 0.0 , 0.0 , 0.0 , 

43.0 , 4848.20512821 , 6406.15384615 , 6912.82051282 , 3865.12820513 , 3856.41025641 , 3595.8974359 , 3578.97435897 , 3813.33333333 , 3449.74358974 , 3384.61538462 , 3969.74358974 , 6063.07692308 , 6354.35897436 , 5792.82051282 , 2044.0 , 2037.0 , 198.759 , 0.0 , 0.0 , 0.0 , 0.0 , 

44.0 , 4826.15384615 , 6326.15384615 , 6873.33333333 , 3869.23076923 , 3864.61538462 , 3598.46153846 , 3584.1025641 , 3817.43589744 , 3459.48717949 , 3395.8974359 , 3980.0 , 5993.33333333 , 6271.79487179 , 5729.74358974 , 2044.0 , 2037.0 , 198.767 , 0.0 , 0.0 , 0.0 , 0.0 , 

45.0 , 4790.25641026 , 6172.30769231 , 6813.84615385 , 3854.35897436 , 3844.61538462 , 3574.35897436 , 3557.94871795 , 3800.0 , 3444.61538462 , 3384.1025641 , 3969.74358974 , 5897.94871795 , 6137.43589744 , 5618.46153846 , 2044.0 , 2036.0 , 198.774 , 0.0 , 0.0 , 0.0 , 0.0 , 

46.0 , 4708.71794872 , 6088.71794872 , 6708.71794872 , 3815.38461538 , 3801.02564103 , 3532.82051282 , 3511.28205128 , 3701.02564103 , 3357.94871795 , 3294.35897436 , 3873.84615385 , 5790.25641026 , 6049.74358974 , 5532.82051282 , 2046.0 , 2037.0 , 198.782 , 0.0 , 0.0 , 0.0 , 0.0 , 

47.0 , 4681.02564103 , 6045.64102564 , 6700.51282051 , 3807.69230769 , 3795.38461538 , 3529.23076923 , 3507.17948718 , 3695.38461538 , 3363.07692308 , 3297.94871795 , 3870.76923077 , 5673.84615385 , 5948.71794872 , 5471.79487179 , 2045.0 , 2036.0 , 198.789 , 0.0 , 0.0 , 0.0 , 0.0 , 

48.0 , 4693.84615385 , 5951.79487179 , 6680.0 , 3841.53846154 , 3830.25641026 , 3566.15384615 , 3545.64102564 , 3772.30769231 , 3459.48717949 , 3402.56410256 , 3948.71794872 , 5609.23076923 , 5862.05128205 , 5428.71794872 , 2046.0 , 2036.0 , 198.798 , 0.0 , 0.0 , 0.0 , 0.0 , 

49.0 , 4523.58974359 , 5932.30769231 , 6431.28205128 , 3728.20512821 , 3715.38461538 , 3458.46153846 , 3436.92307692 , 3483.58974359 , 3158.46153846 , 3084.1025641 , 3647.69230769 , 5544.61538462 , 5859.48717949 , 5312.82051282 , 2045.0 , 2035.0 , 198.806 , 0.0 , 0.0 , 0.0 , 0.0 , 

50.0 , 4242.05128205 , 6041.02564103 , 6282.05128205 , 3479.48717949 , 3462.56410256 , 3210.25641026 , 3187.17948718 , 3049.23076923 , 2683.58974359 , 2578.97435897 , 3200.51282051 , 5563.58974359 , 5942.05128205 , 5226.66666667 , 2046.0 , 2035.0 , 198.815 , 0.0 , 0.0 , 0.0 , 0.0 , 

51.0 , 4168.71794872 , 6016.92307692 , 6387.17948718 , 3360.51282051 , 3341.02564103 , 3084.61538462 , 3057.94871795 , 3073.33333333 , 2692.30769231 , 2584.61538462 , 3220.51282051 , 5573.84615385 , 5929.23076923 , 5209.74358974 , 2045.0 , 2034.0 , 198.823 , 0.0 , 0.0 , 0.0 , 0.0 , 

52.0 , 4226.15384615 , 5954.87179487 , 6472.82051282 , 3395.8974359 , 3377.43589744 , 3118.97435897 , 3088.71794872 , 3267.17948718 , 2904.61538462 , 2806.66666667 , 3413.33333333 , 5585.64102564 , 5908.20512821 , 5271.28205128 , 2046.0 , 2034.0 , 198.831 , 0.0 , 0.0 , 0.0 , 0.0 , 

53.0 , 4203.07692308 , 5935.38461538 , 6386.15384615 , 3397.43589744 , 3377.94871795 , 3124.61538462 , 3095.38461538 , 3203.07692308 , 2841.53846154 , 2741.02564103 , 3350.76923077 , 5582.05128205 , 5909.74358974 , 5278.46153846 , 2046.0 , 2034.0 , 198.839 , 0.0 , 0.0 , 0.0 , 0.0 , 

54.0 , 4178.97435897 , 5938.46153846 , 6409.23076923 , 3369.23076923 , 3349.74358974 , 3095.38461538 , 3069.74358974 , 3144.1025641 , 2773.84615385 , 2677.43589744 , 3294.87179487 , 5606.66666667 , 5921.53846154 , 5265.64102564 , 2045.0 , 2033.0 , 198.846 , 0.0 , 0.0 , 0.0 , 0.0 , 

55.0 , 4193.84615385 , 5904.61538462 , 6410.25641026 , 3385.64102564 , 3363.07692308 , 3109.23076923 , 3083.58974359 , 3212.30769231 , 2850.25641026 , 2764.61538462 , 3363.58974359 , 5579.48717949 , 5864.1025641 , 5246.15384615 , 2046.0 , 2035.0 , 198.853 , 0.0 , 0.0 , 0.0 , 0.0 , 

56.0 , 4177.43589744 , 5879.48717949 , 6355.8974359 , 3391.79487179 , 3363.07692308 , 3113.33333333 , 3087.69230769 , 3197.43589744 , 2842.56410256 , 2754.35897436 , 3350.25641026 , 5507.69230769 , 5794.87179487 , 5218.97435897 , 2044.0 , 2034.0 , 198.862 , 0.0 , 0.0 , 0.0 , 0.0 , 

57.0 , 4170.76923077 , 5883.58974359 , 6356.41025641 , 3387.69230769 , 3360.51282051 , 3110.76923077 , 3082.56410256 , 3185.12820513 , 2832.82051282 , 2738.97435897 , 3341.02564103 , 5504.61538462 , 5800.51282051 , 5187.69230769 , 2044.0 , 2032.0 , 198.871 , 0.0 , 0.0 , 0.0 , 0.0 , 

58.0 , 4183.07692308 , 5898.97435897 , 6376.92307692 , 3388.20512821 , 3366.66666667 , 3114.87179487 , 3085.64102564 , 3204.1025641 , 2846.15384615 , 2756.92307692 , 3354.35897436 , 5547.69230769 , 5833.33333333 , 5181.02564103 , 2042.0 , 2030.0 , 198.877 , 0.0 , 0.0 , 0.0 , 0.0 , 

59.0 , 4170.76923077 , 5880.0 , 6369.74358974 , 3385.64102564 , 3363.07692308 , 3112.30769231 , 3088.71794872 , 3196.92307692 , 2839.48717949 , 2753.84615385 , 3346.66666667 , 5534.87179487 , 5818.97435897 , 5152.82051282 , 2043.0 , 2029.0 , 198.885 , 0.0 , 0.0 , 0.0 , 0.0 , 

60.0 , 4173.33333333 , 5867.17948718 , 6369.74358974 , 3388.71794872 , 3366.15384615 , 3113.33333333 , 3091.79487179 , 3202.56410256 , 2847.69230769 , 2759.48717949 , 3352.82051282 , 5522.56410256 , 5828.20512821 , 5154.35897436 , 2041.0 , 2028.0 , 198.893 , 0.0 , 0.0 , 0.0 , 0.0 , 

61.0 , 4174.87179487 , 5868.20512821 , 6380.0 , 3392.30769231 , 3370.76923077 , 3116.92307692 , 3090.76923077 , 3204.61538462 , 2849.23076923 , 2758.97435897 , 3355.38461538 , 5519.48717949 , 5836.41025641 , 5152.82051282 , 2038.0 , 2029.0 , 198.901 , 0.0 , 0.0 , 0.0 , 0.0 , 

62.0 , 4189.23076923 , 5894.87179487 , 6401.02564103 , 3394.35897436 , 3370.76923077 , 3122.05128205 , 3091.28205128 , 3213.33333333 , 2850.25641026 , 2766.15384615 , 3366.66666667 , 5568.71794872 , 5851.28205128 , 5174.87179487 , 2038.0 , 2026.0 , 198.908 , 0.0 , 0.0 , 0.0 , 0.0 , 

63.0 , 4190.25641026 , 5902.05128205 , 6417.94871795 , 3394.87179487 , 3372.82051282 , 3125.12820513 , 3093.84615385 , 3210.25641026 , 2855.38461538 , 2770.76923077 , 3367.17948718 , 5589.23076923 , 5859.48717949 , 5167.69230769 , 2036.0 , 2026.0 , 198.917 , 0.0 , 0.0 , 0.0 , 0.0 , 

64.0 , 4203.07692308 , 5897.94871795 , 6430.76923077 , 3401.53846154 , 3377.94871795 , 3127.69230769 , 3097.94871795 , 3220.0 , 2866.15384615 , 2773.33333333 , 3373.33333333 , 5580.51282051 , 5871.28205128 , 5209.74358974 , 2037.0 , 2026.0 , 198.925 , 0.0 , 0.0 , 0.0 , 0.0 , 

65.0 , 4215.8974359 , 5932.30769231 , 6464.61538462 , 3404.61538462 , 3379.48717949 , 3131.28205128 , 3100.51282051 , 3233.33333333 , 2869.74358974 , 2778.46153846 , 3386.66666667 , 5596.92307692 , 5910.25641026 , 5272.82051282 , 2036.0 , 2023.0 , 198.932 , 0.0 , 0.0 , 0.0 , 0.0 , 

66.0 , 4248.20512821 , 6035.8974359 , 6533.84615385 , 3406.15384615 , 3383.58974359 , 3135.8974359 , 3103.58974359 , 3250.76923077 , 2875.38461538 , 2787.17948718 , 3405.64102564 , 5722.05128205 , 6004.1025641 , 5368.71794872 , 2036.0 , 2024.0 , 198.941 , 0.0 , 0.0 , 0.0 , 0.0 , 

67.0 , 4283.07692308 , 6121.02564103 , 6580.0 , 3411.28205128 , 3391.28205128 , 3140.51282051 , 3109.74358974 , 3264.1025641 , 2884.1025641 , 2795.8974359 , 3413.84615385 , 5820.0 , 6085.64102564 , 5428.71794872 , 2036.0 , 2024.0 , 198.948 , 0.0 , 0.0 , 0.0 , 0.0 , 

68.0 , 4322.05128205 , 6213.33333333 , 6645.64102564 , 3418.46153846 , 3397.94871795 , 3147.17948718 , 3117.94871795 , 3282.56410256 , 2890.76923077 , 2803.07692308 , 3426.66666667 , 5936.92307692 , 6206.15384615 , 5554.35897436 , 2037.0 , 2025.0 , 198.957 , 0.0 , 0.0 , 0.0 , 0.0 , 

69.0 , 4349.23076923 , 6257.94871795 , 6677.94871795 , 3422.56410256 , 3402.56410256 , 3152.82051282 , 3121.53846154 , 3294.35897436 , 2893.84615385 , 2809.74358974 , 3437.94871795 , 5993.33333333 , 6269.23076923 , 5609.23076923 , 2038.0 , 2025.0 , 198.965 , 0.0 , 0.0 , 0.0 , 0.0 , 

70.0 , 4377.94871795 , 6354.35897436 , 6737.43589744 , 3428.20512821 , 3408.71794872 , 3156.41025641 , 3125.12820513 , 3305.12820513 , 2902.05128205 , 2818.46153846 , 3452.30769231 , 6107.17948718 , 6358.97435897 , 5710.25641026 , 2041.0 , 2028.0 , 198.972 , 0.0 , 0.0 , 0.0 , 0.0 , 

71.0 , 4409.74358974 , 6408.71794872 , 6751.28205128 , 3434.35897436 , 3415.8974359 , 3160.0 , 3134.87179487 , 3319.48717949 , 2906.66666667 , 2825.64102564 , 3462.56410256 , 6164.61538462 , 6400.0 , 5773.84615385 , 2040.0 , 2028.0 , 198.979 , 0.0 , 0.0 , 0.0 , 0.0 , 

72.0 , 4435.38461538 , 6516.41025641 , 6812.82051282 , 3438.97435897 , 3423.07692308 , 3165.64102564 , 3142.05128205 , 3334.35897436 , 2913.33333333 , 2835.38461538 , 3476.92307692 , 6290.25641026 , 6531.28205128 , 5887.69230769 , 2043.0 , 2030.0 , 198.987 , 0.0 , 0.0 , 0.0 , 0.0 , 

73.0 , 4458.46153846 , 6524.1025641 , 6827.17948718 , 3441.02564103 , 3426.15384615 , 3168.71794872 , 3143.58974359 , 3342.56410256 , 2918.46153846 , 2842.56410256 , 3485.64102564 , 6323.07692308 , 6553.84615385 , 5933.33333333 , 2043.0 , 2031.0 , 198.996 , 0.0 , 0.0 , 0.0 , 0.0 , 

74.0 , 4481.02564103 , 6649.74358974 , 6873.84615385 , 3446.66666667 , 3430.76923077 , 3173.33333333 , 3151.79487179 , 3353.84615385 , 2924.61538462 , 2847.17948718 , 3494.87179487 , 6452.82051282 , 6698.46153846 , 6031.28205128 , 2043.0 , 2032.0 , 199.003 , 0.0 , 0.0 , 0.0 , 0.0 , 

75.0 , 4511.79487179 , 6738.46153846 , 6907.69230769 , 3454.35897436 , 3437.94871795 , 3180.51282051 , 3161.53846154 , 3367.69230769 , 2934.35897436 , 2853.33333333 , 3505.64102564 , 6564.61538462 , 6818.97435897 , 6130.76923077 , 2044.0 , 2033.0 , 199.011 , 0.0 , 0.0 , 0.0 , 0.0 , 

76.0 , 4522.56410256 , 6766.66666667 , 6920.51282051 , 3458.46153846 , 3440.51282051 , 3186.66666667 , 3164.61538462 , 3370.76923077 , 2940.51282051 , 2861.02564103 , 3509.74358974 , 6592.82051282 , 6847.17948718 , 6143.07692308 , 2045.0 , 2032.0 , 199.019 , 0.0 , 0.0 , 0.0 , 0.0 , 

77.0 , 4527.17948718 , 6744.61538462 , 6912.82051282 , 3463.58974359 , 3445.12820513 , 3191.28205128 , 3167.69230769 , 3375.8974359 , 2942.56410256 , 2867.69230769 , 3511.79487179 , 6577.94871795 , 6804.61538462 , 6139.48717949 , 2044.0 , 2033.0 , 199.027 , 0.0 , 0.0 , 0.0 , 0.0 , 

78.0 , 4529.74358974 , 6748.20512821 , 6909.23076923 , 3469.74358974 , 3455.38461538 , 3194.87179487 , 3174.35897436 , 3382.56410256 , 2952.82051282 , 2874.35897436 , 3518.46153846 , 6554.35897436 , 6808.20512821 , 6115.38461538 , 2044.0 , 2033.0 , 199.034 , 0.0 , 0.0 , 0.0 , 0.0 , 

79.0 , 4540.0 , 6819.48717949 , 6946.66666667 , 3474.87179487 , 3459.48717949 , 3201.02564103 , 3180.51282051 , 3385.64102564 , 2961.53846154 , 2884.1025641 , 3528.20512821 , 6652.30769231 , 6909.74358974 , 6189.74358974 , 2043.0 , 2033.0 , 199.042 , 0.0 , 0.0 , 0.0 , 0.0 , 

80.0 , 4523.07692308 , 6721.02564103 , 6909.23076923 , 3480.0 , 3458.46153846 , 3208.20512821 , 3185.12820513 , 3380.0 , 2961.53846154 , 2892.30769231 , 3528.20512821 , 6553.84615385 , 6787.69230769 , 6115.8974359 , 2042.0 , 2033.0 , 199.051 , 0.0 , 0.0 , 0.0 , 0.0 , 

81.0 , 4504.61538462 , 6622.05128205 , 6871.79487179 , 3485.64102564 , 3466.66666667 , 3211.79487179 , 3189.74358974 , 3383.07692308 , 2969.23076923 , 2898.46153846 , 3529.23076923 , 6387.69230769 , 6639.48717949 , 6015.38461538 , 2041.0 , 2034.0 , 199.058 , 0.0 , 0.0 , 0.0 , 0.0 , 

82.0 , 4481.02564103 , 6516.92307692 , 6828.20512821 , 3489.23076923 , 3474.35897436 , 3214.35897436 , 3196.92307692 , 3378.46153846 , 2979.48717949 , 2903.58974359 , 3524.1025641 , 6257.43589744 , 6518.97435897 , 5895.8974359 , 2042.0 , 2034.0 , 199.066 , 0.0 , 0.0 , 0.0 , 0.0 , 

83.0 , 4471.79487179 , 6488.20512821 , 6824.61538462 , 3493.33333333 , 3477.43589744 , 3224.61538462 , 3206.66666667 , 3376.41025641 , 2982.05128205 , 2911.79487179 , 3527.17948718 , 6274.35897436 , 6492.30769231 , 5853.84615385 , 2041.0 , 2034.0 , 199.074 , 0.0 , 0.0 , 0.0 , 0.0 , 

84.0 , 4455.8974359 , 6395.8974359 , 6789.74358974 , 3496.92307692 , 3481.53846154 , 3231.28205128 , 3207.17948718 , 3374.87179487 , 2983.58974359 , 2920.51282051 , 3530.25641026 , 6200.0 , 6400.0 , 5803.07692308 , 2040.0 , 2034.0 , 199.082 , 0.0 , 0.0 , 0.0 , 0.0 , 

85.0 , 4447.69230769 , 6331.28205128 , 6756.41025641 , 3498.97435897 , 3483.58974359 , 3227.69230769 , 3206.15384615 , 3377.94871795 , 2990.25641026 , 2924.1025641 , 3533.84615385 , 6071.79487179 , 6330.25641026 , 5728.71794872 , 2039.0 , 2034.0 , 199.09 , 0.0 , 0.0 , 0.0 , 0.0 , 

86.0 , 4428.71794872 , 6290.76923077 , 6728.20512821 , 3501.02564103 , 3484.1025641 , 3228.71794872 , 3211.79487179 , 3372.82051282 , 2993.84615385 , 2922.05128205 , 3527.69230769 , 6035.38461538 , 6295.38461538 , 5691.79487179 , 2039.0 , 2033.0 , 199.098 , 0.0 , 0.0 , 0.0 , 0.0 , 

87.0 , 4410.25641026 , 6213.84615385 , 6702.56410256 , 3503.07692308 , 3485.12820513 , 3235.38461538 , 3213.33333333 , 3371.79487179 , 2996.92307692 , 2925.64102564 , 3526.15384615 , 5962.05128205 , 6213.84615385 , 5620.0 , 2039.0 , 2034.0 , 199.105 , 0.0 , 0.0 , 0.0 , 0.0 , 

88.0 , 4396.41025641 , 6192.82051282 , 6688.20512821 , 3505.64102564 , 3485.64102564 , 3233.84615385 , 3211.79487179 , 3369.74358974 , 2998.46153846 , 2933.33333333 , 3527.17948718 , 5937.43589744 , 6203.07692308 , 5584.1025641 , 2039.0 , 2034.0 , 199.114 , 0.0 , 0.0 , 0.0 , 0.0 , 

89.0 , 4382.05128205 , 6109.23076923 , 6633.84615385 , 3507.69230769 , 3488.71794872 , 3234.87179487 , 3212.30769231 , 3367.17948718 , 3001.53846154 , 2935.8974359 , 3527.69230769 , 5844.61538462 , 6078.97435897 , 5509.74358974 , 2039.0 , 2033.0 , 199.122 , 0.0 , 0.0 , 0.0 , 0.0 , 

90.0 , 4361.53846154 , 6063.07692308 , 6599.48717949 , 3506.15384615 , 3492.30769231 , 3242.05128205 , 3213.84615385 , 3362.56410256 , 3004.61538462 , 2936.92307692 , 3520.0 , 5791.79487179 , 6007.69230769 , 5476.92307692 , 2039.0 , 2034.0 , 199.129 , 0.0 , 0.0 , 0.0 , 0.0 , 

91.0 , 4342.05128205 , 5988.20512821 , 6563.07692308 , 3505.12820513 , 3490.25641026 , 3242.56410256 , 3217.94871795 , 3358.46153846 , 3007.69230769 , 2941.53846154 , 3517.43589744 , 5708.20512821 , 5955.8974359 , 5412.30769231 , 2040.0 , 2034.0 , 199.137 , 0.0 , 0.0 , 0.0 , 0.0 , 

92.0 , 4334.35897436 , 5975.38461538 , 6556.41025641 , 3509.74358974 , 3491.28205128 , 3243.58974359 , 3224.1025641 , 3357.94871795 , 3011.79487179 , 2948.71794872 , 3522.56410256 , 5688.20512821 , 5956.41025641 , 5385.12820513 , 2041.0 , 2034.0 , 199.146 , 0.0 , 0.0 , 0.0 , 0.0 , 

93.0 , 4309.23076923 , 5918.97435897 , 6500.0 , 3504.1025641 , 3486.15384615 , 3239.48717949 , 3213.33333333 , 3349.23076923 , 3004.1025641 , 2946.66666667 , 3512.30769231 , 5638.46153846 , 5891.79487179 , 5326.66666667 , 2042.0 , 2034.0 , 199.154 , 0.0 , 0.0 , 0.0 , 0.0 , 

94.0 , 4282.05128205 , 5889.74358974 , 6469.74358974 , 3487.17948718 , 3471.79487179 , 3222.56410256 , 3196.41025641 , 3334.35897436 , 2989.74358974 , 2933.84615385 , 3493.84615385 , 5612.82051282 , 5863.07692308 , 5291.79487179 , 2042.0 , 2036.0 , 199.162 , 0.0 , 0.0 , 0.0 , 0.0 , 

95.0 , 4263.07692308 , 5872.82051282 , 6457.94871795 , 3482.05128205 , 3463.07692308 , 3214.87179487 , 3194.35897436 , 3322.05128205 , 2987.69230769 , 2926.15384615 , 3488.20512821 , 5593.33333333 , 5834.35897436 , 5285.64102564 , 2044.0 , 2037.0 , 199.169 , 0.0 , 0.0 , 0.0 , 0.0 , 

96.0 , 4264.61538462 , 5881.53846154 , 6469.23076923 , 3486.66666667 , 3466.15384615 , 3220.0 , 3195.38461538 , 3320.0 , 2988.20512821 , 2927.69230769 , 3489.74358974 , 5588.71794872 , 5830.76923077 , 5288.71794872 , 2043.0 , 2037.0 , 199.176 , 0.0 , 0.0 , 0.0 , 0.0 , 

97.0 , 4252.30769231 , 5852.30769231 , 6441.53846154 , 3481.53846154 , 3463.58974359 , 3217.94871795 , 3193.33333333 , 3316.41025641 , 2984.1025641 , 2925.12820513 , 3482.56410256 , 5552.82051282 , 5791.28205128 , 5236.92307692 , 2045.0 , 2039.0 , 199.184 , 0.0 , 0.0 , 0.0 , 0.0 , 

98.0 , 4239.48717949 , 5852.82051282 , 6441.02564103 , 3477.43589744 , 3458.46153846 , 3212.82051282 , 3194.35897436 , 3317.43589744 , 2984.61538462 , 2919.48717949 , 3482.56410256 , 5549.74358974 , 5769.74358974 , 5231.79487179 , 2045.0 , 2038.0 , 199.192 , 0.0 , 0.0 , 0.0 , 0.0 , 

99.0 , 4224.1025641 , 5805.12820513 , 6424.1025641 , 3481.53846154 , 3459.48717949 , 3214.35897436 , 3195.8974359 , 3311.28205128 , 2987.69230769 , 2922.56410256 , 3483.58974359 , 5524.1025641 , 5745.12820513 , 5204.1025641 , 2044.0 , 2039.0 , 199.201 , 0.0 , 0.0 , 0.0 , 0.0 , 

100.0 , 4220.0 , 5747.17948718 , 6399.48717949 , 3480.0 , 3458.97435897 , 3215.8974359 , 3194.87179487 , 3307.17948718 , 2988.20512821 , 2928.20512821 , 3481.53846154 , 5481.02564103 , 5720.0 , 5162.05128205 , 2045.0 , 2039.0 , 199.208 , 0.0 , 0.0 , 0.0 , 0.0 , 

101.0 , 4197.43589744 , 5698.97435897 , 6359.48717949 , 3476.41025641 , 3455.8974359 , 3215.38461538 , 3194.35897436 , 3302.05128205 , 2990.76923077 , 2933.33333333 , 3475.38461538 , 5431.28205128 , 5678.97435897 , 5118.97435897 , 2045.0 , 2041.0 , 199.217 , 0.0 , 0.0 , 0.0 , 0.0 , 

102.0 , 4184.61538462 , 5671.79487179 , 6339.48717949 , 3483.58974359 , 3456.92307692 , 3217.94871795 , 3195.8974359 , 3305.12820513 , 2994.87179487 , 2937.94871795 , 3481.02564103 , 5411.79487179 , 5661.53846154 , 5061.02564103 , 2045.0 , 2040.0 , 199.225 , 0.0 , 0.0 , 0.0 , 0.0 , 

103.0 , 4171.28205128 , 5635.38461538 , 6302.05128205 , 3484.1025641 , 3455.38461538 , 3215.38461538 , 3192.82051282 , 3299.48717949 , 2993.33333333 , 2936.92307692 , 3475.8974359 , 5384.1025641 , 5618.97435897 , 5019.48717949 , 2045.0 , 2041.0 , 199.232 , 0.0 , 0.0 , 0.0 , 0.0 , 

104.0 , 4168.20512821 , 5602.05128205 , 6283.07692308 , 3485.64102564 , 3456.92307692 , 3220.0 , 3200.0 , 3307.69230769 , 3017.94871795 , 2961.02564103 , 3478.97435897 , 5341.02564103 , 5554.87179487 , 5030.76923077 , 2045.0 , 2042.0 , 199.239 , 0.0 , 0.0 , 0.0 , 0.0 , 

105.0 , 4146.15384615 , 5568.71794872 , 6234.87179487 , 3486.66666667 , 3454.35897436 , 3220.51282051 , 3200.51282051 , 3298.97435897 , 2996.41025641 , 2943.58974359 , 3474.35897436 , 5303.07692308 , 5524.1025641 , 5006.15384615 , 2045.0 , 2042.0 , 199.247 , 0.0 , 0.0 , 0.0 , 0.0 , 

106.0 , 4110.76923077 , 5553.84615385 , 6174.87179487 , 3467.17948718 , 3438.46153846 , 3201.53846154 , 3178.97435897 , 3269.23076923 , 2961.02564103 , 2897.43589744 , 3445.64102564 , 5262.05128205 , 5483.07692308 , 4942.05128205 , 2044.0 , 2042.0 , 199.254 , 0.0 , 0.0 , 0.0 , 0.0 , 

107.0 , 4064.1025641 , 5550.76923077 , 6143.07692308 , 3433.33333333 , 3415.8974359 , 3176.41025641 , 3150.76923077 , 3227.69230769 , 2985.64102564 , 2917.43589744 , 3394.87179487 , 5241.53846154 , 5428.20512821 , 4915.38461538 , 2045.0 , 2042.0 , 199.268 , 0.0 , 0.0 , 0.0 , 0.0 , 

108.0 , 3968.71794872 , 5507.17948718 , 5989.23076923 , 3372.30769231 , 3361.02564103 , 3129.23076923 , 3097.43589744 , 3133.33333333 , 2800.51282051 , 2726.66666667 , 3309.23076923 , 5150.76923077 , 5397.94871795 , 4823.58974359 , 2043.0 , 2041.0 , 199.27 , 0.0 , 0.0 , 0.0 , 0.0 , 

109.0 , 3860.0 , 5483.07692308 , 5876.92307692 , 3297.43589744 , 3293.84615385 , 3063.58974359 , 3024.61538462 , 3029.74358974 , 2495.8974359 , 2400.51282051 , 3215.8974359 , 5058.97435897 , 5411.79487179 , 4744.61538462 , 2045.0 , 2043.0 , 199.279 , 0.0 , 0.0 , 0.0 , 0.0 , 

110.0 , 3755.8974359 , 5482.56410256 , 5790.25641026 , 3207.69230769 , 3212.82051282 , 2971.79487179 , 2929.23076923 , 2906.15384615 , 2416.41025641 , 2347.69230769 , 3095.8974359 , 4947.17948718 , 5393.84615385 , 4729.74358974 , 2044.0 , 2042.0 , 199.287 , 0.0 , 0.0 , 0.0 , 0.0 , 

111.0 , 3654.35897436 , 5503.07692308 , 5718.97435897 , 3117.94871795 , 3122.05128205 , 2878.97435897 , 2830.25641026 , 2752.30769231 , 2410.76923077 , 2391.28205128 , 2959.48717949 , 4904.61538462 , 5406.15384615 , 4694.35897436 , 2044.0 , 2039.0 , 199.295 , 0.0 , 0.0 , 0.0 , 0.0 , 

112.0 , 3561.53846154 , 5455.38461538 , 5545.12820513 , 3047.69230769 , 3059.48717949 , 2815.38461538 , 2761.02564103 , 2654.35897436 , 2277.94871795 , 2226.66666667 , 2878.97435897 , 4868.71794872 , 5378.97435897 , 4579.48717949 , 2045.0 , 2039.0 , 199.303 , 0.0 , 0.0 , 0.0 , 0.0 , 

113.0 , 3513.33333333 , 5410.25641026 , 5470.76923077 , 3006.15384615 , 3037.94871795 , 2782.05128205 , 2728.71794872 , 2646.66666667 , 2219.48717949 , 2115.8974359 , 2861.53846154 , 4822.05128205 , 5348.71794872 , 4550.76923077 , 2045.0 , 2041.0 , 199.311 , 0.0 , 0.0 , 0.0 , 0.0 , 

114.0 , 3469.74358974 , 5349.74358974 , 5390.25641026 , 2981.53846154 , 3016.92307692 , 2758.46153846 , 2706.15384615 , 2629.23076923 , 2257.94871795 , 2168.71794872 , 2839.48717949 , 4742.56410256 , 5288.20512821 , 4496.92307692 , 2045.0 , 2041.0 , 199.317 , 0.0 , 0.0 , 0.0 , 0.0 , 

115.0 , 3430.25641026 , 5336.92307692 , 5344.61538462 , 2966.15384615 , 2992.82051282 , 2738.97435897 , 2686.66666667 , 2591.28205128 , 2225.12820513 , 2146.15384615 , 2813.33333333 , 4712.82051282 , 5263.07692308 , 4426.66666667 , 2046.0 , 2042.0 , 199.326 , 0.0 , 0.0 , 0.0 , 0.0 , 

116.0 , 3401.02564103 , 5275.38461538 , 5290.25641026 , 2965.64102564 , 2992.30769231 , 2738.46153846 , 2688.71794872 , 2590.25641026 , 2216.92307692 , 2117.94871795 , 2814.35897436 , 4669.23076923 , 5213.33333333 , 4420.51282051 , 2045.0 , 2044.0 , 199.334 , 0.0 , 0.0 , 0.0 , 0.0 , 

117.0 , 3373.84615385 , 5190.76923077 , 5209.23076923 , 2957.43589744 , 2985.12820513 , 2734.87179487 , 2684.61538462 , 2587.69230769 , 2229.23076923 , 2132.30769231 , 2804.61538462 , 4614.87179487 , 5150.76923077 , 4445.12820513 , 2044.0 , 2045.0 , 199.346 , 0.0 , 0.0 , 0.0 , 0.0 , 

118.0 , 3343.07692308 , 5144.61538462 , 5155.8974359 , 2950.25641026 , 2973.33333333 , 2729.23076923 , 2677.43589744 , 2574.35897436 , 2217.94871795 , 2126.66666667 , 2790.76923077 , 4592.82051282 , 5092.30769231 , 4377.43589744 , 2045.0 , 2044.0 , 199.35 , 0.0 , 0.0 , 0.0 , 0.0 , 

119.0 , 3335.38461538 , 5149.23076923 , 5137.94871795 , 2952.82051282 , 2971.28205128 , 2727.69230769 , 2673.84615385 , 2578.97435897 , 2225.64102564 , 2130.76923077 , 2795.8974359 , 4607.69230769 , 5083.58974359 , 4369.74358974 , 2045.0 , 2046.0 , 199.358 , 0.0 , 0.0 , 0.0 , 0.0 , 

120.0 , 3316.41025641 , 5111.28205128 , 5102.05128205 , 2949.74358974 , 2967.69230769 , 2723.07692308 , 2667.69230769 , 2567.69230769 , 2221.02564103 , 2129.74358974 , 2787.69230769 , 4591.79487179 , 5064.1025641 , 4348.20512821 , 2044.0 , 2047.0 , 199.365 , 0.0 , 0.0 , 0.0 , 0.0 , 

121.0 , 3317.94871795 , 5113.33333333 , 5116.92307692 , 2949.74358974 , 2967.17948718 , 2723.58974359 , 2672.82051282 , 2575.38461538 , 2227.17948718 , 2137.43589744 , 2793.33333333 , 4588.20512821 , 5061.53846154 , 4356.92307692 , 2045.0 , 2046.0 , 199.374 , 0.0 , 0.0 , 0.0 , 0.0 , 

122.0 , 3313.84615385 , 5163.07692308 , 5136.41025641 , 2946.15384615 , 2965.64102564 , 2720.0 , 2674.35897436 , 2577.94871795 , 2225.64102564 , 2138.97435897 , 2791.79487179 , 4561.02564103 , 5089.74358974 , 4375.8974359 , 2046.0 , 2046.0 , 199.382 , 0.0 , 0.0 , 0.0 , 0.0 , 

123.0 , 3301.53846154 , 5112.82051282 , 5085.12820513 , 2946.66666667 , 2966.66666667 , 2721.53846154 , 2674.35897436 , 2574.87179487 , 2228.20512821 , 2141.02564103 , 2788.71794872 , 4540.0 , 5060.51282051 , 4363.07692308 , 2045.0 , 2049.0 , 199.389 , 0.0 , 0.0 , 0.0 , 0.0 , 

124.0 , 3268.20512821 , 4997.43589744 , 5010.25641026 , 2942.56410256 , 2964.61538462 , 2718.97435897 , 2672.30769231 , 2560.0 , 2232.30769231 , 2142.05128205 , 2777.94871795 , 4504.61538462 , 4973.33333333 , 4304.61538462 , 2046.0 , 2049.0 , 199.397 , 0.0 , 0.0 , 0.0 , 0.0 , 

125.0 , 3246.66666667 , 5005.12820513 , 5006.66666667 , 2942.05128205 , 2964.1025641 , 2719.48717949 , 2675.8974359 , 2560.0 , 2234.87179487 , 2147.17948718 , 2782.05128205 , 4472.82051282 , 4971.28205128 , 4320.51282051 , 2045.0 , 2051.0 , 199.405 , 0.0 , 0.0 , 0.0 , 0.0 , 

126.0 , 3253.33333333 , 5075.8974359 , 5024.1025641 , 2943.58974359 , 2967.69230769 , 2724.1025641 , 2676.92307692 , 2570.76923077 , 2236.41025641 , 2154.35897436 , 2790.25641026 , 4462.05128205 , 5030.25641026 , 4374.87179487 , 2045.0 , 2051.0 , 199.414 , 0.0 , 0.0 , 0.0 , 0.0 , 

127.0 , 3259.48717949 , 5014.87179487 , 4986.66666667 , 2947.17948718 , 2968.20512821 , 2726.66666667 , 2675.8974359 , 2574.87179487 , 2243.07692308 , 2159.48717949 , 2789.74358974 , 4453.84615385 , 4985.12820513 , 4384.61538462 , 2044.0 , 2052.0 , 199.421 , 0.0 , 0.0 , 0.0 , 0.0 , 

128.0 , 3216.41025641 , 4902.56410256 , 4925.12820513 , 2949.74358974 , 2967.69230769 , 2725.12820513 , 2676.92307692 , 2556.41025641 , 2244.1025641 , 2161.53846154 , 2773.33333333 , 4409.74358974 , 4884.61538462 , 4324.1025641 , 2042.0 , 2055.0 , 199.429 , 0.0 , 0.0 , 0.0 , 0.0 , 

0.0 , 3142.56410256 , 4805.64102564 , 4806.15384615 , 2950.25641026 , 2968.71794872 , 2727.17948718 , 2679.48717949 , 2534.35897436 , 2244.1025641 , 2165.12820513 , 2761.02564103 , 4354.87179487 , 4773.33333333 , 4149.23076923 , 2041.0 , 2055.0 , 199.436 , 0.0 , 0.0 , 0.0 , 0.0 , 

1.0 , 3109.74358974 , 4765.64102564 , 4751.79487179 , 2948.71794872 , 2968.20512821 , 2729.74358974 , 2679.48717949 , 2532.82051282 , 2252.82051282 , 2168.20512821 , 2761.02564103 , 4363.07692308 , 4699.48717949 , 4087.17948718 , 2039.0 , 2058.0 , 199.444 , 0.0 , 0.0 , 0.0 , 0.0 , 

2.0 , 3077.94871795 , 4646.66666667 , 4673.84615385 , 2950.25641026 , 2966.15384615 , 2731.28205128 , 2681.53846154 , 2524.61538462 , 2260.0 , 2173.84615385 , 2755.38461538 , 4264.1025641 , 4610.76923077 , 4126.15384615 , 2039.0 , 2061.0 , 199.452 , 0.0 , 0.0 , 0.0 , 0.0 , 

3.0 , 3024.1025641 , 4524.1025641 , 4605.64102564 , 2953.84615385 , 2967.69230769 , 2731.79487179 , 2684.61538462 , 2505.64102564 , 2256.92307692 , 2181.53846154 , 2743.58974359 , 4163.07692308 , 4558.97435897 , 4076.92307692 , 2037.0 , 2064.0 , 199.459 , 0.0 , 0.0 , 0.0 , 0.0 , 

4.0 , 2962.56410256 , 4457.43589744 , 4497.94871795 , 2954.35897436 , 2970.76923077 , 2734.35897436 , 2686.15384615 , 2492.30769231 , 2258.46153846 , 2187.69230769 , 2733.33333333 , 4136.41025641 , 4461.02564103 , 3885.12820513 , 2037.0 , 2064.0 , 199.468 , 0.0 , 0.0 , 0.0 , 0.0 , 

5.0 , 2912.30769231 , 4414.87179487 , 4414.35897436 , 2952.82051282 , 2970.76923077 , 2740.0 , 2687.17948718 , 2484.1025641 , 2265.12820513 , 2194.35897436 , 2725.12820513 , 4116.41025641 , 4381.02564103 , 3814.35897436 , 2035.0 , 2063.0 , 199.476 , 0.0 , 0.0 , 0.0 , 0.0 , 

6.0 , 2840.0 , 4296.41025641 , 4321.02564103 , 2955.8974359 , 2968.71794872 , 2744.61538462 , 2691.79487179 , 2459.48717949 , 2269.74358974 , 2200.0 , 2711.79487179 , 3971.79487179 , 4332.82051282 , 3850.25641026 , 2033.0 , 2060.0 , 199.484 , 0.0 , 0.0 , 0.0 , 0.0 , 

7.0 , 2772.82051282 , 4207.17948718 , 4224.1025641 , 2960.0 , 2969.74358974 , 2745.64102564 , 2694.35897436 , 2444.1025641 , 2275.8974359 , 2203.58974359 , 2702.56410256 , 3844.61538462 , 4262.05128205 , 3759.48717949 , 2032.0 , 2059.0 , 199.492 , 0.0 , 0.0 , 0.0 , 0.0 , 

8.0 , 2688.20512821 , 4201.53846154 , 4120.0 , 2957.94871795 , 2972.30769231 , 2748.20512821 , 2695.8974359 , 2423.07692308 , 2278.97435897 , 2211.28205128 , 2687.69230769 , 3763.07692308 , 4157.94871795 , 3536.41025641 , 2033.0 , 2056.0 , 199.5 , 0.0 , 0.0 , 0.0 , 0.0 , 

9.0 , 2601.53846154 , 4118.46153846 , 3983.07692308 , 2956.41025641 , 2974.87179487 , 2753.84615385 , 2705.12820513 , 2396.41025641 , 2283.07692308 , 2222.05128205 , 2673.33333333 , 3677.43589744 , 4060.51282051 , 3347.17948718 , 2034.0 , 2052.0 , 199.507 , 0.0 , 0.0 , 0.0 , 0.0 , 

10.0 , 2506.66666667 , 3969.23076923 , 3848.71794872 , 2958.46153846 , 2975.38461538 , 2757.43589744 , 2712.82051282 , 2367.17948718 , 2289.74358974 , 2225.64102564 , 2654.87179487 , 3504.61538462 , 3948.20512821 , 3195.8974359 , 2034.0 , 2049.0 , 199.515 , 0.0 , 0.0 , 0.0 , 0.0 , 

11.0 , 2405.64102564 , 3887.17948718 , 3729.23076923 , 2962.56410256 , 2977.94871795 , 2760.0 , 2712.82051282 , 2345.12820513 , 2297.43589744 , 2231.28205128 , 2638.97435897 , 3266.66666667 , 3865.12820513 , 2935.8974359 , 2035.0 , 2046.0 , 199.523 , 0.0 , 0.0 , 0.0 , 0.0 , 

12.0 , 2276.92307692 , 3648.71794872 , 3533.33333333 , 2964.1025641 , 2976.92307692 , 2764.1025641 , 2712.82051282 , 2306.66666667 , 2296.41025641 , 2242.05128205 , 2611.28205128 , 2894.35897436 , 3651.79487179 , 2227.69230769 , 2036.0 , 2047.0 , 199.531 , 0.0 , 0.0 , 0.0 , 0.0 , 

13.0 , 2155.38461538 , 3454.87179487 , 3377.94871795 , 2965.12820513 , 2974.87179487 , 2769.23076923 , 2718.97435897 , 2270.76923077 , 2298.97435897 , 2249.23076923 , 2592.30769231 , 2611.79487179 , 3462.56410256 , 1951.28205128 , 2037.0 , 2046.0 , 199.539 , 0.0 , 0.0 , 0.0 , 0.0 , 

14.0 , 2054.35897436 , 3257.94871795 , 3200.51282051 , 2968.20512821 , 2979.48717949 , 2775.38461538 , 2724.61538462 , 2250.25641026 , 2304.61538462 , 2256.41025641 , 2579.48717949 , 2102.56410256 , 3229.23076923 , 1464.1025641 , 2038.0 , 2045.0 , 199.547 , 0.0 , 0.0 , 0.0 , 0.0 , 

15.0 , 1980.51282051 , 3133.33333333 , 3110.25641026 , 2969.23076923 , 2984.61538462 , 2782.56410256 , 2732.82051282 , 2244.1025641 , 2312.82051282 , 2270.25641026 , 2574.87179487 , 1900.51282051 , 3090.76923077 , 902.051282051 , 2039.0 , 2042.0 , 199.554 , 0.0 , 0.0 , 0.0 , 0.0 , 

16.0 , 1934.87179487 , 3008.71794872 , 3031.28205128 , 2969.23076923 , 2982.05128205 , 2787.17948718 , 2739.48717949 , 2241.53846154 , 2322.05128205 , 2278.46153846 , 2571.79487179 , 1556.92307692 , 2988.71794872 , 557.435897436 , 2041.0 , 2042.0 , 199.563 , 0.0 , 0.0 , 0.0 , 0.0 , 

17.0 , 1920.51282051 , 2974.87179487 , 3015.38461538 , 2976.41025641 , 2985.64102564 , 2790.76923077 , 2742.56410256 , 2252.30769231 , 2334.87179487 , 2284.1025641 , 2583.07692308 , 1290.25641026 , 2959.48717949 , 832.307692308 , 2044.0 , 2041.0 , 199.57 , 0.0 , 0.0 , 0.0 , 0.0 , 

18.0 , 1940.0 , 3034.87179487 , 3060.51282051 , 2983.07692308 , 2993.33333333 , 2796.41025641 , 2750.76923077 , 2275.38461538 , 2347.69230769 , 2293.84615385 , 2601.02564103 , 1456.92307692 , 3022.05128205 , 769.230769231 , 2045.0 , 2040.0 , 199.578 , 0.0 , 0.0 , 0.0 , 0.0 , 

19.0 , 1969.23076923 , 3129.23076923 , 3135.38461538 , 2986.66666667 , 2993.84615385 , 2804.1025641 , 2762.05128205 , 2295.8974359 , 2355.8974359 , 2303.58974359 , 2616.92307692 , 1819.48717949 , 3116.92307692 , 713.846153846 , 2047.0 , 2038.0 , 199.586 , 0.0 , 0.0 , 0.0 , 0.0 , 

20.0 , 2002.05128205 , 3182.56410256 , 3189.74358974 , 2993.84615385 , 2995.8974359 , 2810.76923077 , 2768.71794872 , 2312.30769231 , 2360.51282051 , 2311.79487179 , 2629.74358974 , 1876.41025641 , 3192.30769231 , 809.230769231 , 2048.0 , 2037.0 , 199.594 , 0.0 , 0.0 , 0.0 , 0.0 , 

21.0 , 2015.38461538 , 3118.97435897 , 3160.51282051 , 3000.0 , 3002.56410256 , 2817.43589744 , 2773.84615385 , 2325.12820513 , 2368.20512821 , 2322.05128205 , 2635.8974359 , 1831.79487179 , 3150.25641026 , 790.256410256 , 2048.0 , 2036.0 , 199.602 , 0.0 , 0.0 , 0.0 , 0.0 , 

22.0 , 2027.17948718 , 3171.28205128 , 3205.12820513 , 3001.53846154 , 3009.23076923 , 2825.64102564 , 2779.48717949 , 2337.43589744 , 2377.94871795 , 2331.79487179 , 2641.53846154 , 2052.82051282 , 3215.38461538 , 883.076923077 , 2049.0 , 2037.0 , 199.61 , 0.0 , 0.0 , 0.0 , 0.0 , 

23.0 , 2036.41025641 , 3163.58974359 , 3198.97435897 , 3005.12820513 , 3012.30769231 , 2831.28205128 , 2784.1025641 , 2346.66666667 , 2385.12820513 , 2341.02564103 , 2647.69230769 , 2028.20512821 , 3212.82051282 , 887.179487179 , 2050.0 , 2037.0 , 199.618 , 0.0 , 0.0 , 0.0 , 0.0 , 

24.0 , 2063.58974359 , 3204.61538462 , 3237.43589744 , 3012.30769231 , 3014.35897436 , 2833.84615385 , 2791.28205128 , 2363.07692308 , 2392.82051282 , 2349.74358974 , 2662.56410256 , 2134.35897436 , 3246.66666667 , 1092.82051282 , 2050.0 , 2036.0 , 199.626 , 0.0 , 0.0 , 0.0 , 0.0 , 

25.0 , 2082.56410256 , 3234.87179487 , 3247.17948718 , 3015.8974359 , 3019.48717949 , 2841.53846154 , 2799.48717949 , 2373.84615385 , 2403.58974359 , 2358.97435897 , 2673.84615385 , 2203.58974359 , 3291.28205128 , 1235.8974359 , 2051.0 , 2036.0 , 199.633 , 0.0 , 0.0 , 0.0 , 0.0 , 

26.0 , 2120.51282051 , 3288.20512821 , 3302.56410256 , 3022.56410256 , 3026.66666667 , 2852.82051282 , 2807.69230769 , 2394.35897436 , 2416.92307692 , 2371.28205128 , 2688.20512821 , 2289.23076923 , 3345.64102564 , 1459.48717949 , 2050.0 , 2035.0 , 199.641 , 0.0 , 0.0 , 0.0 , 0.0 , 

27.0 , 2161.02564103 , 3374.87179487 , 3355.38461538 , 3030.25641026 , 3029.74358974 , 2857.94871795 , 2814.35897436 , 2417.94871795 , 2424.61538462 , 2381.02564103 , 2700.0 , 2467.17948718 , 3405.12820513 , 1781.02564103 , 2050.0 , 2037.0 , 199.649 , 0.0 , 0.0 , 0.0 , 0.0 , 

28.0 , 2202.56410256 , 3456.92307692 , 3424.1025641 , 3035.8974359 , 3032.82051282 , 2859.48717949 , 2818.97435897 , 2441.02564103 , 2431.79487179 , 2390.25641026 , 2714.87179487 , 2574.35897436 , 3497.94871795 , 2011.79487179 , 2050.0 , 2037.0 , 199.657 , 0.0 , 0.0 , 0.0 , 0.0 , 

29.0 , 2231.28205128 , 3497.43589744 , 3476.41025641 , 3041.53846154 , 3040.51282051 , 2865.64102564 , 2826.15384615 , 2451.28205128 , 2437.43589744 , 2401.02564103 , 2726.66666667 , 2667.17948718 , 3600.0 , 2159.48717949 , 2050.0 , 2036.0 , 199.665 , 0.0 , 0.0 , 0.0 , 0.0 , 

30.0 , 2267.17948718 , 3557.43589744 , 3521.53846154 , 3046.66666667 , 3045.64102564 , 2873.33333333 , 2832.30769231 , 2470.76923077 , 2446.15384615 , 2409.23076923 , 2742.56410256 , 2715.8974359 , 3638.97435897 , 2229.74358974 , 2047.0 , 2037.0 , 199.672 , 0.0 , 0.0 , 0.0 , 0.0 , 

31.0 , 2295.8974359 , 3620.51282051 , 3562.56410256 , 3050.76923077 , 3047.69230769 , 2877.94871795 , 2837.94871795 , 2487.17948718 , 2455.8974359 , 2413.84615385 , 2751.28205128 , 2860.0 , 3661.02564103 , 2482.56410256 , 2047.0 , 2038.0 , 199.681 , 0.0 , 0.0 , 0.0 , 0.0 , 

32.0 , 2325.64102564 , 3647.17948718 , 3600.0 , 3057.94871795 , 3053.33333333 , 2885.12820513 , 2846.15384615 , 2499.48717949 , 2466.15384615 , 2424.61538462 , 2761.02564103 , 2912.30769231 , 3703.58974359 , 2489.74358974 , 2045.0 , 2037.0 , 199.688 , 0.0 , 0.0 , 0.0 , 0.0 , 

33.0 , 2355.8974359 , 3709.74358974 , 3641.53846154 , 3062.56410256 , 3060.0 , 2893.33333333 , 2849.23076923 , 2511.79487179 , 2473.33333333 , 2436.92307692 , 2769.23076923 , 3005.64102564 , 3756.41025641 , 2632.82051282 , 2044.0 , 2036.0 , 199.697 , 0.0 , 0.0 , 0.0 , 0.0 , 

34.0 , 2382.05128205 , 3735.38461538 , 3658.46153846 , 3062.56410256 , 3063.58974359 , 2900.0 , 2853.33333333 , 2527.69230769 , 2483.07692308 , 2443.58974359 , 2779.48717949 , 3031.79487179 , 3773.33333333 , 2663.07692308 , 2043.0 , 2034.0 , 199.705 , 0.0 , 0.0 , 0.0 , 0.0 , 

35.0 , 2400.0 , 3751.28205128 , 3690.25641026 , 3066.66666667 , 3069.23076923 , 2904.1025641 , 2863.58974359 , 2537.43589744 , 2490.76923077 , 2449.74358974 , 2787.69230769 , 3102.56410256 , 3787.17948718 , 2765.12820513 , 2043.0 , 2032.0 , 199.713 , 0.0 , 0.0 , 0.0 , 0.0 , 

36.0 , 2415.8974359 , 3777.94871795 , 3704.1025641 , 3075.8974359 , 3076.41025641 , 2911.28205128 , 2872.30769231 , 2545.64102564 , 2498.46153846 , 2460.51282051 , 2794.35897436 , 3141.02564103 , 3809.74358974 , 2801.02564103 , 2040.0 , 2031.0 , 199.721 , 0.0 , 0.0 , 0.0 , 0.0 , 

37.0 , 2434.87179487 , 3762.05128205 , 3715.8974359 , 3082.05128205 , 3077.43589744 , 2921.53846154 , 2875.38461538 , 2556.92307692 , 2505.12820513 , 2471.28205128 , 2800.0 , 3148.71794872 , 3833.33333333 , 2835.8974359 , 2040.0 , 2031.0 , 199.727 , 0.0 , 0.0 , 0.0 , 0.0 , 

38.0 , 2440.51282051 , 3732.82051282 , 3708.71794872 , 3085.64102564 , 3078.46153846 , 2929.74358974 , 2883.07692308 , 2564.1025641 , 2511.28205128 , 2481.02564103 , 2805.64102564 , 3148.20512821 , 3828.20512821 , 2872.30769231 , 2039.0 , 2032.0 , 199.735 , 0.0 , 0.0 , 0.0 , 0.0 , 

39.0 , 2454.35897436 , 3773.33333333 , 3723.58974359 , 3088.20512821 , 3085.64102564 , 2931.28205128 , 2891.28205128 , 2573.84615385 , 2521.02564103 , 2489.23076923 , 2811.79487179 , 3187.17948718 , 3841.02564103 , 2914.35897436 , 2039.0 , 2032.0 , 199.744 , 0.0 , 0.0 , 0.0 , 0.0 , 

40.0 , 2465.12820513 , 3780.0 , 3711.28205128 , 3093.33333333 , 3092.30769231 , 2932.82051282 , 2895.38461538 , 2581.53846154 , 2532.82051282 , 2495.38461538 , 2816.92307692 , 3191.28205128 , 3818.97435897 , 2928.71794872 , 2038.0 , 2030.0 , 199.752 , 0.0 , 0.0 , 0.0 , 0.0 , 

41.0 , 2485.64102564 , 3796.92307692 , 3734.35897436 , 3101.53846154 , 3096.41025641 , 2937.94871795 , 2903.07692308 , 2593.84615385 , 2538.97435897 , 2501.02564103 , 2826.15384615 , 3230.25641026 , 3817.43589744 , 2953.84615385 , 2038.0 , 2030.0 , 199.759 , 0.0 , 0.0 , 0.0 , 0.0 , 

42.0 , 2506.66666667 , 3814.35897436 , 3750.25641026 , 3105.12820513 , 3101.53846154 , 2945.12820513 , 2911.28205128 , 2606.66666667 , 2544.1025641 , 2510.25641026 , 2835.8974359 , 3303.58974359 , 3806.15384615 , 3013.84615385 , 2037.0 , 2028.0 , 199.767 , 0.0 , 0.0 , 0.0 , 0.0 , 

43.0 , 2550.76923077 , 3880.51282051 , 3806.15384615 , 3109.74358974 , 3109.23076923 , 2954.87179487 , 2915.38461538 , 2629.74358974 , 2555.8974359 , 2521.02564103 , 2852.82051282 , 3353.84615385 , 3875.38461538 , 3123.58974359 , 2039.0 , 2030.0 , 199.774 , 0.0 , 0.0 , 0.0 , 0.0 , 

44.0 , 2583.58974359 , 3932.30769231 , 3833.33333333 , 3117.94871795 , 3111.79487179 , 2963.58974359 , 2922.05128205 , 2646.66666667 , 2565.12820513 , 2530.25641026 , 2865.12820513 , 3402.56410256 , 3906.15384615 , 3226.15384615 , 2038.0 , 2030.0 , 199.783 , 0.0 , 0.0 , 0.0 , 0.0 , 

45.0 , 2618.46153846 , 3960.51282051 , 3889.74358974 , 3122.56410256 , 3113.33333333 , 2968.20512821 , 2930.25641026 , 2661.53846154 , 2572.30769231 , 2537.43589744 , 2875.8974359 , 3533.84615385 , 3957.94871795 , 3289.23076923 , 2037.0 , 2029.0 , 199.791 , 0.0 , 0.0 , 0.0 , 0.0 , 

46.0 , 2649.74358974 , 3913.33333333 , 3915.8974359 , 3124.1025641 , 3120.51282051 , 2971.79487179 , 2936.92307692 , 2672.82051282 , 2580.0 , 2545.12820513 , 2883.07692308 , 3606.15384615 , 3990.76923077 , 3358.46153846 , 2038.0 , 2030.0 , 199.8 , 0.0 , 0.0 , 0.0 , 0.0 , 

47.0 , 2691.28205128 , 3983.58974359 , 3967.17948718 , 3131.28205128 , 3127.69230769 , 2976.92307692 , 2943.58974359 , 2692.30769231 , 2589.23076923 , 2556.41025641 , 2896.41025641 , 3636.41025641 , 4026.66666667 , 3460.0 , 2040.0 , 2033.0 , 199.807 , 0.0 , 0.0 , 0.0 , 0.0 , 

48.0 , 2727.69230769 , 4059.48717949 , 4008.20512821 , 3138.97435897 , 3132.30769231 , 2983.58974359 , 2947.17948718 , 2707.17948718 , 2598.46153846 , 2565.12820513 , 2907.17948718 , 3733.33333333 , 4030.76923077 , 3559.48717949 , 2040.0 , 2032.0 , 199.815 , 0.0 , 0.0 , 0.0 , 0.0 , 

49.0 , 2767.69230769 , 4086.66666667 , 4067.69230769 , 3142.56410256 , 3135.8974359 , 2989.23076923 , 2952.30769231 , 2723.07692308 , 2608.71794872 , 2569.23076923 , 2920.0 , 3784.1025641 , 4082.05128205 , 3594.87179487 , 2041.0 , 2033.0 , 199.824 , 0.0 , 0.0 , 0.0 , 0.0 , 

50.0 , 2798.97435897 , 4133.33333333 , 4110.25641026 , 3144.61538462 , 3143.58974359 , 2993.33333333 , 2959.48717949 , 2735.38461538 , 2611.79487179 , 2580.0 , 2927.17948718 , 3776.92307692 , 4121.02564103 , 3688.20512821 , 2041.0 , 2033.0 , 199.831 , 0.0 , 0.0 , 0.0 , 0.0 , 

51.0 , 2828.71794872 , 4173.84615385 , 4150.76923077 , 3150.76923077 , 3148.71794872 , 2997.43589744 , 2965.12820513 , 2752.82051282 , 2617.43589744 , 2592.82051282 , 2940.0 , 3822.56410256 , 4151.79487179 , 3749.23076923 , 2042.0 , 2033.0 , 199.839 , 0.0 , 0.0 , 0.0 , 0.0 , 

52.0 , 2858.46153846 , 4148.20512821 , 4194.87179487 , 3156.41025641 , 3152.30769231 , 3003.58974359 , 2969.23076923 , 2767.69230769 , 2627.69230769 , 2599.48717949 , 2952.82051282 , 3912.30769231 , 4202.56410256 , 3751.79487179 , 2042.0 , 2033.0 , 199.847 , 0.0 , 0.0 , 0.0 , 0.0 , 

53.0 , 2888.20512821 , 4165.64102564 , 4231.79487179 , 3159.48717949 , 3158.97435897 , 3010.25641026 , 2977.94871795 , 2778.46153846 , 2638.46153846 , 2607.17948718 , 2961.02564103 , 3944.1025641 , 4227.69230769 , 3787.17948718 , 2042.0 , 2034.0 , 199.854 , 0.0 , 0.0 , 0.0 , 0.0 , 

54.0 , 2916.92307692 , 4209.74358974 , 4250.25641026 , 3163.58974359 , 3163.58974359 , 3016.92307692 , 2986.15384615 , 2788.20512821 , 2643.07692308 , 2615.8974359 , 2965.12820513 , 3982.56410256 , 4227.17948718 , 3858.97435897 , 2044.0 , 2034.0 , 199.863 , 0.0 , 0.0 , 0.0 , 0.0 , 

55.0 , 2935.8974359 , 4205.64102564 , 4259.48717949 , 3171.79487179 , 3167.69230769 , 3023.58974359 , 2991.28205128 , 2799.48717949 , 2650.25641026 , 2623.58974359 , 2971.79487179 , 4013.33333333 , 4217.94871795 , 3872.82051282 , 2044.0 , 2033.0 , 199.87 , 0.0 , 0.0 , 0.0 , 0.0 , 

56.0 , 2956.92307692 , 4221.53846154 , 4288.20512821 , 3178.46153846 , 3174.35897436 , 3028.71794872 , 2994.87179487 , 2814.35897436 , 2658.46153846 , 2631.79487179 , 2980.0 , 3999.48717949 , 4238.46153846 , 3919.48717949 , 2043.0 , 2034.0 , 199.878 , 0.0 , 0.0 , 0.0 , 0.0 , 

57.0 , 2972.82051282 , 4217.94871795 , 4282.56410256 , 3182.56410256 , 3178.97435897 , 3034.87179487 , 3000.51282051 , 2822.56410256 , 2663.58974359 , 2641.53846154 , 2987.69230769 , 3957.94871795 , 4230.76923077 , 3944.61538462 , 2043.0 , 2034.0 , 199.886 , 0.0 , 0.0 , 0.0 , 0.0 , 

58.0 , 2991.79487179 , 4250.76923077 , 4296.92307692 , 3187.17948718 , 3182.05128205 , 3038.97435897 , 3006.66666667 , 2828.71794872 , 2668.71794872 , 2646.15384615 , 2994.35897436 , 3986.15384615 , 4269.74358974 , 3915.38461538 , 2044.0 , 2034.0 , 199.895 , 0.0 , 0.0 , 0.0 , 0.0 , 

59.0 , 2998.46153846 , 4246.66666667 , 4287.17948718 , 3191.79487179 , 3187.69230769 , 3042.05128205 , 3011.79487179 , 2834.87179487 , 2677.94871795 , 2652.82051282 , 2998.46153846 , 3986.15384615 , 4284.61538462 , 3877.94871795 , 2044.0 , 2035.0 , 199.902 , 0.0 , 0.0 , 0.0 , 0.0 , 

60.0 , 3017.43589744 , 4259.48717949 , 4310.76923077 , 3197.94871795 , 3192.82051282 , 3049.74358974 , 3019.48717949 , 2847.17948718 , 2686.15384615 , 2662.56410256 , 3007.69230769 , 4007.69230769 , 4312.82051282 , 3906.66666667 , 2043.0 , 2035.0 , 199.909 , 0.0 , 0.0 , 0.0 , 0.0 , 

61.0 , 3027.17948718 , 4237.43589744 , 4305.12820513 , 3203.58974359 , 3193.84615385 , 3057.94871795 , 3026.15384615 , 2851.28205128 , 2691.28205128 , 2670.25641026 , 3014.35897436 , 3999.48717949 , 4296.92307692 , 3880.51282051 , 2043.0 , 2037.0 , 199.917 , 0.0 , 0.0 , 0.0 , 0.0 , 

62.0 , 3042.05128205 , 4256.41025641 , 4341.53846154 , 3207.69230769 , 3198.97435897 , 3061.53846154 , 3027.69230769 , 2863.58974359 , 2699.48717949 , 2676.41025641 , 3022.56410256 , 4051.79487179 , 4334.35897436 , 3930.25641026 , 2042.0 , 2036.0 , 199.924 , 0.0 , 0.0 , 0.0 , 0.0 , 

63.0 , 3054.87179487 , 4223.07692308 , 4345.12820513 , 3209.23076923 , 3206.66666667 , 3065.12820513 , 3032.82051282 , 2874.35897436 , 2706.15384615 , 2682.56410256 , 3028.20512821 , 4068.71794872 , 4353.33333333 , 3943.07692308 , 2043.0 , 2037.0 , 199.933 , 0.0 , 0.0 , 0.0 , 0.0 , 

64.0 , 3077.94871795 , 4250.25641026 , 4375.8974359 , 3213.84615385 , 3211.28205128 , 3072.82051282 , 3042.05128205 , 2884.61538462 , 2713.84615385 , 2690.25641026 , 3038.46153846 , 4093.84615385 , 4362.56410256 , 3992.30769231 , 2044.0 , 2037.0 , 199.94 , 0.0 , 0.0 , 0.0 , 0.0 , 

65.0 , 3088.71794872 , 4261.02564103 , 4365.12820513 , 3222.56410256 , 3214.35897436 , 3078.97435897 , 3044.1025641 , 2889.74358974 , 2722.05128205 , 2698.46153846 , 3044.1025641 , 4064.1025641 , 4315.8974359 , 4029.23076923 , 2045.0 , 2037.0 , 199.95 , 0.0 , 0.0 , 0.0 , 0.0 , 

66.0 , 3106.66666667 , 4294.35897436 , 4392.82051282 , 3227.69230769 , 3218.46153846 , 3084.1025641 , 3044.61538462 , 2903.07692308 , 2729.74358974 , 2706.66666667 , 3053.84615385 , 4067.69230769 , 4346.66666667 , 4023.58974359 , 2044.0 , 2037.0 , 199.957 , 0.0 , 0.0 , 0.0 , 0.0 , 

67.0 , 3114.87179487 , 4333.33333333 , 4396.92307692 , 3227.69230769 , 3226.66666667 , 3089.74358974 , 3052.82051282 , 2907.17948718 , 2734.87179487 , 2714.87179487 , 3055.38461538 , 4054.35897436 , 4367.69230769 , 3990.76923077 , 2043.0 , 2037.0 , 199.964 , 0.0 , 0.0 , 0.0 , 0.0 , 

68.0 , 3116.92307692 , 4371.79487179 , 4396.41025641 , 3233.33333333 , 3230.25641026 , 3093.84615385 , 3060.51282051 , 2910.25641026 , 2743.07692308 , 2725.12820513 , 3057.43589744 , 4042.56410256 , 4365.12820513 , 4004.61538462 , 2044.0 , 2039.0 , 199.972 , 0.0 , 0.0 , 0.0 , 0.0 , 

69.0 , 3116.41025641 , 4356.41025641 , 4382.05128205 , 3242.05128205 , 3231.79487179 , 3097.43589744 , 3064.61538462 , 2912.82051282 , 2749.23076923 , 2732.30769231 , 3059.48717949 , 4050.25641026 , 4345.12820513 , 4009.23076923 , 2044.0 , 2038.0 , 199.98 , 0.0 , 0.0 , 0.0 , 0.0 , 

70.0 , 3123.07692308 , 4349.74358974 , 4392.82051282 , 3245.12820513 , 3239.48717949 , 3102.56410256 , 3069.74358974 , 2917.94871795 , 2753.33333333 , 2737.43589744 , 3066.15384615 , 4057.94871795 , 4353.84615385 , 3993.84615385 , 2045.0 , 2038.0 , 199.988 , 0.0 , 0.0 , 0.0 , 0.0 , 

71.0 , 3125.12820513 , 4363.58974359 , 4394.87179487 , 3247.17948718 , 3247.17948718 , 3107.69230769 , 3075.38461538 , 2921.53846154 , 2757.94871795 , 2744.1025641 , 3069.74358974 , 4079.48717949 , 4362.56410256 , 4016.41025641 , 2045.0 , 2039.0 , 199.997 , 0.0 , 0.0 , 0.0 , 0.0 , 

72.0 , 3124.61538462 , 4348.20512821 , 4388.71794872 , 3254.35897436 , 3248.20512821 , 3112.30769231 , 3080.0 , 2929.74358974 , 2767.17948718 , 2752.30769231 , 3073.33333333 , 4103.58974359 , 4339.48717949 , 4040.51282051 , 2044.0 , 2038.0 , 200.004 , 0.0 , 0.0 , 0.0 , 0.0 , 

73.0 , 3133.33333333 , 4320.0 , 4397.94871795 , 3259.48717949 , 3250.76923077 , 3117.43589744 , 3085.64102564 , 2936.92307692 , 2774.35897436 , 2758.97435897 , 3077.43589744 , 4122.56410256 , 4342.56410256 , 4051.79487179 , 2043.0 , 2038.0 , 200.012 , 0.0 , 0.0 , 0.0 , 0.0 , 

74.0 , 3137.43589744 , 4303.58974359 , 4393.84615385 , 3261.02564103 , 3258.46153846 , 3124.61538462 , 3091.79487179 , 2939.48717949 , 2781.02564103 , 2765.64102564 , 3084.61538462 , 4117.43589744 , 4350.25641026 , 4048.71794872 , 2045.0 , 2040.0 , 200.02 , 0.0 , 0.0 , 0.0 , 0.0 , 

75.0 , 3149.23076923 , 4308.71794872 , 4408.71794872 , 3266.66666667 , 3263.58974359 , 3130.25641026 , 3094.87179487 , 2947.69230769 , 2785.12820513 , 2773.84615385 , 3092.30769231 , 4169.74358974 , 4392.82051282 , 4080.0 , 2043.0 , 2042.0 , 200.029 , 0.0 , 0.0 , 0.0 , 0.0 , 

76.0 , 3157.94871795 , 4259.48717949 , 4389.74358974 , 3274.35897436 , 3263.58974359 , 3134.87179487 , 3098.97435897 , 2955.8974359 , 2792.82051282 , 2782.05128205 , 3095.8974359 , 4161.02564103 , 4377.94871795 , 4069.23076923 , 2043.0 , 2041.0 , 200.035 , 0.0 , 0.0 , 0.0 , 0.0 , 

77.0 , 3171.79487179 , 4284.61538462 , 4400.0 , 3275.38461538 , 3269.74358974 , 3141.53846154 , 3106.15384615 , 2963.58974359 , 2800.51282051 , 2787.69230769 , 3103.58974359 , 4133.84615385 , 4374.87179487 , 4077.94871795 , 2043.0 , 2039.0 , 200.043 , 0.0 , 0.0 , 0.0 , 0.0 , 

78.0 , 3168.71794872 , 4286.15384615 , 4378.46153846 , 3276.92307692 , 3275.8974359 , 3146.15384615 , 3112.30769231 , 2965.12820513 , 2805.12820513 , 2795.8974359 , 3106.66666667 , 4096.92307692 , 4345.64102564 , 4056.41025641 , 2043.0 , 2037.0 , 200.051 , 0.0 , 0.0 , 0.0 , 0.0 , 

79.0 , 3171.28205128 , 4275.38461538 , 4384.1025641 , 3285.64102564 , 3277.94871795 , 3146.15384615 , 3115.8974359 , 2970.25641026 , 2811.79487179 , 2805.12820513 , 3107.69230769 , 4109.23076923 , 4349.74358974 , 4072.82051282 , 2043.0 , 2038.0 , 200.059 , 0.0 , 0.0 , 0.0 , 0.0 , 

80.0 , 3164.61538462 , 4268.71794872 , 4344.61538462 , 3293.33333333 , 3283.07692308 , 3149.23076923 , 3120.51282051 , 2969.23076923 , 2821.02564103 , 2810.76923077 , 3108.71794872 , 4047.69230769 , 4310.76923077 , 4017.43589744 , 2043.0 , 2038.0 , 200.067 , 0.0 , 0.0 , 0.0 , 0.0 , 

81.0 , 3158.46153846 , 4310.76923077 , 4328.71794872 , 3294.35897436 , 3290.76923077 , 3158.97435897 , 3128.71794872 , 2971.28205128 , 2826.15384615 , 2816.41025641 , 3114.35897436 , 4016.92307692 , 4297.94871795 , 4003.07692308 , 2044.0 , 2038.0 , 200.075 , 0.0 , 0.0 , 0.0 , 0.0 , 

82.0 , 3135.38461538 , 4264.1025641 , 4282.05128205 , 3293.33333333 , 3293.33333333 , 3164.1025641 , 3134.35897436 , 2966.15384615 , 2827.17948718 , 2823.58974359 , 3109.74358974 , 3996.41025641 , 4257.94871795 , 3990.76923077 , 2042.0 , 2037.0 , 200.082 , 0.0 , 0.0 , 0.0 , 0.0 , 

83.0 , 3126.15384615 , 4256.41025641 , 4281.53846154 , 3297.94871795 , 3293.33333333 , 3166.15384615 , 3136.92307692 , 2969.23076923 , 2833.84615385 , 2832.30769231 , 3114.35897436 , 4019.48717949 , 4250.76923077 , 4008.20512821 , 2043.0 , 2035.0 , 200.09 , 0.0 , 0.0 , 0.0 , 0.0 , 

84.0 , 3122.05128205 , 4237.43589744 , 4266.66666667 , 3305.12820513 , 3298.97435897 , 3170.76923077 , 3141.53846154 , 2971.79487179 , 2840.51282051 , 2838.97435897 , 3121.53846154 , 4018.97435897 , 4230.25641026 , 3988.71794872 , 2044.0 , 2034.0 , 200.098 , 0.0 , 0.0 , 0.0 , 0.0 , 

85.0 , 3127.69230769 , 4249.23076923 , 4276.41025641 , 3308.71794872 , 3305.12820513 , 3174.87179487 , 3147.69230769 , 2979.48717949 , 2849.23076923 , 2845.64102564 , 3126.66666667 , 4047.17948718 , 4248.71794872 , 3977.94871795 , 2043.0 , 2033.0 , 200.106 , 0.0 , 0.0 , 0.0 , 0.0 , 

86.0 , 3135.38461538 , 4273.84615385 , 4281.53846154 , 3308.71794872 , 3307.69230769 , 3178.97435897 , 3153.33333333 , 2985.12820513 , 2855.38461538 , 2850.25641026 , 3129.74358974 , 4059.48717949 , 4274.87179487 , 3974.35897436 , 2043.0 , 2031.0 , 200.114 , 0.0 , 0.0 , 0.0 , 0.0 , 

87.0 , 3148.20512821 , 4282.56410256 , 4304.1025641 , 3313.33333333 , 3308.20512821 , 3188.71794872 , 3156.41025641 , 2995.38461538 , 2862.05128205 , 2858.46153846 , 3138.46153846 , 4072.82051282 , 4314.87179487 , 3981.53846154 , 2044.0 , 2034.0 , 200.122 , 0.0 , 0.0 , 0.0 , 0.0 , 

88.0 , 3155.8974359 , 4253.33333333 , 4307.69230769 , 3321.02564103 , 3314.35897436 , 3196.41025641 , 3161.53846154 , 3002.56410256 , 2868.71794872 , 2870.25641026 , 3140.0 , 4085.64102564 , 4318.97435897 , 3993.84615385 , 2043.0 , 2035.0 , 200.13 , 0.0 , 0.0 , 0.0 , 0.0 , 

89.0 , 3166.15384615 , 4267.17948718 , 4328.20512821 , 3327.69230769 , 3323.58974359 , 3195.8974359 , 3171.28205128 , 3010.25641026 , 2876.92307692 , 2875.38461538 , 3147.17948718 , 4096.92307692 , 4323.58974359 , 4022.05128205 , 2044.0 , 2037.0 , 200.138 , 0.0 , 0.0 , 0.0 , 0.0 , 

90.0 , 3181.02564103 , 4271.28205128 , 4355.38461538 , 3329.23076923 , 3325.12820513 , 3197.94871795 , 3174.35897436 , 3018.46153846 , 2881.53846154 , 2878.46153846 , 3156.41025641 , 4127.69230769 , 4359.48717949 , 4051.79487179 , 2044.0 , 2038.0 , 200.145 , 0.0 , 0.0 , 0.0 , 0.0 , 

91.0 , 3198.97435897 , 4256.92307692 , 4375.38461538 , 3329.74358974 , 3324.61538462 , 3204.61538462 , 3173.33333333 , 3030.25641026 , 2888.71794872 , 2886.15384615 , 3164.61538462 , 4140.0 , 4369.23076923 , 4060.0 , 2045.0 , 2037.0 , 200.153 , 0.0 , 0.0 , 0.0 , 0.0 , 

92.0 , 3232.82051282 , 4291.28205128 , 4397.94871795 , 3335.38461538 , 3330.76923077 , 3211.28205128 , 3179.48717949 , 3046.15384615 , 2897.43589744 , 2892.82051282 , 3175.38461538 , 4125.12820513 , 4359.48717949 , 4089.74358974 , 2044.0 , 2038.0 , 200.16 , 0.0 , 0.0 , 0.0 , 0.0 , 

93.0 , 3261.02564103 , 4296.92307692 , 4416.92307692 , 3343.07692308 , 3338.46153846 , 3218.46153846 , 3187.69230769 , 3060.0 , 2904.61538462 , 2896.92307692 , 3188.71794872 , 4098.46153846 , 4352.30769231 , 4101.02564103 , 2043.0 , 2038.0 , 200.169 , 0.0 , 0.0 , 0.0 , 0.0 , 

94.0 , 3287.69230769 , 4353.84615385 , 4474.35897436 , 3345.12820513 , 3341.02564103 , 3222.05128205 , 3190.25641026 , 3074.35897436 , 2908.71794872 , 2903.58974359 , 3199.48717949 , 4164.1025641 , 4420.51282051 , 4120.51282051 , 2043.0 , 2038.0 , 200.177 , 0.0 , 0.0 , 0.0 , 0.0 , 

95.0 , 3308.71794872 , 4385.64102564 , 4480.0 , 3346.15384615 , 3342.05128205 , 3222.05128205 , 3198.46153846 , 3084.1025641 , 2914.35897436 , 2912.82051282 , 3205.12820513 , 4185.64102564 , 4435.38461538 , 4101.53846154 , 2044.0 , 2038.0 , 200.186 , 0.0 , 0.0 , 0.0 , 0.0 , 

96.0 , 3333.84615385 , 4406.66666667 , 4499.48717949 , 3353.33333333 , 3350.76923077 , 3225.64102564 , 3206.66666667 , 3093.33333333 , 2921.02564103 , 2918.46153846 , 3209.74358974 , 4211.79487179 , 4451.28205128 , 4158.97435897 , 2045.0 , 2036.0 , 200.193 , 0.0 , 0.0 , 0.0 , 0.0 , 

97.0 , 3330.76923077 , 4394.35897436 , 4474.35897436 , 3361.53846154 , 3357.94871795 , 3233.33333333 , 3204.61538462 , 3090.25641026 , 2923.58974359 , 2925.64102564 , 3208.71794872 , 4182.05128205 , 4425.12820513 , 4135.38461538 , 2046.0 , 2036.0 , 200.202 , 0.0 , 0.0 , 0.0 , 0.0 , 

98.0 , 3321.53846154 , 4420.51282051 , 4464.1025641 , 3363.58974359 , 3359.48717949 , 3239.48717949 , 3206.66666667 , 3090.25641026 , 2928.20512821 , 2932.82051282 , 3212.30769231 , 4188.71794872 , 4428.71794872 , 4113.84615385 , 2044.0 , 2037.0 , 200.209 , 0.0 , 0.0 , 0.0 , 0.0 , 

99.0 , 3307.69230769 , 4375.8974359 , 4420.51282051 , 3362.56410256 , 3361.53846154 , 3242.05128205 , 3214.87179487 , 3089.23076923 , 2938.46153846 , 2936.92307692 , 3212.82051282 , 4161.53846154 , 4385.64102564 , 4105.12820513 , 2044.0 , 2036.0 , 200.217 , 0.0 , 0.0 , 0.0 , 0.0 , 

100.0 , 3308.20512821 , 4354.35897436 , 4435.8974359 , 3368.71794872 , 3365.64102564 , 3244.1025641 , 3220.51282051 , 3095.38461538 , 2945.12820513 , 2942.05128205 , 3216.41025641 , 4166.15384615 , 4394.35897436 , 4132.30769231 , 2044.0 , 2038.0 , 200.223 , 0.0 , 0.0 , 0.0 , 0.0 , 

101.0 , 3300.0 , 4324.61538462 , 4408.71794872 , 3376.41025641 , 3369.23076923 , 3248.20512821 , 3223.07692308 , 3092.30769231 , 2943.58974359 , 2949.23076923 , 3217.94871795 , 4160.51282051 , 4372.30769231 , 4115.8974359 , 2043.0 , 2037.0 , 200.233 , 0.0 , 0.0 , 0.0 , 0.0 , 

102.0 , 3299.48717949 , 4319.48717949 , 4401.02564103 , 3379.48717949 , 3372.82051282 , 3253.84615385 , 3227.69230769 , 3094.87179487 , 2952.30769231 , 2956.92307692 , 3224.1025641 , 4193.84615385 , 4374.87179487 , 4164.1025641 , 2043.0 , 2036.0 , 200.24 , 0.0 , 0.0 , 0.0 , 0.0 , 

103.0 , 3296.92307692 , 4288.71794872 , 4393.84615385 , 3382.05128205 , 3375.38461538 , 3261.53846154 , 3232.82051282 , 3101.02564103 , 2961.02564103 , 2961.53846154 , 3225.64102564 , 4198.97435897 , 4389.23076923 , 4198.97435897 , 2042.0 , 2038.0 , 200.248 , 0.0 , 0.0 , 0.0 , 0.0 , 

104.0 , 3301.53846154 , 4307.69230769 , 4410.25641026 , 3386.15384615 , 3378.46153846 , 3267.17948718 , 3237.43589744 , 3111.28205128 , 2964.1025641 , 2967.17948718 , 3230.25641026 , 4191.28205128 , 4410.76923077 , 4187.17948718 , 2042.0 , 2038.0 , 200.257 , 0.0 , 0.0 , 0.0 , 0.0 , 

105.0 , 3307.17948718 , 4322.56410256 , 4403.07692308 , 3387.17948718 , 3384.1025641 , 3267.17948718 , 3242.56410256 , 3111.28205128 , 2967.69230769 , 2973.84615385 , 3233.33333333 , 4166.15384615 , 4385.12820513 , 4152.30769231 , 2042.0 , 2037.0 , 200.264 , 0.0 , 0.0 , 0.0 , 0.0 , 

106.0 , 3313.84615385 , 4321.02564103 , 4409.23076923 , 3390.76923077 , 3388.71794872 , 3268.71794872 , 3249.74358974 , 3112.82051282 , 2976.41025641 , 2981.02564103 , 3241.02564103 , 4145.12820513 , 4368.20512821 , 4131.28205128 , 2040.0 , 2037.0 , 200.272 , 0.0 , 0.0 , 0.0 , 0.0 , 

107.0 , 3310.76923077 , 4310.25641026 , 4411.28205128 , 3395.8974359 , 3391.28205128 , 3276.41025641 , 3252.82051282 , 3118.46153846 , 2980.0 , 2987.69230769 , 3242.05128205 , 4133.84615385 , 4370.25641026 , 4104.61538462 , 2041.0 , 2034.0 , 200.279 , 0.0 , 0.0 , 0.0 , 0.0 , 

108.0 , 3307.69230769 , 4325.12820513 , 4408.71794872 , 3398.97435897 , 3394.87179487 , 3281.53846154 , 3253.84615385 , 3127.69230769 , 2984.61538462 , 2995.8974359 , 3243.58974359 , 4136.92307692 , 4372.30769231 , 4089.74358974 , 2040.0 , 2034.0 , 200.286 , 0.0 , 0.0 , 0.0 , 0.0 , 

109.0 , 3313.84615385 , 4345.12820513 , 4409.23076923 , 3401.02564103 , 3399.48717949 , 3278.97435897 , 3260.0 , 3131.28205128 , 2990.25641026 , 3002.05128205 , 3248.20512821 , 4137.94871795 , 4373.84615385 , 4085.64102564 , 2040.0 , 2034.0 , 200.295 , 0.0 , 0.0 , 0.0 , 0.0 , 

110.0 , 3312.82051282 , 4353.33333333 , 4402.56410256 , 3407.69230769 , 3401.53846154 , 3283.07692308 , 3268.71794872 , 3131.28205128 , 2997.43589744 , 3006.66666667 , 3254.35897436 , 4123.58974359 , 4364.1025641 , 4055.38461538 , 2040.0 , 2033.0 , 200.302 , 0.0 , 0.0 , 0.0 , 0.0 , 

111.0 , 3316.41025641 , 4391.79487179 , 4409.74358974 , 3411.79487179 , 3403.07692308 , 3292.82051282 , 3272.30769231 , 3138.46153846 , 3003.58974359 , 3011.28205128 , 3257.43589744 , 4149.74358974 , 4373.84615385 , 4076.92307692 , 2040.0 , 2034.0 , 200.31 , 0.0 , 0.0 , 0.0 , 0.0 , 

112.0 , 3321.02564103 , 4357.43589744 , 4398.46153846 , 3411.79487179 , 3406.15384615 , 3298.97435897 , 3272.30769231 , 3146.66666667 , 3007.69230769 , 3014.35897436 , 3263.07692308 , 4131.28205128 , 4347.17948718 , 4084.61538462 , 2040.0 , 2036.0 , 200.318 , 0.0 , 0.0 , 0.0 , 0.0 , 

113.0 , 3341.02564103 , 4334.35897436 , 4424.61538462 , 3415.38461538 , 3411.28205128 , 3300.51282051 , 3272.82051282 , 3154.87179487 , 3013.33333333 , 3017.94871795 , 3273.84615385 , 4157.43589744 , 4367.69230769 , 4124.1025641 , 2040.0 , 2036.0 , 200.327 , 0.0 , 0.0 , 0.0 , 0.0 , 

114.0 , 3359.48717949 , 4330.76923077 , 4429.23076923 , 3423.07692308 , 3416.41025641 , 3303.58974359 , 3279.48717949 , 3162.05128205 , 3021.53846154 , 3027.69230769 , 3279.48717949 , 4170.25641026 , 4378.97435897 , 4128.71794872 , 2041.0 , 2036.0 , 200.335 , 0.0 , 0.0 , 0.0 , 0.0 , 

115.0 , 3388.20512821 , 4377.43589744 , 4463.58974359 , 3425.64102564 , 3419.48717949 , 3308.20512821 , 3287.69230769 , 3176.41025641 , 3026.66666667 , 3036.41025641 , 3289.74358974 , 4206.15384615 , 4418.97435897 , 4185.12820513 , 2040.0 , 2036.0 , 200.342 , 0.0 , 0.0 , 0.0 , 0.0 , 

116.0 , 3410.76923077 , 4383.07692308 , 4476.41025641 , 3426.15384615 , 3423.07692308 , 3311.79487179 , 3288.71794872 , 3188.71794872 , 3029.23076923 , 3040.0 , 3298.97435897 , 4190.76923077 , 4411.79487179 , 4204.61538462 , 2041.0 , 2034.0 , 200.349 , 0.0 , 0.0 , 0.0 , 0.0 , 

117.0 , 3440.0 , 4433.33333333 , 4535.38461538 , 3432.30769231 , 3430.25641026 , 3317.43589744 , 3290.76923077 , 3205.64102564 , 3036.41025641 , 3046.15384615 , 3309.74358974 , 4224.61538462 , 4462.56410256 , 4213.84615385 , 2043.0 , 2033.0 , 200.357 , 0.0 , 0.0 , 0.0 , 0.0 , 

118.0 , 3455.38461538 , 4439.48717949 , 4540.0 , 3437.94871795 , 3434.35897436 , 3322.05128205 , 3296.92307692 , 3210.76923077 , 3043.58974359 , 3054.87179487 , 3313.33333333 , 4231.79487179 , 4468.20512821 , 4186.66666667 , 2043.0 , 2034.0 , 200.365 , 0.0 , 0.0 , 0.0 , 0.0 , 

119.0 , 3473.33333333 , 4466.66666667 , 4563.07692308 , 3440.51282051 , 3435.38461538 , 3325.12820513 , 3303.07692308 , 3215.8974359 , 3049.23076923 , 3058.97435897 , 3319.48717949 , 4264.61538462 , 4479.48717949 , 4228.20512821 , 2041.0 , 2037.0 , 200.373 , 0.0 , 0.0 , 0.0 , 0.0 , 

120.0 , 3475.38461538 , 4448.71794872 , 4549.74358974 , 3442.05128205 , 3437.94871795 , 3328.20512821 , 3307.17948718 , 3218.46153846 , 3052.30769231 , 3060.51282051 , 3321.02564103 , 4276.41025641 , 4473.33333333 , 4251.28205128 , 2042.0 , 2036.0 , 200.381 , 0.0 , 0.0 , 0.0 , 0.0 , 

121.0 , 3478.46153846 , 4460.0 , 4567.17948718 , 3447.17948718 , 3443.07692308 , 3332.30769231 , 3310.76923077 , 3225.12820513 , 3056.92307692 , 3069.23076923 , 3325.64102564 , 4317.43589744 , 4507.69230769 , 4289.23076923 , 2042.0 , 2036.0 , 200.389 , 0.0 , 0.0 , 0.0 , 0.0 , 

122.0 , 3477.94871795 , 4445.12820513 , 4553.33333333 , 3451.28205128 , 3449.23076923 , 3335.8974359 , 3311.79487179 , 3226.66666667 , 3061.02564103 , 3076.92307692 , 3326.66666667 , 4339.48717949 , 4511.28205128 , 4316.92307692 , 2041.0 , 2035.0 , 200.396 , 0.0 , 0.0 , 0.0 , 0.0 , 

123.0 , 3482.05128205 , 4443.58974359 , 4554.87179487 , 3454.87179487 , 3452.82051282 , 3341.53846154 , 3315.8974359 , 3231.79487179 , 3069.74358974 , 3080.0 , 3330.76923077 , 4342.56410256 , 4511.28205128 , 4325.64102564 , 2042.0 , 2036.0 , 200.405 , 0.0 , 0.0 , 0.0 , 0.0 , 

124.0 , 3481.02564103 , 4432.82051282 , 4547.69230769 , 3457.94871795 , 3454.87179487 , 3344.1025641 , 3322.05128205 , 3230.76923077 , 3074.87179487 , 3083.58974359 , 3331.79487179 , 4330.76923077 , 4503.07692308 , 4306.15384615 , 2040.0 , 2035.0 , 200.413 , 0.0 , 0.0 , 0.0 , 0.0 , 

125.0 , 3484.1025641 , 4429.74358974 , 4560.0 , 3462.05128205 , 3457.43589744 , 3345.64102564 , 3326.15384615 , 3233.84615385 , 3076.92307692 , 3091.28205128 , 3340.51282051 , 4338.46153846 , 4516.41025641 , 4321.53846154 , 2040.0 , 2036.0 , 200.421 , 0.0 , 0.0 , 0.0 , 0.0 , 

126.0 , 3491.28205128 , 4448.71794872 , 4570.25641026 , 3466.15384615 , 3462.05128205 , 3352.30769231 , 3330.76923077 , 3241.53846154 , 3078.97435897 , 3097.94871795 , 3344.61538462 , 4323.58974359 , 4528.71794872 , 4327.17948718 , 2040.0 , 2035.0 , 200.429 , 0.0 , 0.0 , 0.0 , 0.0 , 

127.0 , 3491.28205128 , 4465.12820513 , 4561.02564103 , 3468.71794872 , 3464.1025641 , 3358.97435897 , 3334.87179487 , 3246.15384615 , 3086.15384615 , 3103.07692308 , 3343.58974359 , 4284.61538462 , 4507.69230769 , 4286.15384615 , 2040.0 , 2034.0 , 200.438 , 0.0 , 0.0 , 0.0 , 0.0 , 

128.0 , 3491.28205128 , 4467.69230769 , 4552.82051282 , 3471.28205128 , 3466.15384615 , 3360.51282051 , 3337.43589744 , 3247.17948718 , 3091.28205128 , 3107.17948718 , 3343.58974359 , 4273.33333333 , 4488.20512821 , 4272.30769231 , 2039.0 , 2035.0 , 200.445 , 0.0 , 0.0 , 0.0 , 0.0 , 

0.0 , 3491.28205128 , 4446.66666667 , 4537.94871795 , 3477.43589744 , 3472.30769231 , 3362.56410256 , 3341.53846154 , 3252.30769231 , 3095.38461538 , 3110.76923077 , 3351.28205128 , 4216.92307692 , 4455.8974359 , 4213.84615385 , 2038.0 , 2034.0 , 200.454 , 0.0 , 0.0 , 0.0 , 0.0 , 

1.0 , 3501.53846154 , 4458.97435897 , 4554.35897436 , 3480.51282051 , 3477.94871795 , 3367.17948718 , 3346.15384615 , 3261.53846154 , 3102.56410256 , 3115.38461538 , 3357.94871795 , 4220.51282051 , 4464.61538462 , 4190.76923077 , 2040.0 , 2037.0 , 200.46 , 0.0 , 0.0 , 0.0 , 0.0 , 

2.0 , 3501.02564103 , 4431.79487179 , 4533.84615385 , 3479.48717949 , 3476.41025641 , 3371.79487179 , 3350.25641026 , 3262.56410256 , 3110.76923077 , 3122.56410256 , 3359.48717949 , 4232.30769231 , 4441.02564103 , 4186.15384615 , 2041.0 , 2038.0 , 200.47 , 0.0 , 0.0 , 0.0 , 0.0 , 

3.0 , 3505.12820513 , 4426.15384615 , 4533.33333333 , 3484.1025641 , 3476.92307692 , 3375.38461538 , 3355.8974359 , 3264.61538462 , 3113.33333333 , 3129.23076923 , 3364.1025641 , 4254.35897436 , 4450.76923077 , 4226.66666667 , 2039.0 , 2039.0 , 200.477 , 0.0 , 0.0 , 0.0 , 0.0 , 

4.0 , 3500.0 , 4407.17948718 , 4508.71794872 , 3490.25641026 , 3484.1025641 , 3377.43589744 , 3358.46153846 , 3265.64102564 , 3116.92307692 , 3133.84615385 , 3366.15384615 , 4247.69230769 , 4443.07692308 , 4222.05128205 , 2040.0 , 2040.0 , 200.485 , 0.0 , 0.0 , 0.0 , 0.0 , 

5.0 , 3504.61538462 , 4434.87179487 , 4524.61538462 , 3492.82051282 , 3488.20512821 , 3379.48717949 , 3358.46153846 , 3273.84615385 , 3124.61538462 , 3138.97435897 , 3370.25641026 , 4293.33333333 , 4474.87179487 , 4255.8974359 , 2039.0 , 2040.0 , 200.491 , 0.0 , 0.0 , 0.0 , 0.0 , 

6.0 , 3505.64102564 , 4412.30769231 , 4508.20512821 , 3495.8974359 , 3489.23076923 , 3384.1025641 , 3363.58974359 , 3275.8974359 , 3130.76923077 , 3144.61538462 , 3372.30769231 , 4290.25641026 , 4462.05128205 , 4264.1025641 , 2039.0 , 2039.0 , 200.5 , 0.0 , 0.0 , 0.0 , 0.0 , 

7.0 , 3509.23076923 , 4418.97435897 , 4514.35897436 , 3498.97435897 , 3493.84615385 , 3390.25641026 , 3371.28205128 , 3276.92307692 , 3134.35897436 , 3147.69230769 , 3377.94871795 , 4287.69230769 , 4462.05128205 , 4266.66666667 , 2039.0 , 2039.0 , 200.508 , 0.0 , 0.0 , 0.0 , 0.0 , 

8.0 , 3490.25641026 , 4395.8974359 , 4470.76923077 , 3501.02564103 , 3497.43589744 , 3395.8974359 , 3373.33333333 , 3270.76923077 , 3137.94871795 , 3151.79487179 , 3373.33333333 , 4233.84615385 , 4423.58974359 , 4204.61538462 , 2038.0 , 2039.0 , 200.517 , 0.0 , 0.0 , 0.0 , 0.0 , 

9.0 , 3484.61538462 , 4408.20512821 , 4464.61538462 , 3505.64102564 , 3499.48717949 , 3395.38461538 , 3373.84615385 , 3274.87179487 , 3141.53846154 , 3161.02564103 , 3375.38461538 , 4251.79487179 , 4427.17948718 , 4223.58974359 , 2039.0 , 2038.0 , 200.524 , 0.0 , 0.0 , 0.0 , 0.0 , 

10.0 , 3479.48717949 , 4384.61538462 , 4443.58974359 , 3509.23076923 , 3502.56410256 , 3395.8974359 , 3378.46153846 , 3272.82051282 , 3142.05128205 , 3164.1025641 , 3376.92307692 , 4244.1025641 , 4398.97435897 , 4217.43589744 , 2038.0 , 2038.0 , 200.531 , 0.0 , 0.0 , 0.0 , 0.0 , 

11.0 , 3466.66666667 , 4376.92307692 , 4426.66666667 , 3509.23076923 , 3504.1025641 , 3403.07692308 , 3385.12820513 , 3269.74358974 , 3148.71794872 , 3165.12820513 , 3377.43589744 , 4198.97435897 , 4377.94871795 , 4161.02564103 , 2039.0 , 2037.0 , 200.54 , 0.0 , 0.0 , 0.0 , 0.0 , 

12.0 , 3440.51282051 , 4347.17948718 , 4384.61538462 , 3511.79487179 , 3508.71794872 , 3408.71794872 , 3388.20512821 , 3266.66666667 , 3156.92307692 , 3173.33333333 , 3370.76923077 , 4163.07692308 , 4361.53846154 , 4122.56410256 , 2041.0 , 2037.0 , 200.548 , 0.0 , 0.0 , 0.0 , 0.0 , 

13.0 , 3420.0 , 4306.15384615 , 4357.94871795 , 3514.87179487 , 3512.82051282 , 3408.20512821 , 3390.25641026 , 3267.69230769 , 3158.97435897 , 3181.02564103 , 3372.30769231 , 4190.76923077 , 4352.82051282 , 4163.07692308 , 2039.0 , 2037.0 , 200.555 , 0.0 , 0.0 , 0.0 , 0.0 , 

14.0 , 3401.02564103 , 4276.41025641 , 4329.74358974 , 3517.43589744 , 3512.82051282 , 3411.28205128 , 3394.35897436 , 3262.05128205 , 3157.94871795 , 3182.56410256 , 3372.30769231 , 4181.53846154 , 4322.56410256 , 4150.76923077 , 2039.0 , 2036.0 , 200.563 , 0.0 , 0.0 , 0.0 , 0.0 , 

15.0 , 3388.20512821 , 4256.41025641 , 4314.35897436 , 3523.58974359 , 3514.35897436 , 3419.48717949 , 3397.43589744 , 3262.05128205 , 3165.64102564 , 3189.23076923 , 3374.35897436 , 4155.38461538 , 4320.0 , 4119.48717949 , 2040.0 , 2036.0 , 200.572 , 0.0 , 0.0 , 0.0 , 0.0 , 

16.0 , 3381.02564103 , 4238.46153846 , 4308.20512821 , 3527.17948718 , 3517.43589744 , 3421.53846154 , 3397.94871795 , 3266.15384615 , 3174.35897436 , 3195.8974359 , 3375.38461538 , 4161.02564103 , 4329.23076923 , 4117.94871795 , 2040.0 , 2037.0 , 200.579 , 0.0 , 0.0 , 0.0 , 0.0 , 

17.0 , 3371.28205128 , 4208.71794872 , 4280.0 , 3528.71794872 , 3520.0 , 3422.56410256 , 3403.07692308 , 3265.12820513 , 3177.94871795 , 3197.94871795 , 3378.46153846 , 4116.41025641 , 4292.30769231 , 4067.69230769 , 2039.0 , 2036.0 , 200.588 , 0.0 , 0.0 , 0.0 , 0.0 , 

18.0 , 3370.76923077 , 4198.97435897 , 4271.79487179 , 3530.76923077 , 3524.61538462 , 3427.17948718 , 3410.25641026 , 3267.69230769 , 3180.0 , 3203.58974359 , 3383.07692308 , 4097.43589744 , 4282.05128205 , 4075.38461538 , 2041.0 , 2036.0 , 200.595 , 0.0 , 0.0 , 0.0 , 0.0 , 

19.0 , 3369.74358974 , 4213.84615385 , 4263.07692308 , 3532.30769231 , 3527.69230769 , 3430.25641026 , 3411.79487179 , 3274.35897436 , 3185.64102564 , 3210.76923077 , 3387.17948718 , 4059.48717949 , 4258.97435897 , 4052.30769231 , 2040.0 , 2037.0 , 200.604 , 0.0 , 0.0 , 0.0 , 0.0 , 

20.0 , 3373.84615385 , 4256.92307692 , 4270.25641026 , 3534.35897436 , 3529.74358974 , 3431.28205128 , 3412.82051282 , 3278.97435897 , 3192.30769231 , 3212.82051282 , 3390.76923077 , 4041.53846154 , 4268.71794872 , 4026.15384615 , 2039.0 , 2036.0 , 200.611 , 0.0 , 0.0 , 0.0 , 0.0 , 

21.0 , 3370.25641026 , 4227.69230769 , 4236.92307692 , 3537.94871795 , 3532.30769231 , 3437.94871795 , 3418.46153846 , 3278.97435897 , 3194.35897436 , 3216.41025641 , 3392.30769231 , 4009.23076923 , 4240.0 , 3998.46153846 , 2039.0 , 2036.0 , 200.618 , 0.0 , 0.0 , 0.0 , 0.0 , 

22.0 , 3370.76923077 , 4214.87179487 , 4233.84615385 , 3541.53846154 , 3533.33333333 , 3442.56410256 , 3424.61538462 , 3283.07692308 , 3196.92307692 , 3224.61538462 , 3395.8974359 , 4004.1025641 , 4227.17948718 , 4009.74358974 , 2038.0 , 2029.0 , 200.625 , 0.0 , 0.0 , 0.0 , 0.0 , 

23.0 , 3360.51282051 , 4190.25641026 , 4201.53846154 , 3542.56410256 , 3534.87179487 , 3443.07692308 , 3425.12820513 , 3279.48717949 , 3203.58974359 , 3228.20512821 , 3396.92307692 , 3992.30769231 , 4198.97435897 , 3993.33333333 , 2037.0 , 2026.0 , 200.634 , 0.0 , 0.0 , 0.0 , 0.0 , 

24.0 , 3358.97435897 , 4196.41025641 , 4198.46153846 , 3546.15384615 , 3541.53846154 , 3446.15384615 , 3429.23076923 , 3281.53846154 , 3207.17948718 , 3229.23076923 , 3397.43589744 , 4025.12820513 , 4211.79487179 , 4007.17948718 , 2036.0 , 2019.0 , 200.641 , 0.0 , 0.0 , 0.0 , 0.0 , 

25.0 , 3348.71794872 , 4161.02564103 , 4169.23076923 , 3550.76923077 , 3547.17948718 , 3452.82051282 , 3438.97435897 , 3284.1025641 , 3208.71794872 , 3237.43589744 , 3393.84615385 , 4007.17948718 , 4191.28205128 , 3976.92307692 , 2035.0 , 2013.0 , 200.65 , 0.0 , 0.0 , 0.0 , 0.0 , 

26.0 , 3349.23076923 , 4181.53846154 , 4180.0 , 3550.25641026 , 3547.69230769 , 3456.41025641 , 3443.07692308 , 3287.69230769 , 3216.92307692 , 3245.64102564 , 3400.0 , 4022.56410256 , 4208.20512821 , 3977.43589744 , 2035.0 , 2005.0 , 200.658 , 0.0 , 0.0 , 0.0 , 0.0 , 

27.0 , 3344.1025641 , 4149.74358974 , 4151.79487179 , 3550.25641026 , 3548.71794872 , 3458.97435897 , 3443.07692308 , 3285.64102564 , 3221.02564103 , 3247.69230769 , 3403.07692308 , 4001.53846154 , 4190.76923077 , 3951.28205128 , 2030.0 , 1996.0 , 200.667 , 0.0 , 0.0 , 0.0 , 0.0 , 

28.0 , 3344.61538462 , 4161.53846154 , 4157.43589744 , 3557.94871795 , 3552.30769231 , 3463.07692308 , 3445.12820513 , 3292.30769231 , 3222.05128205 , 3252.30769231 , 3407.17948718 , 4009.23076923 , 4206.66666667 , 3963.07692308 , 2029.0 , 1992.0 , 200.676 , 0.0 , 0.0 , 0.0 , 0.0 , 

29.0 , 3354.35897436 , 4194.87179487 , 4182.05128205 , 3564.1025641 , 3553.84615385 , 3466.15384615 , 3447.17948718 , 3301.02564103 , 3225.12820513 , 3258.46153846 , 3412.82051282 , 4056.41025641 , 4229.23076923 , 4010.25641026 , 2027.0 , 1987.0 , 200.683 , 0.0 , 0.0 , 0.0 , 0.0 , 

30.0 , 3398.46153846 , 4238.46153846 , 4256.92307692 , 3564.61538462 , 3554.87179487 , 3467.69230769 , 3451.79487179 , 3322.56410256 , 3232.82051282 , 3263.58974359 , 3430.76923077 , 4112.82051282 , 4277.43589744 , 4074.87179487 , 2026.0 , 1988.0 , 200.689 , 0.0 , 0.0 , 0.0 , 0.0 , 

31.0 , 3444.61538462 , 4235.38461538 , 4313.84615385 , 3565.12820513 , 3559.48717949 , 3471.79487179 , 3458.97435897 , 3340.0 , 3238.97435897 , 3268.20512821 , 3442.56410256 , 4104.1025641 , 4319.48717949 , 4102.05128205 , 2025.0 , 1995.0 , 200.697 , 0.0 , 0.0 , 0.0 , 0.0 , 

32.0 , 3488.20512821 , 4285.64102564 , 4388.20512821 , 3571.79487179 , 3565.12820513 , 3478.46153846 , 3460.0 , 3355.38461538 , 3248.20512821 , 3271.79487179 , 3455.8974359 , 4162.56410256 , 4382.56410256 , 4176.41025641 , 2024.0 , 2002.0 , 200.706 , 0.0 , 0.0 , 0.0 , 0.0 , 

33.0 , 3550.76923077 , 4372.30769231 , 4469.23076923 , 3578.46153846 , 3566.66666667 , 3479.48717949 , 3457.94871795 , 3378.97435897 , 3254.35897436 , 3273.84615385 , 3474.87179487 , 4269.74358974 , 4411.28205128 , 4255.8974359 , 2025.0 , 2010.0 , 200.713 , 0.0 , 0.0 , 0.0 , 0.0 , 

34.0 , 3638.97435897 , 4547.69230769 , 4631.79487179 , 3582.05128205 , 3568.71794872 , 3477.94871795 , 3460.0 , 3417.43589744 , 3258.97435897 , 3281.02564103 , 3503.58974359 , 4340.51282051 , 4544.1025641 , 4314.87179487 , 2025.0 , 2023.0 , 200.721 , 0.0 , 0.0 , 0.0 , 0.0 , 

35.0 , 3751.28205128 , 4696.41025641 , 4784.61538462 , 3584.1025641 , 3574.87179487 , 3481.53846154 , 3462.05128205 , 3461.53846154 , 3266.15384615 , 3289.23076923 , 3536.92307692 , 4411.28205128 , 4698.97435897 , 4404.61538462 , 2026.0 , 2031.0 , 200.729 , 0.0 , 0.0 , 0.0 , 0.0 , 

36.0 , 3882.56410256 , 4937.94871795 , 5030.76923077 , 3589.74358974 , 3582.05128205 , 3485.64102564 , 3466.15384615 , 3510.25641026 , 3274.35897436 , 3290.25641026 , 3571.79487179 , 4700.0 , 4980.51282051 , 4689.23076923 , 2031.0 , 2043.0 , 200.737 , 0.0 , 0.0 , 0.0 , 0.0 , 

37.0 , 4023.07692308 , 5176.92307692 , 5215.38461538 , 3595.38461538 , 3587.69230769 , 3486.66666667 , 3470.76923077 , 3561.53846154 , 3280.0 , 3289.23076923 , 3603.07692308 , 4986.66666667 , 5248.20512821 , 4963.58974359 , 2030.0 , 2044.0 , 200.745 , 0.0 , 0.0 , 0.0 , 0.0 , 

38.0 , 4151.28205128 , 5512.30769231 , 5523.07692308 , 3597.94871795 , 3596.92307692 , 3491.28205128 , 3475.8974359 , 3605.64102564 , 3288.20512821 , 3296.41025641 , 3634.35897436 , 5289.74358974 , 5601.02564103 , 5318.97435897 , 2032.0 , 2050.0 , 200.752 , 0.0 , 0.0 , 0.0 , 0.0 , 

39.0 , 4277.43589744 , 5811.79487179 , 5817.94871795 , 3600.0 , 3604.61538462 , 3496.41025641 , 3482.05128205 , 3644.61538462 , 3294.87179487 , 3305.64102564 , 3661.53846154 , 5652.30769231 , 5937.43589744 , 5721.53846154 , 2034.0 , 2052.0 , 200.76 , 0.0 , 0.0 , 0.0 , 0.0 , 

40.0 , 4359.48717949 , 5871.79487179 , 5887.69230769 , 3604.61538462 , 3608.20512821 , 3496.41025641 , 3487.17948718 , 3666.15384615 , 3295.8974359 , 3309.23076923 , 3671.79487179 , 5791.28205128 , 6006.66666667 , 5860.0 , 2035.0 , 2054.0 , 200.768 , 0.0 , 0.0 , 0.0 , 0.0 , 

41.0 , 4394.35897436 , 6085.64102564 , 6036.41025641 , 3606.15384615 , 3618.97435897 , 3500.0 , 3488.71794872 , 3670.76923077 , 3292.82051282 , 3310.25641026 , 3674.35897436 , 6036.92307692 , 6232.82051282 , 6140.51282051 , 2039.0 , 2058.0 , 200.775 , 0.0 , 0.0 , 0.0 , 0.0 , 

42.0 , 4361.02564103 , 5940.51282051 , 5878.97435897 , 3604.61538462 , 3624.1025641 , 3506.15384615 , 3490.76923077 , 3646.66666667 , 3290.76923077 , 3311.79487179 , 3655.8974359 , 5946.15384615 , 6081.02564103 , 6076.92307692 , 2042.0 , 2058.0 , 200.784 , 0.0 , 0.0 , 0.0 , 0.0 , 

43.0 , 4269.23076923 , 5516.41025641 , 5519.48717949 , 3607.69230769 , 3621.53846154 , 3507.69230769 , 3495.8974359 , 3602.05128205 , 3291.79487179 , 3316.41025641 , 3616.41025641 , 5419.48717949 , 5601.02564103 , 5497.94871795 , 2045.0 , 2059.0 , 200.791 , 0.0 , 0.0 , 0.0 , 0.0 , 

44.0 , 4115.8974359 , 5160.51282051 , 5188.20512821 , 3610.76923077 , 3620.51282051 , 3506.15384615 , 3497.94871795 , 3539.48717949 , 3290.25641026 , 3323.07692308 , 3569.74358974 , 4981.53846154 , 5230.25641026 , 4996.92307692 , 2043.0 , 2056.0 , 200.8 , 0.0 , 0.0 , 0.0 , 0.0 , 

45.0 , 3953.84615385 , 4896.92307692 , 4962.56410256 , 3611.28205128 , 3620.51282051 , 3511.79487179 , 3498.46153846 , 3483.07692308 , 3288.20512821 , 3325.12820513 , 3536.41025641 , 4843.07692308 , 4970.76923077 , 4847.17948718 , 2045.0 , 2056.0 , 200.807 , 0.0 , 0.0 , 0.0 , 0.0 , 

46.0 , 3790.76923077 , 4533.84615385 , 4637.94871795 , 3611.79487179 , 3616.92307692 , 3517.43589744 , 3503.58974359 , 3428.71794872 , 3288.20512821 , 3324.61538462 , 3502.56410256 , 4520.51282051 , 4543.07692308 , 4530.76923077 , 2046.0 , 2058.0 , 200.815 , 0.0 , 0.0 , 0.0 , 0.0 , 

47.0 , 3634.87179487 , 4276.41025641 , 4371.28205128 , 3615.38461538 , 3617.94871795 , 3517.43589744 , 3507.69230769 , 3377.94871795 , 3294.35897436 , 3332.30769231 , 3471.28205128 , 4198.46153846 , 4283.07692308 , 4209.74358974 , 2047.0 , 2059.0 , 200.823 , 0.0 , 0.0 , 0.0 , 0.0 , 

48.0 , 3454.35897436 , 4200.0 , 4177.94871795 , 3613.84615385 , 3623.07692308 , 3518.97435897 , 3507.69230769 , 3315.38461538 , 3294.87179487 , 3340.0 , 3430.76923077 , 4136.92307692 , 4262.05128205 , 4134.87179487 , 2048.0 , 2057.0 , 200.831 , 0.0 , 0.0 , 0.0 , 0.0 , 

49.0 , 3269.23076923 , 3966.15384615 , 3849.74358974 , 3611.28205128 , 3621.02564103 , 3527.69230769 , 3509.74358974 , 3262.56410256 , 3295.38461538 , 3340.0 , 3395.8974359 , 3886.15384615 , 3984.1025641 , 3833.33333333 , 2049.0 , 2056.0 , 200.839 , 0.0 , 0.0 , 0.0 , 0.0 , 

50.0 , 3105.64102564 , 3774.35897436 , 3649.23076923 , 3614.87179487 , 3616.92307692 , 3533.84615385 , 3512.82051282 , 3218.46153846 , 3296.92307692 , 3343.07692308 , 3371.28205128 , 3542.05128205 , 3785.64102564 , 3468.71794872 , 2047.0 , 2056.0 , 200.847 , 0.0 , 0.0 , 0.0 , 0.0 , 

51.0 , 2962.05128205 , 3573.84615385 , 3430.25641026 , 3614.35897436 , 3617.43589744 , 3532.30769231 , 3511.79487179 , 3176.41025641 , 3300.0 , 3351.28205128 , 3348.71794872 , 3289.23076923 , 3631.79487179 , 3217.43589744 , 2046.0 , 2054.0 , 200.856 , 0.0 , 0.0 , 0.0 , 0.0 , 

52.0 , 2817.43589744 , 3261.53846154 , 3103.58974359 , 3611.79487179 , 3621.53846154 , 3532.82051282 , 3512.82051282 , 3133.33333333 , 3300.51282051 , 3354.87179487 , 3320.51282051 , 2732.82051282 , 3294.35897436 , 2515.38461538 , 2049.0 , 2053.0 , 200.863 , 0.0 , 0.0 , 0.0 , 0.0 , 

53.0 , 2685.64102564 , 3044.61538462 , 2910.76923077 , 3611.79487179 , 3618.97435897 , 3540.51282051 , 3518.46153846 , 3101.53846154 , 3303.07692308 , 3357.94871795 , 3304.1025641 , 2443.07692308 , 3033.33333333 , 2189.74358974 , 2048.0 , 2054.0 , 200.871 , 0.0 , 0.0 , 0.0 , 0.0 , 

54.0 , 2584.1025641 , 2706.66666667 , 2597.94871795 , 3613.33333333 , 3613.33333333 , 3543.58974359 , 3522.05128205 , 3079.48717949 , 3307.17948718 , 3364.61538462 , 3287.17948718 , 1937.43589744 , 2713.84615385 , 1708.71794872 , 2048.0 , 2050.0 , 200.879 , 0.0 , 0.0 , 0.0 , 0.0 , 

55.0 , 2481.53846154 , 2561.53846154 , 2437.43589744 , 3610.76923077 , 3614.87179487 , 3543.07692308 , 3525.12820513 , 3053.33333333 , 3311.79487179 , 3369.74358974 , 3268.20512821 , 1437.43589744 , 2597.43589744 , 1060.0 , 2045.0 , 2049.0 , 200.886 , 0.0 , 0.0 , 0.0 , 0.0 , 

56.0 , 2391.79487179 , 2245.64102564 , 2199.48717949 , 3612.30769231 , 3615.38461538 , 3549.23076923 , 3533.33333333 , 3035.38461538 , 3317.94871795 , 3375.38461538 , 3255.8974359 , 929.743589744 , 2210.25641026 , 562.564102564 , 2045.0 , 2050.0 , 200.895 , 0.0 , 0.0 , 0.0 , 0.0 , 

57.0 , 2302.05128205 , 2029.74358974 , 2056.41025641 , 3604.61538462 , 3606.15384615 , 3549.74358974 , 3530.76923077 , 3010.25641026 , 3313.84615385 , 3375.8974359 , 3237.94871795 , 807.179487179 , 1895.8974359 , 754.358974359 , 2043.0 , 2048.0 , 200.903 , 0.0 , 0.0 , 0.0 , 0.0 , 

58.0 , 2222.56410256 , 1754.87179487 , 1935.8974359 , 3590.25641026 , 3595.38461538 , 3542.05128205 , 3521.02564103 , 2986.66666667 , 3307.17948718 , 3369.23076923 , 3215.8974359 , 757.435897436 , 1658.97435897 , 834.871794872 , 2044.0 , 2047.0 , 200.911 , 0.0 , 0.0 , 0.0 , 0.0 , 

59.0 , 2142.05128205 , 1467.69230769 , 1846.15384615 , 3581.02564103 , 3583.58974359 , 3530.76923077 , 3512.30769231 , 2962.05128205 , 3299.48717949 , 3355.38461538 , 3192.82051282 , 724.615384615 , 1421.53846154 , 692.820512821 , 2043.0 , 2045.0 , 200.919 , 0.0 , 0.0 , 0.0 , 0.0 , 

60.0 , 2092.30769231 , 1205.64102564 , 1861.02564103 , 3573.33333333 , 3570.25641026 , 3519.48717949 , 3502.56410256 , 2944.61538462 , 3290.25641026 , 3341.02564103 , 3177.94871795 , 806.153846154 , 1133.84615385 , 806.666666667 , 2043.0 , 2045.0 , 200.926 , 0.0 , 0.0 , 0.0 , 0.0 , 

61.0 , 2042.05128205 , 1045.64102564 , 1813.84615385 , 3562.56410256 , 3556.92307692 , 3510.25641026 , 3489.74358974 , 2923.07692308 , 3279.48717949 , 3329.23076923 , 3163.58974359 , 765.641025641 , 955.384615385 , 798.974358974 , 2041.0 , 2045.0 , 200.934 , 0.0 , 0.0 , 0.0 , 0.0 , 

62.0 , 1998.46153846 , 1035.8974359 , 1883.07692308 , 3548.71794872 , 3540.0 , 3498.97435897 , 3477.43589744 , 2906.15384615 , 3268.71794872 , 3314.35897436 , 3150.76923077 , 808.717948718 , 996.923076923 , 804.615384615 , 2041.0 , 2043.0 , 200.942 , 0.0 , 0.0 , 0.0 , 0.0 , 

63.0 , 1967.69230769 , 901.538461538 , 1872.30769231 , 3537.43589744 , 3525.64102564 , 3489.74358974 , 3469.23076923 , 2897.94871795 , 3262.56410256 , 3304.61538462 , 3135.8974359 , 797.435897436 , 857.435897436 , 802.564102564 , 2041.0 , 2044.0 , 200.95 , 0.0 , 0.0 , 0.0 , 0.0 , 

64.0 , 1972.82051282 , 953.846153846 , 1958.97435897 , 3533.33333333 , 3520.0 , 3492.82051282 , 3468.20512821 , 2908.71794872 , 3263.58974359 , 3309.23076923 , 3142.05128205 , 806.153846154 , 909.743589744 , 801.538461538 , 2040.0 , 2044.0 , 200.957 , 0.0 , 0.0 , 0.0 , 0.0 , 

65.0 , 1986.15384615 , 1003.58974359 , 2000.0 , 3535.38461538 , 3518.46153846 , 3497.94871795 , 3472.30769231 , 2922.05128205 , 3269.23076923 , 3317.94871795 , 3153.84615385 , 801.538461538 , 968.717948718 , 803.076923077 , 2041.0 , 2044.0 , 200.964 , 0.0 , 0.0 , 0.0 , 0.0 , 

66.0 , 2007.69230769 , 1141.02564103 , 2065.64102564 , 3535.38461538 , 3516.41025641 , 3494.87179487 , 3474.87179487 , 2936.92307692 , 3274.35897436 , 3318.46153846 , 3163.07692308 , 803.076923077 , 1102.05128205 , 803.58974359 , 2041.0 , 2044.0 , 200.972 , 0.0 , 0.0 , 0.0 , 0.0 , 

67.0 , 2029.74358974 , 1138.46153846 , 2123.07692308 , 3533.33333333 , 3520.0 , 3496.92307692 , 3478.97435897 , 2947.17948718 , 3275.8974359 , 3319.48717949 , 3166.66666667 , 802.564102564 , 1124.61538462 , 803.58974359 , 2042.0 , 2044.0 , 200.981 , 0.0 , 0.0 , 0.0 , 0.0 , 

68.0 , 2056.41025641 , 1208.20512821 , 2148.71794872 , 3535.38461538 , 3522.05128205 , 3502.56410256 , 3484.61538462 , 2961.02564103 , 3280.0 , 3328.20512821 , 3178.97435897 , 802.051282051 , 1203.07692308 , 803.076923077 , 2042.0 , 2043.0 , 200.988 , 0.0 , 0.0 , 0.0 , 0.0 , 

69.0 , 2080.0 , 1357.94871795 , 2228.20512821 , 3537.94871795 , 3518.97435897 , 3504.1025641 , 3487.17948718 , 2974.87179487 , 3284.1025641 , 3332.30769231 , 3185.64102564 , 802.564102564 , 1363.58974359 , 803.58974359 , 2042.0 , 2041.0 , 200.997 , 0.0 , 0.0 , 0.0 , 0.0 , 

70.0 , 2103.58974359 , 1432.82051282 , 2255.8974359 , 3545.12820513 , 3523.07692308 , 3511.28205128 , 3492.30769231 , 2990.76923077 , 3293.33333333 , 3334.87179487 , 3192.82051282 , 803.076923077 , 1438.97435897 , 803.58974359 , 2042.0 , 2042.0 , 201.005 , 0.0 , 0.0 , 0.0 , 0.0 , 

71.0 , 2118.46153846 , 1502.56410256 , 2285.64102564 , 3545.12820513 , 3526.15384615 , 3512.82051282 , 3494.87179487 , 2998.46153846 , 3295.38461538 , 3337.43589744 , 3196.41025641 , 803.58974359 , 1541.53846154 , 803.58974359 , 2043.0 , 2041.0 , 201.014 , 0.0 , 0.0 , 0.0 , 0.0 , 

72.0 , 2127.69230769 , 1492.82051282 , 2280.0 , 3543.58974359 , 3524.1025641 , 3510.25641026 , 3495.38461538 , 3006.66666667 , 3298.97435897 , 3346.15384615 , 3201.53846154 , 803.076923077 , 1544.1025641 , 803.58974359 , 2045.0 , 2040.0 , 201.02 , 0.0 , 0.0 , 0.0 , 0.0 , 

