['COUNTER', 'AF3', 'F7', 'F3', 'FC5', 'T7', 'P7', 'O1', 'O2', 'P8', 'T8', 'FC6', 'F4', 'F8', 'AF4', 'GYROX', 'GYROY', 'TIMESTAMP', 'FUNC_ID', 'FUNC_VALUE', 'MARKER', 'SYNC_SIGNAL']
32.0 , 2925.12820513 , 4613.84615385 , 3405.64102564 , 2902.56410256 , 3074.87179487 , 2786.15384615 , 2738.46153846 , 2355.8974359 , 2154.87179487 , 2031.28205128 , 2817.94871795 , 4511.79487179 , 5189.74358974 , 4127.69230769 , 2043.0 , 2038.0 , 159.01 , 0.0 , 0.0 , 0.0 , 0.0 , 

33.0 , 2949.23076923 , 4645.64102564 , 3429.23076923 , 2905.64102564 , 3075.8974359 , 2792.82051282 , 2742.05128205 , 2377.94871795 , 2168.71794872 , 2044.61538462 , 2834.35897436 , 4549.74358974 , 5250.76923077 , 4150.76923077 , 2045.0 , 2040.0 , 159.018 , 0.0 , 0.0 , 0.0 , 0.0 , 

34.0 , 2961.53846154 , 4635.38461538 , 3442.56410256 , 2903.58974359 , 3072.82051282 , 2789.23076923 , 2739.48717949 , 2387.69230769 , 2171.79487179 , 2047.17948718 , 2835.8974359 , 4552.30769231 , 5278.46153846 , 4115.38461538 , 2043.0 , 2041.0 , 159.026 , 0.0 , 0.0 , 0.0 , 0.0 , 

35.0 , 2971.79487179 , 4648.20512821 , 3438.97435897 , 2907.69230769 , 3076.41025641 , 2789.23076923 , 2743.58974359 , 2395.8974359 , 2178.46153846 , 2052.30769231 , 2836.92307692 , 4575.38461538 , 5282.56410256 , 4118.97435897 , 2044.0 , 2042.0 , 159.033 , 0.0 , 0.0 , 0.0 , 0.0 , 

36.0 , 2963.07692308 , 4617.43589744 , 3421.53846154 , 2908.20512821 , 3076.41025641 , 2792.30769231 , 2743.07692308 , 2391.28205128 , 2182.56410256 , 2060.51282051 , 2835.38461538 , 4570.76923077 , 5241.53846154 , 4076.92307692 , 2045.0 , 2041.0 , 159.042 , 0.0 , 0.0 , 0.0 , 0.0 , 

37.0 , 2960.0 , 4621.02564103 , 3429.74358974 , 2908.20512821 , 3076.92307692 , 2795.8974359 , 2745.64102564 , 2395.38461538 , 2186.66666667 , 2067.69230769 , 2841.02564103 , 4576.92307692 , 5268.71794872 , 4042.56410256 , 2045.0 , 2040.0 , 159.05 , 0.0 , 0.0 , 0.0 , 0.0 , 

38.0 , 2959.48717949 , 4602.05128205 , 3418.46153846 , 2907.17948718 , 3078.46153846 , 2795.38461538 , 2750.76923077 , 2401.53846154 , 2188.71794872 , 2070.76923077 , 2840.51282051 , 4569.23076923 , 5267.17948718 , 4060.0 , 2043.0 , 2038.0 , 159.058 , 0.0 , 0.0 , 0.0 , 0.0 , 

39.0 , 2954.35897436 , 4578.46153846 , 3414.87179487 , 2908.20512821 , 3080.0 , 2799.48717949 , 2754.35897436 , 2406.66666667 , 2191.79487179 , 2076.92307692 , 2841.02564103 , 4548.20512821 , 5258.97435897 , 4058.97435897 , 2042.0 , 2038.0 , 159.065 , 0.0 , 0.0 , 0.0 , 0.0 , 

40.0 , 2949.74358974 , 4587.17948718 , 3415.8974359 , 2912.82051282 , 3081.53846154 , 2804.61538462 , 2757.43589744 , 2409.74358974 , 2197.94871795 , 2088.71794872 , 2845.12820513 , 4550.76923077 , 5266.15384615 , 4057.94871795 , 2043.0 , 2036.0 , 159.074 , 0.0 , 0.0 , 0.0 , 0.0 , 

41.0 , 2939.48717949 , 4561.53846154 , 3402.56410256 , 2918.46153846 , 3080.0 , 2805.64102564 , 2760.51282051 , 2407.69230769 , 2207.17948718 , 2094.87179487 , 2846.66666667 , 4557.94871795 , 5224.61538462 , 4081.02564103 , 2043.0 , 2037.0 , 159.081 , 0.0 , 0.0 , 0.0 , 0.0 , 

42.0 , 2933.33333333 , 4534.35897436 , 3397.43589744 , 2920.0 , 3079.48717949 , 2809.23076923 , 2761.02564103 , 2408.20512821 , 2212.30769231 , 2098.46153846 , 2845.64102564 , 4563.58974359 , 5200.0 , 4120.51282051 , 2042.0 , 2035.0 , 159.089 , 0.0 , 0.0 , 0.0 , 0.0 , 

43.0 , 2916.41025641 , 4520.0 , 3377.43589744 , 2920.51282051 , 3085.12820513 , 2813.84615385 , 2762.05128205 , 2407.17948718 , 2215.8974359 , 2108.20512821 , 2845.12820513 , 4496.92307692 , 5171.28205128 , 4091.79487179 , 2041.0 , 2034.0 , 159.097 , 0.0 , 0.0 , 0.0 , 0.0 , 

44.0 , 2914.35897436 , 4556.41025641 , 3375.38461538 , 2922.05128205 , 3090.76923077 , 2813.33333333 , 2769.74358974 , 2411.28205128 , 2223.07692308 , 2114.87179487 , 2848.20512821 , 4506.66666667 , 5165.12820513 , 4097.43589744 , 2041.0 , 2036.0 , 159.105 , 0.0 , 0.0 , 0.0 , 0.0 , 

45.0 , 2911.28205128 , 4526.66666667 , 3365.12820513 , 2924.1025641 , 3090.76923077 , 2815.8974359 , 2775.38461538 , 2413.33333333 , 2228.20512821 , 2114.35897436 , 2849.74358974 , 4500.0 , 5130.25641026 , 4065.64102564 , 2040.0 , 2032.0 , 159.112 , 0.0 , 0.0 , 0.0 , 0.0 , 

46.0 , 2919.48717949 , 4531.79487179 , 3372.30769231 , 2930.25641026 , 3091.79487179 , 2821.02564103 , 2775.38461538 , 2422.56410256 , 2230.76923077 , 2122.05128205 , 2854.87179487 , 4494.35897436 , 5146.15384615 , 4088.20512821 , 2041.0 , 2033.0 , 159.12 , 0.0 , 0.0 , 0.0 , 0.0 , 

47.0 , 2909.74358974 , 4512.82051282 , 3354.35897436 , 2933.84615385 , 3092.82051282 , 2822.56410256 , 2775.8974359 , 2424.1025641 , 2238.46153846 , 2135.8974359 , 2854.87179487 , 4443.07692308 , 5117.43589744 , 4058.97435897 , 2041.0 , 2029.0 , 159.129 , 0.0 , 0.0 , 0.0 , 0.0 , 

48.0 , 2907.17948718 , 4506.15384615 , 3353.84615385 , 2935.38461538 , 3091.28205128 , 2824.1025641 , 2777.43589744 , 2428.71794872 , 2248.20512821 , 2143.58974359 , 2860.0 , 4431.79487179 , 5106.15384615 , 4038.97435897 , 2044.0 , 2030.0 , 159.139 , 0.0 , 0.0 , 0.0 , 0.0 , 

49.0 , 2893.33333333 , 4457.94871795 , 3343.07692308 , 2938.46153846 , 3094.87179487 , 2830.25641026 , 2782.56410256 , 2422.56410256 , 2251.79487179 , 2149.23076923 , 2857.94871795 , 4407.17948718 , 5084.61538462 , 4000.0 , 2043.0 , 2030.0 , 159.146 , 0.0 , 0.0 , 0.0 , 0.0 , 

50.0 , 2885.12820513 , 4432.82051282 , 3318.97435897 , 2940.51282051 , 3101.53846154 , 2835.38461538 , 2791.28205128 , 2426.66666667 , 2260.0 , 2159.48717949 , 2860.51282051 , 4408.71794872 , 5053.84615385 , 3999.48717949 , 2043.0 , 2030.0 , 159.153 , 0.0 , 0.0 , 0.0 , 0.0 , 

51.0 , 2870.25641026 , 4402.56410256 , 3318.97435897 , 2938.46153846 , 3103.58974359 , 2836.92307692 , 2797.94871795 , 2429.23076923 , 2268.20512821 , 2169.23076923 , 2864.1025641 , 4380.0 , 5025.64102564 , 3973.84615385 , 2042.0 , 2031.0 , 159.162 , 0.0 , 0.0 , 0.0 , 0.0 , 

52.0 , 2883.07692308 , 4437.43589744 , 3338.46153846 , 2944.61538462 , 3106.15384615 , 2839.48717949 , 2800.51282051 , 2445.64102564 , 2274.35897436 , 2175.8974359 , 2875.38461538 , 4415.8974359 , 5061.53846154 , 4021.02564103 , 2043.0 , 2032.0 , 159.169 , 0.0 , 0.0 , 0.0 , 0.0 , 

53.0 , 2916.41025641 , 4442.05128205 , 3364.1025641 , 2955.38461538 , 3108.20512821 , 2845.12820513 , 2803.58974359 , 2467.17948718 , 2278.97435897 , 2182.05128205 , 2886.66666667 , 4471.79487179 , 5098.46153846 , 4044.1025641 , 2043.0 , 2033.0 , 159.177 , 0.0 , 0.0 , 0.0 , 0.0 , 

54.0 , 2978.46153846 , 4546.66666667 , 3440.0 , 2958.46153846 , 3110.25641026 , 2851.79487179 , 2807.69230769 , 2503.07692308 , 2290.25641026 , 2191.28205128 , 2910.25641026 , 4563.58974359 , 5230.76923077 , 4078.97435897 , 2042.0 , 2035.0 , 159.184 , 0.0 , 0.0 , 0.0 , 0.0 , 

55.0 , 3050.25641026 , 4667.69230769 , 3495.8974359 , 2960.51282051 , 3115.38461538 , 2856.92307692 , 2813.33333333 , 2534.35897436 , 2302.05128205 , 2200.0 , 2931.79487179 , 4623.58974359 , 5324.1025641 , 4188.71794872 , 2044.0 , 2035.0 , 159.193 , 0.0 , 0.0 , 0.0 , 0.0 , 

56.0 , 3122.56410256 , 4799.48717949 , 3581.53846154 , 2967.17948718 , 3122.05128205 , 2864.1025641 , 2821.53846154 , 2565.64102564 , 2311.79487179 , 2208.20512821 , 2952.30769231 , 4710.25641026 , 5451.79487179 , 4263.58974359 , 2044.0 , 2035.0 , 159.2 , 0.0 , 0.0 , 0.0 , 0.0 , 

57.0 , 3173.84615385 , 4874.35897436 , 3627.17948718 , 2971.28205128 , 3128.71794872 , 2869.74358974 , 2827.69230769 , 2586.66666667 , 2315.38461538 , 2216.41025641 , 2962.05128205 , 4782.05128205 , 5521.53846154 , 4249.23076923 , 2045.0 , 2035.0 , 159.209 , 0.0 , 0.0 , 0.0 , 0.0 , 

58.0 , 3192.30769231 , 4854.35897436 , 3636.41025641 , 2974.87179487 , 3136.41025641 , 2872.30769231 , 2832.82051282 , 2594.35897436 , 2323.58974359 , 2226.66666667 , 2964.1025641 , 4793.33333333 , 5536.41025641 , 4235.8974359 , 2046.0 , 2035.0 , 159.216 , 0.0 , 0.0 , 0.0 , 0.0 , 

59.0 , 3191.28205128 , 4829.23076923 , 3609.74358974 , 2981.53846154 , 3142.05128205 , 2873.33333333 , 2836.92307692 , 2591.79487179 , 2332.30769231 , 2234.87179487 , 2960.0 , 4789.74358974 , 5507.69230769 , 4260.51282051 , 2046.0 , 2035.0 , 159.223 , 0.0 , 0.0 , 0.0 , 0.0 , 

60.0 , 3171.28205128 , 4839.48717949 , 3595.8974359 , 2986.15384615 , 3141.53846154 , 2879.48717949 , 2840.51282051 , 2582.05128205 , 2335.38461538 , 2241.02564103 , 2958.97435897 , 4749.23076923 , 5457.43589744 , 4276.41025641 , 2045.0 , 2035.0 , 159.232 , 0.0 , 0.0 , 0.0 , 0.0 , 

61.0 , 3156.92307692 , 4812.30769231 , 3569.23076923 , 2987.69230769 , 3143.07692308 , 2886.66666667 , 2843.58974359 , 2577.94871795 , 2338.46153846 , 2249.74358974 , 2959.48717949 , 4704.61538462 , 5409.74358974 , 4297.94871795 , 2044.0 , 2035.0 , 159.24 , 0.0 , 0.0 , 0.0 , 0.0 , 

62.0 , 3141.53846154 , 4690.25641026 , 3536.41025641 , 2989.74358974 , 3147.17948718 , 2891.28205128 , 2848.71794872 , 2579.48717949 , 2348.71794872 , 2258.46153846 , 2955.38461538 , 4628.20512821 , 5342.56410256 , 4250.76923077 , 2043.0 , 2033.0 , 159.248 , 0.0 , 0.0 , 0.0 , 0.0 , 

63.0 , 3136.92307692 , 4701.02564103 , 3556.41025641 , 2995.38461538 , 3149.74358974 , 2892.82051282 , 2854.87179487 , 2584.1025641 , 2357.43589744 , 2265.64102564 , 2959.48717949 , 4658.97435897 , 5377.94871795 , 4247.69230769 , 2044.0 , 2033.0 , 159.256 , 0.0 , 0.0 , 0.0 , 0.0 , 

64.0 , 3114.35897436 , 4672.30769231 , 3516.92307692 , 3002.56410256 , 3151.28205128 , 2896.41025641 , 2856.41025641 , 2576.41025641 , 2363.07692308 , 2273.84615385 , 2961.02564103 , 4621.02564103 , 5314.35897436 , 4203.58974359 , 2043.0 , 2032.0 , 159.264 , 0.0 , 0.0 , 0.0 , 0.0 , 

65.0 , 3101.02564103 , 4610.76923077 , 3496.92307692 , 3004.1025641 , 3157.43589744 , 2903.58974359 , 2858.97435897 , 2575.38461538 , 2369.23076923 , 2285.64102564 , 2958.97435897 , 4577.94871795 , 5261.53846154 , 4183.58974359 , 2043.0 , 2033.0 , 159.272 , 0.0 , 0.0 , 0.0 , 0.0 , 

66.0 , 3077.94871795 , 4546.66666667 , 3473.33333333 , 3001.53846154 , 3160.0 , 2909.74358974 , 2867.17948718 , 2570.76923077 , 2373.33333333 , 2292.82051282 , 2954.87179487 , 4557.94871795 , 5212.82051282 , 4144.61538462 , 2042.0 , 2032.0 , 159.279 , 0.0 , 0.0 , 0.0 , 0.0 , 

67.0 , 3065.64102564 , 4530.76923077 , 3466.66666667 , 3007.69230769 , 3158.46153846 , 2910.25641026 , 2873.84615385 , 2574.35897436 , 2380.51282051 , 2298.46153846 , 2963.07692308 , 4585.12820513 , 5196.41025641 , 4153.33333333 , 2043.0 , 2032.0 , 159.286 , 0.0 , 0.0 , 0.0 , 0.0 , 

68.0 , 3046.66666667 , 4526.15384615 , 3448.71794872 , 3015.8974359 , 3162.05128205 , 2910.25641026 , 2874.35897436 , 2570.76923077 , 2387.69230769 , 2305.64102564 , 2961.53846154 , 4545.12820513 , 5167.69230769 , 4133.33333333 , 2041.0 , 2031.0 , 159.295 , 0.0 , 0.0 , 0.0 , 0.0 , 

69.0 , 3046.66666667 , 4569.23076923 , 3432.30769231 , 3015.8974359 , 3170.25641026 , 2918.97435897 , 2877.94871795 , 2578.46153846 , 2393.84615385 , 2311.79487179 , 2959.48717949 , 4535.8974359 , 5152.30769231 , 4178.97435897 , 2041.0 , 2032.0 , 159.302 , 0.0 , 0.0 , 0.0 , 0.0 , 

70.0 , 3044.1025641 , 4558.97435897 , 3436.41025641 , 3016.41025641 , 3171.79487179 , 2926.15384615 , 2886.15384615 , 2582.05128205 , 2398.97435897 , 2319.48717949 , 2963.07692308 , 4531.79487179 , 5146.66666667 , 4196.41025641 , 2041.0 , 2031.0 , 159.311 , 0.0 , 0.0 , 0.0 , 0.0 , 

71.0 , 3058.97435897 , 4570.76923077 , 3452.82051282 , 3026.15384615 , 3172.30769231 , 2925.64102564 , 2890.25641026 , 2593.84615385 , 2407.17948718 , 2329.23076923 , 2980.51282051 , 4536.92307692 , 5167.69230769 , 4177.94871795 , 2040.0 , 2031.0 , 159.318 , 0.0 , 0.0 , 0.0 , 0.0 , 

72.0 , 3080.51282051 , 4598.97435897 , 3470.76923077 , 3034.35897436 , 3179.48717949 , 2928.71794872 , 2893.33333333 , 2606.15384615 , 2413.84615385 , 2336.92307692 , 2987.69230769 , 4532.82051282 , 5187.17948718 , 4153.33333333 , 2041.0 , 2032.0 , 159.327 , 0.0 , 0.0 , 0.0 , 0.0 , 

73.0 , 3110.25641026 , 4647.69230769 , 3503.58974359 , 3035.8974359 , 3182.05128205 , 2936.41025641 , 2900.0 , 2629.23076923 , 2422.56410256 , 2346.15384615 , 2996.92307692 , 4580.51282051 , 5245.64102564 , 4191.79487179 , 2042.0 , 2034.0 , 159.334 , 0.0 , 0.0 , 0.0 , 0.0 , 

74.0 , 3134.35897436 , 4650.76923077 , 3522.56410256 , 3036.92307692 , 3181.53846154 , 2941.02564103 , 2904.61538462 , 2642.05128205 , 2427.69230769 , 2354.35897436 , 3007.17948718 , 4610.25641026 , 5267.69230769 , 4225.64102564 , 2042.0 , 2033.0 , 159.343 , 0.0 , 0.0 , 0.0 , 0.0 , 

75.0 , 3157.43589744 , 4696.92307692 , 3548.20512821 , 3042.56410256 , 3188.20512821 , 2945.12820513 , 2908.20512821 , 2650.25641026 , 2436.41025641 , 2360.51282051 , 3016.92307692 , 4635.38461538 , 5316.92307692 , 4252.82051282 , 2041.0 , 2036.0 , 159.349 , 0.0 , 0.0 , 0.0 , 0.0 , 

76.0 , 3178.46153846 , 4723.58974359 , 3554.35897436 , 3048.71794872 , 3194.87179487 , 2951.79487179 , 2913.33333333 , 2661.53846154 , 2445.12820513 , 2367.17948718 , 3020.51282051 , 4664.61538462 , 5340.0 , 4289.74358974 , 2041.0 , 2035.0 , 159.358 , 0.0 , 0.0 , 0.0 , 0.0 , 

77.0 , 3189.74358974 , 4714.87179487 , 3566.15384615 , 3050.76923077 , 3194.87179487 , 2957.43589744 , 2921.53846154 , 2675.8974359 , 2448.71794872 , 2374.35897436 , 3029.23076923 , 4667.69230769 , 5353.84615385 , 4312.30769231 , 2041.0 , 2035.0 , 159.366 , 0.0 , 0.0 , 0.0 , 0.0 , 

78.0 , 3193.84615385 , 4737.94871795 , 3572.30769231 , 3051.79487179 , 3197.94871795 , 2958.97435897 , 2923.58974359 , 2678.46153846 , 2451.28205128 , 2380.51282051 , 3033.33333333 , 4677.94871795 , 5365.64102564 , 4313.33333333 , 2042.0 , 2035.0 , 159.374 , 0.0 , 0.0 , 0.0 , 0.0 , 

79.0 , 3175.38461538 , 4661.02564103 , 3543.58974359 , 3055.38461538 , 3202.05128205 , 2961.02564103 , 2923.07692308 , 2665.64102564 , 2462.56410256 , 2389.74358974 , 3028.71794872 , 4638.46153846 , 5291.79487179 , 4218.46153846 , 2042.0 , 2034.0 , 159.382 , 0.0 , 0.0 , 0.0 , 0.0 , 

80.0 , 3155.8974359 , 4568.20512821 , 3523.07692308 , 3060.0 , 3206.15384615 , 2967.69230769 , 2929.23076923 , 2660.0 , 2471.28205128 , 2397.43589744 , 3026.15384615 , 4614.87179487 , 5248.71794872 , 4179.48717949 , 2043.0 , 2034.0 , 159.39 , 0.0 , 0.0 , 0.0 , 0.0 , 

81.0 , 3123.07692308 , 4537.94871795 , 3472.30769231 , 3062.56410256 , 3209.74358974 , 2974.35897436 , 2935.38461538 , 2653.84615385 , 2471.28205128 , 2402.05128205 , 3021.53846154 , 4555.38461538 , 5174.35897436 , 4204.1025641 , 2042.0 , 2034.0 , 159.398 , 0.0 , 0.0 , 0.0 , 0.0 , 

82.0 , 3089.74358974 , 4560.0 , 3444.61538462 , 3064.1025641 , 3213.33333333 , 2976.92307692 , 2936.92307692 , 2646.15384615 , 2476.41025641 , 2410.25641026 , 3016.41025641 , 4528.71794872 , 5113.33333333 , 4223.07692308 , 2043.0 , 2034.0 , 159.405 , 0.0 , 0.0 , 0.0 , 0.0 , 

83.0 , 3043.58974359 , 4463.07692308 , 3395.8974359 , 3069.74358974 , 3213.84615385 , 2977.94871795 , 2940.51282051 , 2629.74358974 , 2486.15384615 , 2422.05128205 , 3008.71794872 , 4437.43589744 , 5012.82051282 , 4097.94871795 , 2044.0 , 2034.0 , 159.413 , 0.0 , 0.0 , 0.0 , 0.0 , 

84.0 , 3017.94871795 , 4426.66666667 , 3372.82051282 , 3077.94871795 , 3213.84615385 , 2980.0 , 2947.69230769 , 2627.17948718 , 2491.79487179 , 2430.25641026 , 3006.66666667 , 4409.23076923 , 4973.84615385 , 4085.64102564 , 2043.0 , 2034.0 , 159.42 , 0.0 , 0.0 , 0.0 , 0.0 , 

85.0 , 2990.76923077 , 4407.69230769 , 3342.56410256 , 3078.97435897 , 3216.41025641 , 2987.69230769 , 2955.38461538 , 2619.48717949 , 2495.38461538 , 2435.38461538 , 3002.56410256 , 4382.56410256 , 4926.15384615 , 4049.74358974 , 2045.0 , 2035.0 , 159.428 , 0.0 , 0.0 , 0.0 , 0.0 , 

86.0 , 2984.61538462 , 4400.0 , 3339.48717949 , 3079.48717949 , 3222.56410256 , 2991.79487179 , 2958.97435897 , 2622.56410256 , 2501.02564103 , 2443.07692308 , 3011.28205128 , 4378.97435897 , 4905.12820513 , 4006.15384615 , 2043.0 , 2034.0 , 159.436 , 0.0 , 0.0 , 0.0 , 0.0 , 

87.0 , 2978.46153846 , 4366.15384615 , 3337.43589744 , 3085.12820513 , 3226.15384615 , 2990.76923077 , 2958.97435897 , 2628.20512821 , 2508.71794872 , 2451.28205128 , 3016.41025641 , 4367.69230769 , 4895.8974359 , 3995.8974359 , 2044.0 , 2035.0 , 159.445 , 0.0 , 0.0 , 0.0 , 0.0 , 

88.0 , 2983.07692308 , 4369.74358974 , 3327.17948718 , 3089.23076923 , 3227.17948718 , 2995.38461538 , 2962.05128205 , 2640.0 , 2517.94871795 , 2455.8974359 , 3020.0 , 4387.17948718 , 4871.79487179 , 4007.17948718 , 2043.0 , 2037.0 , 159.452 , 0.0 , 0.0 , 0.0 , 0.0 , 

89.0 , 2977.43589744 , 4391.28205128 , 3333.33333333 , 3090.25641026 , 3230.25641026 , 3005.64102564 , 2970.25641026 , 2641.02564103 , 2522.05128205 , 2461.53846154 , 3017.43589744 , 4370.25641026 , 4872.30769231 , 3982.56410256 , 2045.0 , 2038.0 , 159.461 , 0.0 , 0.0 , 0.0 , 0.0 , 

90.0 , 2985.12820513 , 4419.48717949 , 3340.51282051 , 3093.33333333 , 3233.33333333 , 3009.23076923 , 2975.38461538 , 2651.79487179 , 2529.74358974 , 2470.25641026 , 3028.71794872 , 4362.05128205 , 4911.79487179 , 4003.58974359 , 2045.0 , 2038.0 , 159.468 , 0.0 , 0.0 , 0.0 , 0.0 , 

91.0 , 3000.51282051 , 4392.30769231 , 3342.05128205 , 3100.51282051 , 3237.94871795 , 3012.30769231 , 2975.38461538 , 2664.61538462 , 2538.97435897 , 2475.8974359 , 3038.97435897 , 4351.79487179 , 4907.17948718 , 4006.66666667 , 2044.0 , 2038.0 , 159.477 , 0.0 , 0.0 , 0.0 , 0.0 , 

92.0 , 3020.0 , 4422.05128205 , 3370.76923077 , 3107.17948718 , 3243.07692308 , 3020.51282051 , 2979.48717949 , 2679.48717949 , 2544.1025641 , 2482.56410256 , 3047.17948718 , 4373.33333333 , 4950.76923077 , 4024.61538462 , 2044.0 , 2038.0 , 159.483 , 0.0 , 0.0 , 0.0 , 0.0 , 

93.0 , 3036.41025641 , 4461.53846154 , 3386.66666667 , 3107.69230769 , 3243.58974359 , 3024.61538462 , 2988.71794872 , 2688.20512821 , 2545.64102564 , 2493.33333333 , 3052.82051282 , 4393.84615385 , 4995.38461538 , 4082.56410256 , 2045.0 , 2038.0 , 159.491 , 0.0 , 0.0 , 0.0 , 0.0 , 

94.0 , 3053.84615385 , 4469.23076923 , 3401.02564103 , 3109.74358974 , 3242.05128205 , 3026.66666667 , 2995.38461538 , 2698.97435897 , 2555.38461538 , 2502.05128205 , 3062.56410256 , 4413.84615385 , 5020.0 , 4135.38461538 , 2044.0 , 2040.0 , 159.5 , 0.0 , 0.0 , 0.0 , 0.0 , 

95.0 , 3065.12820513 , 4471.28205128 , 3411.28205128 , 3114.35897436 , 3248.20512821 , 3031.79487179 , 2996.41025641 , 2706.15384615 , 2563.07692308 , 2506.66666667 , 3063.07692308 , 4435.38461538 , 5018.46153846 , 4131.28205128 , 2044.0 , 2040.0 , 159.508 , 0.0 , 0.0 , 0.0 , 0.0 , 

96.0 , 3054.87179487 , 4455.8974359 , 3400.0 , 3117.94871795 , 3256.92307692 , 3033.84615385 , 3002.56410256 , 2705.64102564 , 2567.69230769 , 2514.35897436 , 3062.05128205 , 4410.25641026 , 4993.84615385 , 4108.20512821 , 2043.0 , 2041.0 , 159.515 , 0.0 , 0.0 , 0.0 , 0.0 , 

97.0 , 3042.56410256 , 4415.8974359 , 3383.58974359 , 3119.48717949 , 3259.48717949 , 3033.33333333 , 3008.71794872 , 2701.02564103 , 2571.79487179 , 2525.64102564 , 3063.58974359 , 4381.02564103 , 4969.23076923 , 4112.30769231 , 2043.0 , 2040.0 , 159.523 , 0.0 , 0.0 , 0.0 , 0.0 , 

98.0 , 3024.61538462 , 4346.15384615 , 3364.1025641 , 3124.61538462 , 3258.46153846 , 3038.46153846 , 3010.76923077 , 2693.33333333 , 2580.51282051 , 2531.79487179 , 3062.56410256 , 4350.25641026 , 4898.97435897 , 4031.28205128 , 2042.0 , 2038.0 , 159.531 , 0.0 , 0.0 , 0.0 , 0.0 , 

99.0 , 3014.87179487 , 4345.12820513 , 3357.94871795 , 3131.79487179 , 3263.07692308 , 3046.66666667 , 3013.84615385 , 2694.35897436 , 2587.69230769 , 2534.87179487 , 3063.07692308 , 4371.79487179 , 4863.58974359 , 3997.94871795 , 2043.0 , 2037.0 , 159.54 , 0.0 , 0.0 , 0.0 , 0.0 , 

100.0 , 2994.35897436 , 4338.46153846 , 3326.15384615 , 3133.84615385 , 3267.17948718 , 3050.25641026 , 3021.02564103 , 2693.84615385 , 2593.33333333 , 2543.58974359 , 3064.1025641 , 4335.8974359 , 4815.38461538 , 3991.28205128 , 2042.0 , 2040.0 , 159.547 , 0.0 , 0.0 , 0.0 , 0.0 , 

101.0 , 2991.79487179 , 4365.12820513 , 3325.12820513 , 3135.38461538 , 3268.71794872 , 3054.87179487 , 3027.69230769 , 2699.48717949 , 2601.02564103 , 2551.28205128 , 3067.17948718 , 4348.71794872 , 4819.48717949 , 4018.46153846 , 2043.0 , 2039.0 , 159.554 , 0.0 , 0.0 , 0.0 , 0.0 , 

102.0 , 2986.15384615 , 4353.33333333 , 3313.84615385 , 3140.0 , 3272.82051282 , 3062.05128205 , 3030.25641026 , 2701.02564103 , 2606.66666667 , 2556.41025641 , 3068.20512821 , 4324.1025641 , 4798.46153846 , 3985.12820513 , 2042.0 , 2039.0 , 159.562 , 0.0 , 0.0 , 0.0 , 0.0 , 

103.0 , 2993.33333333 , 4395.38461538 , 3314.87179487 , 3146.15384615 , 3276.41025641 , 3067.69230769 , 3034.35897436 , 2713.33333333 , 2613.33333333 , 2565.64102564 , 3076.41025641 , 4314.87179487 , 4807.17948718 , 4000.0 , 2042.0 , 2037.0 , 159.57 , 0.0 , 0.0 , 0.0 , 0.0 , 

104.0 , 2992.30769231 , 4387.17948718 , 3318.46153846 , 3151.79487179 , 3276.41025641 , 3072.30769231 , 3038.97435897 , 2716.41025641 , 2620.51282051 , 2574.35897436 , 3079.48717949 , 4291.79487179 , 4802.05128205 , 3989.23076923 , 2042.0 , 2039.0 , 159.579 , 0.0 , 0.0 , 0.0 , 0.0 , 

105.0 , 3005.12820513 , 4364.1025641 , 3334.35897436 , 3154.87179487 , 3280.0 , 3076.41025641 , 3042.05128205 , 2727.69230769 , 2627.69230769 , 2579.48717949 , 3087.69230769 , 4298.97435897 , 4821.02564103 , 3989.74358974 , 2042.0 , 2037.0 , 159.586 , 0.0 , 0.0 , 0.0 , 0.0 , 

106.0 , 3014.87179487 , 4330.25641026 , 3336.41025641 , 3154.87179487 , 3284.61538462 , 3080.51282051 , 3045.64102564 , 2736.41025641 , 2629.23076923 , 2587.69230769 , 3094.87179487 , 4252.82051282 , 4820.0 , 3960.51282051 , 2041.0 , 2036.0 , 159.595 , 0.0 , 0.0 , 0.0 , 0.0 , 

107.0 , 3043.58974359 , 4373.33333333 , 3367.69230769 , 3160.0 , 3288.71794872 , 3083.58974359 , 3052.82051282 , 2753.84615385 , 2637.43589744 , 2596.41025641 , 3106.15384615 , 4292.30769231 , 4867.17948718 , 4017.94871795 , 2040.0 , 2036.0 , 159.602 , 0.0 , 0.0 , 0.0 , 0.0 , 

108.0 , 3068.71794872 , 4377.43589744 , 3393.33333333 , 3167.17948718 , 3291.79487179 , 3087.69230769 , 3056.41025641 , 2765.64102564 , 2648.71794872 , 2600.51282051 , 3109.23076923 , 4348.71794872 , 4889.23076923 , 4096.41025641 , 2041.0 , 2035.0 , 159.611 , 0.0 , 0.0 , 0.0 , 0.0 , 

109.0 , 3088.20512821 , 4397.43589744 , 3408.71794872 , 3168.20512821 , 3293.84615385 , 3092.82051282 , 3058.46153846 , 2781.02564103 , 2654.35897436 , 2609.23076923 , 3116.41025641 , 4383.07692308 , 4926.15384615 , 4123.58974359 , 2042.0 , 2036.0 , 159.617 , 0.0 , 0.0 , 0.0 , 0.0 , 

110.0 , 3097.43589744 , 4411.79487179 , 3403.07692308 , 3170.76923077 , 3297.94871795 , 3094.35897436 , 3064.61538462 , 2785.12820513 , 2653.84615385 , 2619.48717949 , 3121.02564103 , 4386.15384615 , 4922.56410256 , 4104.1025641 , 2042.0 , 2037.0 , 159.627 , 0.0 , 0.0 , 0.0 , 0.0 , 

111.0 , 3110.76923077 , 4437.43589744 , 3428.20512821 , 3178.97435897 , 3303.58974359 , 3097.43589744 , 3070.25641026 , 2792.30769231 , 2662.56410256 , 2625.12820513 , 3128.20512821 , 4394.35897436 , 4952.82051282 , 4110.76923077 , 2043.0 , 2035.0 , 159.633 , 0.0 , 0.0 , 0.0 , 0.0 , 

112.0 , 3123.07692308 , 4439.48717949 , 3435.8974359 , 3182.05128205 , 3305.12820513 , 3104.61538462 , 3073.33333333 , 2800.51282051 , 2671.79487179 , 2631.28205128 , 3134.87179487 , 4410.25641026 , 4962.05128205 , 4083.07692308 , 2041.0 , 2035.0 , 159.641 , 0.0 , 0.0 , 0.0 , 0.0 , 

113.0 , 3132.82051282 , 4441.53846154 , 3450.76923077 , 3185.64102564 , 3306.15384615 , 3107.69230769 , 3077.94871795 , 2810.25641026 , 2677.94871795 , 2640.0 , 3143.58974359 , 4414.87179487 , 4980.0 , 4064.61538462 , 2041.0 , 2036.0 , 159.649 , 0.0 , 0.0 , 0.0 , 0.0 , 

114.0 , 3147.17948718 , 4442.05128205 , 3461.53846154 , 3189.74358974 , 3312.30769231 , 3110.25641026 , 3080.51282051 , 2819.48717949 , 2682.56410256 , 2645.12820513 , 3148.20512821 , 4407.69230769 , 4992.82051282 , 4063.58974359 , 2043.0 , 2036.0 , 159.658 , 0.0 , 0.0 , 0.0 , 0.0 , 

115.0 , 3163.07692308 , 4421.53846154 , 3477.43589744 , 3192.82051282 , 3318.46153846 , 3120.51282051 , 3085.64102564 , 2829.74358974 , 2693.33333333 , 2653.84615385 , 3156.41025641 , 4411.28205128 , 4990.76923077 , 4033.33333333 , 2044.0 , 2037.0 , 159.665 , 0.0 , 0.0 , 0.0 , 0.0 , 

116.0 , 3189.74358974 , 4447.69230769 , 3502.56410256 , 3196.92307692 , 3320.0 , 3126.66666667 , 3094.87179487 , 2846.15384615 , 2700.51282051 , 2661.53846154 , 3165.12820513 , 4466.66666667 , 5034.35897436 , 4108.71794872 , 2045.0 , 2035.0 , 159.672 , 0.0 , 0.0 , 0.0 , 0.0 , 

117.0 , 3204.1025641 , 4454.87179487 , 3511.28205128 , 3200.0 , 3323.07692308 , 3125.64102564 , 3099.48717949 , 2855.38461538 , 2702.56410256 , 2662.56410256 , 3166.66666667 , 4451.79487179 , 5048.20512821 , 4132.82051282 , 2043.0 , 2035.0 , 159.68 , 0.0 , 0.0 , 0.0 , 0.0 , 

118.0 , 3222.05128205 , 4492.30769231 , 3515.38461538 , 3202.05128205 , 3329.74358974 , 3130.76923077 , 3100.0 , 2863.07692308 , 2706.66666667 , 2668.20512821 , 3172.30769231 , 4468.20512821 , 5054.35897436 , 4164.61538462 , 2044.0 , 2036.0 , 159.688 , 0.0 , 0.0 , 0.0 , 0.0 , 

119.0 , 3227.69230769 , 4495.8974359 , 3518.97435897 , 3208.20512821 , 3331.28205128 , 3138.97435897 , 3106.15384615 , 2868.20512821 , 2716.41025641 , 2680.0 , 3178.97435897 , 4480.51282051 , 5032.82051282 , 4186.15384615 , 2044.0 , 2036.0 , 159.696 , 0.0 , 0.0 , 0.0 , 0.0 , 

120.0 , 3245.64102564 , 4532.82051282 , 3549.74358974 , 3212.30769231 , 3331.79487179 , 3142.05128205 , 3116.41025641 , 2883.58974359 , 2723.58974359 , 2688.20512821 , 3187.17948718 , 4517.94871795 , 5082.05128205 , 4220.51282051 , 2044.0 , 2036.0 , 159.704 , 0.0 , 0.0 , 0.0 , 0.0 , 

121.0 , 3256.92307692 , 4524.61538462 , 3541.02564103 , 3215.8974359 , 3336.41025641 , 3143.07692308 , 3118.97435897 , 2887.69230769 , 2726.15384615 , 2692.30769231 , 3187.69230769 , 4505.64102564 , 5074.35897436 , 4199.48717949 , 2045.0 , 2039.0 , 159.712 , 0.0 , 0.0 , 0.0 , 0.0 , 

122.0 , 3271.79487179 , 4545.64102564 , 3550.76923077 , 3225.12820513 , 3343.58974359 , 3144.1025641 , 3116.92307692 , 2894.87179487 , 2733.33333333 , 2698.97435897 , 3193.84615385 , 4521.02564103 , 5089.74358974 , 4211.28205128 , 2044.0 , 2039.0 , 159.72 , 0.0 , 0.0 , 0.0 , 0.0 , 

123.0 , 3265.64102564 , 4528.71794872 , 3542.56410256 , 3230.25641026 , 3345.12820513 , 3148.71794872 , 3121.02564103 , 2894.87179487 , 2740.0 , 2707.17948718 , 3195.38461538 , 4487.17948718 , 5069.23076923 , 4198.97435897 , 2045.0 , 2040.0 , 159.728 , 0.0 , 0.0 , 0.0 , 0.0 , 

124.0 , 3273.33333333 , 4537.94871795 , 3552.30769231 , 3229.74358974 , 3347.69230769 , 3158.97435897 , 3128.20512821 , 2902.05128205 , 2747.17948718 , 2717.43589744 , 3201.53846154 , 4493.33333333 , 5079.48717949 , 4210.76923077 , 2045.0 , 2039.0 , 159.736 , 0.0 , 0.0 , 0.0 , 0.0 , 

125.0 , 3272.82051282 , 4498.97435897 , 3540.0 , 3229.74358974 , 3353.33333333 , 3164.1025641 , 3129.74358974 , 2902.56410256 , 2753.33333333 , 2723.58974359 , 3199.48717949 , 4452.82051282 , 5046.66666667 , 4158.97435897 , 2043.0 , 2039.0 , 159.743 , 0.0 , 0.0 , 0.0 , 0.0 , 

126.0 , 3268.71794872 , 4486.66666667 , 3539.48717949 , 3231.28205128 , 3355.38461538 , 3163.58974359 , 3133.33333333 , 2905.64102564 , 2759.48717949 , 2726.66666667 , 3202.56410256 , 4430.25641026 , 5030.25641026 , 4146.15384615 , 2043.0 , 2039.0 , 159.751 , 0.0 , 0.0 , 0.0 , 0.0 , 

127.0 , 3251.28205128 , 4449.74358974 , 3517.43589744 , 3236.41025641 , 3355.8974359 , 3166.15384615 , 3140.0 , 2898.46153846 , 2761.02564103 , 2734.87179487 , 3201.02564103 , 4436.41025641 , 5000.0 , 4153.84615385 , 2043.0 , 2038.0 , 159.759 , 0.0 , 0.0 , 0.0 , 0.0 , 

128.0 , 3236.92307692 , 4413.33333333 , 3491.79487179 , 3243.07692308 , 3360.51282051 , 3174.87179487 , 3144.1025641 , 2897.43589744 , 2764.61538462 , 2743.07692308 , 3201.02564103 , 4452.82051282 , 4957.43589744 , 4115.38461538 , 2041.0 , 2036.0 , 159.767 , 0.0 , 0.0 , 0.0 , 0.0 , 

0.0 , 3212.82051282 , 4400.0 , 3474.87179487 , 3245.64102564 , 3364.1025641 , 3179.48717949 , 3146.15384615 , 2889.74358974 , 2770.76923077 , 2744.61538462 , 3198.97435897 , 4416.92307692 , 4917.94871795 , 4068.71794872 , 2042.0 , 2036.0 , 159.775 , 0.0 , 0.0 , 0.0 , 0.0 , 

1.0 , 3180.0 , 4410.25641026 , 3435.8974359 , 3247.17948718 , 3362.05128205 , 3178.46153846 , 3150.76923077 , 2878.46153846 , 2780.51282051 , 2750.25641026 , 3195.38461538 , 4366.15384615 , 4883.07692308 , 4081.53846154 , 2042.0 , 2034.0 , 159.783 , 0.0 , 0.0 , 0.0 , 0.0 , 

2.0 , 3149.74358974 , 4382.56410256 , 3404.1025641 , 3250.76923077 , 3366.66666667 , 3179.48717949 , 3154.87179487 , 2871.79487179 , 2785.64102564 , 2760.51282051 , 3187.69230769 , 4332.30769231 , 4842.05128205 , 4057.94871795 , 2044.0 , 2035.0 , 159.791 , 0.0 , 0.0 , 0.0 , 0.0 , 

3.0 , 3134.35897436 , 4337.43589744 , 3399.48717949 , 3255.8974359 , 3373.84615385 , 3189.23076923 , 3159.48717949 , 2875.38461538 , 2788.71794872 , 2769.23076923 , 3191.79487179 , 4302.05128205 , 4803.07692308 , 4051.28205128 , 2044.0 , 2037.0 , 159.799 , 0.0 , 0.0 , 0.0 , 0.0 , 

4.0 , 3137.94871795 , 4335.8974359 , 3414.87179487 , 3260.0 , 3374.87179487 , 3196.41025641 , 3164.1025641 , 2882.56410256 , 2793.84615385 , 2774.87179487 , 3201.53846154 , 4293.33333333 , 4807.69230769 , 4083.07692308 , 2041.0 , 2036.0 , 159.807 , 0.0 , 0.0 , 0.0 , 0.0 , 

5.0 , 3138.97435897 , 4333.84615385 , 3409.23076923 , 3264.1025641 , 3376.92307692 , 3196.41025641 , 3169.23076923 , 2889.23076923 , 2802.05128205 , 2781.02564103 , 3203.58974359 , 4264.61538462 , 4794.35897436 , 4049.74358974 , 2042.0 , 2034.0 , 159.814 , 0.0 , 0.0 , 0.0 , 0.0 , 

6.0 , 3149.74358974 , 4332.82051282 , 3415.8974359 , 3269.23076923 , 3382.05128205 , 3196.41025641 , 3173.84615385 , 2900.0 , 2805.64102564 , 2788.20512821 , 3207.69230769 , 4289.23076923 , 4788.20512821 , 4084.61538462 , 2043.0 , 2032.0 , 159.822 , 0.0 , 0.0 , 0.0 , 0.0 , 

7.0 , 3158.46153846 , 4301.02564103 , 3424.1025641 , 3274.35897436 , 3382.56410256 , 3202.56410256 , 3178.97435897 , 2908.20512821 , 2812.30769231 , 2792.30769231 , 3215.38461538 , 4312.82051282 , 4783.07692308 , 4080.51282051 , 2042.0 , 2031.0 , 159.832 , 0.0 , 0.0 , 0.0 , 0.0 , 

8.0 , 3178.46153846 , 4336.41025641 , 3448.71794872 , 3274.35897436 , 3382.05128205 , 3209.74358974 , 3183.07692308 , 2921.53846154 , 2818.97435897 , 2795.8974359 , 3222.56410256 , 4366.66666667 , 4820.51282051 , 4064.1025641 , 2044.0 , 2032.0 , 159.838 , 0.0 , 0.0 , 0.0 , 0.0 , 

9.0 , 3180.0 , 4344.1025641 , 3446.66666667 , 3274.87179487 , 3386.66666667 , 3215.38461538 , 3187.17948718 , 2922.56410256 , 2824.1025641 , 2803.58974359 , 3223.07692308 , 4349.23076923 , 4814.87179487 , 4013.33333333 , 2043.0 , 2034.0 , 159.847 , 0.0 , 0.0 , 0.0 , 0.0 , 

10.0 , 3180.51282051 , 4367.69230769 , 3429.23076923 , 3280.0 , 3392.30769231 , 3216.41025641 , 3192.30769231 , 2925.64102564 , 2830.25641026 , 2810.76923077 , 3229.23076923 , 4375.38461538 , 4800.51282051 , 4005.64102564 , 2042.0 , 2035.0 , 159.855 , 0.0 , 0.0 , 0.0 , 0.0 , 

11.0 , 3175.8974359 , 4358.97435897 , 3420.0 , 3284.61538462 , 3392.82051282 , 3217.43589744 , 3196.41025641 , 2929.74358974 , 2834.35897436 , 2816.41025641 , 3233.33333333 , 4370.25641026 , 4778.97435897 , 3979.48717949 , 2041.0 , 2037.0 , 159.862 , 0.0 , 0.0 , 0.0 , 0.0 , 

12.0 , 3199.48717949 , 4400.51282051 , 3453.33333333 , 3289.74358974 , 3395.38461538 , 3225.64102564 , 3196.41025641 , 2946.66666667 , 2839.48717949 , 2822.05128205 , 3242.05128205 , 4362.56410256 , 4840.51282051 , 4029.23076923 , 2042.0 , 2038.0 , 159.87 , 0.0 , 0.0 , 0.0 , 0.0 , 

13.0 , 3217.94871795 , 4403.07692308 , 3453.33333333 , 3294.35897436 , 3403.07692308 , 3231.28205128 , 3200.0 , 2953.84615385 , 2848.20512821 , 2829.23076923 , 3246.66666667 , 4328.20512821 , 4844.1025641 , 4017.43589744 , 2042.0 , 2038.0 , 159.877 , 0.0 , 0.0 , 0.0 , 0.0 , 

14.0 , 3244.1025641 , 4435.38461538 , 3489.23076923 , 3293.84615385 , 3406.15384615 , 3229.74358974 , 3207.69230769 , 2970.25641026 , 2857.94871795 , 2840.0 , 3258.46153846 , 4372.30769231 , 4891.28205128 , 4071.28205128 , 2041.0 , 2038.0 , 159.886 , 0.0 , 0.0 , 0.0 , 0.0 , 

15.0 , 3260.51282051 , 4412.30769231 , 3505.12820513 , 3293.33333333 , 3404.61538462 , 3231.28205128 , 3212.82051282 , 2978.97435897 , 2860.51282051 , 2845.12820513 , 3262.05128205 , 4372.82051282 , 4910.76923077 , 4165.12820513 , 2040.0 , 2038.0 , 159.893 , 0.0 , 0.0 , 0.0 , 0.0 , 

16.0 , 3272.82051282 , 4412.30769231 , 3507.17948718 , 3300.0 , 3408.71794872 , 3240.0 , 3215.38461538 , 2984.61538462 , 2866.15384615 , 2844.61538462 , 3264.1025641 , 4377.43589744 , 4904.61538462 , 4201.53846154 , 2041.0 , 2039.0 , 159.901 , 0.0 , 0.0 , 0.0 , 0.0 , 

17.0 , 3250.25641026 , 4400.0 , 3485.64102564 , 3305.12820513 , 3415.8974359 , 3243.07692308 , 3215.8974359 , 2973.84615385 , 2870.25641026 , 2851.79487179 , 3256.41025641 , 4377.43589744 , 4848.20512821 , 4145.64102564 , 2041.0 , 2038.0 , 159.909 , 0.0 , 0.0 , 0.0 , 0.0 , 

18.0 , 3206.15384615 , 4328.71794872 , 3436.92307692 , 3305.64102564 , 3416.41025641 , 3241.02564103 , 3220.0 , 2958.46153846 , 2873.33333333 , 2863.07692308 , 3249.74358974 , 4312.30769231 , 4776.41025641 , 4110.76923077 , 2042.0 , 2037.0 , 159.916 , 0.0 , 0.0 , 0.0 , 0.0 , 

19.0 , 3155.38461538 , 4250.76923077 , 3383.07692308 , 3307.17948718 , 3415.38461538 , 3243.07692308 , 3224.61538462 , 2936.41025641 , 2875.38461538 , 2865.64102564 , 3240.0 , 4230.76923077 , 4714.35897436 , 4050.25641026 , 2042.0 , 2036.0 , 159.925 , 0.0 , 0.0 , 0.0 , 0.0 , 

20.0 , 3111.79487179 , 4221.53846154 , 3340.51282051 , 3312.30769231 , 3419.48717949 , 3254.35897436 , 3227.17948718 , 2925.12820513 , 2880.0 , 2869.23076923 , 3234.87179487 , 4233.33333333 , 4670.25641026 , 3936.41025641 , 2042.0 , 2035.0 , 159.933 , 0.0 , 0.0 , 0.0 , 0.0 , 

21.0 , 3078.46153846 , 4204.1025641 , 3316.92307692 , 3318.46153846 , 3423.07692308 , 3263.07692308 , 3232.30769231 , 2918.97435897 , 2885.12820513 , 2874.87179487 , 3232.30769231 , 4216.92307692 , 4633.84615385 , 3883.07692308 , 2041.0 , 2033.0 , 159.941 , 0.0 , 0.0 , 0.0 , 0.0 , 

22.0 , 3051.79487179 , 4212.82051282 , 3290.25641026 , 3323.07692308 , 3424.61538462 , 3262.05128205 , 3241.53846154 , 2915.38461538 , 2891.79487179 , 2881.53846154 , 3234.87179487 , 4151.79487179 , 4591.79487179 , 3908.20512821 , 2042.0 , 2033.0 , 159.948 , 0.0 , 0.0 , 0.0 , 0.0 , 

23.0 , 3041.53846154 , 4219.48717949 , 3301.53846154 , 3324.61538462 , 3425.64102564 , 3260.51282051 , 3245.64102564 , 2916.92307692 , 2895.8974359 , 2888.20512821 , 3237.94871795 , 4143.58974359 , 4598.46153846 , 3935.8974359 , 2041.0 , 2033.0 , 159.956 , 0.0 , 0.0 , 0.0 , 0.0 , 

24.0 , 3032.30769231 , 4177.43589744 , 3285.64102564 , 3326.15384615 , 3426.66666667 , 3268.20512821 , 3243.07692308 , 2918.46153846 , 2904.1025641 , 2893.33333333 , 3236.41025641 , 4092.30769231 , 4552.30769231 , 3916.92307692 , 2040.0 , 2032.0 , 159.965 , 0.0 , 0.0 , 0.0 , 0.0 , 

25.0 , 3034.87179487 , 4180.0 , 3274.87179487 , 3326.15384615 , 3429.23076923 , 3275.38461538 , 3246.66666667 , 2925.64102564 , 2912.82051282 , 2898.97435897 , 3238.46153846 , 4083.07692308 , 4514.87179487 , 3930.25641026 , 2040.0 , 2033.0 , 159.972 , 0.0 , 0.0 , 0.0 , 0.0 , 

26.0 , 3026.66666667 , 4158.46153846 , 3271.79487179 , 3328.20512821 , 3433.84615385 , 3274.35897436 , 3255.38461538 , 2931.28205128 , 2914.87179487 , 2906.66666667 , 3244.1025641 , 4098.97435897 , 4503.58974359 , 3879.48717949 , 2040.0 , 2032.0 , 159.98 , 0.0 , 0.0 , 0.0 , 0.0 , 

27.0 , 3029.74358974 , 4162.05128205 , 3279.48717949 , 3333.84615385 , 3437.94871795 , 3273.84615385 , 3260.51282051 , 2938.97435897 , 2918.46153846 , 2912.30769231 , 3251.79487179 , 4134.35897436 , 4514.87179487 , 3870.25641026 , 2041.0 , 2032.0 , 160.009 , 0.0 , 0.0 , 0.0 , 0.0 , 

28.0 , 3025.64102564 , 4125.64102564 , 3269.23076923 , 3339.48717949 , 3440.0 , 3280.51282051 , 3261.53846154 , 2937.43589744 , 2927.69230769 , 2917.94871795 , 3252.82051282 , 4114.35897436 , 4479.48717949 , 3835.8974359 , 2040.0 , 2033.0 , 160.012 , 0.0 , 0.0 , 0.0 , 0.0 , 

29.0 , 3037.94871795 , 4150.76923077 , 3272.82051282 , 3340.0 , 3441.02564103 , 3287.17948718 , 3262.05128205 , 2947.69230769 , 2933.33333333 , 2924.1025641 , 3259.48717949 , 4165.12820513 , 4478.46153846 , 3807.17948718 , 2040.0 , 2032.0 , 160.012 , 0.0 , 0.0 , 0.0 , 0.0 , 

30.0 , 3040.51282051 , 4155.8974359 , 3279.48717949 , 3341.53846154 , 3443.07692308 , 3292.30769231 , 3266.66666667 , 2952.30769231 , 2935.38461538 , 2927.69230769 , 3263.58974359 , 4173.33333333 , 4482.05128205 , 3777.94871795 , 2042.0 , 2032.0 , 160.012 , 0.0 , 0.0 , 0.0 , 0.0 , 

31.0 , 3054.35897436 , 4193.33333333 , 3304.61538462 , 3347.69230769 , 3446.66666667 , 3294.35897436 , 3273.33333333 , 2966.15384615 , 2944.1025641 , 2933.33333333 , 3272.82051282 , 4167.69230769 , 4522.56410256 , 3832.30769231 , 2041.0 , 2033.0 , 160.019 , 0.0 , 0.0 , 0.0 , 0.0 , 

32.0 , 3074.35897436 , 4187.69230769 , 3310.76923077 , 3351.79487179 , 3449.74358974 , 3295.38461538 , 3277.43589744 , 2977.94871795 , 2952.30769231 , 2940.0 , 3280.51282051 , 4139.48717949 , 4518.97435897 , 3795.38461538 , 2041.0 , 2032.0 , 160.028 , 0.0 , 0.0 , 0.0 , 0.0 , 

33.0 , 3118.97435897 , 4216.92307692 , 3351.79487179 , 3352.30769231 , 3453.84615385 , 3301.02564103 , 3278.46153846 , 3000.51282051 , 2957.43589744 , 2948.20512821 , 3294.87179487 , 4195.8974359 , 4595.8974359 , 3860.0 , 2042.0 , 2033.0 , 160.035 , 0.0 , 0.0 , 0.0 , 0.0 , 

34.0 , 3149.23076923 , 4200.0 , 3375.8974359 , 3355.8974359 , 3456.41025641 , 3307.17948718 , 3283.07692308 , 3014.87179487 , 2961.02564103 , 2954.87179487 , 3300.51282051 , 4226.66666667 , 4655.38461538 , 3990.25641026 , 2042.0 , 2032.0 , 160.044 , 0.0 , 0.0 , 0.0 , 0.0 , 

35.0 , 3174.87179487 , 4251.28205128 , 3414.35897436 , 3362.56410256 , 3458.46153846 , 3307.69230769 , 3288.20512821 , 3031.28205128 , 2968.20512821 , 2957.94871795 , 3312.30769231 , 4258.97435897 , 4697.94871795 , 4015.8974359 , 2043.0 , 2034.0 , 160.052 , 0.0 , 0.0 , 0.0 , 0.0 , 

36.0 , 3205.12820513 , 4335.38461538 , 3427.17948718 , 3363.07692308 , 3463.58974359 , 3308.71794872 , 3290.25641026 , 3046.15384615 , 2973.84615385 , 2961.53846154 , 3321.02564103 , 4300.0 , 4686.15384615 , 3977.94871795 , 2042.0 , 2032.0 , 160.06 , 0.0 , 0.0 , 0.0 , 0.0 , 

37.0 , 3239.48717949 , 4369.23076923 , 3464.61538462 , 3364.1025641 , 3467.69230769 , 3314.87179487 , 3296.92307692 , 3064.1025641 , 2980.51282051 , 2970.25641026 , 3328.20512821 , 4326.66666667 , 4734.87179487 , 4010.25641026 , 2043.0 , 2033.0 , 160.068 , 0.0 , 0.0 , 0.0 , 0.0 , 

38.0 , 3257.94871795 , 4391.28205128 , 3483.07692308 , 3371.79487179 , 3469.74358974 , 3321.53846154 , 3301.02564103 , 3073.33333333 , 2983.58974359 , 2976.92307692 , 3332.82051282 , 4325.64102564 , 4772.82051282 , 4045.64102564 , 2043.0 , 2032.0 , 160.075 , 0.0 , 0.0 , 0.0 , 0.0 , 

39.0 , 3272.82051282 , 4422.05128205 , 3504.61538462 , 3376.92307692 , 3472.82051282 , 3324.1025641 , 3301.02564103 , 3077.94871795 , 2987.69230769 , 2981.02564103 , 3340.51282051 , 4332.82051282 , 4795.38461538 , 4043.58974359 , 2043.0 , 2033.0 , 160.083 , 0.0 , 0.0 , 0.0 , 0.0 , 

40.0 , 3285.12820513 , 4390.76923077 , 3512.82051282 , 3376.41025641 , 3474.35897436 , 3324.61538462 , 3305.12820513 , 3081.02564103 , 2993.84615385 , 2986.15384615 , 3342.56410256 , 4319.48717949 , 4802.56410256 , 4070.25641026 , 2043.0 , 2031.0 , 160.092 , 0.0 , 0.0 , 0.0 , 0.0 , 

41.0 , 3282.05128205 , 4347.17948718 , 3509.74358974 , 3379.48717949 , 3474.87179487 , 3329.23076923 , 3308.71794872 , 3084.61538462 , 2999.48717949 , 2992.30769231 , 3342.56410256 , 4282.05128205 , 4784.1025641 , 4097.43589744 , 2045.0 , 2033.0 , 160.099 , 0.0 , 0.0 , 0.0 , 0.0 , 

42.0 , 3287.17948718 , 4337.43589744 , 3517.94871795 , 3384.1025641 , 3481.02564103 , 3336.41025641 , 3312.82051282 , 3088.71794872 , 3000.51282051 , 2997.43589744 , 3344.61538462 , 4307.69230769 , 4801.02564103 , 4153.84615385 , 2044.0 , 2034.0 , 160.106 , 0.0 , 0.0 , 0.0 , 0.0 , 

43.0 , 3286.66666667 , 4290.25641026 , 3508.71794872 , 3387.69230769 , 3485.12820513 , 3340.51282051 , 3320.51282051 , 3089.74358974 , 3005.12820513 , 3004.61538462 , 3348.20512821 , 4275.38461538 , 4769.23076923 , 4141.02564103 , 2042.0 , 2034.0 , 160.115 , 0.0 , 0.0 , 0.0 , 0.0 , 

44.0 , 3287.69230769 , 4294.87179487 , 3503.58974359 , 3391.79487179 , 3484.1025641 , 3340.51282051 , 3325.12820513 , 3094.87179487 , 3011.28205128 , 3011.28205128 , 3350.76923077 , 4270.76923077 , 4737.94871795 , 4138.46153846 , 2042.0 , 2036.0 , 160.121 , 0.0 , 0.0 , 0.0 , 0.0 , 

45.0 , 3286.15384615 , 4289.23076923 , 3503.07692308 , 3394.35897436 , 3487.17948718 , 3343.58974359 , 3326.66666667 , 3099.48717949 , 3015.38461538 , 3013.33333333 , 3353.33333333 , 4282.05128205 , 4720.0 , 4127.17948718 , 2042.0 , 2038.0 , 160.13 , 0.0 , 0.0 , 0.0 , 0.0 , 

46.0 , 3315.38461538 , 4332.30769231 , 3535.8974359 , 3395.8974359 , 3491.79487179 , 3348.20512821 , 3330.25641026 , 3116.41025641 , 3021.53846154 , 3016.92307692 , 3365.12820513 , 4353.84615385 , 4781.02564103 , 4117.43589744 , 2042.0 , 2037.0 , 160.137 , 0.0 , 0.0 , 0.0 , 0.0 , 

47.0 , 3343.58974359 , 4355.8974359 , 3564.1025641 , 3400.0 , 3492.30769231 , 3351.79487179 , 3333.33333333 , 3130.76923077 , 3030.76923077 , 3025.64102564 , 3372.82051282 , 4378.46153846 , 4806.15384615 , 4090.76923077 , 2042.0 , 2037.0 , 160.145 , 0.0 , 0.0 , 0.0 , 0.0 , 

48.0 , 3391.79487179 , 4416.41025641 , 3616.41025641 , 3407.17948718 , 3495.8974359 , 3354.87179487 , 3334.87179487 , 3154.35897436 , 3038.97435897 , 3031.28205128 , 3387.69230769 , 4411.79487179 , 4894.87179487 , 4180.0 , 2042.0 , 2038.0 , 160.152 , 0.0 , 0.0 , 0.0 , 0.0 , 

49.0 , 3435.8974359 , 4423.58974359 , 3648.20512821 , 3411.28205128 , 3503.07692308 , 3357.43589744 , 3341.02564103 , 3173.84615385 , 3041.02564103 , 3035.38461538 , 3402.05128205 , 4397.43589744 , 4947.69230769 , 4218.46153846 , 2040.0 , 2038.0 , 160.161 , 0.0 , 0.0 , 0.0 , 0.0 , 

50.0 , 3485.12820513 , 4492.30769231 , 3707.69230769 , 3411.79487179 , 3508.71794872 , 3362.05128205 , 3345.12820513 , 3197.94871795 , 3045.12820513 , 3043.58974359 , 3414.87179487 , 4465.64102564 , 5032.82051282 , 4291.28205128 , 2041.0 , 2039.0 , 160.169 , 0.0 , 0.0 , 0.0 , 0.0 , 

51.0 , 3515.38461538 , 4508.20512821 , 3734.35897436 , 3411.79487179 , 3510.76923077 , 3367.69230769 , 3345.64102564 , 3207.17948718 , 3051.28205128 , 3051.79487179 , 3416.92307692 , 4509.74358974 , 5058.97435897 , 4354.35897436 , 2041.0 , 2039.0 , 160.177 , 0.0 , 0.0 , 0.0 , 0.0 , 

52.0 , 3540.0 , 4516.92307692 , 3749.23076923 , 3416.41025641 , 3511.28205128 , 3371.28205128 , 3349.74358974 , 3215.8974359 , 3058.46153846 , 3054.35897436 , 3424.1025641 , 4546.15384615 , 5083.07692308 , 4356.41025641 , 2042.0 , 2040.0 , 160.184 , 0.0 , 0.0 , 0.0 , 0.0 , 

53.0 , 3544.61538462 , 4495.38461538 , 3730.25641026 , 3422.05128205 , 3514.35897436 , 3371.79487179 , 3354.35897436 , 3217.43589744 , 3058.97435897 , 3055.8974359 , 3425.12820513 , 4567.69230769 , 5049.74358974 , 4302.56410256 , 2041.0 , 2040.0 , 160.193 , 0.0 , 0.0 , 0.0 , 0.0 , 

54.0 , 3553.84615385 , 4546.66666667 , 3763.07692308 , 3424.61538462 , 3518.46153846 , 3375.38461538 , 3356.92307692 , 3225.12820513 , 3063.07692308 , 3061.53846154 , 3430.25641026 , 4604.61538462 , 5088.71794872 , 4317.43589744 , 2039.0 , 2039.0 , 160.2 , 0.0 , 0.0 , 0.0 , 0.0 , 

55.0 , 3566.15384615 , 4606.15384615 , 3764.1025641 , 3425.64102564 , 3519.48717949 , 3378.97435897 , 3359.48717949 , 3229.74358974 , 3072.30769231 , 3069.23076923 , 3434.35897436 , 4605.12820513 , 5094.87179487 , 4304.61538462 , 2039.0 , 2039.0 , 160.208 , 0.0 , 0.0 , 0.0 , 0.0 , 

56.0 , 3582.05128205 , 4641.02564103 , 3789.23076923 , 3429.23076923 , 3523.07692308 , 3381.02564103 , 3364.61538462 , 3237.43589744 , 3080.0 , 3074.87179487 , 3438.97435897 , 4620.51282051 , 5129.74358974 , 4313.84615385 , 2040.0 , 2039.0 , 160.216 , 0.0 , 0.0 , 0.0 , 0.0 , 

57.0 , 3592.30769231 , 4644.61538462 , 3801.53846154 , 3433.84615385 , 3529.74358974 , 3385.12820513 , 3367.69230769 , 3242.56410256 , 3081.53846154 , 3077.94871795 , 3438.97435897 , 4627.69230769 , 5164.61538462 , 4379.48717949 , 2040.0 , 2041.0 , 160.224 , 0.0 , 0.0 , 0.0 , 0.0 , 

58.0 , 3591.79487179 , 4636.41025641 , 3778.97435897 , 3436.92307692 , 3530.25641026 , 3390.76923077 , 3372.30769231 , 3242.05128205 , 3085.12820513 , 3081.53846154 , 3440.0 , 4595.8974359 , 5123.07692308 , 4342.56410256 , 2040.0 , 2040.0 , 160.232 , 0.0 , 0.0 , 0.0 , 0.0 , 

59.0 , 3576.41025641 , 4607.69230769 , 3765.64102564 , 3438.97435897 , 3531.79487179 , 3393.84615385 , 3376.41025641 , 3230.76923077 , 3086.66666667 , 3087.69230769 , 3434.87179487 , 4571.79487179 , 5100.0 , 4272.82051282 , 2042.0 , 2039.0 , 160.24 , 0.0 , 0.0 , 0.0 , 0.0 , 

60.0 , 3531.28205128 , 4512.82051282 , 3710.76923077 , 3443.07692308 , 3537.94871795 , 3397.43589744 , 3376.92307692 , 3213.33333333 , 3089.74358974 , 3094.87179487 , 3424.61538462 , 4479.48717949 , 4996.92307692 , 4292.30769231 , 2041.0 , 2039.0 , 160.249 , 0.0 , 0.0 , 0.0 , 0.0 , 

61.0 , 3487.69230769 , 4463.07692308 , 3667.17948718 , 3447.17948718 , 3540.51282051 , 3400.51282051 , 3377.94871795 , 3201.02564103 , 3096.41025641 , 3098.97435897 , 3416.41025641 , 4401.53846154 , 4896.41025641 , 4325.64102564 , 2041.0 , 2038.0 , 160.257 , 0.0 , 0.0 , 0.0 , 0.0 , 

62.0 , 3438.46153846 , 4415.38461538 , 3589.23076923 , 3447.69230769 , 3538.46153846 , 3403.58974359 , 3380.51282051 , 3185.64102564 , 3102.05128205 , 3101.53846154 , 3409.74358974 , 4367.17948718 , 4803.58974359 , 4164.1025641 , 2041.0 , 2039.0 , 160.264 , 0.0 , 0.0 , 0.0 , 0.0 , 

63.0 , 3394.87179487 , 4381.02564103 , 3553.84615385 , 3447.69230769 , 3538.97435897 , 3407.17948718 , 3385.64102564 , 3171.79487179 , 3103.58974359 , 3107.69230769 , 3403.58974359 , 4386.66666667 , 4750.25641026 , 4052.30769231 , 2041.0 , 2037.0 , 160.271 , 0.0 , 0.0 , 0.0 , 0.0 , 

64.0 , 3342.56410256 , 4323.07692308 , 3502.56410256 , 3448.20512821 , 3541.02564103 , 3411.28205128 , 3393.84615385 , 3152.30769231 , 3106.15384615 , 3114.87179487 , 3392.82051282 , 4295.8974359 , 4647.17948718 , 4043.07692308 , 2041.0 , 2039.0 , 160.28 , 0.0 , 0.0 , 0.0 , 0.0 , 

65.0 , 3311.79487179 , 4315.8974359 , 3469.23076923 , 3450.76923077 , 3544.1025641 , 3411.79487179 , 3396.41025641 , 3144.1025641 , 3112.82051282 , 3118.46153846 , 3388.20512821 , 4258.46153846 , 4594.87179487 , 4040.51282051 , 2042.0 , 2039.0 , 160.287 , 0.0 , 0.0 , 0.0 , 0.0 , 

66.0 , 3272.82051282 , 4250.25641026 , 3432.82051282 , 3455.38461538 , 3547.69230769 , 3413.33333333 , 3394.87179487 , 3135.8974359 , 3116.41025641 , 3121.53846154 , 3386.15384615 , 4231.79487179 , 4553.84615385 , 3965.12820513 , 2041.0 , 2038.0 , 160.296 , 0.0 , 0.0 , 0.0 , 0.0 , 

67.0 , 3249.74358974 , 4225.12820513 , 3418.97435897 , 3460.51282051 , 3547.69230769 , 3419.48717949 , 3397.94871795 , 3135.38461538 , 3117.43589744 , 3128.71794872 , 3389.74358974 , 4207.69230769 , 4514.35897436 , 3966.66666667 , 2040.0 , 2038.0 , 160.303 , 0.0 , 0.0 , 0.0 , 0.0 , 

68.0 , 3228.20512821 , 4198.46153846 , 3401.02564103 , 3461.53846154 , 3550.76923077 , 3422.05128205 , 3403.07692308 , 3129.23076923 , 3122.05128205 , 3133.84615385 , 3386.66666667 , 4180.0 , 4503.58974359 , 3903.58974359 , 2040.0 , 2040.0 , 160.311 , 0.0 , 0.0 , 0.0 , 0.0 , 

69.0 , 3217.94871795 , 4177.94871795 , 3373.84615385 , 3464.1025641 , 3555.38461538 , 3421.53846154 , 3406.66666667 , 3132.30769231 , 3131.79487179 , 3134.35897436 , 3389.74358974 , 4213.84615385 , 4495.38461538 , 3857.43589744 , 2041.0 , 2039.0 , 160.319 , 0.0 , 0.0 , 0.0 , 0.0 , 

70.0 , 3190.76923077 , 4165.12820513 , 3366.66666667 , 3469.23076923 , 3553.33333333 , 3425.12820513 , 3409.23076923 , 3125.64102564 , 3132.82051282 , 3138.97435897 , 3388.20512821 , 4155.8974359 , 4458.46153846 , 3870.25641026 , 2040.0 , 2038.0 , 160.327 , 0.0 , 0.0 , 0.0 , 0.0 , 

71.0 , 3167.17948718 , 4221.02564103 , 3342.56410256 , 3470.25641026 , 3553.84615385 , 3430.76923077 , 3413.33333333 , 3119.48717949 , 3133.33333333 , 3146.15384615 , 3383.58974359 , 4104.61538462 , 4449.23076923 , 3876.92307692 , 2041.0 , 2038.0 , 160.333 , 0.0 , 0.0 , 0.0 , 0.0 , 

72.0 , 3138.97435897 , 4180.0 , 3317.94871795 , 3469.23076923 , 3560.0 , 3431.28205128 , 3416.41025641 , 3110.25641026 , 3137.43589744 , 3150.76923077 , 3376.41025641 , 4078.46153846 , 4417.43589744 , 3804.61538462 , 2040.0 , 2038.0 , 160.342 , 0.0 , 0.0 , 0.0 , 0.0 , 

73.0 , 3110.76923077 , 4127.69230769 , 3298.46153846 , 3471.28205128 , 3562.05128205 , 3435.38461538 , 3418.46153846 , 3107.17948718 , 3142.56410256 , 3155.38461538 , 3376.41025641 , 4028.20512821 , 4391.79487179 , 3814.35897436 , 2040.0 , 2038.0 , 160.35 , 0.0 , 0.0 , 0.0 , 0.0 , 

74.0 , 3074.35897436 , 4098.46153846 , 3273.84615385 , 3475.38461538 , 3560.51282051 , 3440.51282051 , 3420.51282051 , 3092.82051282 , 3144.1025641 , 3160.51282051 , 3368.20512821 , 3983.58974359 , 4352.82051282 , 3776.41025641 , 2041.0 , 2036.0 , 160.359 , 0.0 , 0.0 , 0.0 , 0.0 , 

75.0 , 3036.92307692 , 4030.76923077 , 3235.38461538 , 3477.43589744 , 3563.07692308 , 3439.48717949 , 3424.1025641 , 3080.51282051 , 3148.71794872 , 3164.61538462 , 3364.1025641 , 4009.74358974 , 4301.02564103 , 3658.46153846 , 2040.0 , 2034.0 , 160.366 , 0.0 , 0.0 , 0.0 , 0.0 , 

76.0 , 2992.30769231 , 3962.05128205 , 3218.97435897 , 3477.94871795 , 3565.12820513 , 3440.0 , 3427.17948718 , 3067.17948718 , 3150.76923077 , 3166.66666667 , 3357.94871795 , 3974.87179487 , 4263.58974359 , 3570.25641026 , 2041.0 , 2035.0 , 160.374 , 0.0 , 0.0 , 0.0 , 0.0 , 

77.0 , 2928.71794872 , 3960.0 , 3173.33333333 , 3480.51282051 , 3563.07692308 , 3446.66666667 , 3427.69230769 , 3047.17948718 , 3155.38461538 , 3174.35897436 , 3344.61538462 , 3855.38461538 , 4243.07692308 , 3565.12820513 , 2043.0 , 2035.0 , 160.382 , 0.0 , 0.0 , 0.0 , 0.0 , 

78.0 , 2868.20512821 , 3899.48717949 , 3121.02564103 , 3483.07692308 , 3563.58974359 , 3448.20512821 , 3429.23076923 , 3025.64102564 , 3156.92307692 , 3181.02564103 , 3334.35897436 , 3779.48717949 , 4183.58974359 , 3492.82051282 , 2041.0 , 2035.0 , 160.39 , 0.0 , 0.0 , 0.0 , 0.0 , 

79.0 , 2811.28205128 , 3787.17948718 , 3070.76923077 , 3483.58974359 , 3566.66666667 , 3449.74358974 , 3432.30769231 , 3006.15384615 , 3158.97435897 , 3181.53846154 , 3330.76923077 , 3731.79487179 , 4087.69230769 , 3348.71794872 , 2041.0 , 2035.0 , 160.398 , 0.0 , 0.0 , 0.0 , 0.0 , 

80.0 , 2765.12820513 , 3749.23076923 , 3051.79487179 , 3485.12820513 , 3566.66666667 , 3456.41025641 , 3436.41025641 , 2997.43589744 , 3164.1025641 , 3184.1025641 , 3327.69230769 , 3665.64102564 , 4071.79487179 , 3235.8974359 , 2043.0 , 2035.0 , 160.405 , 0.0 , 0.0 , 0.0 , 0.0 , 

81.0 , 2727.17948718 , 3677.43589744 , 3037.43589744 , 3489.23076923 , 3568.20512821 , 3457.43589744 , 3444.1025641 , 2996.41025641 , 3170.76923077 , 3190.76923077 , 3325.64102564 , 3566.15384615 , 4036.41025641 , 3115.8974359 , 2043.0 , 2036.0 , 160.413 , 0.0 , 0.0 , 0.0 , 0.0 , 

82.0 , 2723.58974359 , 3674.35897436 , 3038.97435897 , 3491.79487179 , 3575.38461538 , 3456.41025641 , 3447.69230769 , 3004.1025641 , 3175.38461538 , 3196.41025641 , 3331.28205128 , 3585.12820513 , 4017.43589744 , 3126.15384615 , 2044.0 , 2035.0 , 160.421 , 0.0 , 0.0 , 0.0 , 0.0 , 

83.0 , 2719.48717949 , 3670.76923077 , 3039.48717949 , 3492.82051282 , 3575.8974359 , 3462.56410256 , 3446.66666667 , 3007.17948718 , 3181.02564103 , 3197.94871795 , 3332.30769231 , 3544.1025641 , 4021.53846154 , 3075.8974359 , 2044.0 , 2035.0 , 160.429 , 0.0 , 0.0 , 0.0 , 0.0 , 

84.0 , 2742.05128205 , 3680.0 , 3069.23076923 , 3497.94871795 , 3573.33333333 , 3468.20512821 , 3449.74358974 , 3027.17948718 , 3187.17948718 , 3202.56410256 , 3345.12820513 , 3534.87179487 , 4097.43589744 , 3091.28205128 , 2043.0 , 2038.0 , 160.436 , 0.0 , 0.0 , 0.0 , 0.0 , 

85.0 , 2786.66666667 , 3709.23076923 , 3107.17948718 , 3503.07692308 , 3575.8974359 , 3470.76923077 , 3458.46153846 , 3054.87179487 , 3192.30769231 , 3211.28205128 , 3365.64102564 , 3605.64102564 , 4121.02564103 , 3166.66666667 , 2044.0 , 2036.0 , 160.445 , 0.0 , 0.0 , 0.0 , 0.0 , 

86.0 , 2863.58974359 , 3847.17948718 , 3166.15384615 , 3503.07692308 , 3578.46153846 , 3475.8974359 , 3461.53846154 , 3093.33333333 , 3200.0 , 3215.8974359 , 3390.76923077 , 3765.64102564 , 4170.25641026 , 3393.33333333 , 2045.0 , 2037.0 , 160.452 , 0.0 , 0.0 , 0.0 , 0.0 , 

87.0 , 2919.48717949 , 3874.35897436 , 3189.23076923 , 3504.1025641 , 3579.48717949 , 3477.94871795 , 3461.02564103 , 3117.43589744 , 3206.15384615 , 3216.92307692 , 3403.07692308 , 3808.20512821 , 4186.15384615 , 3561.53846154 , 2045.0 , 2038.0 , 160.461 , 0.0 , 0.0 , 0.0 , 0.0 , 

88.0 , 2969.74358974 , 3928.71794872 , 3252.30769231 , 3511.28205128 , 3582.56410256 , 3479.48717949 , 3466.15384615 , 3139.48717949 , 3212.30769231 , 3222.56410256 , 3416.92307692 , 3856.92307692 , 4257.43589744 , 3644.1025641 , 2043.0 , 2037.0 , 160.467 , 0.0 , 0.0 , 0.0 , 0.0 , 

89.0 , 3029.74358974 , 4033.33333333 , 3275.8974359 , 3514.87179487 , 3583.58974359 , 3485.64102564 , 3470.25641026 , 3167.69230769 , 3217.43589744 , 3228.71794872 , 3432.30769231 , 3956.41025641 , 4287.17948718 , 3686.15384615 , 2045.0 , 2037.0 , 160.477 , 0.0 , 0.0 , 0.0 , 0.0 , 

90.0 , 3117.43589744 , 4054.35897436 , 3335.8974359 , 3516.41025641 , 3588.20512821 , 3489.23076923 , 3471.79487179 , 3209.23076923 , 3222.56410256 , 3231.28205128 , 3454.87179487 , 4057.94871795 , 4350.25641026 , 3731.79487179 , 2045.0 , 2036.0 , 160.484 , 0.0 , 0.0 , 0.0 , 0.0 , 

91.0 , 3142.05128205 , 3986.66666667 , 3375.38461538 , 3516.92307692 , 3592.82051282 , 3487.69230769 , 3473.84615385 , 3206.15384615 , 3220.51282051 , 3236.92307692 , 3450.76923077 , 4036.92307692 , 4402.56410256 , 3833.33333333 , 2045.0 , 2036.0 , 160.492 , 0.0 , 0.0 , 0.0 , 0.0 , 

92.0 , 3070.25641026 , 4010.25641026 , 3308.20512821 , 3516.41025641 , 3590.76923077 , 3487.69230769 , 3478.46153846 , 3163.07692308 , 3217.94871795 , 3244.61538462 , 3424.1025641 , 3931.28205128 , 4360.0 , 3826.15384615 , 2042.0 , 2035.0 , 160.5 , 0.0 , 0.0 , 0.0 , 0.0 , 

93.0 , 2966.66666667 , 3960.51282051 , 3203.07692308 , 3516.41025641 , 3593.84615385 , 3489.74358974 , 3478.46153846 , 3115.38461538 , 3217.94871795 , 3243.07692308 , 3394.35897436 , 3832.82051282 , 4217.94871795 , 3577.43589744 , 2043.0 , 2034.0 , 160.509 , 0.0 , 0.0 , 0.0 , 0.0 , 

94.0 , 2878.97435897 , 3783.07692308 , 3154.87179487 , 3520.0 , 3597.43589744 , 3494.35897436 , 3478.97435897 , 3085.64102564 , 3226.15384615 , 3244.61538462 , 3376.41025641 , 3746.15384615 , 4115.8974359 , 3337.94871795 , 2044.0 , 2033.0 , 160.516 , 0.0 , 0.0 , 0.0 , 0.0 , 

95.0 , 2812.30769231 , 3711.79487179 , 3123.58974359 , 3521.02564103 , 3595.38461538 , 3501.02564103 , 3484.1025641 , 3064.61538462 , 3230.76923077 , 3253.33333333 , 3365.64102564 , 3668.71794872 , 4069.74358974 , 3293.84615385 , 2044.0 , 2032.0 , 160.523 , 0.0 , 0.0 , 0.0 , 0.0 , 

96.0 , 2798.97435897 , 3758.97435897 , 3109.74358974 , 3523.07692308 , 3595.38461538 , 3505.64102564 , 3488.71794872 , 3072.30769231 , 3234.35897436 , 3261.53846154 , 3373.84615385 , 3640.0 , 4048.20512821 , 3292.30769231 , 2044.0 , 2035.0 , 160.531 , 0.0 , 0.0 , 0.0 , 0.0 , 

97.0 , 2855.38461538 , 3764.61538462 , 3176.92307692 , 3529.23076923 , 3597.43589744 , 3505.12820513 , 3489.74358974 , 3111.79487179 , 3242.56410256 , 3265.64102564 , 3400.0 , 3706.15384615 , 4123.58974359 , 3358.46153846 , 2043.0 , 2036.0 , 160.539 , 0.0 , 0.0 , 0.0 , 0.0 , 

98.0 , 2922.05128205 , 3767.69230769 , 3227.69230769 , 3531.79487179 , 3597.43589744 , 3507.69230769 , 3493.33333333 , 3150.76923077 , 3251.28205128 , 3270.76923077 , 3424.1025641 , 3772.30769231 , 4182.05128205 , 3501.02564103 , 2043.0 , 2037.0 , 160.547 , 0.0 , 0.0 , 0.0 , 0.0 , 

99.0 , 2996.92307692 , 3915.8974359 , 3268.71794872 , 3530.25641026 , 3603.07692308 , 3512.30769231 , 3498.97435897 , 3184.1025641 , 3254.35897436 , 3273.84615385 , 3443.58974359 , 3892.82051282 , 4220.51282051 , 3607.69230769 , 2043.0 , 2039.0 , 160.554 , 0.0 , 0.0 , 0.0 , 0.0 , 

100.0 , 3065.12820513 , 3984.61538462 , 3316.41025641 , 3535.8974359 , 3607.17948718 , 3511.79487179 , 3500.0 , 3212.82051282 , 3259.48717949 , 3275.38461538 , 3461.02564103 , 3968.71794872 , 4249.74358974 , 3630.76923077 , 2044.0 , 2039.0 , 160.563 , 0.0 , 0.0 , 0.0 , 0.0 , 

101.0 , 3134.35897436 , 4014.35897436 , 3380.51282051 , 3544.61538462 , 3606.66666667 , 3513.84615385 , 3500.0 , 3246.15384615 , 3266.66666667 , 3281.53846154 , 3479.48717949 , 4014.87179487 , 4349.23076923 , 3790.76923077 , 2042.0 , 2039.0 , 160.572 , 0.0 , 0.0 , 0.0 , 0.0 , 

102.0 , 3182.05128205 , 4030.25641026 , 3401.02564103 , 3547.17948718 , 3610.25641026 , 3522.56410256 , 3506.15384615 , 3261.53846154 , 3269.23076923 , 3289.23076923 , 3488.71794872 , 4004.1025641 , 4366.66666667 , 3882.05128205 , 2043.0 , 2039.0 , 160.58 , 0.0 , 0.0 , 0.0 , 0.0 , 

103.0 , 3230.76923077 , 4077.94871795 , 3452.30769231 , 3546.15384615 , 3613.33333333 , 3525.64102564 , 3512.30769231 , 3274.87179487 , 3271.28205128 , 3290.76923077 , 3495.38461538 , 4062.56410256 , 4405.12820513 , 3930.25641026 , 2043.0 , 2040.0 , 160.588 , 0.0 , 0.0 , 0.0 , 0.0 , 

104.0 , 3236.92307692 , 4052.30769231 , 3442.56410256 , 3546.15384615 , 3613.84615385 , 3524.1025641 , 3511.28205128 , 3274.35897436 , 3274.87179487 , 3291.79487179 , 3492.82051282 , 4080.51282051 , 4415.8974359 , 3921.02564103 , 2042.0 , 2038.0 , 160.595 , 0.0 , 0.0 , 0.0 , 0.0 , 

105.0 , 3223.58974359 , 4033.84615385 , 3434.35897436 , 3549.74358974 , 3617.43589744 , 3529.23076923 , 3511.79487179 , 3271.28205128 , 3278.46153846 , 3298.46153846 , 3490.25641026 , 4077.43589744 , 4426.66666667 , 3892.82051282 , 2044.0 , 2037.0 , 160.602 , 0.0 , 0.0 , 0.0 , 0.0 , 

106.0 , 3187.17948718 , 4016.41025641 , 3394.35897436 , 3551.79487179 , 3620.51282051 , 3533.84615385 , 3519.48717949 , 3253.84615385 , 3280.0 , 3305.12820513 , 3477.43589744 , 4015.8974359 , 4366.66666667 , 3848.20512821 , 2044.0 , 2036.0 , 160.611 , 0.0 , 0.0 , 0.0 , 0.0 , 

107.0 , 3154.35897436 , 4043.58974359 , 3370.25641026 , 3551.28205128 , 3622.05128205 , 3532.30769231 , 3524.1025641 , 3238.97435897 , 3284.1025641 , 3306.15384615 , 3468.20512821 , 3971.79487179 , 4360.0 , 3826.15384615 , 2044.0 , 2035.0 , 160.617 , 0.0 , 0.0 , 0.0 , 0.0 , 

108.0 , 3108.71794872 , 3985.12820513 , 3324.61538462 , 3551.79487179 , 3625.12820513 , 3533.33333333 , 3521.53846154 , 3214.35897436 , 3285.64102564 , 3308.20512821 , 3455.8974359 , 3930.76923077 , 4318.97435897 , 3767.17948718 , 2043.0 , 2034.0 , 160.626 , 0.0 , 0.0 , 0.0 , 0.0 , 

109.0 , 3058.97435897 , 3894.87179487 , 3287.17948718 , 3557.94871795 , 3625.64102564 , 3537.94871795 , 3524.61538462 , 3196.92307692 , 3287.69230769 , 3314.35897436 , 3447.69230769 , 3910.25641026 , 4245.64102564 , 3729.23076923 , 2043.0 , 2034.0 , 160.633 , 0.0 , 0.0 , 0.0 , 0.0 , 

110.0 , 3001.02564103 , 3825.64102564 , 3263.07692308 , 3557.94871795 , 3625.64102564 , 3538.97435897 , 3531.79487179 , 3179.48717949 , 3293.33333333 , 3318.97435897 , 3437.43589744 , 3818.46153846 , 4189.74358974 , 3647.17948718 , 2043.0 , 2032.0 , 160.642 , 0.0 , 0.0 , 0.0 , 0.0 , 

111.0 , 2955.8974359 , 3814.87179487 , 3231.28205128 , 3556.92307692 , 3628.20512821 , 3541.53846154 , 3531.28205128 , 3168.71794872 , 3300.51282051 , 3320.51282051 , 3434.35897436 , 3750.25641026 , 4178.97435897 , 3567.17948718 , 2042.0 , 2033.0 , 160.649 , 0.0 , 0.0 , 0.0 , 0.0 , 

112.0 , 2929.74358974 , 3775.38461538 , 3223.07692308 , 3564.1025641 , 3629.23076923 , 3548.20512821 , 3531.79487179 , 3161.02564103 , 3300.0 , 3324.61538462 , 3431.28205128 , 3717.94871795 , 4164.1025641 , 3494.87179487 , 2041.0 , 2033.0 , 160.658 , 0.0 , 0.0 , 0.0 , 0.0 , 

113.0 , 2914.87179487 , 3765.12820513 , 3213.84615385 , 3569.23076923 , 3628.71794872 , 3549.74358974 , 3540.0 , 3162.05128205 , 3303.58974359 , 3331.79487179 , 3433.33333333 , 3697.43589744 , 4144.61538462 , 3454.35897436 , 2043.0 , 2033.0 , 160.664 , 0.0 , 0.0 , 0.0 , 0.0 , 

114.0 , 2911.28205128 , 3789.74358974 , 3210.25641026 , 3567.69230769 , 3631.28205128 , 3550.76923077 , 3544.1025641 , 3167.17948718 , 3309.23076923 , 3336.41025641 , 3436.92307692 , 3695.8974359 , 4150.76923077 , 3491.79487179 , 2041.0 , 2035.0 , 160.673 , 0.0 , 0.0 , 0.0 , 0.0 , 

115.0 , 2911.28205128 , 3770.25641026 , 3218.97435897 , 3567.69230769 , 3634.87179487 , 3556.92307692 , 3543.07692308 , 3173.33333333 , 3313.84615385 , 3338.97435897 , 3444.1025641 , 3672.82051282 , 4140.0 , 3498.46153846 , 2042.0 , 2034.0 , 160.681 , 0.0 , 0.0 , 0.0 , 0.0 , 

116.0 , 2933.33333333 , 3818.97435897 , 3218.46153846 , 3568.20512821 , 3638.97435897 , 3558.97435897 , 3545.64102564 , 3188.20512821 , 3315.8974359 , 3341.02564103 , 3454.35897436 , 3723.07692308 , 4117.43589744 , 3498.46153846 , 2040.0 , 2033.0 , 160.689 , 0.0 , 0.0 , 0.0 , 0.0 , 

117.0 , 2989.23076923 , 3921.53846154 , 3276.92307692 , 3570.76923077 , 3641.53846154 , 3557.43589744 , 3552.30769231 , 3223.58974359 , 3323.58974359 , 3345.12820513 , 3474.35897436 , 3788.71794872 , 4157.94871795 , 3517.94871795 , 2041.0 , 2033.0 , 160.697 , 0.0 , 0.0 , 0.0 , 0.0 , 

118.0 , 3118.46153846 , 4040.51282051 , 3378.46153846 , 3577.94871795 , 3642.05128205 , 3562.56410256 , 3553.84615385 , 3292.82051282 , 3336.41025641 , 3352.30769231 , 3513.84615385 , 3926.15384615 , 4278.46153846 , 3698.46153846 , 2041.0 , 2032.0 , 160.705 , 0.0 , 0.0 , 0.0 , 0.0 , 

119.0 , 3284.1025641 , 4103.07692308 , 3526.66666667 , 3585.12820513 , 3642.05128205 , 3568.71794872 , 3555.38461538 , 3367.17948718 , 3347.17948718 , 3357.43589744 , 3559.48717949 , 4067.69230769 , 4433.33333333 , 3930.76923077 , 2040.0 , 2034.0 , 160.713 , 0.0 , 0.0 , 0.0 , 0.0 , 

120.0 , 3467.69230769 , 4248.71794872 , 3716.92307692 , 3587.69230769 , 3645.12820513 , 3569.23076923 , 3560.0 , 3443.07692308 , 3350.76923077 , 3358.46153846 , 3602.05128205 , 4264.1025641 , 4669.74358974 , 4153.33333333 , 2039.0 , 2033.0 , 160.72 , 0.0 , 0.0 , 0.0 , 0.0 , 

121.0 , 3621.53846154 , 4394.87179487 , 3860.0 , 3590.76923077 , 3651.28205128 , 3571.28205128 , 3562.56410256 , 3502.05128205 , 3353.33333333 , 3362.05128205 , 3630.76923077 , 4402.05128205 , 4843.58974359 , 4244.1025641 , 2038.0 , 2033.0 , 160.729 , 0.0 , 0.0 , 0.0 , 0.0 , 

122.0 , 3754.87179487 , 4582.56410256 , 4024.61538462 , 3595.8974359 , 3655.8974359 , 3577.43589744 , 3565.12820513 , 3547.17948718 , 3357.94871795 , 3369.23076923 , 3654.87179487 , 4559.48717949 , 5073.84615385 , 4383.07692308 , 2039.0 , 2033.0 , 160.736 , 0.0 , 0.0 , 0.0 , 0.0 , 

123.0 , 3835.8974359 , 4670.76923077 , 4077.94871795 , 3597.43589744 , 3658.46153846 , 3579.48717949 , 3569.74358974 , 3564.1025641 , 3357.94871795 , 3370.76923077 , 3660.51282051 , 4641.53846154 , 5161.02564103 , 4547.69230769 , 2039.0 , 2035.0 , 160.744 , 0.0 , 0.0 , 0.0 , 0.0 , 

124.0 , 3875.8974359 , 4687.17948718 , 4103.58974359 , 3596.41025641 , 3664.1025641 , 3580.51282051 , 3570.25641026 , 3570.25641026 , 3358.46153846 , 3370.76923077 , 3659.48717949 , 4678.97435897 , 5189.74358974 , 4595.8974359 , 2040.0 , 2032.0 , 160.751 , 0.0 , 0.0 , 0.0 , 0.0 , 

125.0 , 3869.74358974 , 4647.69230769 , 4064.1025641 , 3594.87179487 , 3667.69230769 , 3580.51282051 , 3567.69230769 , 3556.41025641 , 3360.51282051 , 3374.87179487 , 3651.28205128 , 4656.92307692 , 5125.64102564 , 4502.05128205 , 2041.0 , 2033.0 , 160.76 , 0.0 , 0.0 , 0.0 , 0.0 , 

126.0 , 3868.20512821 , 4644.1025641 , 4067.69230769 , 3600.51282051 , 3669.74358974 , 3581.53846154 , 3574.35897436 , 3552.30769231 , 3364.1025641 , 3376.92307692 , 3651.79487179 , 4662.05128205 , 5135.38461538 , 4497.94871795 , 2041.0 , 2033.0 , 160.767 , 0.0 , 0.0 , 0.0 , 0.0 , 

127.0 , 3876.41025641 , 4621.02564103 , 4086.15384615 , 3607.17948718 , 3673.84615385 , 3585.12820513 , 3578.97435897 , 3554.87179487 , 3367.69230769 , 3377.94871795 , 3652.82051282 , 4681.02564103 , 5125.12820513 , 4564.1025641 , 2041.0 , 2033.0 , 160.776 , 0.0 , 0.0 , 0.0 , 0.0 , 

128.0 , 3912.30769231 , 4712.82051282 , 4124.61538462 , 3609.23076923 , 3674.35897436 , 3591.28205128 , 3575.8974359 , 3572.82051282 , 3375.38461538 , 3386.66666667 , 3666.15384615 , 4753.84615385 , 5181.53846154 , 4613.33333333 , 2041.0 , 2034.0 , 160.783 , 0.0 , 0.0 , 0.0 , 0.0 , 

0.0 , 3989.74358974 , 4840.51282051 , 4210.76923077 , 3610.25641026 , 3674.87179487 , 3595.38461538 , 3579.48717949 , 3607.69230769 , 3383.07692308 , 3395.8974359 , 3691.28205128 , 4844.61538462 , 5278.97435897 , 4650.76923077 , 2042.0 , 2032.0 , 160.792 , 0.0 , 0.0 , 0.0 , 0.0 , 

1.0 , 4124.1025641 , 5117.94871795 , 4504.1025641 , 3615.38461538 , 3681.53846154 , 3594.35897436 , 3590.25641026 , 3673.84615385 , 3393.33333333 , 3397.94871795 , 3733.84615385 , 5164.61538462 , 5610.25641026 , 4953.84615385 , 2041.0 , 2033.0 , 160.798 , 0.0 , 0.0 , 0.0 , 0.0 , 

2.0 , 4303.58974359 , 5391.79487179 , 4726.15384615 , 3621.02564103 , 3688.71794872 , 3596.41025641 , 3592.82051282 , 3754.87179487 , 3401.53846154 , 3400.0 , 3781.53846154 , 5422.56410256 , 5869.74358974 , 5246.66666667 , 2042.0 , 2034.0 , 160.807 , 0.0 , 0.0 , 0.0 , 0.0 , 

3.0 , 4505.12820513 , 5900.0 , 5015.38461538 , 3625.12820513 , 3700.0 , 3603.58974359 , 3591.79487179 , 3838.97435897 , 3410.76923077 , 3405.12820513 , 3836.92307692 , 6086.15384615 , 6353.33333333 , 5992.30769231 , 2043.0 , 2034.0 , 160.815 , 0.0 , 0.0 , 0.0 , 0.0 , 

4.0 , 4700.51282051 , 6206.66666667 , 5186.66666667 , 3628.20512821 , 3709.23076923 , 3605.64102564 , 3596.41025641 , 3911.79487179 , 3417.43589744 , 3408.71794872 , 3876.41025641 , 6525.64102564 , 6698.97435897 , 6467.17948718 , 2040.0 , 2034.0 , 160.823 , 0.0 , 0.0 , 0.0 , 0.0 , 

5.0 , 4847.17948718 , 6626.15384615 , 5356.41025641 , 3630.25641026 , 3713.84615385 , 3606.66666667 , 3597.43589744 , 3957.43589744 , 3418.97435897 , 3411.79487179 , 3899.48717949 , 6956.92307692 , 7127.69230769 , 6900.0 , 2043.0 , 2034.0 , 160.831 , 0.0 , 0.0 , 0.0 , 0.0 , 

6.0 , 4961.02564103 , 6935.38461538 , 5349.74358974 , 3633.33333333 , 3718.97435897 , 3609.23076923 , 3596.92307692 , 3988.71794872 , 3416.41025641 , 3412.82051282 , 3915.38461538 , 7394.87179487 , 7364.61538462 , 7395.8974359 , 2041.0 , 2036.0 , 160.84 , 0.0 , 0.0 , 0.0 , 0.0 , 

7.0 , 5036.41025641 , 7272.30769231 , 5430.76923077 , 3637.43589744 , 3728.71794872 , 3609.23076923 , 3602.05128205 , 4003.07692308 , 3417.43589744 , 3416.92307692 , 3922.05128205 , 7767.17948718 , 7643.07692308 , 7802.05128205 , 2043.0 , 2037.0 , 160.848 , 0.0 , 0.0 , 0.0 , 0.0 , 

8.0 , 5082.56410256 , 7413.84615385 , 5426.15384615 , 3638.97435897 , 3734.35897436 , 3609.74358974 , 3605.64102564 , 4006.15384615 , 3420.0 , 3423.07692308 , 3924.1025641 , 7666.15384615 , 7654.35897436 , 7667.17948718 , 2042.0 , 2037.0 , 160.856 , 0.0 , 0.0 , 0.0 , 0.0 , 

9.0 , 5079.48717949 , 7373.33333333 , 5393.84615385 , 3641.02564103 , 3739.48717949 , 3614.87179487 , 3603.58974359 , 3992.30769231 , 3422.05128205 , 3424.1025641 , 3918.97435897 , 7577.94871795 , 7568.71794872 , 7564.1025641 , 2041.0 , 2038.0 , 160.863 , 0.0 , 0.0 , 0.0 , 0.0 , 

10.0 , 5063.07692308 , 7377.43589744 , 5410.25641026 , 3644.61538462 , 3748.20512821 , 3616.41025641 , 3606.15384615 , 3977.43589744 , 3423.07692308 , 3424.61538462 , 3913.84615385 , 7682.56410256 , 7600.0 , 7692.82051282 , 2042.0 , 2038.0 , 160.87 , 0.0 , 0.0 , 0.0 , 0.0 , 

11.0 , 5017.43589744 , 7250.25641026 , 5358.97435897 , 3645.12820513 , 3751.28205128 , 3618.46153846 , 3610.25641026 , 3949.23076923 , 3423.58974359 , 3428.71794872 , 3898.97435897 , 7598.46153846 , 7521.53846154 , 7595.8974359 , 2043.0 , 2037.0 , 160.879 , 0.0 , 0.0 , 0.0 , 0.0 , 

12.0 , 4984.1025641 , 7005.64102564 , 5345.12820513 , 3647.17948718 , 3750.25641026 , 3623.58974359 , 3610.25641026 , 3932.30769231 , 3427.69230769 , 3432.30769231 , 3892.82051282 , 7592.82051282 , 7365.64102564 , 7603.07692308 , 2043.0 , 2039.0 , 160.886 , 0.0 , 0.0 , 0.0 , 0.0 , 

13.0 , 4964.61538462 , 6972.30769231 , 5330.76923077 , 3652.82051282 , 3754.87179487 , 3623.07692308 , 3611.79487179 , 3927.17948718 , 3431.28205128 , 3434.87179487 , 3892.82051282 , 7581.02564103 , 7338.46153846 , 7597.94871795 , 2041.0 , 2039.0 , 160.895 , 0.0 , 0.0 , 0.0 , 0.0 , 

14.0 , 4989.23076923 , 7255.8974359 , 5376.41025641 , 3656.92307692 , 3764.1025641 , 3621.53846154 , 3616.92307692 , 3950.25641026 , 3436.41025641 , 3438.97435897 , 3911.28205128 , 7603.58974359 , 7503.58974359 , 7599.48717949 , 2041.0 , 2040.0 , 160.902 , 0.0 , 0.0 , 0.0 , 0.0 , 

15.0 , 5048.20512821 , 7325.64102564 , 5382.56410256 , 3658.97435897 , 3768.20512821 , 3629.74358974 , 3618.97435897 , 3981.02564103 , 3444.1025641 , 3441.53846154 , 3934.35897436 , 7605.64102564 , 7544.61538462 , 7599.48717949 , 2042.0 , 2040.0 , 160.912 , 0.0 , 0.0 , 0.0 , 0.0 , 

16.0 , 5174.87179487 , 7427.69230769 , 5384.1025641 , 3664.1025641 , 3767.69230769 , 3636.41025641 , 3622.56410256 , 4040.0 , 3453.84615385 , 3447.69230769 , 3973.84615385 , 7597.43589744 , 7556.92307692 , 7597.94871795 , 2042.0 , 2040.0 , 160.919 , 0.0 , 0.0 , 0.0 , 0.0 , 

17.0 , 5355.8974359 , 7637.94871795 , 5406.15384615 , 3668.71794872 , 3772.82051282 , 3633.84615385 , 3628.20512821 , 4122.56410256 , 3461.53846154 , 3456.41025641 , 4023.07692308 , 7601.02564103 , 7624.61538462 , 7598.97435897 , 2041.0 , 2040.0 , 160.926 , 0.0 , 0.0 , 0.0 , 0.0 , 

18.0 , 5579.48717949 , 7648.71794872 , 5395.8974359 , 3674.35897436 , 3780.0 , 3635.38461538 , 3632.30769231 , 4221.02564103 , 3471.79487179 , 3458.97435897 , 4080.0 , 7603.07692308 , 7614.87179487 , 7599.48717949 , 2041.0 , 2039.0 , 160.935 , 0.0 , 0.0 , 0.0 , 0.0 , 

19.0 , 5813.33333333 , 7571.28205128 , 5377.94871795 , 3677.43589744 , 3786.15384615 , 3642.05128205 , 3634.87179487 , 4306.15384615 , 3477.94871795 , 3460.0 , 4126.66666667 , 7600.0 , 7587.69230769 , 7600.0 , 2042.0 , 2040.0 , 160.942 , 0.0 , 0.0 , 0.0 , 0.0 , 

20.0 , 6028.20512821 , 7632.82051282 , 5381.53846154 , 3677.94871795 , 3794.87179487 , 3643.58974359 , 3639.48717949 , 4389.74358974 , 3485.12820513 , 3465.12820513 , 4171.79487179 , 7600.0 , 7614.87179487 , 7599.48717949 , 2041.0 , 2038.0 , 160.949 , 0.0 , 0.0 , 0.0 , 0.0 , 

21.0 , 6250.25641026 , 7601.53846154 , 5380.51282051 , 3678.97435897 , 3800.0 , 3644.1025641 , 3641.53846154 , 4481.53846154 , 3490.76923077 , 3467.17948718 , 4221.02564103 , 7600.51282051 , 7596.92307692 , 7600.0 , 2041.0 , 2038.0 , 160.957 , 0.0 , 0.0 , 0.0 , 0.0 , 

22.0 , 6490.25641026 , 7602.05128205 , 5379.48717949 , 3686.15384615 , 3804.61538462 , 3647.17948718 , 3640.51282051 , 4562.56410256 , 3491.79487179 , 3467.69230769 , 4264.61538462 , 7601.02564103 , 7598.46153846 , 7600.0 , 2042.0 , 2038.0 , 160.966 , 0.0 , 0.0 , 0.0 , 0.0 , 

23.0 , 6635.8974359 , 7601.02564103 , 5369.74358974 , 3689.74358974 , 3813.84615385 , 3647.69230769 , 3642.05128205 , 4601.53846154 , 3491.28205128 , 3473.33333333 , 4275.8974359 , 7601.02564103 , 7603.07692308 , 7599.48717949 , 2042.0 , 2040.0 , 160.974 , 0.0 , 0.0 , 0.0 , 0.0 , 

24.0 , 6652.30769231 , 7598.46153846 , 5362.56410256 , 3689.23076923 , 3818.46153846 , 3651.28205128 , 3644.61538462 , 4596.41025641 , 3494.87179487 , 3478.46153846 , 4266.66666667 , 7600.51282051 , 7598.46153846 , 7599.48717949 , 2041.0 , 2040.0 , 160.982 , 0.0 , 0.0 , 0.0 , 0.0 , 

25.0 , 6651.79487179 , 7600.51282051 , 5361.53846154 , 3690.76923077 , 3816.92307692 , 3655.38461538 , 3645.12820513 , 4572.30769231 , 3491.79487179 , 3476.92307692 , 4255.38461538 , 7601.02564103 , 7600.51282051 , 7599.48717949 , 2043.0 , 2039.0 , 160.989 , 0.0 , 0.0 , 0.0 , 0.0 , 

26.0 , 6604.1025641 , 7598.46153846 , 5363.58974359 , 3691.79487179 , 3820.51282051 , 3653.84615385 , 3645.12820513 , 4521.53846154 , 3483.58974359 , 3477.94871795 , 4222.56410256 , 7601.02564103 , 7598.97435897 , 7599.48717949 , 2043.0 , 2037.0 , 160.997 , 0.0 , 0.0 , 0.0 , 0.0 , 

27.0 , 6488.71794872 , 7600.0 , 5363.58974359 , 3691.28205128 , 3830.25641026 , 3655.38461538 , 3645.12820513 , 4451.79487179 , 3482.56410256 , 3484.61538462 , 4177.43589744 , 7601.02564103 , 7599.48717949 , 7599.48717949 , 2042.0 , 2037.0 , 161.004 , 0.0 , 0.0 , 0.0 , 0.0 , 

28.0 , 6321.53846154 , 7598.97435897 , 5355.38461538 , 3692.30769231 , 3832.30769231 , 3660.0 , 3645.64102564 , 4364.1025641 , 3481.53846154 , 3486.15384615 , 4134.87179487 , 7601.02564103 , 7598.97435897 , 7599.48717949 , 2043.0 , 2038.0 , 161.013 , 0.0 , 0.0 , 0.0 , 0.0 , 

29.0 , 6137.43589744 , 7599.48717949 , 5346.66666667 , 3697.94871795 , 3831.79487179 , 3660.0 , 3648.20512821 , 4281.02564103 , 3477.94871795 , 3484.61538462 , 4095.8974359 , 7601.02564103 , 7601.02564103 , 7600.0 , 2043.0 , 2038.0 , 161.02 , 0.0 , 0.0 , 0.0 , 0.0 , 

30.0 , 5932.30769231 , 7599.48717949 , 5345.12820513 , 3700.0 , 3839.48717949 , 3660.0 , 3651.79487179 , 4205.12820513 , 3480.0 , 3487.69230769 , 4057.43589744 , 7601.02564103 , 7601.02564103 , 7599.48717949 , 2041.0 , 2036.0 , 161.029 , 0.0 , 0.0 , 0.0 , 0.0 , 

31.0 , 5803.58974359 , 7599.48717949 , 5348.20512821 , 3699.48717949 , 3847.17948718 , 3662.05128205 , 3655.38461538 , 4165.12820513 , 3486.66666667 , 3495.8974359 , 4046.66666667 , 7601.02564103 , 7599.48717949 , 7600.0 , 2042.0 , 2036.0 , 161.036 , 0.0 , 0.0 , 0.0 , 0.0 , 

32.0 , 5727.69230769 , 7599.48717949 , 5345.64102564 , 3703.58974359 , 3850.25641026 , 3665.12820513 , 3657.94871795 , 4145.64102564 , 3491.28205128 , 3501.53846154 , 4044.1025641 , 7601.02564103 , 7600.0 , 7599.48717949 , 2042.0 , 2036.0 , 161.045 , 0.0 , 0.0 , 0.0 , 0.0 , 

33.0 , 5679.48717949 , 7599.48717949 , 5335.38461538 , 3708.20512821 , 3852.82051282 , 3669.23076923 , 3660.0 , 4144.61538462 , 3495.38461538 , 3502.56410256 , 4044.1025641 , 7601.02564103 , 7600.0 , 7600.0 , 2041.0 , 2036.0 , 161.052 , 0.0 , 0.0 , 0.0 , 0.0 , 

34.0 , 5632.30769231 , 7599.48717949 , 5327.69230769 , 3706.66666667 , 3856.92307692 , 3670.76923077 , 3663.07692308 , 4132.30769231 , 3496.41025641 , 3505.64102564 , 4039.48717949 , 7601.02564103 , 7600.0 , 7599.48717949 , 2043.0 , 2037.0 , 161.06 , 0.0 , 0.0 , 0.0 , 0.0 , 

35.0 , 5588.71794872 , 7599.48717949 , 5330.25641026 , 3708.20512821 , 3860.0 , 3673.33333333 , 3664.61538462 , 4120.51282051 , 3500.51282051 , 3510.25641026 , 4042.05128205 , 7601.02564103 , 7600.0 , 7600.0 , 2043.0 , 2036.0 , 161.067 , 0.0 , 0.0 , 0.0 , 0.0 , 

36.0 , 5545.64102564 , 7599.48717949 , 5332.30769231 , 3715.38461538 , 3866.66666667 , 3678.46153846 , 3665.64102564 , 4105.64102564 , 3505.12820513 , 3510.76923077 , 4036.41025641 , 7601.02564103 , 7600.0 , 7599.48717949 , 2043.0 , 2033.0 , 161.075 , 0.0 , 0.0 , 0.0 , 0.0 , 

37.0 , 5497.94871795 , 7599.48717949 , 5324.1025641 , 3718.46153846 , 3874.35897436 , 3678.97435897 , 3668.71794872 , 4095.38461538 , 3509.74358974 , 3512.30769231 , 4031.28205128 , 7601.02564103 , 7600.0 , 7600.0 , 2043.0 , 2033.0 , 161.082 , 0.0 , 0.0 , 0.0 , 0.0 , 

38.0 , 5450.25641026 , 7599.48717949 , 5314.87179487 , 3717.43589744 , 3876.41025641 , 3675.38461538 , 3671.28205128 , 4082.05128205 , 3510.25641026 , 3518.97435897 , 4029.74358974 , 7601.02564103 , 7600.0 , 7599.48717949 , 2043.0 , 2035.0 , 161.091 , 0.0 , 0.0 , 0.0 , 0.0 , 

39.0 , 5422.56410256 , 7599.48717949 , 5312.82051282 , 3720.0 , 3876.41025641 , 3678.97435897 , 3673.84615385 , 4076.41025641 , 3511.79487179 , 3526.15384615 , 4035.38461538 , 7601.02564103 , 7600.0 , 7599.48717949 , 2044.0 , 2036.0 , 161.099 , 0.0 , 0.0 , 0.0 , 0.0 , 

40.0 , 5409.23076923 , 7599.48717949 , 5315.8974359 , 3720.0 , 3879.48717949 , 3685.12820513 , 3674.87179487 , 4073.84615385 , 3512.30769231 , 3528.71794872 , 4036.92307692 , 7601.02564103 , 7600.0 , 7599.48717949 , 2045.0 , 2036.0 , 161.107 , 0.0 , 0.0 , 0.0 , 0.0 , 

41.0 , 5391.28205128 , 7599.48717949 , 5315.38461538 , 3721.02564103 , 3884.1025641 , 3688.71794872 , 3676.92307692 , 4075.38461538 , 3516.41025641 , 3528.71794872 , 4039.48717949 , 7601.02564103 , 7600.0 , 7599.48717949 , 2043.0 , 2038.0 , 161.115 , 0.0 , 0.0 , 0.0 , 0.0 , 

42.0 , 5379.48717949 , 7599.48717949 , 5308.20512821 , 3726.66666667 , 3890.76923077 , 3690.25641026 , 3679.48717949 , 4075.8974359 , 3521.53846154 , 3530.76923077 , 4042.05128205 , 7601.02564103 , 7600.0 , 7599.48717949 , 2044.0 , 2037.0 , 161.123 , 0.0 , 0.0 , 0.0 , 0.0 , 

43.0 , 5355.8974359 , 7599.48717949 , 5301.02564103 , 3731.28205128 , 3894.87179487 , 3692.30769231 , 3680.0 , 4068.20512821 , 3524.61538462 , 3536.41025641 , 4041.02564103 , 7601.02564103 , 7600.0 , 7599.48717949 , 2045.0 , 2039.0 , 161.13 , 0.0 , 0.0 , 0.0 , 0.0 , 

44.0 , 5344.1025641 , 7599.48717949 , 5297.94871795 , 3729.23076923 , 3895.38461538 , 3692.30769231 , 3682.56410256 , 4069.74358974 , 3525.64102564 , 3538.97435897 , 4045.12820513 , 7601.02564103 , 7600.0 , 7600.0 , 2045.0 , 2039.0 , 161.142 , 0.0 , 0.0 , 0.0 , 0.0 , 

45.0 , 5336.41025641 , 7599.48717949 , 5295.8974359 , 3731.79487179 , 3900.0 , 3692.82051282 , 3688.20512821 , 4071.79487179 , 3527.17948718 , 3540.0 , 4052.30769231 , 7601.02564103 , 7600.0 , 7599.48717949 , 2046.0 , 2040.0 , 161.146 , 0.0 , 0.0 , 0.0 , 0.0 , 

46.0 , 5344.1025641 , 7599.48717949 , 5293.33333333 , 3740.0 , 3908.20512821 , 3696.92307692 , 3690.25641026 , 4079.48717949 , 3531.79487179 , 3545.64102564 , 4058.46153846 , 7601.02564103 , 7600.0 , 7600.0 , 2044.0 , 2040.0 , 161.154 , 0.0 , 0.0 , 0.0 , 0.0 , 

47.0 , 5340.51282051 , 7599.48717949 , 5289.23076923 , 3742.05128205 , 3909.74358974 , 3699.48717949 , 3689.74358974 , 4084.1025641 , 3534.35897436 , 3549.74358974 , 4059.48717949 , 7601.02564103 , 7600.0 , 7599.48717949 , 2044.0 , 2039.0 , 161.162 , 0.0 , 0.0 , 0.0 , 0.0 , 

48.0 , 5358.46153846 , 7599.48717949 , 5281.02564103 , 3741.02564103 , 3908.71794872 , 3697.94871795 , 3693.84615385 , 4095.8974359 , 3534.87179487 , 3549.74358974 , 4069.74358974 , 7601.02564103 , 7600.0 , 7600.0 , 2044.0 , 2038.0 , 161.17 , 0.0 , 0.0 , 0.0 , 0.0 , 

49.0 , 5370.25641026 , 7600.0 , 5276.92307692 , 3743.07692308 , 3913.84615385 , 3700.51282051 , 3696.92307692 , 4097.43589744 , 3538.97435897 , 3553.84615385 , 4076.92307692 , 7601.02564103 , 7600.0 , 7599.48717949 , 2043.0 , 2038.0 , 161.178 , 0.0 , 0.0 , 0.0 , 0.0 , 

50.0 , 5380.0 , 7601.02564103 , 5277.43589744 , 3747.17948718 , 3921.02564103 , 3708.20512821 , 3696.92307692 , 4106.15384615 , 3544.61538462 , 3560.51282051 , 4084.61538462 , 7601.02564103 , 7600.0 , 7600.0 , 2044.0 , 2037.0 , 161.186 , 0.0 , 0.0 , 0.0 , 0.0 , 

51.0 , 5371.28205128 , 7600.51282051 , 5277.94871795 , 3749.74358974 , 3924.1025641 , 3710.76923077 , 3699.48717949 , 4104.1025641 , 3546.66666667 , 3561.02564103 , 4084.61538462 , 7601.02564103 , 7600.0 , 7599.48717949 , 2042.0 , 2036.0 , 161.194 , 0.0 , 0.0 , 0.0 , 0.0 , 

52.0 , 5371.79487179 , 7608.20512821 , 5273.33333333 , 3752.82051282 , 3928.71794872 , 3708.20512821 , 3703.58974359 , 4104.1025641 , 3547.69230769 , 3560.0 , 4089.23076923 , 7601.02564103 , 7601.02564103 , 7600.0 , 2043.0 , 2035.0 , 161.201 , 0.0 , 0.0 , 0.0 , 0.0 , 

53.0 , 5352.82051282 , 7596.41025641 , 5264.61538462 , 3755.38461538 , 3934.35897436 , 3708.71794872 , 3705.12820513 , 4098.46153846 , 3545.12820513 , 3563.58974359 , 4085.12820513 , 7601.02564103 , 7599.48717949 , 7599.48717949 , 2042.0 , 2034.0 , 161.21 , 0.0 , 0.0 , 0.0 , 0.0 , 

54.0 , 5316.41025641 , 7596.41025641 , 5260.51282051 , 3757.43589744 , 3936.41025641 , 3714.35897436 , 3707.69230769 , 4086.15384615 , 3548.20512821 , 3568.20512821 , 4080.51282051 , 7601.02564103 , 7603.07692308 , 7600.0 , 2042.0 , 2037.0 , 161.217 , 0.0 , 0.0 , 0.0 , 0.0 , 

55.0 , 5275.38461538 , 7587.17948718 , 5261.53846154 , 3760.0 , 3939.48717949 , 3717.43589744 , 3709.74358974 , 4063.58974359 , 3553.84615385 , 3569.74358974 , 4073.84615385 , 7601.02564103 , 7601.53846154 , 7600.51282051 , 2041.0 , 2036.0 , 161.225 , 0.0 , 0.0 , 0.0 , 0.0 , 

56.0 , 5254.87179487 , 7536.92307692 , 5258.97435897 , 3761.53846154 , 3941.53846154 , 3720.0 , 3709.23076923 , 4058.46153846 , 3561.02564103 , 3573.84615385 , 4075.8974359 , 7601.02564103 , 7595.38461538 , 7604.61538462 , 2043.0 , 2035.0 , 161.233 , 0.0 , 0.0 , 0.0 , 0.0 , 

57.0 , 5246.66666667 , 7495.38461538 , 5253.33333333 , 3762.05128205 , 3941.02564103 , 3721.53846154 , 3707.17948718 , 4063.07692308 , 3564.61538462 , 3576.92307692 , 4078.46153846 , 7601.02564103 , 7590.76923077 , 7599.48717949 , 2042.0 , 2034.0 , 161.242 , 0.0 , 0.0 , 0.0 , 0.0 , 

58.0 , 5241.02564103 , 7471.28205128 , 5249.74358974 , 3764.1025641 , 3945.64102564 , 3721.02564103 , 3710.25641026 , 4067.69230769 , 3566.66666667 , 3577.43589744 , 4083.58974359 , 7601.02564103 , 7576.41025641 , 7603.07692308 , 2043.0 , 2035.0 , 161.249 , 0.0 , 0.0 , 0.0 , 0.0 , 

59.0 , 5236.92307692 , 7460.0 , 5245.12820513 , 3764.61538462 , 3952.30769231 , 3721.53846154 , 3715.8974359 , 4068.20512821 , 3563.58974359 , 3579.48717949 , 4087.17948718 , 7601.02564103 , 7563.07692308 , 7612.82051282 , 2044.0 , 2036.0 , 161.256 , 0.0 , 0.0 , 0.0 , 0.0 , 

60.0 , 5224.1025641 , 7389.23076923 , 5244.1025641 , 3765.12820513 , 3952.82051282 , 3726.15384615 , 3718.46153846 , 4068.20512821 , 3566.66666667 , 3583.07692308 , 4089.74358974 , 7601.02564103 , 7540.51282051 , 7569.74358974 , 2045.0 , 2038.0 , 161.265 , 0.0 , 0.0 , 0.0 , 0.0 , 

61.0 , 5217.94871795 , 7378.97435897 , 5244.1025641 , 3769.74358974 , 3955.8974359 , 3730.25641026 , 3718.97435897 , 4067.69230769 , 3570.76923077 , 3584.1025641 , 4089.23076923 , 7601.02564103 , 7539.48717949 , 7548.20512821 , 2043.0 , 2038.0 , 161.272 , 0.0 , 0.0 , 0.0 , 0.0 , 

62.0 , 5202.05128205 , 7340.0 , 5235.8974359 , 3774.87179487 , 3961.53846154 , 3729.74358974 , 3721.53846154 , 4061.53846154 , 3572.30769231 , 3587.69230769 , 4087.69230769 , 7601.02564103 , 7513.33333333 , 7517.43589744 , 2045.0 , 2039.0 , 161.28 , 0.0 , 0.0 , 0.0 , 0.0 , 

63.0 , 5197.94871795 , 7287.69230769 , 5227.69230769 , 3776.92307692 , 3958.97435897 , 3731.28205128 , 3722.05128205 , 4063.07692308 , 3576.92307692 , 3595.8974359 , 4094.87179487 , 7601.02564103 , 7480.0 , 7456.41025641 , 2044.0 , 2039.0 , 161.288 , 0.0 , 0.0 , 0.0 , 0.0 , 

64.0 , 5189.74358974 , 7337.94871795 , 5226.66666667 , 3777.43589744 , 3959.48717949 , 3735.38461538 , 3722.05128205 , 4064.61538462 , 3580.51282051 , 3596.41025641 , 4101.02564103 , 7601.02564103 , 7513.33333333 , 7476.92307692 , 2044.0 , 2039.0 , 161.297 , 0.0 , 0.0 , 0.0 , 0.0 , 

65.0 , 5208.20512821 , 7406.15384615 , 5229.74358974 , 3779.48717949 , 3969.23076923 , 3735.8974359 , 3727.69230769 , 4081.53846154 , 3582.56410256 , 3593.84615385 , 4108.20512821 , 7601.02564103 , 7560.51282051 , 7545.12820513 , 2044.0 , 2038.0 , 161.304 , 0.0 , 0.0 , 0.0 , 0.0 , 

66.0 , 5232.30769231 , 7452.30769231 , 5227.17948718 , 3783.07692308 , 3972.82051282 , 3735.8974359 , 3730.25641026 , 4094.35897436 , 3585.12820513 , 3602.05128205 , 4116.41025641 , 7601.02564103 , 7578.97435897 , 7569.74358974 , 2043.0 , 2038.0 , 161.312 , 0.0 , 0.0 , 0.0 , 0.0 , 

67.0 , 5264.61538462 , 7535.8974359 , 5218.46153846 , 3785.12820513 , 3970.25641026 , 3738.97435897 , 3727.17948718 , 4109.23076923 , 3587.69230769 , 3607.17948718 , 4129.23076923 , 7601.02564103 , 7600.0 , 7601.53846154 , 2044.0 , 2039.0 , 161.319 , 0.0 , 0.0 , 0.0 , 0.0 , 

68.0 , 5262.05128205 , 7552.82051282 , 5213.33333333 , 3786.66666667 , 3974.35897436 , 3742.05128205 , 3728.20512821 , 4104.1025641 , 3590.25641026 , 3602.05128205 , 4127.17948718 , 7601.02564103 , 7609.23076923 , 7614.35897436 , 2044.0 , 2039.0 , 161.328 , 0.0 , 0.0 , 0.0 , 0.0 , 

69.0 , 5246.66666667 , 7492.30769231 , 5215.38461538 , 3790.25641026 , 3981.02564103 , 3743.58974359 , 3734.87179487 , 4098.97435897 , 3595.38461538 , 3605.12820513 , 4124.1025641 , 7601.02564103 , 7607.17948718 , 7623.07692308 , 2044.0 , 2038.0 , 161.335 , 0.0 , 0.0 , 0.0 , 0.0 , 

70.0 , 5217.94871795 , 7426.15384615 , 5213.84615385 , 3790.25641026 , 3983.07692308 , 3744.1025641 , 3737.94871795 , 4085.12820513 , 3596.41025641 , 3611.79487179 , 4117.94871795 , 7603.58974359 , 7575.8974359 , 7556.41025641 , 2044.0 , 2037.0 , 161.344 , 0.0 , 0.0 , 0.0 , 0.0 , 

71.0 , 5204.61538462 , 7402.05128205 , 5205.12820513 , 3789.74358974 , 3985.64102564 , 3745.12820513 , 3736.41025641 , 4081.53846154 , 3598.46153846 , 3613.33333333 , 4118.97435897 , 7610.25641026 , 7544.1025641 , 7496.41025641 , 2044.0 , 2037.0 , 161.352 , 0.0 , 0.0 , 0.0 , 0.0 , 

72.0 , 5190.76923077 , 7290.25641026 , 5200.0 , 3792.82051282 , 3992.30769231 , 3748.20512821 , 3737.94871795 , 4076.41025641 , 3600.0 , 3614.87179487 , 4118.97435897 , 7595.38461538 , 7484.61538462 , 7384.1025641 , 2044.0 , 2036.0 , 161.36 , 0.0 , 0.0 , 0.0 , 0.0 , 

73.0 , 5173.84615385 , 7201.53846154 , 5199.48717949 , 3796.41025641 , 3994.35897436 , 3750.76923077 , 3744.1025641 , 4072.30769231 , 3602.56410256 , 3616.92307692 , 4122.05128205 , 7608.71794872 , 7438.46153846 , 7204.61538462 , 2044.0 , 2036.0 , 161.368 , 0.0 , 0.0 , 0.0 , 0.0 , 

74.0 , 5149.23076923 , 7128.71794872 , 5199.48717949 , 3799.48717949 , 3993.84615385 , 3752.82051282 , 3744.1025641 , 4061.53846154 , 3601.53846154 , 3618.97435897 , 4116.92307692 , 7610.76923077 , 7389.74358974 , 7081.02564103 , 2044.0 , 2035.0 , 161.376 , 0.0 , 0.0 , 0.0 , 0.0 , 

75.0 , 5126.15384615 , 6924.61538462 , 5194.35897436 , 3802.05128205 , 3997.94871795 , 3757.43589744 , 3741.02564103 , 4055.8974359 , 3604.1025641 , 3624.1025641 , 4114.87179487 , 7518.97435897 , 7286.15384615 , 6810.76923077 , 2043.0 , 2035.0 , 161.383 , 0.0 , 0.0 , 0.0 , 0.0 , 

76.0 , 5099.48717949 , 6876.92307692 , 5186.66666667 , 3800.51282051 , 4002.56410256 , 3757.94871795 , 3743.58974359 , 4048.71794872 , 3606.66666667 , 3627.17948718 , 4112.30769231 , 7488.20512821 , 7277.43589744 , 6713.33333333 , 2043.0 , 2034.0 , 161.391 , 0.0 , 0.0 , 0.0 , 0.0 , 

77.0 , 5075.38461538 , 6773.84615385 , 5184.61538462 , 3800.51282051 , 4001.53846154 , 3756.41025641 , 3746.66666667 , 4042.56410256 , 3609.74358974 , 3629.23076923 , 4113.84615385 , 7461.53846154 , 7201.02564103 , 6583.58974359 , 2043.0 , 2032.0 , 161.399 , 0.0 , 0.0 , 0.0 , 0.0 , 

78.0 , 5078.97435897 , 6693.33333333 , 5183.58974359 , 3806.66666667 , 4001.53846154 , 3757.94871795 , 3748.71794872 , 4048.20512821 , 3613.84615385 , 3632.30769231 , 4120.0 , 7390.25641026 , 7145.12820513 , 6481.02564103 , 2044.0 , 2031.0 , 161.406 , 0.0 , 0.0 , 0.0 , 0.0 , 

79.0 , 5103.07692308 , 6892.82051282 , 5182.56410256 , 3809.23076923 , 4006.66666667 , 3760.0 , 3752.82051282 , 4067.17948718 , 3618.97435897 , 3630.25641026 , 4132.30769231 , 7471.28205128 , 7287.17948718 , 6699.48717949 , 2043.0 , 2032.0 , 161.414 , 0.0 , 0.0 , 0.0 , 0.0 , 

80.0 , 5151.79487179 , 7137.94871795 , 5178.46153846 , 3809.74358974 , 4007.17948718 , 3760.51282051 , 3753.33333333 , 4095.8974359 , 3619.48717949 , 3630.25641026 , 4149.23076923 , 7629.74358974 , 7443.58974359 , 7006.66666667 , 2043.0 , 2034.0 , 161.422 , 0.0 , 0.0 , 0.0 , 0.0 , 

81.0 , 5198.46153846 , 7258.97435897 , 5170.76923077 , 3814.35897436 , 4008.20512821 , 3764.1025641 , 3754.87179487 , 4120.0 , 3621.53846154 , 3639.48717949 , 4165.12820513 , 7622.05128205 , 7521.02564103 , 7186.15384615 , 2043.0 , 2034.0 , 161.431 , 0.0 , 0.0 , 0.0 , 0.0 , 

82.0 , 5264.61538462 , 7388.71794872 , 5166.15384615 , 3815.8974359 , 4015.38461538 , 3767.69230769 , 3760.0 , 4149.23076923 , 3629.74358974 , 3644.61538462 , 4183.58974359 , 7573.33333333 , 7590.25641026 , 7391.79487179 , 2044.0 , 2034.0 , 161.438 , 0.0 , 0.0 , 0.0 , 0.0 , 

83.0 , 5323.58974359 , 7630.76923077 , 5167.17948718 , 3814.87179487 , 4019.48717949 , 3770.76923077 , 3760.0 , 4169.23076923 , 3634.35897436 , 3644.61538462 , 4196.41025641 , 7619.48717949 , 7656.41025641 , 7700.51282051 , 2042.0 , 2032.0 , 161.447 , 0.0 , 0.0 , 0.0 , 0.0 , 

84.0 , 5377.43589744 , 7619.48717949 , 5167.17948718 , 3818.97435897 , 4019.48717949 , 3772.82051282 , 3758.97435897 , 4190.25641026 , 3634.35897436 , 3646.15384615 , 4207.69230769 , 7612.30769231 , 7591.28205128 , 7634.35897436 , 2043.0 , 2034.0 , 161.453 , 0.0 , 0.0 , 0.0 , 0.0 , 

85.0 , 5397.43589744 , 7608.20512821 , 5165.64102564 , 3824.1025641 , 4023.07692308 , 3773.33333333 , 3762.56410256 , 4197.94871795 , 3636.41025641 , 3648.20512821 , 4212.30769231 , 7594.87179487 , 7598.46153846 , 7580.51282051 , 2042.0 , 2034.0 , 161.462 , 0.0 , 0.0 , 0.0 , 0.0 , 

86.0 , 5423.58974359 , 7627.69230769 , 5159.48717949 , 3824.61538462 , 4027.17948718 , 3775.38461538 , 3765.64102564 , 4208.20512821 , 3640.51282051 , 3647.69230769 , 4220.51282051 , 7606.66666667 , 7624.1025641 , 7651.28205128 , 2042.0 , 2034.0 , 161.469 , 0.0 , 0.0 , 0.0 , 0.0 , 

87.0 , 5441.02564103 , 7593.84615385 , 5150.76923077 , 3824.1025641 , 4030.76923077 , 3776.41025641 , 3766.66666667 , 4212.30769231 , 3640.51282051 , 3650.76923077 , 4222.56410256 , 7598.46153846 , 7588.20512821 , 7595.38461538 , 2043.0 , 2035.0 , 161.478 , 0.0 , 0.0 , 0.0 , 0.0 , 

88.0 , 5461.53846154 , 7615.8974359 , 5151.28205128 , 3825.12820513 , 4035.8974359 , 3776.41025641 , 3767.17948718 , 4220.0 , 3643.58974359 , 3658.46153846 , 4226.66666667 , 7602.56410256 , 7606.15384615 , 7607.17948718 , 2042.0 , 2034.0 , 161.485 , 0.0 , 0.0 , 0.0 , 0.0 , 

89.0 , 5461.02564103 , 7591.79487179 , 5153.33333333 , 3827.69230769 , 4037.94871795 , 3777.43589744 , 3766.15384615 , 4212.82051282 , 3646.66666667 , 3661.53846154 , 4223.58974359 , 7601.53846154 , 7598.46153846 , 7595.8974359 , 2040.0 , 2034.0 , 161.493 , 0.0 , 0.0 , 0.0 , 0.0 , 

90.0 , 5459.48717949 , 7603.58974359 , 5149.23076923 , 3833.33333333 , 4036.41025641 , 3778.97435897 , 3769.74358974 , 4212.30769231 , 3648.20512821 , 3660.51282051 , 4226.15384615 , 7601.02564103 , 7600.51282051 , 7601.02564103 , 2043.0 , 2034.0 , 161.501 , 0.0 , 0.0 , 0.0 , 0.0 , 

91.0 , 5453.33333333 , 7598.97435897 , 5148.20512821 , 3833.84615385 , 4041.02564103 , 3781.53846154 , 3775.38461538 , 4212.30769231 , 3647.69230769 , 3663.07692308 , 4226.66666667 , 7601.02564103 , 7601.02564103 , 7599.48717949 , 2042.0 , 2034.0 , 161.51 , 0.0 , 0.0 , 0.0 , 0.0 , 

92.0 , 5445.64102564 , 7599.48717949 , 5144.1025641 , 3831.79487179 , 4046.15384615 , 3786.15384615 , 3777.94871795 , 4210.76923077 , 3650.25641026 , 3667.17948718 , 4227.17948718 , 7601.02564103 , 7599.48717949 , 7598.97435897 , 2042.0 , 2033.0 , 161.516 , 0.0 , 0.0 , 0.0 , 0.0 , 

93.0 , 5425.12820513 , 7600.0 , 5135.38461538 , 3834.35897436 , 4045.12820513 , 3786.66666667 , 3778.97435897 , 4198.97435897 , 3650.76923077 , 3669.23076923 , 4220.51282051 , 7602.05128205 , 7601.53846154 , 7599.48717949 , 2042.0 , 2034.0 , 161.524 , 0.0 , 0.0 , 0.0 , 0.0 , 

94.0 , 5405.12820513 , 7597.94871795 , 5132.82051282 , 3837.94871795 , 4045.12820513 , 3787.69230769 , 3778.46153846 , 4193.33333333 , 3653.33333333 , 3672.82051282 , 4218.97435897 , 7601.53846154 , 7599.48717949 , 7600.51282051 , 2041.0 , 2034.0 , 161.536 , 0.0 , 0.0 , 0.0 , 0.0 , 

95.0 , 5403.07692308 , 7600.51282051 , 5136.41025641 , 3838.97435897 , 4052.82051282 , 3789.23076923 , 3776.41025641 , 4194.35897436 , 3656.41025641 , 3672.82051282 , 4221.53846154 , 7601.53846154 , 7601.53846154 , 7600.51282051 , 2041.0 , 2034.0 , 161.54 , 0.0 , 0.0 , 0.0 , 0.0 , 

96.0 , 5407.69230769 , 7601.02564103 , 5135.38461538 , 3840.51282051 , 4056.41025641 , 3790.25641026 , 3781.53846154 , 4198.97435897 , 3662.05128205 , 3672.30769231 , 4226.66666667 , 7601.53846154 , 7601.02564103 , 7597.94871795 , 2041.0 , 2034.0 , 161.548 , 0.0 , 0.0 , 0.0 , 0.0 , 

97.0 , 5411.79487179 , 7599.48717949 , 5126.15384615 , 3841.53846154 , 4055.8974359 , 3793.33333333 , 3786.66666667 , 4202.56410256 , 3664.61538462 , 3674.87179487 , 4229.23076923 , 7601.53846154 , 7600.51282051 , 7600.51282051 , 2040.0 , 2035.0 , 161.556 , 0.0 , 0.0 , 0.0 , 0.0 , 

98.0 , 5391.28205128 , 7598.46153846 , 5118.46153846 , 3845.12820513 , 4058.97435897 , 3793.84615385 , 3785.12820513 , 4192.82051282 , 3664.61538462 , 3677.94871795 , 4227.69230769 , 7601.53846154 , 7600.0 , 7601.53846154 , 2040.0 , 2037.0 , 161.565 , 0.0 , 0.0 , 0.0 , 0.0 , 

99.0 , 5376.41025641 , 7601.02564103 , 5117.94871795 , 3851.28205128 , 4062.56410256 , 3792.82051282 , 3784.61538462 , 4187.17948718 , 3666.15384615 , 3681.53846154 , 4225.64102564 , 7601.53846154 , 7600.0 , 7597.94871795 , 2039.0 , 2037.0 , 161.572 , 0.0 , 0.0 , 0.0 , 0.0 , 

100.0 , 5366.15384615 , 7600.51282051 , 5118.97435897 , 3850.76923077 , 4064.61538462 , 3796.41025641 , 3788.71794872 , 4187.17948718 , 3669.74358974 , 3684.61538462 , 4225.12820513 , 7601.53846154 , 7600.0 , 7599.48717949 , 2039.0 , 2037.0 , 161.581 , 0.0 , 0.0 , 0.0 , 0.0 , 

101.0 , 5375.38461538 , 7597.94871795 , 5118.97435897 , 3848.71794872 , 4066.15384615 , 3797.94871795 , 3791.28205128 , 4194.35897436 , 3670.25641026 , 3684.61538462 , 4231.79487179 , 7601.53846154 , 7600.0 , 7602.05128205 , 2041.0 , 2038.0 , 161.587 , 0.0 , 0.0 , 0.0 , 0.0 , 

102.0 , 5369.23076923 , 7600.0 , 5117.94871795 , 3853.33333333 , 4066.66666667 , 3797.94871795 , 3792.30769231 , 4191.79487179 , 3671.28205128 , 3687.69230769 , 4234.87179487 , 7601.53846154 , 7600.0 , 7598.97435897 , 2042.0 , 2037.0 , 161.596 , 0.0 , 0.0 , 0.0 , 0.0 , 

103.0 , 5376.92307692 , 7601.53846154 , 5110.25641026 , 3857.43589744 , 4068.71794872 , 3802.56410256 , 3792.30769231 , 4198.97435897 , 3676.92307692 , 3692.82051282 , 4241.53846154 , 7601.53846154 , 7600.0 , 7597.94871795 , 2042.0 , 2036.0 , 161.603 , 0.0 , 0.0 , 0.0 , 0.0 , 

104.0 , 5384.61538462 , 7598.46153846 , 5102.56410256 , 3857.94871795 , 4072.82051282 , 3804.61538462 , 3791.79487179 , 4202.05128205 , 3680.0 , 3692.82051282 , 4243.07692308 , 7601.53846154 , 7600.0 , 7601.53846154 , 2039.0 , 2037.0 , 161.612 , 0.0 , 0.0 , 0.0 , 0.0 , 

105.0 , 5405.64102564 , 7598.97435897 , 5103.58974359 , 3857.43589744 , 4073.33333333 , 3806.66666667 , 3795.38461538 , 4215.38461538 , 3680.51282051 , 3692.82051282 , 4250.25641026 , 7601.53846154 , 7600.0 , 7600.51282051 , 2039.0 , 2037.0 , 161.619 , 0.0 , 0.0 , 0.0 , 0.0 , 

106.0 , 5418.97435897 , 7601.53846154 , 5103.07692308 , 3857.94871795 , 4076.92307692 , 3808.71794872 , 3800.0 , 4226.15384615 , 3680.0 , 3698.46153846 , 4257.43589744 , 7601.53846154 , 7600.0 , 7597.94871795 , 2039.0 , 2035.0 , 161.627 , 0.0 , 0.0 , 0.0 , 0.0 , 

107.0 , 5440.0 , 7599.48717949 , 5101.02564103 , 3858.97435897 , 4082.56410256 , 3807.69230769 , 3801.53846154 , 4236.92307692 , 3683.58974359 , 3701.02564103 , 4265.12820513 , 7601.53846154 , 7600.0 , 7600.0 , 2040.0 , 2034.0 , 161.635 , 0.0 , 0.0 , 0.0 , 0.0 , 

108.0 , 5449.74358974 , 7597.94871795 , 5102.56410256 , 3858.46153846 , 4082.56410256 , 3807.69230769 , 3802.56410256 , 4235.38461538 , 3686.66666667 , 3701.53846154 , 4262.56410256 , 7601.53846154 , 7600.0 , 7601.53846154 , 2040.0 , 2034.0 , 161.643 , 0.0 , 0.0 , 0.0 , 0.0 , 

109.0 , 5472.30769231 , 7601.02564103 , 5096.92307692 , 3863.07692308 , 4084.1025641 , 3809.23076923 , 3804.1025641 , 4246.66666667 , 3689.23076923 , 3705.64102564 , 4270.25641026 , 7601.53846154 , 7600.0 , 7598.46153846 , 2041.0 , 2034.0 , 161.65 , 0.0 , 0.0 , 0.0 , 0.0 , 

110.0 , 5492.82051282 , 7601.02564103 , 5086.15384615 , 3867.17948718 , 4089.74358974 , 3811.28205128 , 3804.1025641 , 4258.46153846 , 3688.20512821 , 3706.66666667 , 4277.43589744 , 7601.53846154 , 7600.0 , 7598.97435897 , 2040.0 , 2034.0 , 161.658 , 0.0 , 0.0 , 0.0 , 0.0 , 

111.0 , 5501.02564103 , 7598.46153846 , 5086.15384615 , 3866.15384615 , 4089.74358974 , 3817.43589744 , 3805.12820513 , 4263.58974359 , 3692.82051282 , 3707.17948718 , 4280.0 , 7601.53846154 , 7600.0 , 7601.53846154 , 2041.0 , 2035.0 , 161.666 , 0.0 , 0.0 , 0.0 , 0.0 , 

112.0 , 5496.92307692 , 7602.05128205 , 5090.76923077 , 3868.71794872 , 4090.25641026 , 3819.48717949 , 3805.64102564 , 4254.87179487 , 3695.8974359 , 3710.76923077 , 4277.94871795 , 7601.53846154 , 7600.51282051 , 7603.07692308 , 2042.0 , 2035.0 , 161.675 , 0.0 , 0.0 , 0.0 , 0.0 , 

113.0 , 5492.82051282 , 7616.92307692 , 5088.20512821 , 3873.33333333 , 4094.87179487 , 3817.94871795 , 3807.69230769 , 4250.25641026 , 3697.43589744 , 3714.87179487 , 4278.46153846 , 7601.53846154 , 7603.07692308 , 7620.51282051 , 2041.0 , 2035.0 , 161.682 , 0.0 , 0.0 , 0.0 , 0.0 , 

114.0 , 5477.43589744 , 7598.97435897 , 5085.12820513 , 3872.82051282 , 4097.43589744 , 3818.46153846 , 3811.28205128 , 4244.1025641 , 3698.97435897 , 3714.87179487 , 4273.33333333 , 7601.53846154 , 7600.51282051 , 7603.58974359 , 2041.0 , 2038.0 , 161.69 , 0.0 , 0.0 , 0.0 , 0.0 , 

115.0 , 5438.46153846 , 7609.74358974 , 5080.0 , 3872.30769231 , 4098.46153846 , 3821.02564103 , 3813.33333333 , 4227.17948718 , 3699.48717949 , 3714.87179487 , 4268.20512821 , 7601.53846154 , 7607.17948718 , 7619.48717949 , 2043.0 , 2037.0 , 161.698 , 0.0 , 0.0 , 0.0 , 0.0 , 

116.0 , 5403.58974359 , 7642.05128205 , 5072.30769231 , 3874.87179487 , 4100.51282051 , 3823.07692308 , 3813.33333333 , 4210.76923077 , 3697.94871795 , 3717.94871795 , 4262.05128205 , 7602.05128205 , 7610.76923077 , 7676.92307692 , 2041.0 , 2038.0 , 161.706 , 0.0 , 0.0 , 0.0 , 0.0 , 

117.0 , 5355.8974359 , 7531.79487179 , 5069.74358974 , 3877.94871795 , 4102.05128205 , 3825.12820513 , 3814.87179487 , 4196.92307692 , 3702.56410256 , 3721.02564103 , 4253.33333333 , 7604.61538462 , 7587.17948718 , 7502.05128205 , 2042.0 , 2035.0 , 161.714 , 0.0 , 0.0 , 0.0 , 0.0 , 

118.0 , 5308.71794872 , 7453.84615385 , 5070.76923077 , 3877.94871795 , 4105.64102564 , 3824.61538462 , 3816.92307692 , 4183.58974359 , 3703.58974359 , 3721.02564103 , 4247.69230769 , 7603.58974359 , 7585.64102564 , 7410.76923077 , 2042.0 , 2036.0 , 161.721 , 0.0 , 0.0 , 0.0 , 0.0 , 

119.0 , 5261.53846154 , 7320.0 , 5069.23076923 , 3876.41025641 , 4107.69230769 , 3824.1025641 , 3818.97435897 , 4161.02564103 , 3701.53846154 , 3723.07692308 , 4238.97435897 , 7600.51282051 , 7520.51282051 , 7171.79487179 , 2042.0 , 2036.0 , 161.73 , 0.0 , 0.0 , 0.0 , 0.0 , 

120.0 , 5235.8974359 , 7221.53846154 , 5065.64102564 , 3880.0 , 4107.17948718 , 3827.69230769 , 3822.56410256 , 4154.87179487 , 3707.17948718 , 3728.71794872 , 4234.87179487 , 7613.84615385 , 7462.56410256 , 6925.64102564 , 2043.0 , 2036.0 , 161.737 , 0.0 , 0.0 , 0.0 , 0.0 , 

121.0 , 5199.48717949 , 7088.20512821 , 5060.0 , 3884.1025641 , 4107.17948718 , 3827.69230769 , 3824.61538462 , 4148.71794872 , 3711.79487179 , 3728.71794872 , 4232.30769231 , 7595.38461538 , 7406.66666667 , 6707.17948718 , 2042.0 , 2036.0 , 161.746 , 0.0 , 0.0 , 0.0 , 0.0 , 

122.0 , 5177.43589744 , 7041.53846154 , 5054.35897436 , 3883.07692308 , 4107.69230769 , 3826.66666667 , 3824.61538462 , 4143.07692308 , 3709.74358974 , 3729.74358974 , 4234.35897436 , 7573.84615385 , 7378.46153846 , 6624.61538462 , 2042.0 , 2035.0 , 161.752 , 0.0 , 0.0 , 0.0 , 0.0 , 

123.0 , 5154.35897436 , 6952.30769231 , 5052.82051282 , 3881.53846154 , 4111.28205128 , 3828.71794872 , 3824.61538462 , 4131.28205128 , 3710.76923077 , 3734.87179487 , 4231.79487179 , 7544.1025641 , 7329.23076923 , 6496.41025641 , 2042.0 , 2036.0 , 161.761 , 0.0 , 0.0 , 0.0 , 0.0 , 

124.0 , 5149.23076923 , 6896.41025641 , 5054.35897436 , 3884.61538462 , 4114.87179487 , 3833.33333333 , 3824.61538462 , 4136.41025641 , 3715.38461538 , 3735.38461538 , 4237.94871795 , 7525.12820513 , 7310.76923077 , 6387.69230769 , 2043.0 , 2037.0 , 161.769 , 0.0 , 0.0 , 0.0 , 0.0 , 

125.0 , 5136.92307692 , 6869.74358974 , 5053.33333333 , 3887.17948718 , 4115.38461538 , 3836.41025641 , 3825.12820513 , 4138.46153846 , 3713.33333333 , 3734.35897436 , 4238.46153846 , 7490.25641026 , 7293.33333333 , 6404.61538462 , 2043.0 , 2039.0 , 161.778 , 0.0 , 0.0 , 0.0 , 0.0 , 

126.0 , 5132.30769231 , 6823.58974359 , 5047.69230769 , 3889.74358974 , 4114.35897436 , 3836.41025641 , 3825.12820513 , 4144.61538462 , 3715.38461538 , 3738.97435897 , 4240.51282051 , 7478.46153846 , 7284.61538462 , 6356.92307692 , 2043.0 , 2040.0 , 161.785 , 0.0 , 0.0 , 0.0 , 0.0 , 

127.0 , 5123.58974359 , 6800.51282051 , 5041.02564103 , 3892.82051282 , 4117.43589744 , 3837.43589744 , 3826.66666667 , 4141.02564103 , 3721.02564103 , 3743.58974359 , 4239.48717949 , 7444.1025641 , 7264.1025641 , 6378.46153846 , 2042.0 , 2038.0 , 161.792 , 0.0 , 0.0 , 0.0 , 0.0 , 

128.0 , 5118.97435897 , 6726.15384615 , 5039.48717949 , 3893.84615385 , 4120.0 , 3838.46153846 , 3830.25641026 , 4140.0 , 3724.1025641 , 3744.1025641 , 4242.56410256 , 7398.46153846 , 7204.61538462 , 6260.51282051 , 2042.0 , 2038.0 , 161.801 , 0.0 , 0.0 , 0.0 , 0.0 , 

0.0 , 5103.58974359 , 6680.0 , 5040.51282051 , 3893.33333333 , 4122.56410256 , 3838.97435897 , 3829.23076923 , 4133.33333333 , 3723.58974359 , 3744.61538462 , 4240.0 , 7338.97435897 , 7147.17948718 , 6220.0 , 2042.0 , 2040.0 , 161.81 , 0.0 , 0.0 , 0.0 , 0.0 , 

1.0 , 5092.30769231 , 6570.76923077 , 5048.20512821 , 3899.48717949 , 4128.71794872 , 3847.17948718 , 3836.92307692 , 4133.84615385 , 3737.94871795 , 3769.74358974 , 4245.64102564 , 7238.97435897 , 7075.38461538 , 6120.0 , 2042.0 , 2041.0 , 161.817 , 0.0 , 0.0 , 0.0 , 0.0 , 

2.0 , 5067.69230769 , 6524.61538462 , 5034.35897436 , 3904.1025641 , 4127.69230769 , 3848.71794872 , 3842.56410256 , 4121.02564103 , 3735.8974359 , 3760.0 , 4240.0 , 7198.46153846 , 7023.07692308 , 6031.28205128 , 2042.0 , 2042.0 , 161.824 , 0.0 , 0.0 , 0.0 , 0.0 , 

3.0 , 5023.07692308 , 6382.56410256 , 5016.92307692 , 3894.87179487 , 4119.48717949 , 3839.48717949 , 3832.82051282 , 4103.58974359 , 3717.43589744 , 3718.97435897 , 4223.58974359 , 6958.46153846 , 6833.84615385 , 5914.87179487 , 2042.0 , 2041.0 , 161.832 , 0.0 , 0.0 , 0.0 , 0.0 , 

4.0 , 5009.74358974 , 6282.56410256 , 5051.79487179 , 3905.64102564 , 4134.35897436 , 3852.82051282 , 3841.53846154 , 4114.87179487 , 3755.38461538 , 3809.23076923 , 4234.87179487 , 6828.71794872 , 6762.05128205 , 5856.41025641 , 2042.0 , 2041.0 , 161.84 , 0.0 , 0.0 , 0.0 , 0.0 , 

5.0 , 4956.92307692 , 6215.38461538 , 4977.43589744 , 3888.71794872 , 4110.76923077 , 3832.82051282 , 3825.64102564 , 4073.33333333 , 3710.25641026 , 3709.74358974 , 4202.56410256 , 6668.20512821 , 6629.74358974 , 5788.71794872 , 2042.0 , 2042.0 , 161.847 , 0.0 , 0.0 , 0.0 , 0.0 , 

6.0 , 4846.15384615 , 6226.15384615 , 4811.28205128 , 3806.15384615 , 4023.58974359 , 3748.71794872 , 3748.20512821 , 3961.02564103 , 3515.38461538 , 3315.38461538 , 4097.94871795 , 6546.66666667 , 6492.82051282 , 5789.74358974 , 2043.0 , 2043.0 , 161.854 , 0.0 , 0.0 , 0.0 , 0.0 , 

7.0 , 4783.07692308 , 6130.25641026 , 4811.28205128 , 3754.35897436 , 3974.35897436 , 3697.94871795 , 3698.97435897 , 3907.69230769 , 3438.46153846 , 3244.61538462 , 4043.07692308 , 6402.05128205 , 6426.15384615 , 5747.69230769 , 2043.0 , 2042.0 , 161.863 , 0.0 , 0.0 , 0.0 , 0.0 , 

8.0 , 4796.41025641 , 6150.25641026 , 4896.92307692 , 3770.25641026 , 3992.30769231 , 3713.84615385 , 3709.23076923 , 3927.69230769 , 3510.25641026 , 3492.30769231 , 4064.1025641 , 6525.12820513 , 6599.48717949 , 5784.61538462 , 2042.0 , 2042.0 , 161.871 , 0.0 , 0.0 , 0.0 , 0.0 , 

9.0 , 4750.76923077 , 6066.66666667 , 4855.38461538 , 3765.12820513 , 3982.56410256 , 3711.28205128 , 3698.46153846 , 3888.71794872 , 3468.71794872 , 3460.51282051 , 4042.56410256 , 6363.07692308 , 6453.33333333 , 5697.94871795 , 2042.0 , 2041.0 , 161.879 , 0.0 , 0.0 , 0.0 , 0.0 , 

10.0 , 4692.82051282 , 5940.51282051 , 4861.53846154 , 3755.38461538 , 3968.71794872 , 3700.51282051 , 3688.20512821 , 3872.30769231 , 3495.8974359 , 3427.17948718 , 4022.05128205 , 6142.05128205 , 6263.58974359 , 5561.02564103 , 2041.0 , 2040.0 , 161.886 , 0.0 , 0.0 , 0.0 , 0.0 , 

11.0 , 4620.51282051 , 5795.38461538 , 4843.07692308 , 3751.28205128 , 3965.12820513 , 3695.38461538 , 3685.12820513 , 3836.92307692 , 3480.51282051 , 3452.82051282 , 4002.05128205 , 5996.92307692 , 6157.43589744 , 5417.43589744 , 2041.0 , 2039.0 , 161.895 , 0.0 , 0.0 , 0.0 , 0.0 , 

12.0 , 4506.15384615 , 5684.1025641 , 4685.12820513 , 3703.58974359 , 3918.46153846 , 3653.33333333 , 3638.46153846 , 3683.07692308 , 3164.61538462 , 3152.30769231 , 3915.8974359 , 5782.05128205 , 6023.58974359 , 5186.66666667 , 2042.0 , 2040.0 , 161.902 , 0.0 , 0.0 , 0.0 , 0.0 , 

13.0 , 4351.79487179 , 5591.79487179 , 4546.15384615 , 3623.07692308 , 3843.07692308 , 3581.53846154 , 3560.0 , 3502.05128205 , 2912.30769231 , 2861.02564103 , 3796.41025641 , 5628.20512821 , 5866.66666667 , 5029.74358974 , 2042.0 , 2039.0 , 161.91 , 0.0 , 0.0 , 0.0 , 0.0 , 

14.0 , 4221.02564103 , 5472.30769231 , 4490.76923077 , 3552.82051282 , 3783.07692308 , 3512.82051282 , 3489.23076923 , 3378.46153846 , 2811.28205128 , 2779.48717949 , 3705.64102564 , 5477.94871795 , 5737.43589744 , 4900.0 , 2042.0 , 2039.0 , 161.918 , 0.0 , 0.0 , 0.0 , 0.0 , 

15.0 , 4100.0 , 5392.30769231 , 4413.33333333 , 3493.84615385 , 3729.74358974 , 3452.30769231 , 3428.20512821 , 3260.51282051 , 2670.25641026 , 2663.07692308 , 3629.23076923 , 5384.61538462 , 5669.74358974 , 4763.58974359 , 2043.0 , 2039.0 , 161.926 , 0.0 , 0.0 , 0.0 , 0.0 , 

16.0 , 3973.33333333 , 5302.56410256 , 4293.84615385 , 3406.66666667 , 3634.35897436 , 3360.51282051 , 3334.87179487 , 3140.0 , 2578.46153846 , 2469.74358974 , 3547.17948718 , 5264.61538462 , 5578.46153846 , 4588.71794872 , 2044.0 , 2039.0 , 161.934 , 0.0 , 0.0 , 0.0 , 0.0 , 

17.0 , 3848.20512821 , 5292.82051282 , 4210.25641026 , 3317.43589744 , 3537.94871795 , 3264.1025641 , 3233.84615385 , 3034.35897436 , 2544.61538462 , 2345.64102564 , 3472.30769231 , 5309.23076923 , 5587.69230769 , 4596.41025641 , 2043.0 , 2039.0 , 161.946 , 0.0 , 0.0 , 0.0 , 0.0 , 

18.0 , 3802.05128205 , 5222.05128205 , 4221.02564103 , 3294.87179487 , 3510.76923077 , 3236.41025641 , 3203.58974359 , 2990.76923077 , 2474.35897436 , 2368.20512821 , 3448.71794872 , 5248.71794872 , 5509.23076923 , 4608.20512821 , 2044.0 , 2037.0 , 161.961 , 0.0 , 0.0 , 0.0 , 0.0 , 

19.0 , 3791.28205128 , 5193.84615385 , 4254.35897436 , 3305.12820513 , 3521.02564103 , 3247.69230769 , 3215.8974359 , 2992.82051282 , 2475.8974359 , 2456.41025641 , 3448.71794872 , 5231.28205128 , 5472.82051282 , 4581.02564103 , 2046.0 , 2036.0 , 161.967 , 0.0 , 0.0 , 0.0 , 0.0 , 

20.0 , 3733.84615385 , 5144.61538462 , 4158.97435897 , 3267.17948718 , 3481.53846154 , 3210.76923077 , 3179.48717949 , 2968.20512821 , 2502.56410256 , 2431.28205128 , 3414.35897436 , 5181.53846154 , 5440.0 , 4535.8974359 , 2045.0 , 2037.0 , 161.974 , 0.0 , 0.0 , 0.0 , 0.0 , 

21.0 , 3666.66666667 , 5107.17948718 , 4090.76923077 , 3220.0 , 3430.76923077 , 3162.56410256 , 3128.20512821 , 2907.69230769 , 2422.56410256 , 2335.8974359 , 3362.05128205 , 5123.58974359 , 5450.76923077 , 4498.46153846 , 2046.0 , 2040.0 , 161.983 , 0.0 , 0.0 , 0.0 , 0.0 , 

22.0 , 3634.87179487 , 5084.1025641 , 4073.33333333 , 3206.66666667 , 3413.33333333 , 3146.15384615 , 3116.41025641 , 2887.69230769 , 2414.87179487 , 2361.02564103 , 3336.92307692 , 5087.69230769 , 5463.58974359 , 4463.58974359 , 2046.0 , 2042.0 , 161.988 , 0.0 , 0.0 , 0.0 , 0.0 , 

23.0 , 3599.48717949 , 5065.64102564 , 4018.46153846 , 3174.87179487 , 3379.48717949 , 3113.84615385 , 3089.74358974 , 2861.53846154 , 2402.56410256 , 2332.82051282 , 3302.56410256 , 5053.84615385 , 5462.05128205 , 4404.1025641 , 2046.0 , 2043.0 , 161.997 , 0.0 , 0.0 , 0.0 , 0.0 , 

24.0 , 3592.30769231 , 5080.0 , 4025.12820513 , 3161.53846154 , 3362.05128205 , 3100.0 , 3071.28205128 , 2856.92307692 , 2382.56410256 , 2309.23076923 , 3293.84615385 , 5087.69230769 , 5523.58974359 , 4393.84615385 , 2046.0 , 2043.0 , 162.004 , 0.0 , 0.0 , 0.0 , 0.0 , 

25.0 , 3631.79487179 , 5110.76923077 , 4069.23076923 , 3174.35897436 , 3372.30769231 , 3110.76923077 , 3078.46153846 , 2884.61538462 , 2405.64102564 , 2337.43589744 , 3312.82051282 , 5148.20512821 , 5572.30769231 , 4458.97435897 , 2045.0 , 2045.0 , 162.013 , 0.0 , 0.0 , 0.0 , 0.0 , 

26.0 , 3658.46153846 , 5134.87179487 , 4090.25641026 , 3179.48717949 , 3374.87179487 , 3116.92307692 , 3089.23076923 , 2899.48717949 , 2415.38461538 , 2343.58974359 , 3321.53846154 , 5171.79487179 , 5588.20512821 , 4476.41025641 , 2045.0 , 2045.0 , 162.021 , 0.0 , 0.0 , 0.0 , 0.0 , 

27.0 , 3677.43589744 , 5199.48717949 , 4116.41025641 , 3177.43589744 , 3370.25641026 , 3114.87179487 , 3089.23076923 , 2909.74358974 , 2416.41025641 , 2351.79487179 , 3325.64102564 , 5244.61538462 , 5650.25641026 , 4535.8974359 , 2045.0 , 2043.0 , 162.029 , 0.0 , 0.0 , 0.0 , 0.0 , 

28.0 , 3670.76923077 , 5179.48717949 , 4105.64102564 , 3175.8974359 , 3372.30769231 , 3115.38461538 , 3082.05128205 , 2904.1025641 , 2415.38461538 , 2351.28205128 , 3323.07692308 , 5229.74358974 , 5626.66666667 , 4558.97435897 , 2046.0 , 2043.0 , 162.036 , 0.0 , 0.0 , 0.0 , 0.0 , 

29.0 , 3662.56410256 , 5161.53846154 , 4093.33333333 , 3187.17948718 , 3380.51282051 , 3123.58974359 , 3088.71794872 , 2905.64102564 , 2429.23076923 , 2363.07692308 , 3323.58974359 , 5186.66666667 , 5588.20512821 , 4583.58974359 , 2045.0 , 2041.0 , 162.044 , 0.0 , 0.0 , 0.0 , 0.0 , 

30.0 , 3611.79487179 , 5076.92307692 , 4034.35897436 , 3181.53846154 , 3375.38461538 , 3115.8974359 , 3088.20512821 , 2882.05128205 , 2426.66666667 , 2362.05128205 , 3305.12820513 , 5098.97435897 , 5487.69230769 , 4509.74358974 , 2046.0 , 2040.0 , 162.051 , 0.0 , 0.0 , 0.0 , 0.0 , 

31.0 , 3533.84615385 , 4953.84615385 , 3978.97435897 , 3141.53846154 , 3347.17948718 , 3082.56410256 , 3055.38461538 , 2836.92307692 , 2395.38461538 , 2332.30769231 , 3268.20512821 , 4979.48717949 , 5444.61538462 , 4400.0 , 2045.0 , 2039.0 , 162.06 , 0.0 , 0.0 , 0.0 , 0.0 , 

32.0 , 3431.79487179 , 4843.58974359 , 3858.46153846 , 3102.56410256 , 3310.25641026 , 3047.17948718 , 3014.87179487 , 2777.43589744 , 2363.58974359 , 2299.48717949 , 3218.97435897 , 4835.38461538 , 5355.38461538 , 4286.66666667 , 2045.0 , 2038.0 , 162.067 , 0.0 , 0.0 , 0.0 , 0.0 , 

33.0 , 3351.79487179 , 4734.87179487 , 3757.94871795 , 3096.92307692 , 3295.8974359 , 3037.43589744 , 3004.61538462 , 2738.46153846 , 2357.43589744 , 2295.38461538 , 3187.69230769 , 4708.20512821 , 5190.25641026 , 4254.87179487 , 2044.0 , 2037.0 , 162.076 , 0.0 , 0.0 , 0.0 , 0.0 , 

34.0 , 3269.74358974 , 4585.12820513 , 3668.20512821 , 3089.23076923 , 3288.71794872 , 3031.79487179 , 3002.05128205 , 2698.46153846 , 2352.82051282 , 2295.38461538 , 3156.92307692 , 4571.79487179 , 5058.97435897 , 4152.30769231 , 2044.0 , 2037.0 , 162.083 , 0.0 , 0.0 , 0.0 , 0.0 , 

35.0 , 3200.0 , 4486.15384615 , 3566.66666667 , 3077.43589744 , 3270.76923077 , 3024.61538462 , 2990.76923077 , 2674.35897436 , 2348.20512821 , 2287.69230769 , 3137.43589744 , 4458.46153846 , 4971.28205128 , 4047.17948718 , 2044.0 , 2036.0 , 162.092 , 0.0 , 0.0 , 0.0 , 0.0 , 

36.0 , 3144.61538462 , 4471.28205128 , 3516.41025641 , 3079.48717949 , 3262.05128205 , 3021.02564103 , 2988.71794872 , 2659.48717949 , 2348.71794872 , 2289.74358974 , 3130.25641026 , 4453.33333333 , 4929.23076923 , 4026.66666667 , 2044.0 , 2036.0 , 162.1 , 0.0 , 0.0 , 0.0 , 0.0 , 

37.0 , 3108.20512821 , 4396.41025641 , 3443.07692308 , 3078.46153846 , 3261.53846154 , 3016.41025641 , 2990.25641026 , 2648.71794872 , 2351.79487179 , 2292.82051282 , 3124.61538462 , 4424.61538462 , 4861.02564103 , 4005.64102564 , 2041.0 , 2036.0 , 162.107 , 0.0 , 0.0 , 0.0 , 0.0 , 

38.0 , 3083.58974359 , 4368.71794872 , 3434.35897436 , 3075.8974359 , 3258.46153846 , 3015.38461538 , 2986.15384615 , 2640.0 , 2351.28205128 , 2293.33333333 , 3116.92307692 , 4383.58974359 , 4853.33333333 , 3973.84615385 , 2041.0 , 2035.0 , 162.115 , 0.0 , 0.0 , 0.0 , 0.0 , 

39.0 , 3076.41025641 , 4412.30769231 , 3415.8974359 , 3081.02564103 , 3256.41025641 , 3017.94871795 , 2983.07692308 , 2647.69230769 , 2354.35897436 , 2295.38461538 , 3124.1025641 , 4386.15384615 , 4870.76923077 , 4004.1025641 , 2042.0 , 2035.0 , 162.123 , 0.0 , 0.0 , 0.0 , 0.0 , 

40.0 , 3087.17948718 , 4425.12820513 , 3447.69230769 , 3077.94871795 , 3256.92307692 , 3015.8974359 , 2981.02564103 , 2661.53846154 , 2358.46153846 , 2297.94871795 , 3131.28205128 , 4410.25641026 , 4909.74358974 , 4007.69230769 , 2042.0 , 2034.0 , 162.131 , 0.0 , 0.0 , 0.0 , 0.0 , 

41.0 , 3104.1025641 , 4446.15384615 , 3464.1025641 , 3077.94871795 , 3258.97435897 , 3021.02564103 , 2984.61538462 , 2678.46153846 , 2367.69230769 , 2307.69230769 , 3138.46153846 , 4437.94871795 , 4952.82051282 , 3991.79487179 , 2041.0 , 2035.0 , 162.139 , 0.0 , 0.0 , 0.0 , 0.0 , 

42.0 , 3120.0 , 4467.69230769 , 3490.25641026 , 3082.56410256 , 3257.94871795 , 3023.07692308 , 2986.15384615 , 2686.66666667 , 2368.20512821 , 2310.25641026 , 3140.51282051 , 4451.79487179 , 4977.94871795 , 4064.61538462 , 2041.0 , 2034.0 , 162.147 , 0.0 , 0.0 , 0.0 , 0.0 , 

43.0 , 3124.61538462 , 4444.1025641 , 3502.56410256 , 3084.1025641 , 3254.87179487 , 3022.05128205 , 2989.23076923 , 2688.71794872 , 2372.82051282 , 2313.33333333 , 3144.1025641 , 4431.28205128 , 4973.84615385 , 4070.25641026 , 2041.0 , 2035.0 , 162.155 , 0.0 , 0.0 , 0.0 , 0.0 , 

44.0 , 3130.25641026 , 4446.66666667 , 3501.53846154 , 3084.1025641 , 3255.38461538 , 3023.07692308 , 2989.74358974 , 2697.43589744 , 2381.02564103 , 2322.05128205 , 3148.71794872 , 4454.35897436 , 4959.48717949 , 4053.33333333 , 2042.0 , 2035.0 , 162.163 , 0.0 , 0.0 , 0.0 , 0.0 , 

45.0 , 3114.35897436 , 4429.23076923 , 3492.30769231 , 3085.64102564 , 3258.46153846 , 3025.64102564 , 2988.71794872 , 2693.33333333 , 2385.12820513 , 2330.25641026 , 3144.1025641 , 4427.69230769 , 4922.56410256 , 4012.82051282 , 2041.0 , 2035.0 , 162.174 , 0.0 , 0.0 , 0.0 , 0.0 , 

46.0 , 3102.56410256 , 4415.38461538 , 3468.20512821 , 3087.69230769 , 3258.97435897 , 3026.15384615 , 2995.38461538 , 2688.20512821 , 2388.71794872 , 2336.92307692 , 3142.56410256 , 4414.87179487 , 4905.64102564 , 4017.94871795 , 2042.0 , 2035.0 , 162.179 , 0.0 , 0.0 , 0.0 , 0.0 , 

47.0 , 3085.12820513 , 4356.41025641 , 3443.58974359 , 3088.71794872 , 3258.46153846 , 3024.61538462 , 3000.51282051 , 2684.61538462 , 2394.35897436 , 2342.56410256 , 3140.51282051 , 4378.97435897 , 4847.69230769 , 3962.05128205 , 2042.0 , 2036.0 , 162.186 , 0.0 , 0.0 , 0.0 , 0.0 , 

48.0 , 3080.51282051 , 4378.46153846 , 3448.71794872 , 3091.79487179 , 3261.02564103 , 3028.20512821 , 2998.97435897 , 2693.84615385 , 2401.02564103 , 2349.23076923 , 3144.1025641 , 4407.17948718 , 4860.0 , 3980.0 , 2042.0 , 2034.0 , 162.195 , 0.0 , 0.0 , 0.0 , 0.0 , 

49.0 , 3068.20512821 , 4364.1025641 , 3425.64102564 , 3093.33333333 , 3262.56410256 , 3035.38461538 , 3000.51282051 , 2691.79487179 , 2405.64102564 , 2354.87179487 , 3143.07692308 , 4390.76923077 , 4838.46153846 , 3990.25641026 , 2044.0 , 2034.0 , 162.202 , 0.0 , 0.0 , 0.0 , 0.0 , 

50.0 , 3070.76923077 , 4371.28205128 , 3420.0 , 3096.41025641 , 3263.07692308 , 3040.0 , 3003.58974359 , 2695.8974359 , 2409.74358974 , 2362.56410256 , 3147.17948718 , 4389.23076923 , 4828.20512821 , 4009.23076923 , 2044.0 , 2033.0 , 162.21 , 0.0 , 0.0 , 0.0 , 0.0 , 

51.0 , 3061.53846154 , 4371.28205128 , 3409.74358974 , 3101.53846154 , 3262.56410256 , 3038.46153846 , 3006.15384615 , 2695.8974359 , 2414.87179487 , 2368.71794872 , 3146.66666667 , 4350.25641026 , 4808.71794872 , 3994.87179487 , 2044.0 , 2035.0 , 162.219 , 0.0 , 0.0 , 0.0 , 0.0 , 

52.0 , 3056.41025641 , 4409.23076923 , 3403.07692308 , 3104.1025641 , 3264.1025641 , 3041.53846154 , 3012.82051282 , 2702.56410256 , 2426.66666667 , 2376.41025641 , 3149.23076923 , 4331.79487179 , 4806.66666667 , 4006.15384615 , 2045.0 , 2034.0 , 162.227 , 0.0 , 0.0 , 0.0 , 0.0 , 

53.0 , 3048.71794872 , 4388.71794872 , 3396.41025641 , 3105.12820513 , 3270.25641026 , 3046.66666667 , 3015.8974359 , 2700.0 , 2431.28205128 , 2382.05128205 , 3147.69230769 , 4313.33333333 , 4782.56410256 , 3975.8974359 , 2045.0 , 2033.0 , 162.234 , 0.0 , 0.0 , 0.0 , 0.0 , 

54.0 , 3049.74358974 , 4353.33333333 , 3384.61538462 , 3108.71794872 , 3275.8974359 , 3048.71794872 , 3016.41025641 , 2702.56410256 , 2435.38461538 , 2389.74358974 , 3151.28205128 , 4311.79487179 , 4785.12820513 , 3931.28205128 , 2044.0 , 2034.0 , 162.241 , 0.0 , 0.0 , 0.0 , 0.0 , 

55.0 , 3036.92307692 , 4326.15384615 , 3382.56410256 , 3111.79487179 , 3274.87179487 , 3050.76923077 , 3020.51282051 , 2702.56410256 , 2444.61538462 , 2397.94871795 , 3151.79487179 , 4301.53846154 , 4790.76923077 , 3893.84615385 , 2044.0 , 2036.0 , 162.25 , 0.0 , 0.0 , 0.0 , 0.0 , 

56.0 , 3027.69230769 , 4322.56410256 , 3373.84615385 , 3114.87179487 , 3275.38461538 , 3057.43589744 , 3027.17948718 , 2705.12820513 , 2451.79487179 , 2402.56410256 , 3153.84615385 , 4307.69230769 , 4803.07692308 , 3884.61538462 , 2044.0 , 2037.0 , 162.258 , 0.0 , 0.0 , 0.0 , 0.0 , 

57.0 , 3039.48717949 , 4314.35897436 , 3370.76923077 , 3117.43589744 , 3278.97435897 , 3060.51282051 , 3031.28205128 , 2713.33333333 , 2451.79487179 , 2410.76923077 , 3157.43589744 , 4308.71794872 , 4793.33333333 , 3886.66666667 , 2044.0 , 2036.0 , 162.266 , 0.0 , 0.0 , 0.0 , 0.0 , 

58.0 , 3062.56410256 , 4341.53846154 , 3398.97435897 , 3122.05128205 , 3277.43589744 , 3058.46153846 , 3034.35897436 , 2731.79487179 , 2462.05128205 , 2422.56410256 , 3169.74358974 , 4326.15384615 , 4842.05128205 , 3918.46153846 , 2043.0 , 2039.0 , 162.273 , 0.0 , 0.0 , 0.0 , 0.0 , 

59.0 , 3090.25641026 , 4391.79487179 , 3425.12820513 , 3126.66666667 , 3278.97435897 , 3065.64102564 , 3035.8974359 , 2750.76923077 , 2472.30769231 , 2428.20512821 , 3180.0 , 4393.33333333 , 4888.20512821 , 4000.51282051 , 2042.0 , 2038.0 , 162.281 , 0.0 , 0.0 , 0.0 , 0.0 , 

60.0 , 3118.97435897 , 4418.46153846 , 3474.87179487 , 3129.74358974 , 3287.69230769 , 3076.41025641 , 3039.48717949 , 2768.20512821 , 2475.38461538 , 2433.33333333 , 3189.74358974 , 4404.61538462 , 4914.87179487 , 4040.0 , 2043.0 , 2037.0 , 162.289 , 0.0 , 0.0 , 0.0 , 0.0 , 

61.0 , 3162.05128205 , 4463.07692308 , 3511.79487179 , 3132.82051282 , 3291.28205128 , 3076.41025641 , 3044.61538462 , 2791.79487179 , 2479.48717949 , 2444.1025641 , 3203.07692308 , 4404.1025641 , 4995.8974359 , 4054.35897436 , 2041.0 , 2037.0 , 162.297 , 0.0 , 0.0 , 0.0 , 0.0 , 

62.0 , 3193.33333333 , 4470.76923077 , 3562.56410256 , 3136.92307692 , 3290.25641026 , 3076.41025641 , 3049.74358974 , 2810.25641026 , 2491.28205128 , 2454.87179487 , 3211.79487179 , 4407.69230769 , 5041.02564103 , 4031.79487179 , 2041.0 , 2037.0 , 162.305 , 0.0 , 0.0 , 0.0 , 0.0 , 

63.0 , 3220.51282051 , 4502.56410256 , 3613.33333333 , 3141.02564103 , 3297.94871795 , 3086.15384615 , 3054.35897436 , 2822.56410256 , 2499.48717949 , 2456.92307692 , 3216.41025641 , 4480.0 , 5080.0 , 4084.61538462 , 2041.0 , 2038.0 , 162.312 , 0.0 , 0.0 , 0.0 , 0.0 , 

64.0 , 3223.07692308 , 4458.46153846 , 3593.33333333 , 3146.15384615 , 3303.58974359 , 3091.79487179 , 3058.46153846 , 2818.97435897 , 2503.07692308 , 2463.58974359 , 3216.92307692 , 4480.0 , 5034.87179487 , 4056.92307692 , 2041.0 , 2038.0 , 162.319 , 0.0 , 0.0 , 0.0 , 0.0 , 

65.0 , 3217.94871795 , 4430.76923077 , 3565.12820513 , 3149.23076923 , 3302.56410256 , 3090.25641026 , 3063.58974359 , 2814.87179487 , 2508.20512821 , 2473.84615385 , 3217.43589744 , 4480.0 , 5021.53846154 , 4038.46153846 , 2039.0 , 2037.0 , 162.329 , 0.0 , 0.0 , 0.0 , 0.0 , 

66.0 , 3184.1025641 , 4402.56410256 , 3515.38461538 , 3153.84615385 , 3304.1025641 , 3092.30769231 , 3068.71794872 , 2803.07692308 , 2513.33333333 , 2479.48717949 , 3207.17948718 , 4423.07692308 , 4945.12820513 , 4052.30769231 , 2039.0 , 2037.0 , 162.336 , 0.0 , 0.0 , 0.0 , 0.0 , 

67.0 , 3153.84615385 , 4414.35897436 , 3484.1025641 , 3161.02564103 , 3309.23076923 , 3097.94871795 , 3072.30769231 , 2797.43589744 , 2521.02564103 , 2483.58974359 , 3202.56410256 , 4392.82051282 , 4892.30769231 , 4073.84615385 , 2038.0 , 2038.0 , 162.344 , 0.0 , 0.0 , 0.0 , 0.0 , 

68.0 , 3121.53846154 , 4341.02564103 , 3421.02564103 , 3162.05128205 , 3309.23076923 , 3104.1025641 , 3075.38461538 , 2785.64102564 , 2526.15384615 , 2492.30769231 , 3198.97435897 , 4338.46153846 , 4812.82051282 , 3974.35897436 , 2039.0 , 2036.0 , 162.352 , 0.0 , 0.0 , 0.0 , 0.0 , 

69.0 , 3098.46153846 , 4313.84615385 , 3397.94871795 , 3162.05128205 , 3309.74358974 , 3108.20512821 , 3082.05128205 , 2781.02564103 , 2531.79487179 , 2502.05128205 , 3196.92307692 , 4293.84615385 , 4767.17948718 , 3930.76923077 , 2038.0 , 2033.0 , 162.361 , 0.0 , 0.0 , 0.0 , 0.0 , 

70.0 , 3061.02564103 , 4281.53846154 , 3350.76923077 , 3165.64102564 , 3314.87179487 , 3110.25641026 , 3086.15384615 , 2768.20512821 , 2539.48717949 , 2508.71794872 , 3188.71794872 , 4241.02564103 , 4706.66666667 , 3920.0 , 2041.0 , 2034.0 , 162.368 , 0.0 , 0.0 , 0.0 , 0.0 , 

71.0 , 3033.84615385 , 4214.87179487 , 3304.1025641 , 3167.17948718 , 3317.43589744 , 3112.82051282 , 3087.69230769 , 2761.02564103 , 2547.69230769 , 2515.8974359 , 3186.66666667 , 4244.61538462 , 4636.41025641 , 3849.23076923 , 2041.0 , 2032.0 , 162.375 , 0.0 , 0.0 , 0.0 , 0.0 , 

