['COUNTER', 'AF3', 'F7', 'F3', 'FC5', 'T7', 'P7', 'O1', 'O2', 'P8', 'T8', 'FC6', 'F4', 'F8', 'AF4', 'GYROX', 'GYROY', 'TIMESTAMP', 'FUNC_ID', 'FUNC_VALUE', 'MARKER', 'SYNC_SIGNAL']
12.0 , 4128.20512821 , 4131.79487179 , 4114.87179487 , 4131.28205128 , 4127.69230769 , 4132.30769231 , 4126.66666667 , 4130.76923077 , 4135.38461538 , 4141.02564103 , 4173.84615385 , 4704.1025641 , 4129.74358974 , 4131.79487179 , 2044.0 , 2045.0 , 6.03 , 0.0 , 0.0 , 0.0 , 0.0 , 

13.0 , 4130.25641026 , 4130.25641026 , 4105.12820513 , 4132.82051282 , 4128.20512821 , 4127.69230769 , 4126.15384615 , 4132.82051282 , 4135.8974359 , 4140.0 , 4174.35897436 , 4704.61538462 , 4130.76923077 , 4132.82051282 , 2045.0 , 2045.0 , 6.038 , 0.0 , 0.0 , 0.0 , 0.0 , 

14.0 , 4131.79487179 , 4130.76923077 , 4109.23076923 , 4131.28205128 , 4131.28205128 , 4125.64102564 , 4128.71794872 , 4131.79487179 , 4135.38461538 , 4138.97435897 , 4171.79487179 , 4700.0 , 4128.20512821 , 4136.41025641 , 2044.0 , 2045.0 , 6.046 , 0.0 , 0.0 , 0.0 , 0.0 , 

15.0 , 4131.79487179 , 4132.30769231 , 4120.51282051 , 4130.25641026 , 4130.25641026 , 4129.23076923 , 4129.74358974 , 4132.82051282 , 4136.92307692 , 4138.46153846 , 4172.30769231 , 4698.97435897 , 4130.76923077 , 4138.97435897 , 2043.0 , 2047.0 , 6.054 , 0.0 , 0.0 , 0.0 , 0.0 , 

16.0 , 4130.25641026 , 4130.25641026 , 4120.51282051 , 4131.28205128 , 4128.20512821 , 4128.71794872 , 4127.69230769 , 4132.82051282 , 4137.94871795 , 4137.94871795 , 4174.35897436 , 4698.97435897 , 4131.28205128 , 4134.35897436 , 2043.0 , 2048.0 , 6.062 , 0.0 , 0.0 , 0.0 , 0.0 , 

17.0 , 4131.79487179 , 4130.76923077 , 4112.82051282 , 4130.76923077 , 4130.25641026 , 4131.79487179 , 4129.23076923 , 4133.84615385 , 4135.8974359 , 4142.05128205 , 4174.35897436 , 4701.53846154 , 4130.25641026 , 4132.82051282 , 2042.0 , 2047.0 , 6.07 , 0.0 , 0.0 , 0.0 , 0.0 , 

18.0 , 4132.30769231 , 4131.28205128 , 4114.87179487 , 4127.17948718 , 4130.25641026 , 4136.41025641 , 4129.23076923 , 4135.38461538 , 4134.87179487 , 4142.05128205 , 4172.82051282 , 4701.53846154 , 4129.74358974 , 4136.41025641 , 2042.0 , 2046.0 , 6.078 , 0.0 , 0.0 , 0.0 , 0.0 , 

19.0 , 4131.79487179 , 4131.28205128 , 4128.71794872 , 4127.69230769 , 4128.20512821 , 4131.28205128 , 4128.71794872 , 4134.87179487 , 4135.8974359 , 4139.48717949 , 4174.87179487 , 4702.05128205 , 4130.76923077 , 4136.92307692 , 2044.0 , 2048.0 , 6.085 , 0.0 , 0.0 , 0.0 , 0.0 , 

20.0 , 4129.74358974 , 4131.79487179 , 4123.58974359 , 4129.23076923 , 4129.23076923 , 4125.12820513 , 4128.71794872 , 4130.76923077 , 4136.92307692 , 4138.46153846 , 4174.35897436 , 4704.1025641 , 4129.74358974 , 4134.87179487 , 2042.0 , 2048.0 , 6.093 , 0.0 , 0.0 , 0.0 , 0.0 , 

21.0 , 4131.28205128 , 4130.76923077 , 4123.07692308 , 4130.25641026 , 4131.28205128 , 4128.71794872 , 4126.66666667 , 4131.79487179 , 4140.0 , 4142.05128205 , 4172.82051282 , 4706.15384615 , 4130.76923077 , 4136.41025641 , 2042.0 , 2047.0 , 6.101 , 0.0 , 0.0 , 0.0 , 0.0 , 

22.0 , 4131.28205128 , 4128.71794872 , 4118.97435897 , 4133.84615385 , 4129.74358974 , 4129.74358974 , 4125.64102564 , 4132.30769231 , 4137.43589744 , 4140.0 , 4172.30769231 , 4703.07692308 , 4131.28205128 , 4137.94871795 , 2042.0 , 2047.0 , 6.109 , 0.0 , 0.0 , 0.0 , 0.0 , 

23.0 , 4129.23076923 , 4129.74358974 , 4131.79487179 , 4132.82051282 , 4130.76923077 , 4131.28205128 , 4128.20512821 , 4132.30769231 , 4133.33333333 , 4137.94871795 , 4174.35897436 , 4701.53846154 , 4131.28205128 , 4137.43589744 , 2043.0 , 2047.0 , 6.118 , 0.0 , 0.0 , 0.0 , 0.0 , 

24.0 , 4130.76923077 , 4130.76923077 , 4122.56410256 , 4130.76923077 , 4132.82051282 , 4135.38461538 , 4128.71794872 , 4131.79487179 , 4133.33333333 , 4138.46153846 , 4173.33333333 , 4699.48717949 , 4129.74358974 , 4134.87179487 , 2044.0 , 2048.0 , 6.126 , 0.0 , 0.0 , 0.0 , 0.0 , 

25.0 , 4130.76923077 , 4129.74358974 , 4121.53846154 , 4132.82051282 , 4130.76923077 , 4133.33333333 , 4126.66666667 , 4132.30769231 , 4136.41025641 , 4140.0 , 4173.84615385 , 4700.0 , 4129.23076923 , 4134.35897436 , 2044.0 , 2048.0 , 6.133 , 0.0 , 0.0 , 0.0 , 0.0 , 

26.0 , 4129.23076923 , 4131.28205128 , 4103.58974359 , 4132.30769231 , 4129.74358974 , 4131.79487179 , 4127.69230769 , 4131.28205128 , 4133.33333333 , 4137.94871795 , 4174.35897436 , 4702.56410256 , 4129.23076923 , 4135.38461538 , 2045.0 , 2046.0 , 6.141 , 0.0 , 0.0 , 0.0 , 0.0 , 

27.0 , 4130.76923077 , 4130.25641026 , 4118.97435897 , 4128.71794872 , 4130.25641026 , 4133.84615385 , 4129.74358974 , 4131.79487179 , 4134.35897436 , 4138.46153846 , 4175.38461538 , 4698.97435897 , 4131.79487179 , 4134.35897436 , 2043.0 , 2045.0 , 6.148 , 0.0 , 0.0 , 0.0 , 0.0 , 

28.0 , 4132.82051282 , 4128.71794872 , 4132.82051282 , 4131.28205128 , 4129.23076923 , 4131.28205128 , 4128.20512821 , 4132.30769231 , 4137.43589744 , 4140.0 , 4175.38461538 , 4695.38461538 , 4130.25641026 , 4133.84615385 , 2042.0 , 2044.0 , 6.156 , 0.0 , 0.0 , 0.0 , 0.0 , 

29.0 , 4129.23076923 , 4130.76923077 , 4143.07692308 , 4133.33333333 , 4128.20512821 , 4125.12820513 , 4126.66666667 , 4134.87179487 , 4135.8974359 , 4142.56410256 , 4173.84615385 , 4699.48717949 , 4131.79487179 , 4137.43589744 , 2042.0 , 2045.0 , 6.164 , 0.0 , 0.0 , 0.0 , 0.0 , 

30.0 , 4129.23076923 , 4131.79487179 , 4130.25641026 , 4130.76923077 , 4129.23076923 , 4125.64102564 , 4129.23076923 , 4134.87179487 , 4134.35897436 , 4141.02564103 , 4176.41025641 , 4703.07692308 , 4132.82051282 , 4138.46153846 , 2042.0 , 2045.0 , 6.172 , 0.0 , 0.0 , 0.0 , 0.0 , 

31.0 , 4131.79487179 , 4129.23076923 , 4135.38461538 , 4130.76923077 , 4129.74358974 , 4129.23076923 , 4131.28205128 , 4133.33333333 , 4137.43589744 , 4138.97435897 , 4179.48717949 , 4701.53846154 , 4130.25641026 , 4136.41025641 , 2041.0 , 2046.0 , 6.18 , 0.0 , 0.0 , 0.0 , 0.0 , 

32.0 , 4130.76923077 , 4130.76923077 , 4136.41025641 , 4132.82051282 , 4129.74358974 , 4129.74358974 , 4129.23076923 , 4133.84615385 , 4136.92307692 , 4138.46153846 , 4175.8974359 , 4702.56410256 , 4128.71794872 , 4135.8974359 , 2040.0 , 2044.0 , 6.188 , 0.0 , 0.0 , 0.0 , 0.0 , 

33.0 , 4127.69230769 , 4130.25641026 , 4142.05128205 , 4131.28205128 , 4129.74358974 , 4128.71794872 , 4127.69230769 , 4133.84615385 , 4134.87179487 , 4140.51282051 , 4172.82051282 , 4702.56410256 , 4131.79487179 , 4134.87179487 , 2042.0 , 2046.0 , 6.196 , 0.0 , 0.0 , 0.0 , 0.0 , 

34.0 , 4128.71794872 , 4127.69230769 , 4139.48717949 , 4129.74358974 , 4130.76923077 , 4127.69230769 , 4128.20512821 , 4131.28205128 , 4135.8974359 , 4141.02564103 , 4174.35897436 , 4700.51282051 , 4132.82051282 , 4134.35897436 , 2043.0 , 2045.0 , 6.204 , 0.0 , 0.0 , 0.0 , 0.0 , 

35.0 , 4131.28205128 , 4128.20512821 , 4127.69230769 , 4130.25641026 , 4131.28205128 , 4129.23076923 , 4127.17948718 , 4132.30769231 , 4136.41025641 , 4141.02564103 , 4173.84615385 , 4698.97435897 , 4131.28205128 , 4133.84615385 , 2043.0 , 2047.0 , 6.212 , 0.0 , 0.0 , 0.0 , 0.0 , 

36.0 , 4132.30769231 , 4130.25641026 , 4123.58974359 , 4132.82051282 , 4130.25641026 , 4127.69230769 , 4127.17948718 , 4135.38461538 , 4134.35897436 , 4140.0 , 4173.84615385 , 4701.02564103 , 4132.30769231 , 4132.82051282 , 2044.0 , 2047.0 , 6.219 , 0.0 , 0.0 , 0.0 , 0.0 , 

37.0 , 4130.25641026 , 4128.71794872 , 4140.0 , 4132.30769231 , 4128.71794872 , 4126.66666667 , 4128.71794872 , 4133.33333333 , 4132.82051282 , 4141.02564103 , 4174.87179487 , 4701.53846154 , 4132.82051282 , 4134.87179487 , 2043.0 , 2049.0 , 6.227 , 0.0 , 0.0 , 0.0 , 0.0 , 

38.0 , 4129.23076923 , 4127.69230769 , 4156.41025641 , 4131.28205128 , 4129.23076923 , 4128.20512821 , 4129.23076923 , 4132.30769231 , 4135.38461538 , 4146.66666667 , 4174.87179487 , 4700.0 , 4132.30769231 , 4137.43589744 , 2045.0 , 2050.0 , 6.235 , 0.0 , 0.0 , 0.0 , 0.0 , 

39.0 , 4129.23076923 , 4129.23076923 , 4125.12820513 , 4132.30769231 , 4130.25641026 , 4129.23076923 , 4128.20512821 , 4132.30769231 , 4132.30769231 , 4141.53846154 , 4173.84615385 , 4698.97435897 , 4130.25641026 , 4133.84615385 , 2046.0 , 2048.0 , 6.243 , 0.0 , 0.0 , 0.0 , 0.0 , 

40.0 , 4129.74358974 , 4130.76923077 , 4110.76923077 , 4133.33333333 , 4131.28205128 , 4129.23076923 , 4127.69230769 , 4131.79487179 , 4130.25641026 , 4136.92307692 , 4174.87179487 , 4701.53846154 , 4130.76923077 , 4132.82051282 , 2048.0 , 2047.0 , 6.251 , 0.0 , 0.0 , 0.0 , 0.0 , 

41.0 , 4130.25641026 , 4129.74358974 , 4125.12820513 , 4134.35897436 , 4130.76923077 , 4128.20512821 , 4128.20512821 , 4129.23076923 , 4130.76923077 , 4140.51282051 , 4174.35897436 , 4698.97435897 , 4131.28205128 , 4134.35897436 , 2048.0 , 2047.0 , 6.259 , 0.0 , 0.0 , 0.0 , 0.0 , 

42.0 , 4131.79487179 , 4129.74358974 , 4146.15384615 , 4134.87179487 , 4129.74358974 , 4129.23076923 , 4129.23076923 , 4132.30769231 , 4132.30769231 , 4144.61538462 , 4175.8974359 , 4698.97435897 , 4133.84615385 , 4133.33333333 , 2047.0 , 2045.0 , 6.266 , 0.0 , 0.0 , 0.0 , 0.0 , 

43.0 , 4131.28205128 , 4131.28205128 , 4119.48717949 , 4132.30769231 , 4131.28205128 , 4130.25641026 , 4128.20512821 , 4131.79487179 , 4130.25641026 , 4138.97435897 , 4175.38461538 , 4700.0 , 4131.79487179 , 4132.82051282 , 2048.0 , 2047.0 , 6.275 , 0.0 , 0.0 , 0.0 , 0.0 , 

44.0 , 4130.25641026 , 4131.79487179 , 4121.53846154 , 4129.23076923 , 4131.28205128 , 4128.20512821 , 4127.69230769 , 4128.71794872 , 4130.76923077 , 4140.0 , 4174.87179487 , 4697.94871795 , 4131.28205128 , 4135.8974359 , 2045.0 , 2047.0 , 6.282 , 0.0 , 0.0 , 0.0 , 0.0 , 

45.0 , 4131.28205128 , 4130.76923077 , 4129.74358974 , 4129.74358974 , 4129.23076923 , 4126.66666667 , 4128.71794872 , 4128.71794872 , 4134.35897436 , 4141.53846154 , 4174.87179487 , 4696.41025641 , 4131.79487179 , 4134.35897436 , 2044.0 , 2048.0 , 6.29 , 0.0 , 0.0 , 0.0 , 0.0 , 

46.0 , 4130.76923077 , 4129.74358974 , 4121.02564103 , 4130.76923077 , 4127.69230769 , 4130.25641026 , 4127.69230769 , 4132.82051282 , 4135.8974359 , 4137.43589744 , 4173.84615385 , 4696.92307692 , 4129.23076923 , 4132.30769231 , 2044.0 , 2046.0 , 6.298 , 0.0 , 0.0 , 0.0 , 0.0 , 

47.0 , 4131.79487179 , 4132.30769231 , 4102.05128205 , 4133.33333333 , 4128.20512821 , 4136.41025641 , 4127.17948718 , 4132.82051282 , 4134.35897436 , 4137.94871795 , 4172.82051282 , 4695.8974359 , 4126.66666667 , 4134.87179487 , 2042.0 , 2047.0 , 6.306 , 0.0 , 0.0 , 0.0 , 0.0 , 

48.0 , 4130.76923077 , 4130.76923077 , 4114.87179487 , 4133.33333333 , 4130.76923077 , 4133.84615385 , 4126.66666667 , 4130.25641026 , 4134.35897436 , 4140.0 , 4171.28205128 , 4692.82051282 , 4129.23076923 , 4134.35897436 , 2040.0 , 2046.0 , 6.315 , 0.0 , 0.0 , 0.0 , 0.0 , 

49.0 , 4130.76923077 , 4127.17948718 , 4114.87179487 , 4130.25641026 , 4131.79487179 , 4127.17948718 , 4129.23076923 , 4131.28205128 , 4136.41025641 , 4138.46153846 , 4170.25641026 , 4694.87179487 , 4130.25641026 , 4132.30769231 , 2040.0 , 2049.0 , 6.322 , 0.0 , 0.0 , 0.0 , 0.0 , 

50.0 , 4129.74358974 , 4127.17948718 , 4117.94871795 , 4128.71794872 , 4130.25641026 , 4126.66666667 , 4130.76923077 , 4134.35897436 , 4137.43589744 , 4137.94871795 , 4172.30769231 , 4696.92307692 , 4129.23076923 , 4133.84615385 , 2040.0 , 2051.0 , 6.33 , 0.0 , 0.0 , 0.0 , 0.0 , 

51.0 , 4130.25641026 , 4129.23076923 , 4133.33333333 , 4131.28205128 , 4130.76923077 , 4129.74358974 , 4129.23076923 , 4134.35897436 , 4133.84615385 , 4142.56410256 , 4174.87179487 , 4696.41025641 , 4130.76923077 , 4136.92307692 , 2039.0 , 2051.0 , 6.338 , 0.0 , 0.0 , 0.0 , 0.0 , 

52.0 , 4131.28205128 , 4128.20512821 , 4144.61538462 , 4133.33333333 , 4132.30769231 , 4129.23076923 , 4127.69230769 , 4133.33333333 , 4132.82051282 , 4142.05128205 , 4172.82051282 , 4693.84615385 , 4130.76923077 , 4135.8974359 , 2039.0 , 2049.0 , 6.345 , 0.0 , 0.0 , 0.0 , 0.0 , 

53.0 , 4131.28205128 , 4129.23076923 , 4135.38461538 , 4134.87179487 , 4131.79487179 , 4128.20512821 , 4129.23076923 , 4135.8974359 , 4136.92307692 , 4140.51282051 , 4173.84615385 , 4696.41025641 , 4130.76923077 , 4135.8974359 , 2041.0 , 2049.0 , 6.353 , 0.0 , 0.0 , 0.0 , 0.0 , 

54.0 , 4127.17948718 , 4130.76923077 , 4117.94871795 , 4132.30769231 , 4127.69230769 , 4130.25641026 , 4130.76923077 , 4135.38461538 , 4136.92307692 , 4141.53846154 , 4174.35897436 , 4699.48717949 , 4129.74358974 , 4134.87179487 , 2041.0 , 2046.0 , 6.361 , 0.0 , 0.0 , 0.0 , 0.0 , 

55.0 , 4127.17948718 , 4130.76923077 , 4118.97435897 , 4130.25641026 , 4126.15384615 , 4129.74358974 , 4129.23076923 , 4132.30769231 , 4134.87179487 , 4142.05128205 , 4173.33333333 , 4698.46153846 , 4129.23076923 , 4134.87179487 , 2040.0 , 2044.0 , 6.371 , 0.0 , 0.0 , 0.0 , 0.0 , 

56.0 , 4131.28205128 , 4129.74358974 , 4124.61538462 , 4131.79487179 , 4128.20512821 , 4128.20512821 , 4127.69230769 , 4130.76923077 , 4135.8974359 , 4140.51282051 , 4174.35897436 , 4693.84615385 , 4131.28205128 , 4134.35897436 , 2042.0 , 2043.0 , 6.38 , 0.0 , 0.0 , 0.0 , 0.0 , 

57.0 , 4130.25641026 , 4129.74358974 , 4136.41025641 , 4133.84615385 , 4129.74358974 , 4126.66666667 , 4127.69230769 , 4133.84615385 , 4138.46153846 , 4143.07692308 , 4174.87179487 , 4693.33333333 , 4133.33333333 , 4136.41025641 , 2042.0 , 2041.0 , 6.385 , 0.0 , 0.0 , 0.0 , 0.0 , 

58.0 , 4127.69230769 , 4130.25641026 , 4122.05128205 , 4133.84615385 , 4129.23076923 , 4125.64102564 , 4127.69230769 , 4133.33333333 , 4135.38461538 , 4140.51282051 , 4171.79487179 , 4695.8974359 , 4127.69230769 , 4136.41025641 , 2045.0 , 2042.0 , 6.392 , 0.0 , 0.0 , 0.0 , 0.0 , 

59.0 , 4130.76923077 , 4130.76923077 , 4117.43589744 , 4133.33333333 , 4130.25641026 , 4129.74358974 , 4128.71794872 , 4131.28205128 , 4136.41025641 , 4137.94871795 , 4171.28205128 , 4697.94871795 , 4126.66666667 , 4135.38461538 , 2045.0 , 2041.0 , 6.401 , 0.0 , 0.0 , 0.0 , 0.0 , 

60.0 , 4132.30769231 , 4130.76923077 , 4114.87179487 , 4132.30769231 , 4132.30769231 , 4133.84615385 , 4129.74358974 , 4129.74358974 , 4135.8974359 , 4137.94871795 , 4172.30769231 , 4696.41025641 , 4129.74358974 , 4134.87179487 , 2046.0 , 2043.0 , 6.408 , 0.0 , 0.0 , 0.0 , 0.0 , 

61.0 , 4129.23076923 , 4127.69230769 , 4128.71794872 , 4128.71794872 , 4131.79487179 , 4131.28205128 , 4128.20512821 , 4130.76923077 , 4134.87179487 , 4140.0 , 4175.8974359 , 4695.8974359 , 4129.74358974 , 4135.8974359 , 2046.0 , 2041.0 , 6.416 , 0.0 , 0.0 , 0.0 , 0.0 , 

62.0 , 4129.74358974 , 4126.15384615 , 4120.0 , 4130.25641026 , 4132.30769231 , 4127.17948718 , 4128.20512821 , 4130.25641026 , 4133.84615385 , 4137.94871795 , 4176.92307692 , 4695.8974359 , 4127.17948718 , 4136.92307692 , 2046.0 , 2040.0 , 6.424 , 0.0 , 0.0 , 0.0 , 0.0 , 

63.0 , 4131.79487179 , 4127.69230769 , 4114.87179487 , 4133.33333333 , 4131.28205128 , 4127.17948718 , 4129.23076923 , 4130.76923077 , 4132.82051282 , 4137.43589744 , 4175.38461538 , 4695.38461538 , 4130.76923077 , 4136.41025641 , 2044.0 , 2043.0 , 6.432 , 0.0 , 0.0 , 0.0 , 0.0 , 

64.0 , 4132.30769231 , 4130.25641026 , 4110.76923077 , 4133.33333333 , 4129.23076923 , 4127.69230769 , 4128.71794872 , 4130.76923077 , 4131.28205128 , 4137.94871795 , 4173.84615385 , 4694.87179487 , 4132.82051282 , 4134.35897436 , 2045.0 , 2042.0 , 6.44 , 0.0 , 0.0 , 0.0 , 0.0 , 

65.0 , 4130.76923077 , 4130.76923077 , 4126.15384615 , 4130.25641026 , 4128.71794872 , 4128.20512821 , 4128.71794872 , 4132.82051282 , 4133.84615385 , 4138.46153846 , 4174.35897436 , 4694.87179487 , 4130.76923077 , 4132.82051282 , 2044.0 , 2043.0 , 6.448 , 0.0 , 0.0 , 0.0 , 0.0 , 

66.0 , 4130.25641026 , 4130.76923077 , 4120.51282051 , 4131.79487179 , 4128.71794872 , 4130.76923077 , 4130.25641026 , 4133.33333333 , 4136.41025641 , 4138.46153846 , 4173.84615385 , 4696.41025641 , 4128.71794872 , 4136.41025641 , 2043.0 , 2042.0 , 6.456 , 0.0 , 0.0 , 0.0 , 0.0 , 

67.0 , 4129.74358974 , 4130.25641026 , 4121.02564103 , 4133.33333333 , 4128.71794872 , 4131.28205128 , 4128.20512821 , 4132.30769231 , 4135.8974359 , 4138.97435897 , 4173.84615385 , 4693.84615385 , 4129.74358974 , 4137.43589744 , 2043.0 , 2042.0 , 6.464 , 0.0 , 0.0 , 0.0 , 0.0 , 

68.0 , 4132.82051282 , 4131.28205128 , 4123.58974359 , 4132.30769231 , 4131.28205128 , 4129.74358974 , 4128.20512821 , 4133.84615385 , 4134.87179487 , 4141.02564103 , 4176.41025641 , 4692.82051282 , 4128.71794872 , 4135.38461538 , 2040.0 , 2041.0 , 6.472 , 0.0 , 0.0 , 0.0 , 0.0 , 

69.0 , 4132.30769231 , 4131.79487179 , 4125.12820513 , 4131.79487179 , 4131.28205128 , 4129.23076923 , 4127.69230769 , 4134.35897436 , 4136.41025641 , 4142.05128205 , 4175.38461538 , 4693.33333333 , 4127.17948718 , 4133.33333333 , 2039.0 , 2040.0 , 6.479 , 0.0 , 0.0 , 0.0 , 0.0 , 

70.0 , 4129.23076923 , 4129.23076923 , 4110.76923077 , 4133.33333333 , 4130.25641026 , 4131.28205128 , 4125.64102564 , 4131.28205128 , 4136.92307692 , 4141.02564103 , 4173.33333333 , 4693.33333333 , 4128.20512821 , 4133.84615385 , 2039.0 , 2038.0 , 6.487 , 0.0 , 0.0 , 0.0 , 0.0 , 

71.0 , 4126.66666667 , 4126.66666667 , 4124.1025641 , 4131.79487179 , 4129.23076923 , 4134.87179487 , 4127.69230769 , 4131.28205128 , 4135.38461538 , 4142.56410256 , 4174.87179487 , 4691.28205128 , 4128.71794872 , 4133.33333333 , 2039.0 , 2038.0 , 6.495 , 0.0 , 0.0 , 0.0 , 0.0 , 

72.0 , 4128.20512821 , 4128.71794872 , 4146.66666667 , 4131.28205128 , 4128.20512821 , 4132.30769231 , 4131.28205128 , 4133.84615385 , 4134.35897436 , 4143.58974359 , 4175.8974359 , 4694.35897436 , 4130.25641026 , 4134.35897436 , 2039.0 , 2037.0 , 6.503 , 0.0 , 0.0 , 0.0 , 0.0 , 

73.0 , 4129.74358974 , 4130.25641026 , 4135.8974359 , 4132.30769231 , 4129.74358974 , 4128.20512821 , 4127.17948718 , 4132.82051282 , 4136.92307692 , 4143.07692308 , 4173.84615385 , 4696.92307692 , 4131.28205128 , 4136.41025641 , 2038.0 , 2037.0 , 6.511 , 0.0 , 0.0 , 0.0 , 0.0 , 

74.0 , 4131.28205128 , 4129.74358974 , 4129.74358974 , 4131.28205128 , 4132.30769231 , 4131.28205128 , 4126.66666667 , 4133.84615385 , 4135.8974359 , 4143.58974359 , 4173.33333333 , 4696.92307692 , 4130.76923077 , 4135.8974359 , 2038.0 , 2036.0 , 6.52 , 0.0 , 0.0 , 0.0 , 0.0 , 

75.0 , 4130.25641026 , 4129.74358974 , 4134.35897436 , 4132.30769231 , 4131.28205128 , 4134.87179487 , 4130.25641026 , 4135.38461538 , 4131.79487179 , 4142.05128205 , 4173.84615385 , 4694.35897436 , 4127.69230769 , 4133.33333333 , 2040.0 , 2036.0 , 6.528 , 0.0 , 0.0 , 0.0 , 0.0 , 

76.0 , 4129.23076923 , 4130.25641026 , 4149.74358974 , 4134.35897436 , 4128.71794872 , 4129.74358974 , 4129.23076923 , 4135.38461538 , 4134.35897436 , 4142.05128205 , 4174.87179487 , 4694.35897436 , 4130.76923077 , 4134.87179487 , 2040.0 , 2038.0 , 6.535 , 0.0 , 0.0 , 0.0 , 0.0 , 

77.0 , 4130.76923077 , 4126.66666667 , 4135.8974359 , 4130.76923077 , 4129.74358974 , 4126.15384615 , 4126.66666667 , 4131.28205128 , 4135.8974359 , 4141.02564103 , 4173.84615385 , 4692.82051282 , 4131.28205128 , 4137.43589744 , 2040.0 , 2037.0 , 6.543 , 0.0 , 0.0 , 0.0 , 0.0 , 

78.0 , 4130.76923077 , 4124.1025641 , 4129.74358974 , 4128.71794872 , 4131.28205128 , 4127.69230769 , 4127.69230769 , 4132.82051282 , 4135.38461538 , 4140.51282051 , 4172.82051282 , 4694.35897436 , 4128.71794872 , 4137.43589744 , 2040.0 , 2035.0 , 6.55 , 0.0 , 0.0 , 0.0 , 0.0 , 

79.0 , 4130.76923077 , 4128.20512821 , 4120.0 , 4132.30769231 , 4131.79487179 , 4129.74358974 , 4129.23076923 , 4132.82051282 , 4134.35897436 , 4139.48717949 , 4171.28205128 , 4694.87179487 , 4128.20512821 , 4134.35897436 , 2041.0 , 2037.0 , 6.558 , 0.0 , 0.0 , 0.0 , 0.0 , 

80.0 , 4131.28205128 , 4130.25641026 , 4134.87179487 , 4132.30769231 , 4129.74358974 , 4128.71794872 , 4128.20512821 , 4130.76923077 , 4135.8974359 , 4140.0 , 4174.87179487 , 4694.87179487 , 4129.23076923 , 4134.87179487 , 2040.0 , 2036.0 , 6.567 , 0.0 , 0.0 , 0.0 , 0.0 , 

81.0 , 4132.30769231 , 4126.66666667 , 4127.17948718 , 4128.20512821 , 4128.71794872 , 4127.17948718 , 4125.64102564 , 4129.23076923 , 4134.35897436 , 4137.43589744 , 4175.38461538 , 4693.84615385 , 4127.17948718 , 4138.46153846 , 2040.0 , 2034.0 , 6.575 , 0.0 , 0.0 , 0.0 , 0.0 , 

82.0 , 4130.25641026 , 4127.17948718 , 4135.38461538 , 4128.71794872 , 4129.74358974 , 4129.23076923 , 4125.64102564 , 4130.76923077 , 4134.87179487 , 4136.92307692 , 4172.30769231 , 4694.35897436 , 4129.74358974 , 4137.43589744 , 2039.0 , 2032.0 , 6.583 , 0.0 , 0.0 , 0.0 , 0.0 , 

83.0 , 4130.25641026 , 4131.28205128 , 4133.84615385 , 4133.33333333 , 4129.74358974 , 4131.28205128 , 4128.71794872 , 4129.74358974 , 4135.38461538 , 4138.97435897 , 4172.30769231 , 4694.87179487 , 4131.28205128 , 4133.84615385 , 2036.0 , 2029.0 , 6.59 , 0.0 , 0.0 , 0.0 , 0.0 , 

84.0 , 4130.76923077 , 4129.23076923 , 4145.12820513 , 4132.82051282 , 4127.17948718 , 4129.23076923 , 4127.17948718 , 4133.33333333 , 4135.38461538 , 4142.56410256 , 4176.41025641 , 4695.38461538 , 4131.79487179 , 4134.87179487 , 2037.0 , 2027.0 , 6.598 , 0.0 , 0.0 , 0.0 , 0.0 , 

85.0 , 4130.76923077 , 4128.71794872 , 4137.43589744 , 4129.74358974 , 4128.71794872 , 4129.23076923 , 4127.17948718 , 4134.87179487 , 4134.35897436 , 4141.53846154 , 4174.87179487 , 4693.33333333 , 4131.28205128 , 4137.94871795 , 2037.0 , 2027.0 , 6.606 , 0.0 , 0.0 , 0.0 , 0.0 , 

86.0 , 4130.25641026 , 4129.74358974 , 4141.02564103 , 4128.20512821 , 4131.28205128 , 4130.25641026 , 4130.25641026 , 4134.35897436 , 4134.35897436 , 4140.0 , 4172.30769231 , 4689.74358974 , 4129.74358974 , 4136.41025641 , 2037.0 , 2023.0 , 6.613 , 0.0 , 0.0 , 0.0 , 0.0 , 

87.0 , 4132.82051282 , 4127.69230769 , 4139.48717949 , 4131.28205128 , 4131.28205128 , 4130.76923077 , 4130.25641026 , 4134.87179487 , 4134.87179487 , 4141.53846154 , 4174.87179487 , 4691.79487179 , 4128.71794872 , 4134.87179487 , 2036.0 , 2022.0 , 6.621 , 0.0 , 0.0 , 0.0 , 0.0 , 

88.0 , 4132.82051282 , 4126.66666667 , 4148.20512821 , 4134.35897436 , 4129.74358974 , 4129.23076923 , 4127.69230769 , 4134.87179487 , 4136.41025641 , 4144.1025641 , 4175.38461538 , 4694.87179487 , 4131.28205128 , 4136.41025641 , 2035.0 , 2021.0 , 6.633 , 0.0 , 0.0 , 0.0 , 0.0 , 

89.0 , 4131.79487179 , 4130.76923077 , 4143.07692308 , 4133.33333333 , 4129.23076923 , 4127.17948718 , 4129.23076923 , 4131.79487179 , 4136.92307692 , 4143.07692308 , 4174.87179487 , 4694.87179487 , 4130.25641026 , 4136.92307692 , 2035.0 , 2024.0 , 6.637 , 0.0 , 0.0 , 0.0 , 0.0 , 

90.0 , 4130.25641026 , 4130.76923077 , 4125.12820513 , 4131.28205128 , 4128.71794872 , 4127.17948718 , 4130.76923077 , 4131.28205128 , 4136.92307692 , 4138.46153846 , 4173.84615385 , 4692.30769231 , 4125.64102564 , 4132.30769231 , 2035.0 , 2026.0 , 6.645 , 0.0 , 0.0 , 0.0 , 0.0 , 

91.0 , 4131.28205128 , 4129.23076923 , 4131.28205128 , 4132.82051282 , 4129.74358974 , 4130.25641026 , 4129.23076923 , 4134.35897436 , 4138.46153846 , 4138.97435897 , 4171.79487179 , 4693.84615385 , 4128.71794872 , 4132.30769231 , 2036.0 , 2026.0 , 6.653 , 0.0 , 0.0 , 0.0 , 0.0 , 

92.0 , 4129.23076923 , 4129.74358974 , 4130.76923077 , 4136.41025641 , 4130.25641026 , 4130.25641026 , 4127.17948718 , 4132.30769231 , 4136.41025641 , 4141.53846154 , 4171.28205128 , 4694.35897436 , 4131.28205128 , 4134.87179487 , 2037.0 , 2024.0 , 6.661 , 0.0 , 0.0 , 0.0 , 0.0 , 

93.0 , 4127.69230769 , 4131.79487179 , 4118.46153846 , 4136.41025641 , 4128.20512821 , 4129.23076923 , 4128.20512821 , 4131.79487179 , 4132.30769231 , 4142.56410256 , 4173.84615385 , 4695.38461538 , 4129.23076923 , 4134.35897436 , 2037.0 , 2023.0 , 6.669 , 0.0 , 0.0 , 0.0 , 0.0 , 

94.0 , 4127.69230769 , 4130.25641026 , 4113.84615385 , 4132.30769231 , 4128.71794872 , 4131.79487179 , 4129.23076923 , 4133.33333333 , 4131.79487179 , 4140.0 , 4171.79487179 , 4692.30769231 , 4127.69230769 , 4132.82051282 , 2037.0 , 2021.0 , 6.676 , 0.0 , 0.0 , 0.0 , 0.0 , 

95.0 , 4129.23076923 , 4129.74358974 , 4133.84615385 , 4130.25641026 , 4131.28205128 , 4130.76923077 , 4127.69230769 , 4134.87179487 , 4137.94871795 , 4141.02564103 , 4170.25641026 , 4691.28205128 , 4131.79487179 , 4134.87179487 , 2037.0 , 2019.0 , 6.684 , 0.0 , 0.0 , 0.0 , 0.0 , 

96.0 , 4132.30769231 , 4131.28205128 , 4134.35897436 , 4133.33333333 , 4130.76923077 , 4128.20512821 , 4126.66666667 , 4132.82051282 , 4140.51282051 , 4142.05128205 , 4173.84615385 , 4694.35897436 , 4132.30769231 , 4134.87179487 , 2034.0 , 2016.0 , 6.692 , 0.0 , 0.0 , 0.0 , 0.0 , 

97.0 , 4131.28205128 , 4132.30769231 , 4142.05128205 , 4132.30769231 , 4128.20512821 , 4128.20512821 , 4128.20512821 , 4131.28205128 , 4138.46153846 , 4141.53846154 , 4177.43589744 , 4695.38461538 , 4131.28205128 , 4134.35897436 , 2033.0 , 2014.0 , 6.7 , 0.0 , 0.0 , 0.0 , 0.0 , 

98.0 , 4129.23076923 , 4132.30769231 , 4134.35897436 , 4131.79487179 , 4128.71794872 , 4128.20512821 , 4128.20512821 , 4131.28205128 , 4136.92307692 , 4140.51282051 , 4174.87179487 , 4691.79487179 , 4129.23076923 , 4135.8974359 , 2031.0 , 2013.0 , 6.708 , 0.0 , 0.0 , 0.0 , 0.0 , 

99.0 , 4128.20512821 , 4130.76923077 , 4137.94871795 , 4134.35897436 , 4129.74358974 , 4127.17948718 , 4127.69230769 , 4135.38461538 , 4137.43589744 , 4142.56410256 , 4173.33333333 , 4693.84615385 , 4130.76923077 , 4137.94871795 , 2028.0 , 2012.0 , 6.716 , 0.0 , 0.0 , 0.0 , 0.0 , 

100.0 , 4129.74358974 , 4128.71794872 , 4134.35897436 , 4133.33333333 , 4128.20512821 , 4128.71794872 , 4129.23076923 , 4134.35897436 , 4133.84615385 , 4140.51282051 , 4175.8974359 , 4695.8974359 , 4131.79487179 , 4137.94871795 , 2024.0 , 2011.0 , 6.724 , 0.0 , 0.0 , 0.0 , 0.0 , 

101.0 , 4130.76923077 , 4128.71794872 , 4138.97435897 , 4130.76923077 , 4126.66666667 , 4128.71794872 , 4129.74358974 , 4131.79487179 , 4133.33333333 , 4136.92307692 , 4176.41025641 , 4692.82051282 , 4130.76923077 , 4134.35897436 , 2021.0 , 2011.0 , 6.735 , 0.0 , 0.0 , 0.0 , 0.0 , 

102.0 , 4132.82051282 , 4130.25641026 , 4126.66666667 , 4130.76923077 , 4128.20512821 , 4128.71794872 , 4130.25641026 , 4132.30769231 , 4134.87179487 , 4138.97435897 , 4171.28205128 , 4692.30769231 , 4129.74358974 , 4134.35897436 , 2021.0 , 2009.0 , 6.74 , 0.0 , 0.0 , 0.0 , 0.0 , 

103.0 , 4133.33333333 , 4129.23076923 , 4140.0 , 4130.76923077 , 4130.25641026 , 4129.23076923 , 4129.23076923 , 4134.87179487 , 4134.87179487 , 4142.56410256 , 4172.82051282 , 4694.87179487 , 4132.82051282 , 4138.46153846 , 2020.0 , 2008.0 , 6.747 , 0.0 , 0.0 , 0.0 , 0.0 , 

104.0 , 4133.33333333 , 4129.23076923 , 4132.30769231 , 4131.28205128 , 4131.79487179 , 4128.71794872 , 4127.69230769 , 4133.84615385 , 4132.82051282 , 4140.51282051 , 4177.43589744 , 4694.35897436 , 4133.84615385 , 4138.46153846 , 2020.0 , 2008.0 , 6.755 , 0.0 , 0.0 , 0.0 , 0.0 , 

105.0 , 4130.76923077 , 4129.74358974 , 4137.94871795 , 4131.28205128 , 4130.76923077 , 4128.71794872 , 4127.69230769 , 4131.79487179 , 4135.8974359 , 4142.05128205 , 4176.92307692 , 4693.33333333 , 4131.79487179 , 4135.38461538 , 2021.0 , 2007.0 , 6.763 , 0.0 , 0.0 , 0.0 , 0.0 , 

106.0 , 4129.74358974 , 4130.76923077 , 4145.12820513 , 4130.76923077 , 4129.74358974 , 4128.71794872 , 4129.74358974 , 4131.28205128 , 4136.92307692 , 4144.1025641 , 4172.30769231 , 4694.35897436 , 4131.28205128 , 4135.8974359 , 2021.0 , 2005.0 , 6.777 , 0.0 , 0.0 , 0.0 , 0.0 , 

107.0 , 4129.74358974 , 4129.23076923 , 4146.66666667 , 4132.30769231 , 4130.25641026 , 4127.17948718 , 4128.20512821 , 4133.33333333 , 4136.92307692 , 4143.58974359 , 4173.84615385 , 4695.38461538 , 4133.33333333 , 4134.87179487 , 2024.0 , 2008.0 , 6.779 , 0.0 , 0.0 , 0.0 , 0.0 , 

108.0 , 4130.76923077 , 4128.71794872 , 4141.02564103 , 4133.84615385 , 4129.23076923 , 4125.64102564 , 4126.15384615 , 4133.84615385 , 4138.46153846 , 4144.1025641 , 4176.41025641 , 4696.41025641 , 4133.33333333 , 4134.87179487 , 2025.0 , 2006.0 , 6.787 , 0.0 , 0.0 , 0.0 , 0.0 , 

109.0 , 4129.74358974 , 4129.23076923 , 4143.58974359 , 4130.76923077 , 4127.17948718 , 4128.71794872 , 4126.66666667 , 4133.33333333 , 4136.92307692 , 4143.58974359 , 4173.84615385 , 4695.38461538 , 4129.74358974 , 4137.43589744 , 2028.0 , 2006.0 , 6.801 , 0.0 , 0.0 , 0.0 , 0.0 , 

110.0 , 4130.25641026 , 4131.28205128 , 4152.30769231 , 4131.28205128 , 4129.23076923 , 4129.74358974 , 4129.23076923 , 4136.92307692 , 4134.87179487 , 4142.05128205 , 4173.33333333 , 4694.87179487 , 4130.76923077 , 4137.43589744 , 2030.0 , 2006.0 , 6.805 , 0.0 , 0.0 , 0.0 , 0.0 , 

111.0 , 4130.76923077 , 4130.76923077 , 4138.97435897 , 4133.84615385 , 4130.25641026 , 4127.69230769 , 4129.23076923 , 4135.38461538 , 4135.8974359 , 4140.0 , 4175.8974359 , 4693.84615385 , 4134.87179487 , 4133.33333333 , 2030.0 , 2005.0 , 6.818 , 0.0 , 0.0 , 0.0 , 0.0 , 

112.0 , 4131.28205128 , 4129.23076923 , 4137.43589744 , 4132.82051282 , 4129.23076923 , 4128.20512821 , 4128.71794872 , 4133.33333333 , 4137.43589744 , 4140.51282051 , 4176.92307692 , 4695.8974359 , 4134.35897436 , 4134.35897436 , 2034.0 , 2001.0 , 6.82 , 0.0 , 0.0 , 0.0 , 0.0 , 

113.0 , 4131.79487179 , 4130.25641026 , 4130.76923077 , 4130.25641026 , 4128.71794872 , 4129.23076923 , 4128.71794872 , 4133.33333333 , 4134.35897436 , 4141.02564103 , 4173.84615385 , 4696.41025641 , 4129.74358974 , 4137.94871795 , 2033.0 , 2002.0 , 6.827 , 0.0 , 0.0 , 0.0 , 0.0 , 

114.0 , 4132.82051282 , 4130.76923077 , 4135.38461538 , 4130.76923077 , 4128.71794872 , 4128.71794872 , 4128.20512821 , 4134.87179487 , 4135.38461538 , 4140.51282051 , 4173.84615385 , 4694.87179487 , 4132.30769231 , 4136.41025641 , 2034.0 , 1999.0 , 6.835 , 0.0 , 0.0 , 0.0 , 0.0 , 

115.0 , 4130.25641026 , 4129.74358974 , 4125.64102564 , 4133.33333333 , 4129.74358974 , 4128.71794872 , 4129.74358974 , 4133.33333333 , 4136.41025641 , 4135.38461538 , 4172.30769231 , 4693.84615385 , 4133.33333333 , 4134.35897436 , 2035.0 , 1997.0 , 6.842 , 0.0 , 0.0 , 0.0 , 0.0 , 

116.0 , 4127.69230769 , 4128.71794872 , 4127.69230769 , 4132.30769231 , 4131.79487179 , 4129.74358974 , 4130.76923077 , 4134.87179487 , 4136.92307692 , 4136.41025641 , 4171.79487179 , 4695.8974359 , 4130.25641026 , 4135.38461538 , 2036.0 , 1998.0 , 6.85 , 0.0 , 0.0 , 0.0 , 0.0 , 

117.0 , 4131.79487179 , 4130.25641026 , 4123.58974359 , 4130.76923077 , 4132.30769231 , 4129.74358974 , 4129.74358974 , 4133.84615385 , 4136.41025641 , 4140.0 , 4173.84615385 , 4694.87179487 , 4128.71794872 , 4134.87179487 , 2036.0 , 1999.0 , 6.858 , 0.0 , 0.0 , 0.0 , 0.0 , 

118.0 , 4132.82051282 , 4130.25641026 , 4138.97435897 , 4129.74358974 , 4130.25641026 , 4127.69230769 , 4129.23076923 , 4134.35897436 , 4134.87179487 , 4142.56410256 , 4174.87179487 , 4693.84615385 , 4132.30769231 , 4133.84615385 , 2035.0 , 2001.0 , 6.866 , 0.0 , 0.0 , 0.0 , 0.0 , 

119.0 , 4128.71794872 , 4130.76923077 , 4128.71794872 , 4130.76923077 , 4130.25641026 , 4128.20512821 , 4128.71794872 , 4135.38461538 , 4130.25641026 , 4142.56410256 , 4172.82051282 , 4695.8974359 , 4131.28205128 , 4134.35897436 , 2034.0 , 2002.0 , 6.873 , 0.0 , 0.0 , 0.0 , 0.0 , 

120.0 , 4128.71794872 , 4129.74358974 , 4128.71794872 , 4131.28205128 , 4131.79487179 , 4130.25641026 , 4128.71794872 , 4133.33333333 , 4133.84615385 , 4144.61538462 , 4174.35897436 , 4695.8974359 , 4129.74358974 , 4134.87179487 , 2034.0 , 2003.0 , 6.881 , 0.0 , 0.0 , 0.0 , 0.0 , 

121.0 , 4131.28205128 , 4127.17948718 , 4137.94871795 , 4131.79487179 , 4131.28205128 , 4130.76923077 , 4130.76923077 , 4132.30769231 , 4140.0 , 4142.56410256 , 4175.8974359 , 4695.38461538 , 4131.79487179 , 4135.38461538 , 2031.0 , 2003.0 , 6.89 , 0.0 , 0.0 , 0.0 , 0.0 , 

122.0 , 4127.69230769 , 4128.20512821 , 4114.87179487 , 4132.30769231 , 4128.71794872 , 4129.74358974 , 4131.28205128 , 4133.84615385 , 4134.87179487 , 4136.41025641 , 4171.28205128 , 4693.84615385 , 4131.79487179 , 4134.87179487 , 2031.0 , 2004.0 , 6.897 , 0.0 , 0.0 , 0.0 , 0.0 , 

123.0 , 4129.74358974 , 4131.79487179 , 4081.53846154 , 4132.82051282 , 4128.71794872 , 4127.17948718 , 4130.25641026 , 4133.33333333 , 4131.28205128 , 4138.46153846 , 4171.28205128 , 4693.84615385 , 4131.28205128 , 4134.35897436 , 2029.0 , 2002.0 , 6.905 , 0.0 , 0.0 , 0.0 , 0.0 , 

124.0 , 4133.33333333 , 4130.25641026 , 4075.8974359 , 4130.76923077 , 4129.74358974 , 4125.12820513 , 4130.76923077 , 4127.69230769 , 4131.28205128 , 4137.43589744 , 4171.28205128 , 4691.79487179 , 4127.69230769 , 4132.30769231 , 2029.0 , 2002.0 , 6.913 , 0.0 , 0.0 , 0.0 , 0.0 , 

125.0 , 4131.79487179 , 4129.23076923 , 4083.07692308 , 4130.76923077 , 4130.76923077 , 4132.82051282 , 4132.82051282 , 4130.76923077 , 4132.82051282 , 4134.87179487 , 4171.28205128 , 4695.38461538 , 4129.74358974 , 4135.38461538 , 2030.0 , 2003.0 , 6.921 , 0.0 , 0.0 , 0.0 , 0.0 , 

126.0 , 4129.23076923 , 4130.25641026 , 4094.35897436 , 4130.25641026 , 4129.74358974 , 4137.43589744 , 4129.23076923 , 4134.35897436 , 4133.33333333 , 4134.87179487 , 4172.30769231 , 4693.33333333 , 4130.76923077 , 4137.94871795 , 2029.0 , 2002.0 , 6.929 , 0.0 , 0.0 , 0.0 , 0.0 , 

127.0 , 4132.30769231 , 4130.25641026 , 4105.12820513 , 4130.76923077 , 4128.71794872 , 4130.76923077 , 4128.20512821 , 4133.84615385 , 4135.8974359 , 4139.48717949 , 4174.35897436 , 4690.76923077 , 4130.25641026 , 4138.46153846 , 2029.0 , 2002.0 , 6.937 , 0.0 , 0.0 , 0.0 , 0.0 , 

128.0 , 4132.30769231 , 4128.20512821 , 4108.71794872 , 4130.76923077 , 4127.69230769 , 4126.15384615 , 4129.23076923 , 4132.82051282 , 4133.33333333 , 4138.46153846 , 4172.30769231 , 4690.76923077 , 4127.69230769 , 4134.87179487 , 2028.0 , 2004.0 , 6.944 , 0.0 , 0.0 , 0.0 , 0.0 , 

0.0 , 4130.25641026 , 4127.69230769 , 4117.94871795 , 4130.76923077 , 4130.76923077 , 4128.71794872 , 4129.23076923 , 4134.87179487 , 4134.35897436 , 4138.97435897 , 4173.33333333 , 4694.87179487 , 4131.28205128 , 4135.8974359 , 2028.0 , 2005.0 , 6.952 , 0.0 , 0.0 , 0.0 , 0.0 , 

1.0 , 4130.25641026 , 4128.20512821 , 4114.87179487 , 4132.30769231 , 4130.25641026 , 4126.15384615 , 4128.71794872 , 4132.82051282 , 4136.41025641 , 4138.97435897 , 4174.35897436 , 4691.79487179 , 4130.76923077 , 4136.92307692 , 2028.0 , 2007.0 , 6.96 , 0.0 , 0.0 , 0.0 , 0.0 , 

2.0 , 4132.82051282 , 4129.23076923 , 4088.71794872 , 4133.33333333 , 4127.69230769 , 4123.58974359 , 4130.25641026 , 4130.25641026 , 4131.79487179 , 4137.94871795 , 4173.84615385 , 4688.71794872 , 4126.66666667 , 4135.38461538 , 2027.0 , 2008.0 , 6.968 , 0.0 , 0.0 , 0.0 , 0.0 , 

3.0 , 4130.76923077 , 4129.74358974 , 4091.79487179 , 4132.30769231 , 4130.25641026 , 4128.71794872 , 4129.74358974 , 4133.33333333 , 4131.28205128 , 4140.51282051 , 4172.30769231 , 4691.28205128 , 4127.69230769 , 4134.35897436 , 2024.0 , 2010.0 , 6.976 , 0.0 , 0.0 , 0.0 , 0.0 , 

4.0 , 4128.20512821 , 4129.23076923 , 4117.43589744 , 4131.79487179 , 4132.30769231 , 4130.25641026 , 4128.71794872 , 4137.43589744 , 4137.94871795 , 4143.58974359 , 4173.33333333 , 4691.79487179 , 4132.82051282 , 4135.38461538 , 2022.0 , 2013.0 , 6.985 , 0.0 , 0.0 , 0.0 , 0.0 , 

5.0 , 4129.23076923 , 4130.25641026 , 4105.12820513 , 4132.30769231 , 4128.71794872 , 4129.74358974 , 4128.71794872 , 4136.41025641 , 4136.41025641 , 4138.97435897 , 4173.84615385 , 4687.69230769 , 4131.79487179 , 4134.87179487 , 2020.0 , 2014.0 , 6.992 , 0.0 , 0.0 , 0.0 , 0.0 , 

6.0 , 4130.76923077 , 4130.76923077 , 4087.17948718 , 4131.28205128 , 4129.23076923 , 4130.25641026 , 4127.69230769 , 4131.28205128 , 4129.74358974 , 4136.92307692 , 4173.84615385 , 4686.66666667 , 4128.71794872 , 4134.87179487 , 2016.0 , 2015.0 , 7.0 , 0.0 , 0.0 , 0.0 , 0.0 , 

7.0 , 4131.79487179 , 4130.25641026 , 4089.74358974 , 4129.23076923 , 4132.30769231 , 4127.17948718 , 4126.66666667 , 4129.74358974 , 4133.33333333 , 4140.0 , 4175.38461538 , 4689.23076923 , 4129.23076923 , 4136.92307692 , 2016.0 , 2016.0 , 7.007 , 0.0 , 0.0 , 0.0 , 0.0 , 

8.0 , 4130.25641026 , 4130.25641026 , 4115.38461538 , 4129.74358974 , 4130.76923077 , 4128.20512821 , 4128.20512821 , 4133.84615385 , 4138.97435897 , 4141.53846154 , 4174.35897436 , 4689.74358974 , 4132.30769231 , 4137.43589744 , 2018.0 , 2016.0 , 7.015 , 0.0 , 0.0 , 0.0 , 0.0 , 

9.0 , 4130.25641026 , 4129.74358974 , 4105.64102564 , 4132.30769231 , 4130.76923077 , 4138.46153846 , 4128.71794872 , 4134.35897436 , 4132.30769231 , 4139.48717949 , 4171.79487179 , 4687.17948718 , 4131.28205128 , 4136.92307692 , 2015.0 , 2018.0 , 7.024 , 0.0 , 0.0 , 0.0 , 0.0 , 

10.0 , 4131.28205128 , 4129.74358974 , 4125.12820513 , 4132.82051282 , 4131.79487179 , 4136.41025641 , 4125.64102564 , 4133.84615385 , 4132.82051282 , 4140.51282051 , 4174.87179487 , 4688.20512821 , 4131.79487179 , 4137.94871795 , 2016.0 , 2020.0 , 7.033 , 0.0 , 0.0 , 0.0 , 0.0 , 

11.0 , 4133.33333333 , 4130.25641026 , 4140.0 , 4131.28205128 , 4129.74358974 , 4125.64102564 , 4126.66666667 , 4134.87179487 , 4140.0 , 4141.02564103 , 4176.41025641 , 4689.23076923 , 4131.28205128 , 4137.43589744 , 2016.0 , 2018.0 , 7.04 , 0.0 , 0.0 , 0.0 , 0.0 , 

12.0 , 4131.79487179 , 4129.23076923 , 4135.38461538 , 4130.76923077 , 4129.23076923 , 4124.61538462 , 4129.74358974 , 4135.8974359 , 4137.94871795 , 4141.02564103 , 4174.35897436 , 4687.69230769 , 4129.74358974 , 4135.8974359 , 2017.0 , 2018.0 , 7.047 , 0.0 , 0.0 , 0.0 , 0.0 , 

13.0 , 4132.82051282 , 4130.25641026 , 4109.23076923 , 4133.33333333 , 4131.28205128 , 4126.66666667 , 4129.74358974 , 4132.30769231 , 4132.82051282 , 4139.48717949 , 4172.82051282 , 4687.17948718 , 4128.71794872 , 4137.94871795 , 2017.0 , 2019.0 , 7.055 , 0.0 , 0.0 , 0.0 , 0.0 , 

14.0 , 4131.79487179 , 4131.79487179 , 4116.92307692 , 4133.33333333 , 4131.28205128 , 4127.69230769 , 4127.69230769 , 4131.28205128 , 4136.92307692 , 4137.94871795 , 4172.30769231 , 4686.15384615 , 4130.25641026 , 4140.0 , 2016.0 , 2019.0 , 7.064 , 0.0 , 0.0 , 0.0 , 0.0 , 

15.0 , 4129.74358974 , 4131.79487179 , 4128.71794872 , 4131.28205128 , 4131.28205128 , 4130.25641026 , 4127.17948718 , 4133.33333333 , 4138.97435897 , 4141.02564103 , 4171.79487179 , 4686.66666667 , 4131.28205128 , 4137.94871795 , 2017.0 , 2017.0 , 7.071 , 0.0 , 0.0 , 0.0 , 0.0 , 

16.0 , 4129.23076923 , 4130.25641026 , 4131.28205128 , 4131.28205128 , 4129.74358974 , 4131.79487179 , 4127.17948718 , 4135.8974359 , 4136.92307692 , 4143.58974359 , 4174.87179487 , 4687.69230769 , 4130.76923077 , 4137.43589744 , 2017.0 , 2016.0 , 7.078 , 0.0 , 0.0 , 0.0 , 0.0 , 

17.0 , 4130.25641026 , 4130.76923077 , 4127.17948718 , 4132.82051282 , 4128.20512821 , 4130.25641026 , 4128.71794872 , 4135.8974359 , 4134.87179487 , 4140.0 , 4175.38461538 , 4688.20512821 , 4131.28205128 , 4141.02564103 , 2019.0 , 2014.0 , 7.087 , 0.0 , 0.0 , 0.0 , 0.0 , 

18.0 , 4130.25641026 , 4132.30769231 , 4127.69230769 , 4131.79487179 , 4128.71794872 , 4128.71794872 , 4130.76923077 , 4132.82051282 , 4133.33333333 , 4138.46153846 , 4173.84615385 , 4685.64102564 , 4132.30769231 , 4141.53846154 , 2020.0 , 2013.0 , 7.094 , 0.0 , 0.0 , 0.0 , 0.0 , 

19.0 , 4130.76923077 , 4130.76923077 , 4148.20512821 , 4130.25641026 , 4131.79487179 , 4126.66666667 , 4129.74358974 , 4131.28205128 , 4135.8974359 , 4142.05128205 , 4177.43589744 , 4685.64102564 , 4131.79487179 , 4137.43589744 , 2019.0 , 2013.0 , 7.103 , 0.0 , 0.0 , 0.0 , 0.0 , 

20.0 , 4130.25641026 , 4128.71794872 , 4145.64102564 , 4131.28205128 , 4132.30769231 , 4129.74358974 , 4128.20512821 , 4130.76923077 , 4136.41025641 , 4141.53846154 , 4178.46153846 , 4687.17948718 , 4129.74358974 , 4135.8974359 , 2020.0 , 2012.0 , 7.11 , 0.0 , 0.0 , 0.0 , 0.0 , 

21.0 , 4130.76923077 , 4129.74358974 , 4163.07692308 , 4131.79487179 , 4129.74358974 , 4129.23076923 , 4128.71794872 , 4137.43589744 , 4138.46153846 , 4144.1025641 , 4175.38461538 , 4689.23076923 , 4134.87179487 , 4138.97435897 , 2021.0 , 2011.0 , 7.118 , 0.0 , 0.0 , 0.0 , 0.0 , 

22.0 , 4132.30769231 , 4130.25641026 , 4143.58974359 , 4131.79487179 , 4129.23076923 , 4125.64102564 , 4128.20512821 , 4136.41025641 , 4136.41025641 , 4141.53846154 , 4172.82051282 , 4686.66666667 , 4132.82051282 , 4136.41025641 , 2022.0 , 2009.0 , 7.126 , 0.0 , 0.0 , 0.0 , 0.0 , 

23.0 , 4131.79487179 , 4129.74358974 , 4126.15384615 , 4131.79487179 , 4130.25641026 , 4126.15384615 , 4127.69230769 , 4130.25641026 , 4133.84615385 , 4137.94871795 , 4175.38461538 , 4686.15384615 , 4126.15384615 , 4134.35897436 , 2022.0 , 2010.0 , 7.133 , 0.0 , 0.0 , 0.0 , 0.0 , 

24.0 , 4132.82051282 , 4130.76923077 , 4110.76923077 , 4130.76923077 , 4130.25641026 , 4127.69230769 , 4129.23076923 , 4129.23076923 , 4133.33333333 , 4138.46153846 , 4174.35897436 , 4686.66666667 , 4124.61538462 , 4136.41025641 , 2025.0 , 2008.0 , 7.142 , 0.0 , 0.0 , 0.0 , 0.0 , 

25.0 , 4132.30769231 , 4131.79487179 , 4137.94871795 , 4129.23076923 , 4129.74358974 , 4130.25641026 , 4130.76923077 , 4136.92307692 , 4136.92307692 , 4142.05128205 , 4172.30769231 , 4687.69230769 , 4132.30769231 , 4137.43589744 , 2026.0 , 2008.0 , 7.15 , 0.0 , 0.0 , 0.0 , 0.0 , 

26.0 , 4130.76923077 , 4130.76923077 , 4136.92307692 , 4130.76923077 , 4131.28205128 , 4130.76923077 , 4129.23076923 , 4134.87179487 , 4134.87179487 , 4138.97435897 , 4170.76923077 , 4685.64102564 , 4132.30769231 , 4135.8974359 , 2027.0 , 2008.0 , 7.157 , 0.0 , 0.0 , 0.0 , 0.0 , 

27.0 , 4131.79487179 , 4129.74358974 , 4134.87179487 , 4131.28205128 , 4131.28205128 , 4126.15384615 , 4127.69230769 , 4132.30769231 , 4135.8974359 , 4141.02564103 , 4171.28205128 , 4685.64102564 , 4130.25641026 , 4134.87179487 , 2028.0 , 2010.0 , 7.165 , 0.0 , 0.0 , 0.0 , 0.0 , 

28.0 , 4134.35897436 , 4128.71794872 , 4128.71794872 , 4131.79487179 , 4130.25641026 , 4125.12820513 , 4129.23076923 , 4134.35897436 , 4138.46153846 , 4144.61538462 , 4174.35897436 , 4688.20512821 , 4132.30769231 , 4136.41025641 , 2029.0 , 2009.0 , 7.173 , 0.0 , 0.0 , 0.0 , 0.0 , 

29.0 , 4129.74358974 , 4129.23076923 , 4144.61538462 , 4132.82051282 , 4130.25641026 , 4128.20512821 , 4128.71794872 , 4133.84615385 , 4136.92307692 , 4142.56410256 , 4177.94871795 , 4688.71794872 , 4134.87179487 , 4137.43589744 , 2032.0 , 2008.0 , 7.181 , 0.0 , 0.0 , 0.0 , 0.0 , 

30.0 , 4128.71794872 , 4131.79487179 , 4148.20512821 , 4131.28205128 , 4131.79487179 , 4126.66666667 , 4128.20512821 , 4130.76923077 , 4135.38461538 , 4139.48717949 , 4175.38461538 , 4686.15384615 , 4132.82051282 , 4136.41025641 , 2033.0 , 2009.0 , 7.189 , 0.0 , 0.0 , 0.0 , 0.0 , 

31.0 , 4132.82051282 , 4129.74358974 , 4162.56410256 , 4130.25641026 , 4132.30769231 , 4125.12820513 , 4128.71794872 , 4134.87179487 , 4138.97435897 , 4142.56410256 , 4174.87179487 , 4687.17948718 , 4130.76923077 , 4133.84615385 , 2036.0 , 2012.0 , 7.197 , 0.0 , 0.0 , 0.0 , 0.0 , 

32.0 , 4133.84615385 , 4128.20512821 , 4164.61538462 , 4132.30769231 , 4130.76923077 , 4129.23076923 , 4128.71794872 , 4136.41025641 , 4138.46153846 , 4143.58974359 , 4175.8974359 , 4688.71794872 , 4131.79487179 , 4134.87179487 , 2036.0 , 2012.0 , 7.204 , 0.0 , 0.0 , 0.0 , 0.0 , 

33.0 , 4128.71794872 , 4128.20512821 , 4163.58974359 , 4130.76923077 , 4128.71794872 , 4127.69230769 , 4126.66666667 , 4133.33333333 , 4135.38461538 , 4142.05128205 , 4175.8974359 , 4688.20512821 , 4133.84615385 , 4134.87179487 , 2038.0 , 2013.0 , 7.212 , 0.0 , 0.0 , 0.0 , 0.0 , 

34.0 , 4127.69230769 , 4128.20512821 , 4155.38461538 , 4129.23076923 , 4129.23076923 , 4124.1025641 , 4125.12820513 , 4130.76923077 , 4132.82051282 , 4140.0 , 4174.35897436 , 4690.76923077 , 4135.8974359 , 4135.38461538 , 2039.0 , 2014.0 , 7.22 , 0.0 , 0.0 , 0.0 , 0.0 , 

35.0 , 4128.20512821 , 4129.23076923 , 4166.15384615 , 4130.25641026 , 4129.74358974 , 4128.20512821 , 4127.69230769 , 4133.33333333 , 4134.87179487 , 4140.0 , 4174.35897436 , 4691.28205128 , 4134.87179487 , 4137.94871795 , 2039.0 , 2016.0 , 7.228 , 0.0 , 0.0 , 0.0 , 0.0 , 

36.0 , 4131.79487179 , 4129.23076923 , 4169.74358974 , 4131.28205128 , 4128.20512821 , 4130.25641026 , 4130.76923077 , 4135.8974359 , 4137.43589744 , 4140.0 , 4176.41025641 , 4689.74358974 , 4130.76923077 , 4137.94871795 , 2041.0 , 2015.0 , 7.236 , 0.0 , 0.0 , 0.0 , 0.0 , 

37.0 , 4132.30769231 , 4127.17948718 , 4163.07692308 , 4131.28205128 , 4129.74358974 , 4129.74358974 , 4127.69230769 , 4133.84615385 , 4135.8974359 , 4137.43589744 , 4176.41025641 , 4690.76923077 , 4130.76923077 , 4135.38461538 , 2041.0 , 2018.0 , 7.244 , 0.0 , 0.0 , 0.0 , 0.0 , 

38.0 , 4130.76923077 , 4127.17948718 , 4171.28205128 , 4132.30769231 , 4130.25641026 , 4130.25641026 , 4125.64102564 , 4130.76923077 , 4134.87179487 , 4138.97435897 , 4173.84615385 , 4693.33333333 , 4132.82051282 , 4135.8974359 , 2042.0 , 2017.0 , 7.252 , 0.0 , 0.0 , 0.0 , 0.0 , 

39.0 , 4128.71794872 , 4130.76923077 , 4166.66666667 , 4131.28205128 , 4128.71794872 , 4127.17948718 , 4128.20512821 , 4131.79487179 , 4134.35897436 , 4142.05128205 , 4173.33333333 , 4692.82051282 , 4131.28205128 , 4135.38461538 , 2044.0 , 2018.0 , 7.26 , 0.0 , 0.0 , 0.0 , 0.0 , 

40.0 , 4128.71794872 , 4129.74358974 , 4170.76923077 , 4129.23076923 , 4129.23076923 , 4124.1025641 , 4129.74358974 , 4134.35897436 , 4134.87179487 , 4141.53846154 , 4177.94871795 , 4691.79487179 , 4130.76923077 , 4135.8974359 , 2046.0 , 2018.0 , 7.267 , 0.0 , 0.0 , 0.0 , 0.0 , 

41.0 , 4129.74358974 , 4125.64102564 , 4161.02564103 , 4131.28205128 , 4130.76923077 , 4125.64102564 , 4128.71794872 , 4131.79487179 , 4134.87179487 , 4138.97435897 , 4176.92307692 , 4689.23076923 , 4131.79487179 , 4135.38461538 , 2047.0 , 2016.0 , 7.276 , 0.0 , 0.0 , 0.0 , 0.0 , 

42.0 , 4128.71794872 , 4126.15384615 , 4183.07692308 , 4132.30769231 , 4129.23076923 , 4127.17948718 , 4127.69230769 , 4132.82051282 , 4137.43589744 , 4143.58974359 , 4171.79487179 , 4692.30769231 , 4132.82051282 , 4132.82051282 , 2048.0 , 2016.0 , 7.284 , 0.0 , 0.0 , 0.0 , 0.0 , 

43.0 , 4130.25641026 , 4130.76923077 , 4172.30769231 , 4132.30769231 , 4126.66666667 , 4126.15384615 , 4126.15384615 , 4133.84615385 , 4135.8974359 , 4142.56410256 , 4174.35897436 , 4696.41025641 , 4128.71794872 , 4133.84615385 , 2047.0 , 2018.0 , 7.292 , 0.0 , 0.0 , 0.0 , 0.0 , 

44.0 , 4131.28205128 , 4129.23076923 , 4169.74358974 , 4132.82051282 , 4129.23076923 , 4125.64102564 , 4127.17948718 , 4136.41025641 , 4136.41025641 , 4138.97435897 , 4178.46153846 , 4694.87179487 , 4129.74358974 , 4138.97435897 , 2050.0 , 2015.0 , 7.299 , 0.0 , 0.0 , 0.0 , 0.0 , 

45.0 , 4131.79487179 , 4127.17948718 , 4162.56410256 , 4131.28205128 , 4132.30769231 , 4125.64102564 , 4129.74358974 , 4136.41025641 , 4136.92307692 , 4138.46153846 , 4174.87179487 , 4692.30769231 , 4130.76923077 , 4138.46153846 , 2049.0 , 2015.0 , 7.307 , 0.0 , 0.0 , 0.0 , 0.0 , 

46.0 , 4128.71794872 , 4130.25641026 , 4190.25641026 , 4130.76923077 , 4129.74358974 , 4127.17948718 , 4128.71794872 , 4135.8974359 , 4136.41025641 , 4141.53846154 , 4171.28205128 , 4693.84615385 , 4131.28205128 , 4133.84615385 , 2050.0 , 2015.0 , 7.315 , 0.0 , 0.0 , 0.0 , 0.0 , 

47.0 , 4129.74358974 , 4132.30769231 , 4177.43589744 , 4132.30769231 , 4126.66666667 , 4129.74358974 , 4127.69230769 , 4131.79487179 , 4136.41025641 , 4138.46153846 , 4173.84615385 , 4694.35897436 , 4130.25641026 , 4133.84615385 , 2052.0 , 2019.0 , 7.323 , 0.0 , 0.0 , 0.0 , 0.0 , 

48.0 , 4132.82051282 , 4129.74358974 , 4178.46153846 , 4131.79487179 , 4128.20512821 , 4129.74358974 , 4128.71794872 , 4134.35897436 , 4140.0 , 4137.94871795 , 4177.43589744 , 4694.87179487 , 4132.30769231 , 4138.97435897 , 2054.0 , 2019.0 , 7.332 , 0.0 , 0.0 , 0.0 , 0.0 , 

49.0 , 4132.82051282 , 4129.23076923 , 4176.92307692 , 4129.74358974 , 4132.30769231 , 4128.71794872 , 4128.20512821 , 4134.87179487 , 4136.41025641 , 4141.53846154 , 4174.35897436 , 4695.8974359 , 4132.30769231 , 4140.0 , 2054.0 , 2020.0 , 7.338 , 0.0 , 0.0 , 0.0 , 0.0 , 

50.0 , 4129.74358974 , 4130.76923077 , 4183.07692308 , 4130.25641026 , 4130.25641026 , 4129.23076923 , 4126.15384615 , 4134.35897436 , 4133.33333333 , 4143.58974359 , 4172.30769231 , 4695.38461538 , 4134.35897436 , 4134.87179487 , 2056.0 , 2023.0 , 7.346 , 0.0 , 0.0 , 0.0 , 0.0 , 

51.0 , 4129.23076923 , 4129.74358974 , 4167.17948718 , 4133.33333333 , 4128.20512821 , 4128.71794872 , 4127.17948718 , 4131.79487179 , 4132.82051282 , 4140.0 , 4173.84615385 , 4694.35897436 , 4134.35897436 , 4133.84615385 , 2058.0 , 2024.0 , 7.354 , 0.0 , 0.0 , 0.0 , 0.0 , 

52.0 , 4130.76923077 , 4128.20512821 , 4177.94871795 , 4133.84615385 , 4130.76923077 , 4128.71794872 , 4127.69230769 , 4133.33333333 , 4131.28205128 , 4139.48717949 , 4173.84615385 , 4696.92307692 , 4135.38461538 , 4139.48717949 , 2055.0 , 2027.0 , 7.363 , 0.0 , 0.0 , 0.0 , 0.0 , 

53.0 , 4133.33333333 , 4128.20512821 , 4195.38461538 , 4133.33333333 , 4132.82051282 , 4128.71794872 , 4126.66666667 , 4133.33333333 , 4132.30769231 , 4141.53846154 , 4174.35897436 , 4698.46153846 , 4134.87179487 , 4140.0 , 2055.0 , 2028.0 , 7.37 , 0.0 , 0.0 , 0.0 , 0.0 , 

54.0 , 4131.28205128 , 4128.20512821 , 4166.66666667 , 4132.82051282 , 4128.71794872 , 4129.23076923 , 4128.71794872 , 4129.23076923 , 4136.41025641 , 4136.41025641 , 4175.38461538 , 4696.92307692 , 4128.20512821 , 4134.35897436 , 2054.0 , 2030.0 , 7.378 , 0.0 , 0.0 , 0.0 , 0.0 , 

55.0 , 4128.20512821 , 4130.76923077 , 4146.15384615 , 4132.82051282 , 4126.66666667 , 4128.71794872 , 4131.28205128 , 4130.76923077 , 4134.35897436 , 4136.92307692 , 4174.87179487 , 4698.46153846 , 4128.20512821 , 4134.87179487 , 2055.0 , 2031.0 , 7.386 , 0.0 , 0.0 , 0.0 , 0.0 , 

56.0 , 4128.71794872 , 4129.74358974 , 4159.48717949 , 4132.82051282 , 4130.76923077 , 4129.74358974 , 4129.74358974 , 4133.84615385 , 4132.30769231 , 4142.56410256 , 4172.82051282 , 4699.48717949 , 4130.25641026 , 4135.8974359 , 2054.0 , 2033.0 , 7.394 , 0.0 , 0.0 , 0.0 , 0.0 , 

57.0 , 4130.76923077 , 4126.66666667 , 4178.97435897 , 4132.82051282 , 4131.79487179 , 4129.23076923 , 4127.69230769 , 4131.28205128 , 4136.92307692 , 4142.56410256 , 4174.35897436 , 4700.0 , 4130.76923077 , 4134.35897436 , 2056.0 , 2028.0 , 7.401 , 0.0 , 0.0 , 0.0 , 0.0 , 

58.0 , 4131.28205128 , 4129.23076923 , 4157.43589744 , 4131.79487179 , 4130.25641026 , 4127.69230769 , 4128.71794872 , 4128.71794872 , 4136.41025641 , 4137.43589744 , 4174.87179487 , 4701.53846154 , 4129.74358974 , 4135.8974359 , 2053.0 , 2026.0 , 7.409 , 0.0 , 0.0 , 0.0 , 0.0 , 

59.0 , 4130.76923077 , 4133.33333333 , 4156.41025641 , 4130.76923077 , 4130.25641026 , 4129.74358974 , 4127.17948718 , 4132.82051282 , 4132.82051282 , 4140.0 , 4173.84615385 , 4704.1025641 , 4131.28205128 , 4136.92307692 , 2054.0 , 2023.0 , 7.417 , 0.0 , 0.0 , 0.0 , 0.0 , 

60.0 , 4131.28205128 , 4131.28205128 , 4162.56410256 , 4132.82051282 , 4130.76923077 , 4131.79487179 , 4125.64102564 , 4131.79487179 , 4131.79487179 , 4141.53846154 , 4175.8974359 , 4703.58974359 , 4132.30769231 , 4133.33333333 , 2053.0 , 2022.0 , 7.425 , 0.0 , 0.0 , 0.0 , 0.0 , 

61.0 , 4130.25641026 , 4128.20512821 , 4170.76923077 , 4132.82051282 , 4128.71794872 , 4129.23076923 , 4127.69230769 , 4129.23076923 , 4134.35897436 , 4140.0 , 4177.43589744 , 4703.58974359 , 4133.84615385 , 4133.84615385 , 2053.0 , 2024.0 , 7.433 , 0.0 , 0.0 , 0.0 , 0.0 , 

62.0 , 4131.28205128 , 4130.25641026 , 4158.97435897 , 4130.25641026 , 4127.69230769 , 4127.69230769 , 4129.74358974 , 4131.28205128 , 4132.82051282 , 4138.97435897 , 4174.87179487 , 4704.1025641 , 4132.30769231 , 4135.38461538 , 2053.0 , 2026.0 , 7.441 , 0.0 , 0.0 , 0.0 , 0.0 , 

63.0 , 4131.28205128 , 4129.74358974 , 4171.79487179 , 4130.76923077 , 4130.25641026 , 4128.20512821 , 4126.66666667 , 4134.35897436 , 4133.33333333 , 4141.53846154 , 4173.84615385 , 4703.07692308 , 4131.79487179 , 4133.84615385 , 2053.0 , 2027.0 , 7.449 , 0.0 , 0.0 , 0.0 , 0.0 , 

64.0 , 4129.23076923 , 4126.66666667 , 4172.30769231 , 4133.84615385 , 4130.25641026 , 4128.71794872 , 4125.64102564 , 4132.30769231 , 4134.35897436 , 4140.51282051 , 4174.35897436 , 4702.56410256 , 4133.33333333 , 4134.35897436 , 2055.0 , 2030.0 , 7.457 , 0.0 , 0.0 , 0.0 , 0.0 , 

65.0 , 4130.25641026 , 4126.66666667 , 4167.17948718 , 4131.79487179 , 4127.69230769 , 4128.20512821 , 4127.17948718 , 4129.23076923 , 4135.38461538 , 4139.48717949 , 4173.84615385 , 4704.1025641 , 4131.79487179 , 4134.35897436 , 2054.0 , 2034.0 , 7.465 , 0.0 , 0.0 , 0.0 , 0.0 , 

66.0 , 4133.33333333 , 4131.79487179 , 4152.82051282 , 4130.76923077 , 4127.69230769 , 4129.23076923 , 4127.69230769 , 4128.71794872 , 4135.8974359 , 4140.51282051 , 4171.79487179 , 4708.20512821 , 4131.79487179 , 4134.35897436 , 2053.0 , 2038.0 , 7.473 , 0.0 , 0.0 , 0.0 , 0.0 , 

67.0 , 4129.23076923 , 4130.25641026 , 4143.58974359 , 4133.33333333 , 4129.74358974 , 4127.69230769 , 4127.69230769 , 4130.25641026 , 4134.87179487 , 4139.48717949 , 4171.79487179 , 4706.66666667 , 4131.79487179 , 4134.35897436 , 2053.0 , 2041.0 , 7.481 , 0.0 , 0.0 , 0.0 , 0.0 , 

68.0 , 4128.20512821 , 4126.66666667 , 4135.38461538 , 4135.38461538 , 4130.25641026 , 4127.69230769 , 4128.71794872 , 4133.84615385 , 4135.38461538 , 4137.94871795 , 4174.35897436 , 4704.1025641 , 4129.74358974 , 4134.35897436 , 2056.0 , 2041.0 , 7.489 , 0.0 , 0.0 , 0.0 , 0.0 , 

69.0 , 4131.28205128 , 4127.69230769 , 4143.07692308 , 4131.79487179 , 4129.23076923 , 4130.25641026 , 4128.71794872 , 4133.84615385 , 4136.41025641 , 4138.46153846 , 4174.87179487 , 4704.1025641 , 4128.71794872 , 4133.33333333 , 2055.0 , 2042.0 , 7.496 , 0.0 , 0.0 , 0.0 , 0.0 , 

70.0 , 4132.30769231 , 4129.23076923 , 4144.61538462 , 4131.28205128 , 4130.25641026 , 4130.76923077 , 4128.71794872 , 4132.82051282 , 4135.8974359 , 4140.0 , 4175.38461538 , 4706.15384615 , 4131.79487179 , 4133.84615385 , 2056.0 , 2043.0 , 7.504 , 0.0 , 0.0 , 0.0 , 0.0 , 

71.0 , 4130.25641026 , 4127.17948718 , 4146.66666667 , 4131.79487179 , 4130.76923077 , 4127.69230769 , 4128.20512821 , 4132.82051282 , 4134.87179487 , 4138.97435897 , 4175.8974359 , 4705.64102564 , 4131.79487179 , 4131.79487179 , 2054.0 , 2043.0 , 7.512 , 0.0 , 0.0 , 0.0 , 0.0 , 

72.0 , 4133.33333333 , 4128.71794872 , 4153.33333333 , 4130.76923077 , 4131.79487179 , 4128.20512821 , 4127.69230769 , 4133.84615385 , 4138.46153846 , 4138.97435897 , 4175.8974359 , 4706.15384615 , 4130.25641026 , 4133.84615385 , 2055.0 , 2043.0 , 7.52 , 0.0 , 0.0 , 0.0 , 0.0 , 

73.0 , 4130.76923077 , 4129.23076923 , 4149.74358974 , 4130.25641026 , 4132.82051282 , 4129.23076923 , 4127.69230769 , 4132.30769231 , 4137.43589744 , 4139.48717949 , 4174.87179487 , 4706.66666667 , 4128.71794872 , 4135.8974359 , 2056.0 , 2040.0 , 7.528 , 0.0 , 0.0 , 0.0 , 0.0 , 

74.0 , 4127.69230769 , 4129.74358974 , 4142.56410256 , 4131.79487179 , 4131.79487179 , 4128.71794872 , 4127.69230769 , 4130.25641026 , 4133.84615385 , 4141.02564103 , 4176.92307692 , 4705.12820513 , 4133.33333333 , 4134.87179487 , 2056.0 , 2039.0 , 7.535 , 0.0 , 0.0 , 0.0 , 0.0 , 

75.0 , 4131.28205128 , 4130.25641026 , 4152.30769231 , 4133.84615385 , 4129.74358974 , 4129.74358974 , 4128.20512821 , 4129.23076923 , 4134.87179487 , 4143.58974359 , 4174.87179487 , 4704.1025641 , 4134.87179487 , 4132.82051282 , 2056.0 , 2039.0 , 7.544 , 0.0 , 0.0 , 0.0 , 0.0 , 

76.0 , 4133.84615385 , 4130.76923077 , 4167.17948718 , 4133.84615385 , 4128.20512821 , 4128.71794872 , 4129.23076923 , 4131.79487179 , 4137.43589744 , 4142.56410256 , 4173.84615385 , 4706.66666667 , 4131.79487179 , 4133.84615385 , 2058.0 , 2039.0 , 7.551 , 0.0 , 0.0 , 0.0 , 0.0 , 

77.0 , 4130.76923077 , 4130.76923077 , 4149.23076923 , 4131.28205128 , 4129.74358974 , 4126.66666667 , 4129.74358974 , 4133.84615385 , 4135.38461538 , 4137.94871795 , 4175.38461538 , 4708.71794872 , 4128.71794872 , 4134.87179487 , 2057.0 , 2041.0 , 7.559 , 0.0 , 0.0 , 0.0 , 0.0 , 

78.0 , 4129.74358974 , 4131.28205128 , 4135.38461538 , 4130.25641026 , 4131.28205128 , 4129.74358974 , 4129.23076923 , 4132.30769231 , 4132.82051282 , 4138.97435897 , 4175.8974359 , 4707.69230769 , 4129.23076923 , 4134.87179487 , 2057.0 , 2042.0 , 7.567 , 0.0 , 0.0 , 0.0 , 0.0 , 

79.0 , 4132.82051282 , 4131.28205128 , 4133.84615385 , 4134.35897436 , 4129.23076923 , 4131.28205128 , 4130.25641026 , 4130.25641026 , 4133.33333333 , 4141.02564103 , 4174.87179487 , 4709.74358974 , 4128.20512821 , 4133.84615385 , 2056.0 , 2043.0 , 7.575 , 0.0 , 0.0 , 0.0 , 0.0 , 

80.0 , 4132.82051282 , 4129.74358974 , 4149.74358974 , 4134.35897436 , 4128.20512821 , 4128.20512821 , 4131.28205128 , 4133.84615385 , 4133.33333333 , 4139.48717949 , 4176.41025641 , 4712.30769231 , 4127.69230769 , 4133.33333333 , 2056.0 , 2042.0 , 7.583 , 0.0 , 0.0 , 0.0 , 0.0 , 

81.0 , 4129.74358974 , 4128.20512821 , 4135.38461538 , 4132.30769231 , 4130.76923077 , 4129.23076923 , 4129.74358974 , 4132.82051282 , 4132.82051282 , 4137.94871795 , 4175.8974359 , 4711.28205128 , 4128.71794872 , 4136.41025641 , 2056.0 , 2044.0 , 7.591 , 0.0 , 0.0 , 0.0 , 0.0 , 

82.0 , 4129.23076923 , 4129.23076923 , 4117.94871795 , 4133.84615385 , 4129.74358974 , 4131.28205128 , 4128.20512821 , 4128.20512821 , 4133.84615385 , 4137.94871795 , 4173.84615385 , 4710.25641026 , 4128.71794872 , 4136.41025641 , 2057.0 , 2047.0 , 7.598 , 0.0 , 0.0 , 0.0 , 0.0 , 

83.0 , 4132.30769231 , 4131.28205128 , 4122.05128205 , 4134.35897436 , 4129.23076923 , 4130.25641026 , 4129.74358974 , 4130.25641026 , 4135.38461538 , 4136.92307692 , 4176.41025641 , 4711.28205128 , 4128.71794872 , 4134.35897436 , 2056.0 , 2047.0 , 7.606 , 0.0 , 0.0 , 0.0 , 0.0 , 

84.0 , 4131.28205128 , 4129.74358974 , 4144.61538462 , 4130.25641026 , 4130.76923077 , 4129.23076923 , 4128.71794872 , 4134.35897436 , 4133.84615385 , 4137.94871795 , 4176.41025641 , 4708.20512821 , 4129.23076923 , 4134.87179487 , 2055.0 , 2048.0 , 7.614 , 0.0 , 0.0 , 0.0 , 0.0 , 

85.0 , 4129.74358974 , 4130.25641026 , 4137.43589744 , 4130.76923077 , 4130.76923077 , 4129.74358974 , 4128.20512821 , 4133.84615385 , 4129.74358974 , 4141.53846154 , 4173.84615385 , 4709.23076923 , 4131.28205128 , 4137.94871795 , 2054.0 , 2048.0 , 7.622 , 0.0 , 0.0 , 0.0 , 0.0 , 

86.0 , 4129.23076923 , 4132.30769231 , 4132.82051282 , 4132.82051282 , 4127.69230769 , 4129.74358974 , 4129.74358974 , 4131.79487179 , 4131.28205128 , 4142.56410256 , 4174.35897436 , 4711.28205128 , 4130.25641026 , 4136.92307692 , 2055.0 , 2046.0 , 7.63 , 0.0 , 0.0 , 0.0 , 0.0 , 

87.0 , 4131.28205128 , 4131.28205128 , 4135.8974359 , 4131.28205128 , 4129.74358974 , 4130.25641026 , 4130.25641026 , 4132.82051282 , 4134.87179487 , 4143.58974359 , 4176.41025641 , 4710.76923077 , 4127.69230769 , 4133.33333333 , 2055.0 , 2046.0 , 7.638 , 0.0 , 0.0 , 0.0 , 0.0 , 

88.0 , 4132.30769231 , 4128.20512821 , 4140.0 , 4129.23076923 , 4131.28205128 , 4129.74358974 , 4128.20512821 , 4131.79487179 , 4134.87179487 , 4145.12820513 , 4174.87179487 , 4708.20512821 , 4126.15384615 , 4130.76923077 , 2054.0 , 2046.0 , 7.646 , 0.0 , 0.0 , 0.0 , 0.0 , 

89.0 , 4133.84615385 , 4128.71794872 , 4144.61538462 , 4132.82051282 , 4130.76923077 , 4127.17948718 , 4127.17948718 , 4131.28205128 , 4134.35897436 , 4147.17948718 , 4173.84615385 , 4709.23076923 , 4129.74358974 , 4133.84615385 , 2054.0 , 2046.0 , 7.654 , 0.0 , 0.0 , 0.0 , 0.0 , 

90.0 , 4131.28205128 , 4128.71794872 , 4142.05128205 , 4135.8974359 , 4130.25641026 , 4128.71794872 , 4128.71794872 , 4129.23076923 , 4131.28205128 , 4143.58974359 , 4174.35897436 , 4709.23076923 , 4130.25641026 , 4136.92307692 , 2054.0 , 2048.0 , 7.661 , 0.0 , 0.0 , 0.0 , 0.0 , 

91.0 , 4132.82051282 , 4130.25641026 , 4123.07692308 , 4134.87179487 , 4129.74358974 , 4130.76923077 , 4130.76923077 , 4129.23076923 , 4129.74358974 , 4142.05128205 , 4176.41025641 , 4711.79487179 , 4128.20512821 , 4137.43589744 , 2051.0 , 2047.0 , 7.669 , 0.0 , 0.0 , 0.0 , 0.0 , 

92.0 , 4134.87179487 , 4131.28205128 , 4113.33333333 , 4131.79487179 , 4129.74358974 , 4129.23076923 , 4128.71794872 , 4131.79487179 , 4132.82051282 , 4141.53846154 , 4176.41025641 , 4711.28205128 , 4126.15384615 , 4134.35897436 , 2051.0 , 2047.0 , 7.677 , 0.0 , 0.0 , 0.0 , 0.0 , 

93.0 , 4132.30769231 , 4131.79487179 , 4122.56410256 , 4131.79487179 , 4130.25641026 , 4130.76923077 , 4127.69230769 , 4131.79487179 , 4134.35897436 , 4140.0 , 4174.35897436 , 4709.23076923 , 4128.71794872 , 4135.8974359 , 2051.0 , 2047.0 , 7.685 , 0.0 , 0.0 , 0.0 , 0.0 , 

94.0 , 4130.25641026 , 4133.33333333 , 4122.05128205 , 4132.30769231 , 4131.79487179 , 4131.79487179 , 4129.74358974 , 4131.28205128 , 4130.25641026 , 4136.92307692 , 4172.30769231 , 4708.71794872 , 4128.71794872 , 4136.92307692 , 2051.0 , 2049.0 , 7.693 , 0.0 , 0.0 , 0.0 , 0.0 , 

95.0 , 4131.79487179 , 4131.79487179 , 4138.46153846 , 4131.79487179 , 4132.82051282 , 4127.69230769 , 4129.74358974 , 4137.43589744 , 4131.79487179 , 4141.02564103 , 4174.87179487 , 4712.82051282 , 4128.20512821 , 4136.92307692 , 2052.0 , 2050.0 , 7.701 , 0.0 , 0.0 , 0.0 , 0.0 , 

96.0 , 4131.79487179 , 4130.25641026 , 4135.38461538 , 4132.82051282 , 4131.28205128 , 4126.15384615 , 4129.23076923 , 4134.87179487 , 4133.84615385 , 4143.07692308 , 4173.33333333 , 4712.82051282 , 4129.74358974 , 4135.8974359 , 2054.0 , 2051.0 , 7.709 , 0.0 , 0.0 , 0.0 , 0.0 , 

97.0 , 4129.23076923 , 4132.30769231 , 4127.69230769 , 4131.79487179 , 4128.71794872 , 4128.71794872 , 4128.71794872 , 4130.25641026 , 4133.33333333 , 4142.05128205 , 4168.71794872 , 4710.25641026 , 4132.30769231 , 4134.87179487 , 2055.0 , 2051.0 , 7.717 , 0.0 , 0.0 , 0.0 , 0.0 , 

98.0 , 4129.23076923 , 4132.82051282 , 4119.48717949 , 4130.25641026 , 4130.25641026 , 4129.23076923 , 4128.20512821 , 4131.79487179 , 4133.84615385 , 4140.51282051 , 4168.71794872 , 4708.71794872 , 4131.28205128 , 4136.41025641 , 2057.0 , 2054.0 , 7.725 , 0.0 , 0.0 , 0.0 , 0.0 , 

99.0 , 4129.74358974 , 4129.74358974 , 4121.02564103 , 4130.25641026 , 4133.84615385 , 4129.23076923 , 4129.74358974 , 4132.82051282 , 4132.30769231 , 4140.0 , 4173.33333333 , 4708.71794872 , 4129.74358974 , 4136.41025641 , 2057.0 , 2054.0 , 7.733 , 0.0 , 0.0 , 0.0 , 0.0 , 

100.0 , 4130.76923077 , 4129.23076923 , 4120.0 , 4131.79487179 , 4132.30769231 , 4129.23076923 , 4130.76923077 , 4131.28205128 , 4131.28205128 , 4141.53846154 , 4174.87179487 , 4709.23076923 , 4129.74358974 , 4134.87179487 , 2056.0 , 2054.0 , 7.741 , 0.0 , 0.0 , 0.0 , 0.0 , 

101.0 , 4130.25641026 , 4131.79487179 , 4119.48717949 , 4131.28205128 , 4129.23076923 , 4127.69230769 , 4126.66666667 , 4132.82051282 , 4134.35897436 , 4140.51282051 , 4172.30769231 , 4708.20512821 , 4128.71794872 , 4135.38461538 , 2057.0 , 2055.0 , 7.749 , 0.0 , 0.0 , 0.0 , 0.0 , 

102.0 , 4132.30769231 , 4130.76923077 , 4111.79487179 , 4130.76923077 , 4130.25641026 , 4127.69230769 , 4127.17948718 , 4134.35897436 , 4137.94871795 , 4139.48717949 , 4173.33333333 , 4708.20512821 , 4128.71794872 , 4136.92307692 , 2056.0 , 2055.0 , 7.757 , 0.0 , 0.0 , 0.0 , 0.0 , 

103.0 , 4134.35897436 , 4127.69230769 , 4118.97435897 , 4132.30769231 , 4132.30769231 , 4127.17948718 , 4128.71794872 , 4132.30769231 , 4138.97435897 , 4143.07692308 , 4172.82051282 , 4707.17948718 , 4128.71794872 , 4134.87179487 , 2056.0 , 2054.0 , 7.765 , 0.0 , 0.0 , 0.0 , 0.0 , 

104.0 , 4133.84615385 , 4128.20512821 , 4118.97435897 , 4133.33333333 , 4132.30769231 , 4127.17948718 , 4126.15384615 , 4132.82051282 , 4138.46153846 , 4143.58974359 , 4171.28205128 , 4710.25641026 , 4127.69230769 , 4134.87179487 , 2056.0 , 2053.0 , 7.772 , 0.0 , 0.0 , 0.0 , 0.0 , 

105.0 , 4130.25641026 , 4129.74358974 , 4116.92307692 , 4130.25641026 , 4130.25641026 , 4130.25641026 , 4125.12820513 , 4133.84615385 , 4137.43589744 , 4140.51282051 , 4170.25641026 , 4709.23076923 , 4128.71794872 , 4136.41025641 , 2056.0 , 2052.0 , 7.78 , 0.0 , 0.0 , 0.0 , 0.0 , 

106.0 , 4132.30769231 , 4130.25641026 , 4116.92307692 , 4130.25641026 , 4128.20512821 , 4130.25641026 , 4127.69230769 , 4132.82051282 , 4137.43589744 , 4142.56410256 , 4171.79487179 , 4709.23076923 , 4131.28205128 , 4136.41025641 , 2057.0 , 2053.0 , 7.787 , 0.0 , 0.0 , 0.0 , 0.0 , 

107.0 , 4133.33333333 , 4129.23076923 , 4118.97435897 , 4130.76923077 , 4127.69230769 , 4127.69230769 , 4128.20512821 , 4128.71794872 , 4135.38461538 , 4141.02564103 , 4172.30769231 , 4710.76923077 , 4128.71794872 , 4133.33333333 , 2057.0 , 2053.0 , 7.795 , 0.0 , 0.0 , 0.0 , 0.0 , 

108.0 , 4130.25641026 , 4130.25641026 , 4114.87179487 , 4131.79487179 , 4130.25641026 , 4127.17948718 , 4127.17948718 , 4128.71794872 , 4132.82051282 , 4136.92307692 , 4171.28205128 , 4710.76923077 , 4128.20512821 , 4133.33333333 , 2057.0 , 2054.0 , 7.803 , 0.0 , 0.0 , 0.0 , 0.0 , 

109.0 , 4128.71794872 , 4131.28205128 , 4116.41025641 , 4134.35897436 , 4131.28205128 , 4128.71794872 , 4127.69230769 , 4132.30769231 , 4132.82051282 , 4137.43589744 , 4170.76923077 , 4707.17948718 , 4129.74358974 , 4135.8974359 , 2058.0 , 2054.0 , 7.811 , 0.0 , 0.0 , 0.0 , 0.0 , 

110.0 , 4132.30769231 , 4131.28205128 , 4119.48717949 , 4134.35897436 , 4131.28205128 , 4130.76923077 , 4128.20512821 , 4131.79487179 , 4135.8974359 , 4138.46153846 , 4173.33333333 , 4707.69230769 , 4130.76923077 , 4135.8974359 , 2057.0 , 2055.0 , 7.819 , 0.0 , 0.0 , 0.0 , 0.0 , 

111.0 , 4132.30769231 , 4131.28205128 , 4118.46153846 , 4131.79487179 , 4131.28205128 , 4131.28205128 , 4128.20512821 , 4130.25641026 , 4136.92307692 , 4138.97435897 , 4174.87179487 , 4707.17948718 , 4130.25641026 , 4132.30769231 , 2057.0 , 2054.0 , 7.827 , 0.0 , 0.0 , 0.0 , 0.0 , 

112.0 , 4132.82051282 , 4131.79487179 , 4125.12820513 , 4130.25641026 , 4131.28205128 , 4128.20512821 , 4127.69230769 , 4133.84615385 , 4136.92307692 , 4142.05128205 , 4173.84615385 , 4706.15384615 , 4131.28205128 , 4134.35897436 , 2058.0 , 2054.0 , 7.835 , 0.0 , 0.0 , 0.0 , 0.0 , 

113.0 , 4136.41025641 , 4131.79487179 , 4122.56410256 , 4130.25641026 , 4130.25641026 , 4127.69230769 , 4127.69230769 , 4134.35897436 , 4135.38461538 , 4142.05128205 , 4173.33333333 , 4706.66666667 , 4131.28205128 , 4137.94871795 , 2059.0 , 2054.0 , 7.843 , 0.0 , 0.0 , 0.0 , 0.0 , 

114.0 , 4133.84615385 , 4130.25641026 , 4127.69230769 , 4131.28205128 , 4130.25641026 , 4130.76923077 , 4127.69230769 , 4131.79487179 , 4136.92307692 , 4142.56410256 , 4177.43589744 , 4708.71794872 , 4131.28205128 , 4136.41025641 , 2059.0 , 2053.0 , 7.851 , 0.0 , 0.0 , 0.0 , 0.0 , 

115.0 , 4131.28205128 , 4129.74358974 , 4124.61538462 , 4133.33333333 , 4131.79487179 , 4130.76923077 , 4128.20512821 , 4131.28205128 , 4137.43589744 , 4141.02564103 , 4177.43589744 , 4708.71794872 , 4129.23076923 , 4133.84615385 , 2060.0 , 2054.0 , 7.858 , 0.0 , 0.0 , 0.0 , 0.0 , 

116.0 , 4130.76923077 , 4130.25641026 , 4142.56410256 , 4131.79487179 , 4131.28205128 , 4127.17948718 , 4127.17948718 , 4134.35897436 , 4135.38461538 , 4140.0 , 4173.33333333 , 4706.66666667 , 4130.76923077 , 4135.38461538 , 2060.0 , 2055.0 , 7.867 , 0.0 , 0.0 , 0.0 , 0.0 , 

117.0 , 4129.23076923 , 4131.28205128 , 4132.30769231 , 4130.25641026 , 4128.71794872 , 4125.64102564 , 4127.69230769 , 4134.35897436 , 4132.82051282 , 4140.51282051 , 4172.30769231 , 4704.61538462 , 4132.82051282 , 4134.87179487 , 2061.0 , 2055.0 , 7.874 , 0.0 , 0.0 , 0.0 , 0.0 , 

118.0 , 4127.17948718 , 4130.25641026 , 4143.58974359 , 4130.25641026 , 4127.69230769 , 4127.17948718 , 4128.20512821 , 4133.84615385 , 4136.92307692 , 4143.58974359 , 4174.35897436 , 4708.20512821 , 4132.82051282 , 4133.33333333 , 2060.0 , 2057.0 , 7.882 , 0.0 , 0.0 , 0.0 , 0.0 , 

119.0 , 4129.23076923 , 4130.25641026 , 4143.58974359 , 4130.76923077 , 4130.76923077 , 4129.23076923 , 4126.66666667 , 4131.79487179 , 4138.97435897 , 4142.05128205 , 4172.30769231 , 4708.71794872 , 4129.23076923 , 4133.33333333 , 2058.0 , 2057.0 , 7.89 , 0.0 , 0.0 , 0.0 , 0.0 , 

120.0 , 4129.74358974 , 4131.28205128 , 4140.51282051 , 4132.30769231 , 4132.30769231 , 4126.15384615 , 4127.17948718 , 4133.33333333 , 4138.46153846 , 4142.56410256 , 4171.28205128 , 4707.17948718 , 4130.25641026 , 4133.84615385 , 2058.0 , 2057.0 , 7.898 , 0.0 , 0.0 , 0.0 , 0.0 , 

121.0 , 4131.28205128 , 4131.28205128 , 4117.94871795 , 4133.33333333 , 4130.76923077 , 4123.07692308 , 4130.25641026 , 4132.82051282 , 4136.41025641 , 4142.05128205 , 4172.30769231 , 4708.71794872 , 4130.76923077 , 4134.35897436 , 2055.0 , 2055.0 , 7.906 , 0.0 , 0.0 , 0.0 , 0.0 , 

122.0 , 4131.28205128 , 4129.23076923 , 4111.79487179 , 4131.28205128 , 4130.25641026 , 4128.20512821 , 4127.17948718 , 4130.76923077 , 4137.43589744 , 4137.43589744 , 4171.28205128 , 4707.69230769 , 4129.23076923 , 4134.35897436 , 2055.0 , 2055.0 , 7.914 , 0.0 , 0.0 , 0.0 , 0.0 , 

123.0 , 4130.25641026 , 4130.76923077 , 4109.74358974 , 4131.28205128 , 4130.76923077 , 4135.38461538 , 4126.15384615 , 4130.25641026 , 4139.48717949 , 4138.46153846 , 4171.79487179 , 4706.15384615 , 4128.20512821 , 4134.87179487 , 2054.0 , 2055.0 , 7.921 , 0.0 , 0.0 , 0.0 , 0.0 , 

124.0 , 4130.76923077 , 4132.30769231 , 4116.41025641 , 4131.79487179 , 4129.74358974 , 4134.35897436 , 4129.74358974 , 4131.28205128 , 4136.92307692 , 4140.51282051 , 4172.30769231 , 4705.12820513 , 4129.74358974 , 4135.38461538 , 2052.0 , 2052.0 , 7.93 , 0.0 , 0.0 , 0.0 , 0.0 , 

125.0 , 4132.30769231 , 4129.74358974 , 4120.51282051 , 4133.33333333 , 4129.23076923 , 4131.28205128 , 4129.23076923 , 4132.82051282 , 4134.35897436 , 4139.48717949 , 4173.33333333 , 4706.15384615 , 4131.28205128 , 4134.87179487 , 2050.0 , 2053.0 , 7.937 , 0.0 , 0.0 , 0.0 , 0.0 , 

126.0 , 4130.76923077 , 4128.71794872 , 4120.51282051 , 4133.33333333 , 4129.23076923 , 4129.23076923 , 4127.69230769 , 4133.84615385 , 4133.33333333 , 4140.0 , 4175.38461538 , 4707.69230769 , 4129.74358974 , 4135.38461538 , 2049.0 , 2051.0 , 7.946 , 0.0 , 0.0 , 0.0 , 0.0 , 

127.0 , 4129.74358974 , 4131.28205128 , 4128.71794872 , 4132.30769231 , 4130.76923077 , 4128.20512821 , 4130.25641026 , 4134.87179487 , 4133.84615385 , 4142.56410256 , 4174.35897436 , 4707.17948718 , 4131.28205128 , 4137.43589744 , 2048.0 , 2053.0 , 7.953 , 0.0 , 0.0 , 0.0 , 0.0 , 

128.0 , 4129.74358974 , 4130.25641026 , 4136.92307692 , 4131.28205128 , 4131.79487179 , 4126.66666667 , 4129.74358974 , 4135.38461538 , 4135.38461538 , 4141.53846154 , 4171.79487179 , 4702.56410256 , 4132.82051282 , 4134.87179487 , 2046.0 , 2052.0 , 7.962 , 0.0 , 0.0 , 0.0 , 0.0 , 

0.0 , 4131.79487179 , 4128.20512821 , 4135.38461538 , 4132.82051282 , 4130.76923077 , 4126.15384615 , 4128.20512821 , 4137.43589744 , 4137.94871795 , 4141.53846154 , 4171.28205128 , 4704.1025641 , 4130.76923077 , 4134.35897436 , 2045.0 , 2054.0 , 7.97 , 0.0 , 0.0 , 0.0 , 0.0 , 

1.0 , 4130.76923077 , 4129.23076923 , 4131.79487179 , 4133.33333333 , 4130.76923077 , 4127.69230769 , 4129.23076923 , 4133.33333333 , 4135.38461538 , 4143.07692308 , 4172.82051282 , 4705.12820513 , 4127.69230769 , 4134.35897436 , 2045.0 , 2056.0 , 7.977 , 0.0 , 0.0 , 0.0 , 0.0 , 

2.0 , 4129.74358974 , 4130.76923077 , 4144.1025641 , 4130.76923077 , 4131.28205128 , 4128.71794872 , 4128.71794872 , 4131.28205128 , 4133.33333333 , 4145.12820513 , 4174.87179487 , 4703.07692308 , 4131.79487179 , 4134.35897436 , 2044.0 , 2055.0 , 7.985 , 0.0 , 0.0 , 0.0 , 0.0 , 

3.0 , 4131.79487179 , 4130.25641026 , 4133.84615385 , 4131.28205128 , 4130.25641026 , 4129.23076923 , 4127.69230769 , 4133.33333333 , 4134.35897436 , 4143.07692308 , 4174.87179487 , 4704.61538462 , 4132.82051282 , 4134.35897436 , 2043.0 , 2054.0 , 7.993 , 0.0 , 0.0 , 0.0 , 0.0 , 

4.0 , 4132.30769231 , 4129.74358974 , 4124.61538462 , 4133.84615385 , 4129.23076923 , 4130.25641026 , 4129.74358974 , 4134.35897436 , 4135.38461538 , 4140.51282051 , 4174.35897436 , 4707.69230769 , 4129.74358974 , 4134.87179487 , 2045.0 , 2051.0 , 8.0 , 0.0 , 0.0 , 0.0 , 0.0 , 

5.0 , 4131.28205128 , 4131.28205128 , 4120.51282051 , 4132.82051282 , 4128.20512821 , 4131.79487179 , 4130.25641026 , 4131.28205128 , 4133.33333333 , 4141.02564103 , 4174.87179487 , 4704.1025641 , 4131.28205128 , 4137.43589744 , 2043.0 , 2051.0 , 8.009 , 0.0 , 0.0 , 0.0 , 0.0 , 

6.0 , 4131.28205128 , 4131.28205128 , 4149.74358974 , 4130.76923077 , 4128.20512821 , 4128.20512821 , 4128.71794872 , 4133.33333333 , 4134.35897436 , 4145.12820513 , 4177.43589744 , 4706.15384615 , 4135.38461538 , 4140.0 , 2044.0 , 2052.0 , 8.016 , 0.0 , 0.0 , 0.0 , 0.0 , 

7.0 , 4132.82051282 , 4129.74358974 , 4139.48717949 , 4130.25641026 , 4129.74358974 , 4125.12820513 , 4127.17948718 , 4133.33333333 , 4135.38461538 , 4141.02564103 , 4175.38461538 , 4709.23076923 , 4128.71794872 , 4136.92307692 , 2044.0 , 2050.0 , 8.024 , 0.0 , 0.0 , 0.0 , 0.0 , 

8.0 , 4130.76923077 , 4129.74358974 , 4141.53846154 , 4131.28205128 , 4130.76923077 , 4129.74358974 , 4127.17948718 , 4133.33333333 , 4135.8974359 , 4141.02564103 , 4176.41025641 , 4704.61538462 , 4127.69230769 , 4133.33333333 , 2044.0 , 2051.0 , 8.032 , 0.0 , 0.0 , 0.0 , 0.0 , 

9.0 , 4128.71794872 , 4132.82051282 , 4135.38461538 , 4133.33333333 , 4128.71794872 , 4132.30769231 , 4129.23076923 , 4133.84615385 , 4131.79487179 , 4142.56410256 , 4175.8974359 , 4701.02564103 , 4132.82051282 , 4133.84615385 , 2043.0 , 2052.0 , 8.04 , 0.0 , 0.0 , 0.0 , 0.0 , 

10.0 , 4127.69230769 , 4131.28205128 , 4132.30769231 , 4132.82051282 , 4127.69230769 , 4129.23076923 , 4128.71794872 , 4133.84615385 , 4131.28205128 , 4140.51282051 , 4170.76923077 , 4705.12820513 , 4132.82051282 , 4134.35897436 , 2043.0 , 2053.0 , 8.048 , 0.0 , 0.0 , 0.0 , 0.0 , 

11.0 , 4131.28205128 , 4129.74358974 , 4122.56410256 , 4132.82051282 , 4128.71794872 , 4131.28205128 , 4127.17948718 , 4136.41025641 , 4133.84615385 , 4141.02564103 , 4168.71794872 , 4707.69230769 , 4129.74358974 , 4135.38461538 , 2044.0 , 2053.0 , 8.056 , 0.0 , 0.0 , 0.0 , 0.0 , 

12.0 , 4132.82051282 , 4130.25641026 , 4112.30769231 , 4132.30769231 , 4129.74358974 , 4132.30769231 , 4127.17948718 , 4134.87179487 , 4131.79487179 , 4141.53846154 , 4171.79487179 , 4705.12820513 , 4128.71794872 , 4133.84615385 , 2044.0 , 2056.0 , 8.064 , 0.0 , 0.0 , 0.0 , 0.0 , 

13.0 , 4132.30769231 , 4130.76923077 , 4101.02564103 , 4133.33333333 , 4131.79487179 , 4128.20512821 , 4129.74358974 , 4130.76923077 , 4130.25641026 , 4139.48717949 , 4173.33333333 , 4704.61538462 , 4129.74358974 , 4134.35897436 , 2047.0 , 2057.0 , 8.071 , 0.0 , 0.0 , 0.0 , 0.0 , 

14.0 , 4129.74358974 , 4128.71794872 , 4106.66666667 , 4131.79487179 , 4130.76923077 , 4127.69230769 , 4129.23076923 , 4130.25641026 , 4130.25641026 , 4139.48717949 , 4170.76923077 , 4700.0 , 4129.23076923 , 4136.92307692 , 2047.0 , 2057.0 , 8.079 , 0.0 , 0.0 , 0.0 , 0.0 , 

15.0 , 4132.82051282 , 4130.76923077 , 4117.43589744 , 4131.28205128 , 4127.69230769 , 4131.28205128 , 4128.71794872 , 4134.35897436 , 4132.30769231 , 4143.07692308 , 4172.30769231 , 4699.48717949 , 4130.76923077 , 4136.92307692 , 2049.0 , 2055.0 , 8.087 , 0.0 , 0.0 , 0.0 , 0.0 , 

16.0 , 4135.38461538 , 4132.30769231 , 4106.15384615 , 4130.25641026 , 4128.20512821 , 4130.76923077 , 4129.23076923 , 4132.30769231 , 4131.28205128 , 4139.48717949 , 4172.82051282 , 4701.53846154 , 4127.69230769 , 4132.30769231 , 2049.0 , 2056.0 , 8.095 , 0.0 , 0.0 , 0.0 , 0.0 , 

17.0 , 4132.82051282 , 4130.76923077 , 4100.0 , 4129.74358974 , 4132.30769231 , 4131.79487179 , 4128.71794872 , 4131.28205128 , 4131.28205128 , 4138.97435897 , 4175.38461538 , 4703.58974359 , 4127.69230769 , 4133.84615385 , 2050.0 , 2054.0 , 8.103 , 0.0 , 0.0 , 0.0 , 0.0 , 

18.0 , 4129.23076923 , 4129.74358974 , 4107.69230769 , 4130.76923077 , 4131.28205128 , 4131.79487179 , 4127.17948718 , 4131.28205128 , 4132.30769231 , 4140.0 , 4174.35897436 , 4701.53846154 , 4130.25641026 , 4134.87179487 , 2049.0 , 2052.0 , 8.111 , 0.0 , 0.0 , 0.0 , 0.0 , 

19.0 , 4132.30769231 , 4130.76923077 , 4114.87179487 , 4131.28205128 , 4129.23076923 , 4130.25641026 , 4126.66666667 , 4131.79487179 , 4135.38461538 , 4138.46153846 , 4171.28205128 , 4702.05128205 , 4130.25641026 , 4135.38461538 , 2047.0 , 2051.0 , 8.119 , 0.0 , 0.0 , 0.0 , 0.0 , 

20.0 , 4133.33333333 , 4130.25641026 , 4121.53846154 , 4130.25641026 , 4130.25641026 , 4130.25641026 , 4126.66666667 , 4132.30769231 , 4136.41025641 , 4140.0 , 4172.82051282 , 4703.07692308 , 4129.23076923 , 4135.8974359 , 2047.0 , 2052.0 , 8.127 , 0.0 , 0.0 , 0.0 , 0.0 , 

21.0 , 4131.28205128 , 4129.23076923 , 4142.56410256 , 4131.79487179 , 4131.28205128 , 4128.20512821 , 4127.17948718 , 4135.38461538 , 4136.41025641 , 4141.02564103 , 4177.43589744 , 4703.58974359 , 4132.30769231 , 4135.38461538 , 2046.0 , 2051.0 , 8.134 , 0.0 , 0.0 , 0.0 , 0.0 , 

22.0 , 4131.79487179 , 4130.25641026 , 4129.23076923 , 4133.84615385 , 4129.23076923 , 4125.12820513 , 4128.71794872 , 4132.30769231 , 4135.38461538 , 4136.92307692 , 4176.41025641 , 4702.56410256 , 4132.30769231 , 4132.82051282 , 2046.0 , 2055.0 , 8.142 , 0.0 , 0.0 , 0.0 , 0.0 , 

23.0 , 4131.79487179 , 4130.76923077 , 4119.48717949 , 4132.82051282 , 4128.20512821 , 4124.1025641 , 4129.23076923 , 4130.25641026 , 4134.35897436 , 4137.43589744 , 4173.33333333 , 4702.05128205 , 4130.76923077 , 4132.30769231 , 2045.0 , 2056.0 , 8.15 , 0.0 , 0.0 , 0.0 , 0.0 , 

24.0 , 4131.28205128 , 4130.76923077 , 4118.97435897 , 4132.82051282 , 4129.23076923 , 4127.17948718 , 4128.71794872 , 4131.79487179 , 4133.84615385 , 4142.56410256 , 4175.38461538 , 4702.56410256 , 4131.28205128 , 4135.8974359 , 2044.0 , 2057.0 , 8.158 , 0.0 , 0.0 , 0.0 , 0.0 , 

25.0 , 4129.74358974 , 4129.74358974 , 4130.76923077 , 4132.82051282 , 4128.71794872 , 4129.23076923 , 4127.69230769 , 4133.84615385 , 4135.38461538 , 4143.07692308 , 4175.8974359 , 4702.05128205 , 4132.30769231 , 4138.97435897 , 2041.0 , 2059.0 , 8.166 , 0.0 , 0.0 , 0.0 , 0.0 , 

26.0 , 4129.23076923 , 4131.28205128 , 4112.30769231 , 4129.74358974 , 4129.74358974 , 4127.17948718 , 4127.17948718 , 4130.25641026 , 4133.33333333 , 4139.48717949 , 4173.33333333 , 4700.0 , 4129.23076923 , 4136.41025641 , 2043.0 , 2058.0 , 8.174 , 0.0 , 0.0 , 0.0 , 0.0 , 

27.0 , 4129.74358974 , 4133.33333333 , 4126.66666667 , 4128.71794872 , 4130.76923077 , 4127.17948718 , 4129.23076923 , 4132.30769231 , 4133.84615385 , 4142.56410256 , 4175.8974359 , 4700.51282051 , 4129.74358974 , 4134.35897436 , 2042.0 , 2060.0 , 8.182 , 0.0 , 0.0 , 0.0 , 0.0 , 

28.0 , 4130.76923077 , 4132.30769231 , 4125.64102564 , 4132.30769231 , 4129.74358974 , 4133.33333333 , 4129.23076923 , 4134.87179487 , 4134.87179487 , 4141.53846154 , 4177.94871795 , 4700.0 , 4130.76923077 , 4138.46153846 , 2042.0 , 2060.0 , 8.189 , 0.0 , 0.0 , 0.0 , 0.0 , 

29.0 , 4128.71794872 , 4130.25641026 , 4107.17948718 , 4132.30769231 , 4128.20512821 , 4133.84615385 , 4126.66666667 , 4133.33333333 , 4133.84615385 , 4137.94871795 , 4174.87179487 , 4698.46153846 , 4129.74358974 , 4138.97435897 , 2042.0 , 2058.0 , 8.197 , 0.0 , 0.0 , 0.0 , 0.0 , 

30.0 , 4130.76923077 , 4128.71794872 , 4104.61538462 , 4131.79487179 , 4127.69230769 , 4130.25641026 , 4126.66666667 , 4132.30769231 , 4133.84615385 , 4138.46153846 , 4172.82051282 , 4699.48717949 , 4130.25641026 , 4136.92307692 , 2042.0 , 2055.0 , 8.205 , 0.0 , 0.0 , 0.0 , 0.0 , 

31.0 , 4131.79487179 , 4129.23076923 , 4126.66666667 , 4132.30769231 , 4129.74358974 , 4131.79487179 , 4129.74358974 , 4133.33333333 , 4139.48717949 , 4140.51282051 , 4172.82051282 , 4700.0 , 4130.25641026 , 4136.41025641 , 2041.0 , 2054.0 , 8.213 , 0.0 , 0.0 , 0.0 , 0.0 , 

32.0 , 4131.28205128 , 4130.25641026 , 4124.1025641 , 4132.30769231 , 4130.76923077 , 4132.30769231 , 4131.79487179 , 4135.8974359 , 4141.02564103 , 4143.07692308 , 4171.79487179 , 4698.97435897 , 4130.76923077 , 4137.43589744 , 2041.0 , 2052.0 , 8.221 , 0.0 , 0.0 , 0.0 , 0.0 , 

33.0 , 4130.76923077 , 4128.20512821 , 4116.92307692 , 4130.25641026 , 4130.76923077 , 4126.66666667 , 4127.69230769 , 4134.87179487 , 4133.84615385 , 4141.53846154 , 4172.30769231 , 4698.46153846 , 4130.25641026 , 4135.8974359 , 2040.0 , 2050.0 , 8.23 , 0.0 , 0.0 , 0.0 , 0.0 , 

34.0 , 4132.30769231 , 4130.25641026 , 4125.64102564 , 4130.76923077 , 4129.23076923 , 4126.15384615 , 4126.15384615 , 4131.28205128 , 4133.33333333 , 4138.97435897 , 4176.41025641 , 4699.48717949 , 4129.74358974 , 4137.43589744 , 2041.0 , 2049.0 , 8.238 , 0.0 , 0.0 , 0.0 , 0.0 , 

35.0 , 4131.28205128 , 4132.82051282 , 4126.66666667 , 4131.79487179 , 4128.71794872 , 4129.23076923 , 4129.74358974 , 4130.76923077 , 4134.87179487 , 4136.41025641 , 4173.33333333 , 4697.43589744 , 4129.74358974 , 4137.94871795 , 2041.0 , 2049.0 , 8.245 , 0.0 , 0.0 , 0.0 , 0.0 , 

36.0 , 4132.30769231 , 4131.79487179 , 4116.41025641 , 4129.74358974 , 4129.74358974 , 4129.74358974 , 4129.74358974 , 4132.82051282 , 4132.82051282 , 4138.97435897 , 4171.28205128 , 4697.43589744 , 4130.76923077 , 4135.38461538 , 2040.0 , 2046.0 , 8.252 , 0.0 , 0.0 , 0.0 , 0.0 , 

37.0 , 4132.30769231 , 4129.23076923 , 4117.94871795 , 4128.71794872 , 4130.25641026 , 4131.28205128 , 4127.17948718 , 4132.82051282 , 4132.82051282 , 4141.02564103 , 4174.87179487 , 4697.43589744 , 4129.23076923 , 4134.35897436 , 2040.0 , 2047.0 , 8.26 , 0.0 , 0.0 , 0.0 , 0.0 , 

38.0 , 4130.76923077 , 4130.25641026 , 4135.38461538 , 4130.76923077 , 4130.25641026 , 4131.79487179 , 4127.69230769 , 4135.38461538 , 4134.87179487 , 4141.02564103 , 4174.35897436 , 4697.94871795 , 4131.79487179 , 4136.92307692 , 2040.0 , 2049.0 , 8.268 , 0.0 , 0.0 , 0.0 , 0.0 , 

39.0 , 4131.28205128 , 4129.74358974 , 4133.33333333 , 4131.79487179 , 4128.71794872 , 4128.20512821 , 4130.25641026 , 4138.46153846 , 4135.8974359 , 4138.46153846 , 4171.79487179 , 4697.43589744 , 4133.33333333 , 4136.41025641 , 2040.0 , 2050.0 , 8.276 , 0.0 , 0.0 , 0.0 , 0.0 , 

40.0 , 4132.82051282 , 4129.74358974 , 4141.02564103 , 4130.25641026 , 4126.66666667 , 4128.20512821 , 4130.76923077 , 4139.48717949 , 4136.41025641 , 4143.07692308 , 4174.87179487 , 4699.48717949 , 4131.28205128 , 4136.92307692 , 2040.0 , 2051.0 , 8.284 , 0.0 , 0.0 , 0.0 , 0.0 , 

41.0 , 4131.28205128 , 4130.76923077 , 4129.23076923 , 4130.76923077 , 4127.69230769 , 4132.82051282 , 4129.23076923 , 4133.84615385 , 4134.35897436 , 4144.61538462 , 4175.38461538 , 4698.97435897 , 4127.69230769 , 4137.94871795 , 2039.0 , 2052.0 , 8.292 , 0.0 , 0.0 , 0.0 , 0.0 , 

42.0 , 4128.71794872 , 4129.74358974 , 4134.35897436 , 4131.28205128 , 4130.25641026 , 4131.79487179 , 4129.23076923 , 4130.25641026 , 4134.87179487 , 4141.53846154 , 4173.84615385 , 4697.43589744 , 4129.23076923 , 4135.38461538 , 2040.0 , 2052.0 , 8.3 , 0.0 , 0.0 , 0.0 , 0.0 , 

43.0 , 4131.79487179 , 4129.23076923 , 4127.69230769 , 4131.79487179 , 4129.74358974 , 4130.25641026 , 4130.76923077 , 4129.23076923 , 4134.35897436 , 4139.48717949 , 4173.33333333 , 4697.94871795 , 4129.74358974 , 4135.38461538 , 2042.0 , 2053.0 , 8.308 , 0.0 , 0.0 , 0.0 , 0.0 , 

44.0 , 4133.84615385 , 4131.28205128 , 4128.71794872 , 4132.30769231 , 4128.71794872 , 4130.25641026 , 4129.23076923 , 4131.28205128 , 4132.30769231 , 4141.53846154 , 4173.84615385 , 4700.51282051 , 4132.30769231 , 4139.48717949 , 2041.0 , 2054.0 , 8.316 , 0.0 , 0.0 , 0.0 , 0.0 , 

45.0 , 4131.79487179 , 4131.79487179 , 4117.43589744 , 4132.82051282 , 4129.74358974 , 4129.23076923 , 4126.66666667 , 4129.23076923 , 4130.76923077 , 4137.43589744 , 4173.33333333 , 4697.43589744 , 4131.28205128 , 4138.97435897 , 2043.0 , 2054.0 , 8.323 , 0.0 , 0.0 , 0.0 , 0.0 , 

46.0 , 4129.74358974 , 4130.76923077 , 4130.25641026 , 4130.76923077 , 4128.20512821 , 4127.69230769 , 4127.17948718 , 4128.71794872 , 4134.87179487 , 4139.48717949 , 4171.79487179 , 4695.8974359 , 4129.23076923 , 4133.84615385 , 2042.0 , 2052.0 , 8.331 , 0.0 , 0.0 , 0.0 , 0.0 , 

47.0 , 4134.35897436 , 4130.76923077 , 4126.15384615 , 4129.74358974 , 4128.71794872 , 4129.74358974 , 4129.74358974 , 4130.76923077 , 4135.38461538 , 4144.1025641 , 4170.76923077 , 4700.0 , 4131.79487179 , 4135.8974359 , 2042.0 , 2053.0 , 8.339 , 0.0 , 0.0 , 0.0 , 0.0 , 

48.0 , 4133.33333333 , 4129.23076923 , 4128.20512821 , 4130.76923077 , 4131.28205128 , 4130.25641026 , 4129.23076923 , 4131.28205128 , 4131.28205128 , 4141.02564103 , 4173.84615385 , 4700.0 , 4133.84615385 , 4137.43589744 , 2042.0 , 2053.0 , 8.348 , 0.0 , 0.0 , 0.0 , 0.0 , 

49.0 , 4128.71794872 , 4127.17948718 , 4129.74358974 , 4131.28205128 , 4129.74358974 , 4127.17948718 , 4129.74358974 , 4131.28205128 , 4129.74358974 , 4136.92307692 , 4175.38461538 , 4698.97435897 , 4130.76923077 , 4135.38461538 , 2042.0 , 2053.0 , 8.355 , 0.0 , 0.0 , 0.0 , 0.0 , 

50.0 , 4128.20512821 , 4128.20512821 , 4130.25641026 , 4129.74358974 , 4128.20512821 , 4127.17948718 , 4130.25641026 , 4130.25641026 , 4134.35897436 , 4140.51282051 , 4172.82051282 , 4696.92307692 , 4128.71794872 , 4133.84615385 , 2042.0 , 2053.0 , 8.364 , 0.0 , 0.0 , 0.0 , 0.0 , 

51.0 , 4131.28205128 , 4130.76923077 , 4129.23076923 , 4129.74358974 , 4130.25641026 , 4129.23076923 , 4129.74358974 , 4131.28205128 , 4136.92307692 , 4144.1025641 , 4173.33333333 , 4695.8974359 , 4130.76923077 , 4136.41025641 , 2042.0 , 2052.0 , 8.371 , 0.0 , 0.0 , 0.0 , 0.0 , 

52.0 , 4130.76923077 , 4130.76923077 , 4133.33333333 , 4130.76923077 , 4130.25641026 , 4130.25641026 , 4127.69230769 , 4132.82051282 , 4135.8974359 , 4142.56410256 , 4173.84615385 , 4695.8974359 , 4130.76923077 , 4137.43589744 , 2042.0 , 2051.0 , 8.38 , 0.0 , 0.0 , 0.0 , 0.0 , 

53.0 , 4131.28205128 , 4130.76923077 , 4128.71794872 , 4131.28205128 , 4128.71794872 , 4129.23076923 , 4125.64102564 , 4132.30769231 , 4137.43589744 , 4141.02564103 , 4172.30769231 , 4697.94871795 , 4130.25641026 , 4137.94871795 , 2043.0 , 2052.0 , 8.386 , 0.0 , 0.0 , 0.0 , 0.0 , 

54.0 , 4131.28205128 , 4130.25641026 , 4138.46153846 , 4130.25641026 , 4130.25641026 , 4129.23076923 , 4126.66666667 , 4134.87179487 , 4138.97435897 , 4141.53846154 , 4173.84615385 , 4697.43589744 , 4130.76923077 , 4137.43589744 , 2042.0 , 2049.0 , 8.394 , 0.0 , 0.0 , 0.0 , 0.0 , 

55.0 , 4130.76923077 , 4130.76923077 , 4157.94871795 , 4130.76923077 , 4131.28205128 , 4126.66666667 , 4129.23076923 , 4139.48717949 , 4136.41025641 , 4143.07692308 , 4173.84615385 , 4697.43589744 , 4132.30769231 , 4136.41025641 , 2042.0 , 2047.0 , 8.402 , 0.0 , 0.0 , 0.0 , 0.0 , 

56.0 , 4130.76923077 , 4131.28205128 , 4145.64102564 , 4132.30769231 , 4130.25641026 , 4125.64102564 , 4128.71794872 , 4135.8974359 , 4136.41025641 , 4142.56410256 , 4172.30769231 , 4698.97435897 , 4132.82051282 , 4135.8974359 , 2042.0 , 2046.0 , 8.411 , 0.0 , 0.0 , 0.0 , 0.0 , 

57.0 , 4130.76923077 , 4130.76923077 , 4153.84615385 , 4131.79487179 , 4129.23076923 , 4130.76923077 , 4127.17948718 , 4133.33333333 , 4137.94871795 , 4145.12820513 , 4174.87179487 , 4698.97435897 , 4134.35897436 , 4136.92307692 , 2042.0 , 2044.0 , 8.418 , 0.0 , 0.0 , 0.0 , 0.0 , 

58.0 , 4130.76923077 , 4130.76923077 , 4145.12820513 , 4130.25641026 , 4129.74358974 , 4131.79487179 , 4129.23076923 , 4133.84615385 , 4132.30769231 , 4144.61538462 , 4174.87179487 , 4697.94871795 , 4131.28205128 , 4135.38461538 , 2042.0 , 2044.0 , 8.427 , 0.0 , 0.0 , 0.0 , 0.0 , 

59.0 , 4131.28205128 , 4129.74358974 , 4137.43589744 , 4130.25641026 , 4128.71794872 , 4128.20512821 , 4129.74358974 , 4133.84615385 , 4132.82051282 , 4143.07692308 , 4173.84615385 , 4697.94871795 , 4130.76923077 , 4136.92307692 , 2043.0 , 2042.0 , 8.434 , 0.0 , 0.0 , 0.0 , 0.0 , 

60.0 , 4130.25641026 , 4127.17948718 , 4122.05128205 , 4132.82051282 , 4128.71794872 , 4125.64102564 , 4128.20512821 , 4130.25641026 , 4135.38461538 , 4137.94871795 , 4174.35897436 , 4695.8974359 , 4131.28205128 , 4136.41025641 , 2042.0 , 2042.0 , 8.443 , 0.0 , 0.0 , 0.0 , 0.0 , 

61.0 , 4129.74358974 , 4127.69230769 , 4142.56410256 , 4132.30769231 , 4130.76923077 , 4124.61538462 , 4127.69230769 , 4131.79487179 , 4134.35897436 , 4140.0 , 4174.35897436 , 4697.94871795 , 4130.76923077 , 4134.35897436 , 2042.0 , 2041.0 , 8.45 , 0.0 , 0.0 , 0.0 , 0.0 , 

62.0 , 4132.82051282 , 4131.28205128 , 4128.71794872 , 4131.28205128 , 4130.76923077 , 4127.17948718 , 4128.71794872 , 4132.82051282 , 4131.79487179 , 4143.07692308 , 4172.30769231 , 4698.97435897 , 4128.20512821 , 4135.38461538 , 2043.0 , 2039.0 , 8.459 , 0.0 , 0.0 , 0.0 , 0.0 , 

63.0 , 4131.79487179 , 4132.30769231 , 4122.56410256 , 4132.82051282 , 4129.23076923 , 4131.79487179 , 4129.23076923 , 4132.30769231 , 4134.35897436 , 4142.05128205 , 4173.33333333 , 4695.8974359 , 4129.74358974 , 4138.46153846 , 2043.0 , 2037.0 , 8.465 , 0.0 , 0.0 , 0.0 , 0.0 , 

64.0 , 4129.23076923 , 4132.30769231 , 4124.61538462 , 4133.84615385 , 4129.74358974 , 4129.74358974 , 4129.23076923 , 4131.28205128 , 4134.35897436 , 4140.0 , 4174.87179487 , 4695.38461538 , 4131.28205128 , 4138.97435897 , 2043.0 , 2039.0 , 8.473 , 0.0 , 0.0 , 0.0 , 0.0 , 

65.0 , 4129.23076923 , 4131.28205128 , 4135.8974359 , 4131.79487179 , 4130.25641026 , 4125.64102564 , 4127.17948718 , 4133.33333333 , 4133.84615385 , 4141.53846154 , 4175.8974359 , 4697.94871795 , 4129.23076923 , 4138.46153846 , 2043.0 , 2038.0 , 8.481 , 0.0 , 0.0 , 0.0 , 0.0 , 

66.0 , 4132.30769231 , 4131.28205128 , 4130.76923077 , 4131.28205128 , 4129.23076923 , 4128.71794872 , 4125.64102564 , 4134.87179487 , 4132.82051282 , 4142.56410256 , 4176.92307692 , 4697.94871795 , 4128.20512821 , 4136.92307692 , 2045.0 , 2039.0 , 8.489 , 0.0 , 0.0 , 0.0 , 0.0 , 

67.0 , 4130.25641026 , 4132.30769231 , 4145.64102564 , 4130.76923077 , 4127.69230769 , 4130.76923077 , 4127.69230769 , 4133.33333333 , 4132.82051282 , 4141.02564103 , 4175.38461538 , 4696.92307692 , 4130.25641026 , 4134.35897436 , 2046.0 , 2041.0 , 8.497 , 0.0 , 0.0 , 0.0 , 0.0 , 

68.0 , 4129.74358974 , 4131.28205128 , 4154.87179487 , 4131.28205128 , 4125.64102564 , 4128.71794872 , 4128.20512821 , 4132.82051282 , 4133.33333333 , 4140.51282051 , 4173.33333333 , 4700.0 , 4131.28205128 , 4136.92307692 , 2046.0 , 2042.0 , 8.505 , 0.0 , 0.0 , 0.0 , 0.0 , 

69.0 , 4131.28205128 , 4129.74358974 , 4146.15384615 , 4131.79487179 , 4127.17948718 , 4128.71794872 , 4126.15384615 , 4133.33333333 , 4131.79487179 , 4140.0 , 4172.30769231 , 4700.51282051 , 4129.23076923 , 4138.97435897 , 2045.0 , 2041.0 , 8.513 , 0.0 , 0.0 , 0.0 , 0.0 , 

70.0 , 4135.8974359 , 4131.28205128 , 4129.23076923 , 4133.33333333 , 4131.79487179 , 4130.76923077 , 4126.66666667 , 4133.84615385 , 4130.76923077 , 4134.87179487 , 4172.82051282 , 4695.8974359 , 4129.74358974 , 4135.8974359 , 2045.0 , 2041.0 , 8.52 , 0.0 , 0.0 , 0.0 , 0.0 , 

71.0 , 4135.38461538 , 4130.25641026 , 4135.8974359 , 4133.33333333 , 4131.28205128 , 4129.74358974 , 4126.15384615 , 4134.35897436 , 4133.84615385 , 4133.33333333 , 4173.33333333 , 4693.33333333 , 4131.28205128 , 4133.33333333 , 2045.0 , 2041.0 , 8.528 , 0.0 , 0.0 , 0.0 , 0.0 , 

72.0 , 4130.25641026 , 4129.74358974 , 4147.17948718 , 4130.25641026 , 4129.23076923 , 4124.61538462 , 4126.66666667 , 4134.87179487 , 4136.41025641 , 4141.02564103 , 4172.82051282 , 4698.97435897 , 4131.79487179 , 4135.38461538 , 2045.0 , 2042.0 , 8.536 , 0.0 , 0.0 , 0.0 , 0.0 , 

73.0 , 4128.20512821 , 4130.25641026 , 4142.05128205 , 4129.23076923 , 4128.20512821 , 4124.61538462 , 4127.17948718 , 4131.79487179 , 4134.35897436 , 4144.1025641 , 4170.76923077 , 4700.51282051 , 4130.76923077 , 4137.43589744 , 2042.0 , 2042.0 , 8.544 , 0.0 , 0.0 , 0.0 , 0.0 , 

74.0 , 4129.74358974 , 4131.28205128 , 4134.87179487 , 4131.79487179 , 4128.20512821 , 4129.74358974 , 4125.12820513 , 4132.30769231 , 4132.82051282 , 4140.0 , 4172.30769231 , 4697.43589744 , 4131.79487179 , 4136.92307692 , 2042.0 , 2043.0 , 8.552 , 0.0 , 0.0 , 0.0 , 0.0 , 

75.0 , 4129.23076923 , 4131.79487179 , 4125.64102564 , 4132.82051282 , 4128.20512821 , 4130.25641026 , 4125.12820513 , 4132.30769231 , 4133.84615385 , 4138.97435897 , 4174.35897436 , 4696.92307692 , 4130.76923077 , 4134.35897436 , 2043.0 , 2042.0 , 8.56 , 0.0 , 0.0 , 0.0 , 0.0 , 

76.0 , 4129.74358974 , 4131.28205128 , 4136.41025641 , 4131.28205128 , 4128.20512821 , 4127.17948718 , 4128.71794872 , 4132.82051282 , 4137.94871795 , 4142.56410256 , 4173.33333333 , 4700.51282051 , 4130.76923077 , 4135.8974359 , 2042.0 , 2040.0 , 8.568 , 0.0 , 0.0 , 0.0 , 0.0 , 

77.0 , 4132.82051282 , 4131.79487179 , 4130.76923077 , 4130.76923077 , 4128.71794872 , 4130.76923077 , 4129.74358974 , 4131.79487179 , 4137.43589744 , 4139.48717949 , 4170.76923077 , 4697.43589744 , 4130.25641026 , 4135.38461538 , 2043.0 , 2038.0 , 8.577 , 0.0 , 0.0 , 0.0 , 0.0 , 

78.0 , 4132.30769231 , 4131.79487179 , 4130.25641026 , 4130.76923077 , 4129.74358974 , 4132.30769231 , 4127.17948718 , 4132.30769231 , 4135.38461538 , 4141.02564103 , 4173.33333333 , 4694.35897436 , 4130.25641026 , 4133.33333333 , 2043.0 , 2037.0 , 8.584 , 0.0 , 0.0 , 0.0 , 0.0 , 

79.0 , 4131.28205128 , 4130.76923077 , 4126.66666667 , 4130.25641026 , 4131.79487179 , 4129.23076923 , 4127.17948718 , 4133.33333333 , 4136.92307692 , 4143.07692308 , 4174.87179487 , 4694.87179487 , 4129.74358974 , 4135.38461538 , 2043.0 , 2038.0 , 8.591 , 0.0 , 0.0 , 0.0 , 0.0 , 

80.0 , 4131.28205128 , 4129.23076923 , 4150.25641026 , 4130.25641026 , 4130.76923077 , 4126.15384615 , 4128.20512821 , 4136.41025641 , 4137.94871795 , 4143.07692308 , 4173.84615385 , 4698.97435897 , 4133.33333333 , 4138.97435897 , 2043.0 , 2039.0 , 8.599 , 0.0 , 0.0 , 0.0 , 0.0 , 

81.0 , 4131.28205128 , 4130.76923077 , 4143.58974359 , 4130.76923077 , 4130.25641026 , 4128.20512821 , 4128.20512821 , 4134.35897436 , 4132.30769231 , 4140.0 , 4171.79487179 , 4700.0 , 4132.30769231 , 4134.35897436 , 2041.0 , 2041.0 , 8.607 , 0.0 , 0.0 , 0.0 , 0.0 , 

82.0 , 4131.28205128 , 4131.79487179 , 4130.25641026 , 4132.30769231 , 4131.79487179 , 4130.25641026 , 4127.69230769 , 4131.28205128 , 4131.79487179 , 4138.97435897 , 4171.79487179 , 4695.38461538 , 4128.20512821 , 4129.74358974 , 2041.0 , 2040.0 , 8.616 , 0.0 , 0.0 , 0.0 , 0.0 , 

83.0 , 4132.82051282 , 4131.28205128 , 4123.58974359 , 4133.84615385 , 4132.82051282 , 4128.20512821 , 4128.20512821 , 4133.84615385 , 4135.38461538 , 4141.53846154 , 4173.33333333 , 4694.35897436 , 4127.17948718 , 4136.92307692 , 2042.0 , 2039.0 , 8.623 , 0.0 , 0.0 , 0.0 , 0.0 , 

84.0 , 4130.25641026 , 4129.23076923 , 4128.71794872 , 4131.28205128 , 4129.23076923 , 4126.66666667 , 4130.25641026 , 4134.87179487 , 4135.8974359 , 4141.53846154 , 4171.79487179 , 4696.41025641 , 4128.71794872 , 4140.0 , 2042.0 , 2038.0 , 8.631 , 0.0 , 0.0 , 0.0 , 0.0 , 

85.0 , 4128.71794872 , 4130.25641026 , 4121.02564103 , 4129.74358974 , 4127.69230769 , 4127.17948718 , 4130.25641026 , 4131.79487179 , 4135.38461538 , 4137.43589744 , 4171.79487179 , 4696.41025641 , 4128.71794872 , 4135.38461538 , 2043.0 , 2036.0 , 8.639 , 0.0 , 0.0 , 0.0 , 0.0 , 

86.0 , 4128.71794872 , 4129.74358974 , 4139.48717949 , 4131.28205128 , 4129.23076923 , 4128.71794872 , 4126.66666667 , 4131.79487179 , 4137.94871795 , 4138.97435897 , 4175.8974359 , 4694.35897436 , 4130.25641026 , 4134.87179487 , 2043.0 , 2037.0 , 8.646 , 0.0 , 0.0 , 0.0 , 0.0 , 

87.0 , 4131.28205128 , 4129.23076923 , 4149.23076923 , 4133.33333333 , 4129.23076923 , 4129.74358974 , 4126.66666667 , 4134.87179487 , 4138.97435897 , 4143.58974359 , 4176.41025641 , 4697.43589744 , 4133.84615385 , 4137.94871795 , 2044.0 , 2037.0 , 8.654 , 0.0 , 0.0 , 0.0 , 0.0 , 

88.0 , 4130.76923077 , 4131.28205128 , 4147.17948718 , 4131.28205128 , 4127.69230769 , 4128.71794872 , 4129.74358974 , 4135.38461538 , 4138.46153846 , 4142.56410256 , 4174.35897436 , 4697.94871795 , 4133.33333333 , 4134.87179487 , 2046.0 , 2038.0 , 8.662 , 0.0 , 0.0 , 0.0 , 0.0 , 

89.0 , 4130.76923077 , 4131.28205128 , 4144.1025641 , 4130.25641026 , 4130.25641026 , 4129.23076923 , 4128.71794872 , 4134.87179487 , 4137.94871795 , 4141.02564103 , 4176.41025641 , 4696.92307692 , 4132.30769231 , 4134.87179487 , 2046.0 , 2039.0 , 8.67 , 0.0 , 0.0 , 0.0 , 0.0 , 

90.0 , 4130.76923077 , 4128.71794872 , 4117.43589744 , 4131.79487179 , 4131.79487179 , 4129.23076923 , 4126.66666667 , 4131.28205128 , 4134.35897436 , 4140.0 , 4172.82051282 , 4693.84615385 , 4128.71794872 , 4136.92307692 , 2045.0 , 2037.0 , 8.678 , 0.0 , 0.0 , 0.0 , 0.0 , 

91.0 , 4132.30769231 , 4130.76923077 , 4108.20512821 , 4132.82051282 , 4128.20512821 , 4128.71794872 , 4128.20512821 , 4132.30769231 , 4133.33333333 , 4140.51282051 , 4168.71794872 , 4695.38461538 , 4127.69230769 , 4133.84615385 , 2045.0 , 2036.0 , 8.687 , 0.0 , 0.0 , 0.0 , 0.0 , 

92.0 , 4130.25641026 , 4132.82051282 , 4121.02564103 , 4130.76923077 , 4127.69230769 , 4128.71794872 , 4129.23076923 , 4134.35897436 , 4134.87179487 , 4139.48717949 , 4170.25641026 , 4696.92307692 , 4129.23076923 , 4129.74358974 , 2045.0 , 2035.0 , 8.695 , 0.0 , 0.0 , 0.0 , 0.0 , 

93.0 , 4128.20512821 , 4131.28205128 , 4124.1025641 , 4129.23076923 , 4130.76923077 , 4127.69230769 , 4129.74358974 , 4132.30769231 , 4138.46153846 , 4140.51282051 , 4172.30769231 , 4698.97435897 , 4131.79487179 , 4133.84615385 , 2044.0 , 2035.0 , 8.702 , 0.0 , 0.0 , 0.0 , 0.0 , 

94.0 , 4129.74358974 , 4130.76923077 , 4106.66666667 , 4130.25641026 , 4130.25641026 , 4129.23076923 , 4128.71794872 , 4128.71794872 , 4137.94871795 , 4138.46153846 , 4170.25641026 , 4697.94871795 , 4130.76923077 , 4138.97435897 , 2046.0 , 2033.0 , 8.71 , 0.0 , 0.0 , 0.0 , 0.0 , 

95.0 , 4130.25641026 , 4131.28205128 , 4119.48717949 , 4131.79487179 , 4128.71794872 , 4131.79487179 , 4126.15384615 , 4130.25641026 , 4134.35897436 , 4137.94871795 , 4171.28205128 , 4695.38461538 , 4130.25641026 , 4137.43589744 , 2046.0 , 2035.0 , 8.718 , 0.0 , 0.0 , 0.0 , 0.0 , 

96.0 , 4129.74358974 , 4131.79487179 , 4128.71794872 , 4133.33333333 , 4129.74358974 , 4129.23076923 , 4126.66666667 , 4130.76923077 , 4133.84615385 , 4141.02564103 , 4172.82051282 , 4694.87179487 , 4131.28205128 , 4134.35897436 , 2046.0 , 2032.0 , 8.727 , 0.0 , 0.0 , 0.0 , 0.0 , 

97.0 , 4130.76923077 , 4132.30769231 , 4142.56410256 , 4132.30769231 , 4131.28205128 , 4125.64102564 , 4126.15384615 , 4133.33333333 , 4136.92307692 , 4144.1025641 , 4171.79487179 , 4696.92307692 , 4131.79487179 , 4134.87179487 , 2047.0 , 2034.0 , 8.733 , 0.0 , 0.0 , 0.0 , 0.0 , 

98.0 , 4132.82051282 , 4131.79487179 , 4133.84615385 , 4131.28205128 , 4130.25641026 , 4129.23076923 , 4126.15384615 , 4133.33333333 , 4134.35897436 , 4143.07692308 , 4173.33333333 , 4693.84615385 , 4130.25641026 , 4135.38461538 , 2046.0 , 2034.0 , 8.742 , 0.0 , 0.0 , 0.0 , 0.0 , 

99.0 , 4129.74358974 , 4131.28205128 , 4136.41025641 , 4131.79487179 , 4129.23076923 , 4132.82051282 , 4130.25641026 , 4130.25641026 , 4133.84615385 , 4142.05128205 , 4175.8974359 , 4691.79487179 , 4130.76923077 , 4134.35897436 , 2043.0 , 2035.0 , 8.749 , 0.0 , 0.0 , 0.0 , 0.0 , 

100.0 , 4129.23076923 , 4131.28205128 , 4137.43589744 , 4132.82051282 , 4130.76923077 , 4130.76923077 , 4131.28205128 , 4129.23076923 , 4136.92307692 , 4142.05128205 , 4175.8974359 , 4695.38461538 , 4130.76923077 , 4134.35897436 , 2043.0 , 2036.0 , 8.757 , 0.0 , 0.0 , 0.0 , 0.0 , 

101.0 , 4129.23076923 , 4130.25641026 , 4147.17948718 , 4132.30769231 , 4131.28205128 , 4126.15384615 , 4127.17948718 , 4133.84615385 , 4136.41025641 , 4141.53846154 , 4176.41025641 , 4698.46153846 , 4131.79487179 , 4135.38461538 , 2041.0 , 2037.0 , 8.765 , 0.0 , 0.0 , 0.0 , 0.0 , 

102.0 , 4131.79487179 , 4130.76923077 , 4131.28205128 , 4132.30769231 , 4128.71794872 , 4125.64102564 , 4127.17948718 , 4134.87179487 , 4133.84615385 , 4138.46153846 , 4176.92307692 , 4695.38461538 , 4132.82051282 , 4135.38461538 , 2041.0 , 2037.0 , 8.773 , 0.0 , 0.0 , 0.0 , 0.0 , 

103.0 , 4132.30769231 , 4130.25641026 , 4140.51282051 , 4131.79487179 , 4128.71794872 , 4129.23076923 , 4129.74358974 , 4132.82051282 , 4135.38461538 , 4140.0 , 4174.87179487 , 4693.33333333 , 4133.33333333 , 4133.33333333 , 2044.0 , 2039.0 , 8.78 , 0.0 , 0.0 , 0.0 , 0.0 , 

104.0 , 4131.79487179 , 4130.25641026 , 4135.38461538 , 4131.28205128 , 4131.28205128 , 4131.28205128 , 4129.23076923 , 4132.30769231 , 4133.84615385 , 4142.05128205 , 4172.82051282 , 4697.43589744 , 4131.28205128 , 4132.82051282 , 2043.0 , 2040.0 , 8.788 , 0.0 , 0.0 , 0.0 , 0.0 , 

105.0 , 4128.71794872 , 4130.76923077 , 4131.28205128 , 4130.76923077 , 4127.69230769 , 4128.20512821 , 4126.66666667 , 4132.82051282 , 4132.82051282 , 4143.07692308 , 4174.35897436 , 4697.43589744 , 4130.76923077 , 4134.87179487 , 2042.0 , 2040.0 , 8.796 , 0.0 , 0.0 , 0.0 , 0.0 , 

106.0 , 4130.76923077 , 4130.76923077 , 4133.33333333 , 4131.28205128 , 4127.69230769 , 4127.17948718 , 4127.69230769 , 4132.30769231 , 4134.35897436 , 4141.02564103 , 4175.38461538 , 4694.35897436 , 4132.82051282 , 4136.41025641 , 2042.0 , 2039.0 , 8.804 , 0.0 , 0.0 , 0.0 , 0.0 , 

107.0 , 4131.28205128 , 4129.23076923 , 4144.1025641 , 4132.30769231 , 4131.28205128 , 4130.25641026 , 4130.25641026 , 4133.33333333 , 4134.87179487 , 4138.97435897 , 4175.38461538 , 4694.35897436 , 4131.28205128 , 4135.38461538 , 2042.0 , 2038.0 , 8.812 , 0.0 , 0.0 , 0.0 , 0.0 , 

108.0 , 4129.23076923 , 4129.74358974 , 4138.97435897 , 4134.35897436 , 4129.74358974 , 4129.23076923 , 4128.71794872 , 4135.38461538 , 4134.87179487 , 4142.56410256 , 4175.38461538 , 4696.92307692 , 4129.74358974 , 4137.94871795 , 2043.0 , 2038.0 , 8.82 , 0.0 , 0.0 , 0.0 , 0.0 , 

109.0 , 4129.74358974 , 4130.76923077 , 4124.1025641 , 4133.33333333 , 4128.71794872 , 4127.17948718 , 4126.15384615 , 4132.30769231 , 4134.35897436 , 4141.53846154 , 4172.30769231 , 4695.8974359 , 4128.71794872 , 4136.92307692 , 2043.0 , 2036.0 , 8.829 , 0.0 , 0.0 , 0.0 , 0.0 , 

110.0 , 4132.30769231 , 4130.76923077 , 4137.94871795 , 4130.25641026 , 4130.76923077 , 4127.17948718 , 4126.66666667 , 4130.25641026 , 4134.35897436 , 4140.0 , 4173.84615385 , 4697.94871795 , 4131.28205128 , 4134.87179487 , 2045.0 , 2036.0 , 8.836 , 0.0 , 0.0 , 0.0 , 0.0 , 

111.0 , 4130.76923077 , 4129.23076923 , 4142.05128205 , 4129.23076923 , 4129.23076923 , 4127.17948718 , 4127.69230769 , 4132.82051282 , 4134.35897436 , 4140.0 , 4174.87179487 , 4696.92307692 , 4132.30769231 , 4136.92307692 , 2045.0 , 2036.0 , 8.844 , 0.0 , 0.0 , 0.0 , 0.0 , 

112.0 , 4129.74358974 , 4128.71794872 , 4137.43589744 , 4129.74358974 , 4126.15384615 , 4126.66666667 , 4129.23076923 , 4135.8974359 , 4136.92307692 , 4142.05128205 , 4172.30769231 , 4694.87179487 , 4130.76923077 , 4138.46153846 , 2045.0 , 2035.0 , 8.851 , 0.0 , 0.0 , 0.0 , 0.0 , 

113.0 , 4131.79487179 , 4129.74358974 , 4129.23076923 , 4130.76923077 , 4128.20512821 , 4127.17948718 , 4130.25641026 , 4132.30769231 , 4136.92307692 , 4141.53846154 , 4170.76923077 , 4695.38461538 , 4127.17948718 , 4135.38461538 , 2045.0 , 2034.0 , 8.859 , 0.0 , 0.0 , 0.0 , 0.0 , 

114.0 , 4131.28205128 , 4131.28205128 , 4146.15384615 , 4130.76923077 , 4128.71794872 , 4126.66666667 , 4127.69230769 , 4130.76923077 , 4134.35897436 , 4143.07692308 , 4173.33333333 , 4698.46153846 , 4129.23076923 , 4133.33333333 , 2045.0 , 2034.0 , 8.868 , 0.0 , 0.0 , 0.0 , 0.0 , 

115.0 , 4130.76923077 , 4132.30769231 , 4138.97435897 , 4131.28205128 , 4128.20512821 , 4126.15384615 , 4127.69230769 , 4132.82051282 , 4131.28205128 , 4141.02564103 , 4174.35897436 , 4693.84615385 , 4131.28205128 , 4133.84615385 , 2044.0 , 2034.0 , 8.875 , 0.0 , 0.0 , 0.0 , 0.0 , 

116.0 , 4132.82051282 , 4130.76923077 , 4131.79487179 , 4131.79487179 , 4131.28205128 , 4126.66666667 , 4129.74358974 , 4135.8974359 , 4134.87179487 , 4139.48717949 , 4174.87179487 , 4692.82051282 , 4131.79487179 , 4134.87179487 , 2043.0 , 2034.0 , 8.883 , 0.0 , 0.0 , 0.0 , 0.0 , 

117.0 , 4132.82051282 , 4130.25641026 , 4121.02564103 , 4132.30769231 , 4130.25641026 , 4129.74358974 , 4128.20512821 , 4132.30769231 , 4137.43589744 , 4140.51282051 , 4174.35897436 , 4697.94871795 , 4130.76923077 , 4133.33333333 , 2043.0 , 2036.0 , 8.891 , 0.0 , 0.0 , 0.0 , 0.0 , 

118.0 , 4127.69230769 , 4130.76923077 , 4157.94871795 , 4131.28205128 , 4127.17948718 , 4131.28205128 , 4127.69230769 , 4131.28205128 , 4135.8974359 , 4140.51282051 , 4172.82051282 , 4697.43589744 , 4131.28205128 , 4133.33333333 , 2043.0 , 2035.0 , 8.899 , 0.0 , 0.0 , 0.0 , 0.0 , 

119.0 , 4126.66666667 , 4131.28205128 , 4157.43589744 , 4131.79487179 , 4127.69230769 , 4130.76923077 , 4130.25641026 , 4132.82051282 , 4131.79487179 , 4138.46153846 , 4172.82051282 , 4694.87179487 , 4129.23076923 , 4134.35897436 , 2043.0 , 2034.0 , 8.907 , 0.0 , 0.0 , 0.0 , 0.0 , 

120.0 , 4128.20512821 , 4129.74358974 , 4135.8974359 , 4130.76923077 , 4129.23076923 , 4129.23076923 , 4129.23076923 , 4133.33333333 , 4133.84615385 , 4142.05128205 , 4174.35897436 , 4699.48717949 , 4129.74358974 , 4134.87179487 , 2041.0 , 2032.0 , 8.914 , 0.0 , 0.0 , 0.0 , 0.0 , 

121.0 , 4130.76923077 , 4129.74358974 , 4123.58974359 , 4129.74358974 , 4128.71794872 , 4127.69230769 , 4127.69230769 , 4131.79487179 , 4136.92307692 , 4140.0 , 4173.84615385 , 4700.0 , 4132.30769231 , 4133.33333333 , 2040.0 , 2032.0 , 8.924 , 0.0 , 0.0 , 0.0 , 0.0 , 

122.0 , 4131.79487179 , 4130.25641026 , 4148.20512821 , 4129.74358974 , 4129.23076923 , 4127.69230769 , 4129.23076923 , 4132.82051282 , 4136.92307692 , 4137.43589744 , 4172.30769231 , 4694.87179487 , 4131.79487179 , 4132.82051282 , 2039.0 , 2031.0 , 8.931 , 0.0 , 0.0 , 0.0 , 0.0 , 

123.0 , 4132.82051282 , 4131.28205128 , 4149.74358974 , 4130.76923077 , 4131.79487179 , 4128.71794872 , 4129.23076923 , 4133.33333333 , 4135.8974359 , 4142.05128205 , 4171.28205128 , 4697.43589744 , 4130.76923077 , 4134.87179487 , 2041.0 , 2031.0 , 8.94 , 0.0 , 0.0 , 0.0 , 0.0 , 

124.0 , 4131.28205128 , 4130.76923077 , 4133.84615385 , 4130.76923077 , 4130.76923077 , 4128.71794872 , 4126.66666667 , 4130.25641026 , 4135.8974359 , 4143.58974359 , 4173.33333333 , 4698.97435897 , 4131.28205128 , 4134.35897436 , 2040.0 , 2031.0 , 8.947 , 0.0 , 0.0 , 0.0 , 0.0 , 

125.0 , 4130.76923077 , 4132.30769231 , 4128.71794872 , 4131.28205128 , 4129.74358974 , 4130.25641026 , 4126.15384615 , 4131.79487179 , 4137.43589744 , 4138.97435897 , 4174.87179487 , 4695.38461538 , 4131.79487179 , 4133.33333333 , 2041.0 , 2031.0 , 8.954 , 0.0 , 0.0 , 0.0 , 0.0 , 

126.0 , 4130.25641026 , 4134.87179487 , 4133.33333333 , 4130.76923077 , 4129.74358974 , 4131.28205128 , 4127.17948718 , 4132.30769231 , 4133.33333333 , 4137.43589744 , 4171.79487179 , 4695.38461538 , 4129.74358974 , 4133.33333333 , 2041.0 , 2030.0 , 8.962 , 0.0 , 0.0 , 0.0 , 0.0 , 

127.0 , 4132.30769231 , 4133.84615385 , 4137.94871795 , 4131.79487179 , 4129.23076923 , 4128.20512821 , 4127.17948718 , 4129.23076923 , 4131.28205128 , 4142.56410256 , 4171.79487179 , 4698.97435897 , 4131.79487179 , 4135.38461538 , 2043.0 , 2031.0 , 8.97 , 0.0 , 0.0 , 0.0 , 0.0 , 

128.0 , 4132.30769231 , 4128.20512821 , 4127.17948718 , 4132.30769231 , 4129.23076923 , 4126.66666667 , 4126.66666667 , 4128.71794872 , 4132.30769231 , 4140.51282051 , 4174.35897436 , 4697.43589744 , 4132.30769231 , 4132.30769231 , 2042.0 , 2031.0 , 8.978 , 0.0 , 0.0 , 0.0 , 0.0 , 

0.0 , 4131.28205128 , 4127.69230769 , 4129.23076923 , 4130.25641026 , 4130.25641026 , 4129.74358974 , 4127.17948718 , 4133.33333333 , 4135.38461538 , 4139.48717949 , 4173.33333333 , 4697.94871795 , 4130.76923077 , 4132.82051282 , 2040.0 , 2029.0 , 8.985 , 0.0 , 0.0 , 0.0 , 0.0 , 

1.0 , 4130.76923077 , 4129.74358974 , 4135.8974359 , 4128.71794872 , 4129.23076923 , 4128.71794872 , 4126.66666667 , 4132.82051282 , 4133.84615385 , 4141.02564103 , 4168.71794872 , 4696.41025641 , 4129.23076923 , 4133.84615385 , 2042.0 , 2029.0 , 8.993 , 0.0 , 0.0 , 0.0 , 0.0 , 

2.0 , 4131.28205128 , 4130.25641026 , 4139.48717949 , 4132.30769231 , 4129.23076923 , 4126.66666667 , 4127.17948718 , 4132.82051282 , 4129.74358974 , 4142.05128205 , 4171.28205128 , 4695.8974359 , 4131.79487179 , 4133.84615385 , 2042.0 , 2027.0 , 9.001 , 0.0 , 0.0 , 0.0 , 0.0 , 

3.0 , 4129.74358974 , 4130.25641026 , 4133.33333333 , 4133.33333333 , 4131.28205128 , 4129.74358974 , 4128.71794872 , 4133.84615385 , 4129.74358974 , 4139.48717949 , 4173.84615385 , 4698.46153846 , 4131.28205128 , 4136.41025641 , 2040.0 , 2028.0 , 9.009 , 0.0 , 0.0 , 0.0 , 0.0 , 

4.0 , 4128.71794872 , 4130.76923077 , 4133.33333333 , 4130.25641026 , 4132.30769231 , 4131.79487179 , 4128.71794872 , 4133.33333333 , 4134.35897436 , 4141.53846154 , 4171.28205128 , 4701.53846154 , 4128.20512821 , 4136.92307692 , 2041.0 , 2028.0 , 9.017 , 0.0 , 0.0 , 0.0 , 0.0 , 

5.0 , 4130.76923077 , 4130.25641026 , 4135.38461538 , 4131.79487179 , 4131.79487179 , 4130.25641026 , 4127.17948718 , 4132.82051282 , 4134.87179487 , 4142.05128205 , 4169.74358974 , 4699.48717949 , 4128.71794872 , 4131.28205128 , 2041.0 , 2028.0 , 9.026 , 0.0 , 0.0 , 0.0 , 0.0 , 

6.0 , 4130.25641026 , 4129.23076923 , 4153.84615385 , 4132.82051282 , 4129.74358974 , 4129.74358974 , 4127.69230769 , 4134.35897436 , 4132.82051282 , 4140.0 , 4171.79487179 , 4700.0 , 4130.76923077 , 4130.25641026 , 2040.0 , 2028.0 , 9.033 , 0.0 , 0.0 , 0.0 , 0.0 , 

7.0 , 4130.76923077 , 4130.76923077 , 4137.43589744 , 4130.76923077 , 4127.17948718 , 4130.76923077 , 4129.23076923 , 4131.28205128 , 4132.82051282 , 4139.48717949 , 4171.79487179 , 4700.0 , 4129.74358974 , 4135.38461538 , 2039.0 , 2030.0 , 9.041 , 0.0 , 0.0 , 0.0 , 0.0 , 

8.0 , 4131.28205128 , 4131.79487179 , 4140.0 , 4130.25641026 , 4128.71794872 , 4130.25641026 , 4128.20512821 , 4130.25641026 , 4135.8974359 , 4143.07692308 , 4171.28205128 , 4696.92307692 , 4128.71794872 , 4135.8974359 , 2038.0 , 2030.0 , 9.048 , 0.0 , 0.0 , 0.0 , 0.0 , 

9.0 , 4131.28205128 , 4130.25641026 , 4141.53846154 , 4133.33333333 , 4131.79487179 , 4128.20512821 , 4128.71794872 , 4133.33333333 , 4134.35897436 , 4144.1025641 , 4172.30769231 , 4695.8974359 , 4130.25641026 , 4135.38461538 , 2039.0 , 2030.0 , 9.056 , 0.0 , 0.0 , 0.0 , 0.0 , 

10.0 , 4129.74358974 , 4127.17948718 , 4150.25641026 , 4132.30769231 , 4130.76923077 , 4126.66666667 , 4129.23076923 , 4137.43589744 , 4134.35897436 , 4144.61538462 , 4173.84615385 , 4697.94871795 , 4131.79487179 , 4135.38461538 , 2039.0 , 2030.0 , 9.064 , 0.0 , 0.0 , 0.0 , 0.0 , 

11.0 , 4131.79487179 , 4128.71794872 , 4132.82051282 , 4131.79487179 , 4129.74358974 , 4128.20512821 , 4128.71794872 , 4135.8974359 , 4134.87179487 , 4143.07692308 , 4174.35897436 , 4698.46153846 , 4129.74358974 , 4134.87179487 , 2040.0 , 2029.0 , 9.072 , 0.0 , 0.0 , 0.0 , 0.0 , 

12.0 , 4132.30769231 , 4131.79487179 , 4143.58974359 , 4131.28205128 , 4131.79487179 , 4128.71794872 , 4127.69230769 , 4135.38461538 , 4132.82051282 , 4142.05128205 , 4171.79487179 , 4697.94871795 , 4129.74358974 , 4137.43589744 , 2040.0 , 2028.0 , 9.081 , 0.0 , 0.0 , 0.0 , 0.0 , 

13.0 , 4131.28205128 , 4131.28205128 , 4152.82051282 , 4130.76923077 , 4132.30769231 , 4126.15384615 , 4127.69230769 , 4136.41025641 , 4131.79487179 , 4140.0 , 4171.28205128 , 4698.46153846 , 4130.76923077 , 4137.43589744 , 2040.0 , 2029.0 , 9.088 , 0.0 , 0.0 , 0.0 , 0.0 , 

14.0 , 4131.28205128 , 4128.71794872 , 4157.43589744 , 4132.82051282 , 4128.71794872 , 4127.17948718 , 4125.64102564 , 4136.92307692 , 4136.41025641 , 4138.97435897 , 4174.35897436 , 4698.46153846 , 4131.79487179 , 4133.84615385 , 2040.0 , 2030.0 , 9.096 , 0.0 , 0.0 , 0.0 , 0.0 , 

15.0 , 4132.82051282 , 4130.25641026 , 4151.79487179 , 4133.84615385 , 4127.17948718 , 4130.25641026 , 4126.15384615 , 4134.35897436 , 4138.46153846 , 4142.56410256 , 4172.82051282 , 4699.48717949 , 4131.28205128 , 4133.33333333 , 2040.0 , 2030.0 , 9.104 , 0.0 , 0.0 , 0.0 , 0.0 , 

16.0 , 4131.79487179 , 4132.82051282 , 4147.17948718 , 4132.30769231 , 4127.69230769 , 4125.64102564 , 4128.71794872 , 4132.82051282 , 4135.8974359 , 4144.1025641 , 4170.76923077 , 4698.97435897 , 4130.25641026 , 4133.33333333 , 2040.0 , 2029.0 , 9.111 , 0.0 , 0.0 , 0.0 , 0.0 , 

17.0 , 4131.28205128 , 4131.28205128 , 4153.33333333 , 4132.30769231 , 4128.20512821 , 4123.07692308 , 4128.20512821 , 4135.38461538 , 4133.33333333 , 4141.53846154 , 4174.35897436 , 4700.0 , 4130.76923077 , 4133.33333333 , 2041.0 , 2027.0 , 9.119 , 0.0 , 0.0 , 0.0 , 0.0 , 

18.0 , 4130.76923077 , 4128.71794872 , 4141.53846154 , 4132.30769231 , 4129.74358974 , 4128.71794872 , 4127.69230769 , 4133.33333333 , 4130.76923077 , 4137.43589744 , 4173.84615385 , 4698.97435897 , 4130.76923077 , 4132.82051282 , 2044.0 , 2027.0 , 9.128 , 0.0 , 0.0 , 0.0 , 0.0 , 

19.0 , 4128.71794872 , 4130.76923077 , 4132.82051282 , 4130.76923077 , 4132.30769231 , 4132.30769231 , 4129.74358974 , 4130.25641026 , 4132.30769231 , 4138.46153846 , 4168.71794872 , 4697.94871795 , 4128.20512821 , 4133.84615385 , 2044.0 , 2026.0 , 9.135 , 0.0 , 0.0 , 0.0 , 0.0 , 

20.0 , 4128.71794872 , 4131.28205128 , 4135.8974359 , 4130.25641026 , 4132.30769231 , 4127.69230769 , 4129.23076923 , 4131.28205128 , 4134.87179487 , 4138.46153846 , 4169.23076923 , 4699.48717949 , 4126.15384615 , 4135.38461538 , 2045.0 , 2025.0 , 9.143 , 0.0 , 0.0 , 0.0 , 0.0 , 

21.0 , 4131.28205128 , 4128.71794872 , 4161.53846154 , 4132.30769231 , 4129.74358974 , 4126.66666667 , 4126.66666667 , 4135.8974359 , 4133.84615385 , 4141.53846154 , 4174.35897436 , 4699.48717949 , 4130.25641026 , 4135.8974359 , 2047.0 , 2022.0 , 9.151 , 0.0 , 0.0 , 0.0 , 0.0 , 

22.0 , 4130.25641026 , 4128.71794872 , 4146.66666667 , 4132.30769231 , 4128.20512821 , 4128.71794872 , 4127.69230769 , 4132.82051282 , 4132.30769231 , 4142.05128205 , 4174.35897436 , 4695.8974359 , 4130.76923077 , 4133.84615385 , 2046.0 , 2021.0 , 9.159 , 0.0 , 0.0 , 0.0 , 0.0 , 

23.0 , 4129.23076923 , 4130.76923077 , 4149.74358974 , 4130.76923077 , 4130.25641026 , 4126.15384615 , 4130.25641026 , 4128.71794872 , 4136.92307692 , 4142.56410256 , 4175.38461538 , 4700.51282051 , 4130.76923077 , 4135.38461538 , 2045.0 , 2021.0 , 9.168 , 0.0 , 0.0 , 0.0 , 0.0 , 

24.0 , 4130.76923077 , 4129.74358974 , 4144.61538462 , 4129.23076923 , 4132.30769231 , 4124.61538462 , 4128.71794872 , 4129.23076923 , 4135.38461538 , 4142.56410256 , 4173.33333333 , 4702.56410256 , 4129.74358974 , 4133.84615385 , 2045.0 , 2021.0 , 9.175 , 0.0 , 0.0 , 0.0 , 0.0 , 

25.0 , 4130.25641026 , 4128.71794872 , 4147.17948718 , 4130.76923077 , 4130.25641026 , 4127.17948718 , 4126.66666667 , 4131.28205128 , 4132.30769231 , 4141.02564103 , 4172.30769231 , 4697.94871795 , 4129.74358974 , 4130.76923077 , 2044.0 , 2022.0 , 9.183 , 0.0 , 0.0 , 0.0 , 0.0 , 

26.0 , 4129.23076923 , 4131.28205128 , 4140.0 , 4132.82051282 , 4129.74358974 , 4129.74358974 , 4129.23076923 , 4129.74358974 , 4133.84615385 , 4137.43589744 , 4172.82051282 , 4697.43589744 , 4128.71794872 , 4134.35897436 , 2043.0 , 2023.0 , 9.19 , 0.0 , 0.0 , 0.0 , 0.0 , 

27.0 , 4127.69230769 , 4131.79487179 , 4146.66666667 , 4130.76923077 , 4129.74358974 , 4129.23076923 , 4129.74358974 , 4131.79487179 , 4136.41025641 , 4138.46153846 , 4174.87179487 , 4702.05128205 , 4128.71794872 , 4137.94871795 , 2040.0 , 2023.0 , 9.198 , 0.0 , 0.0 , 0.0 , 0.0 , 

28.0 , 4129.23076923 , 4129.74358974 , 4128.71794872 , 4130.76923077 , 4129.23076923 , 4128.20512821 , 4127.69230769 , 4134.87179487 , 4134.87179487 , 4138.46153846 , 4174.35897436 , 4701.53846154 , 4126.66666667 , 4135.38461538 , 2039.0 , 2024.0 , 9.207 , 0.0 , 0.0 , 0.0 , 0.0 , 

29.0 , 4129.74358974 , 4128.71794872 , 4123.58974359 , 4131.79487179 , 4129.23076923 , 4127.69230769 , 4129.23076923 , 4134.35897436 , 4132.82051282 , 4134.87179487 , 4173.84615385 , 4698.97435897 , 4127.17948718 , 4131.79487179 , 2037.0 , 2024.0 , 9.214 , 0.0 , 0.0 , 0.0 , 0.0 , 

30.0 , 4128.71794872 , 4131.79487179 , 4133.33333333 , 4132.30769231 , 4131.28205128 , 4128.20512821 , 4131.28205128 , 4132.30769231 , 4133.84615385 , 4135.38461538 , 4172.82051282 , 4700.51282051 , 4131.28205128 , 4135.8974359 , 2036.0 , 2024.0 , 9.223 , 0.0 , 0.0 , 0.0 , 0.0 , 

31.0 , 4128.20512821 , 4131.79487179 , 4135.8974359 , 4131.28205128 , 4131.28205128 , 4128.71794872 , 4128.71794872 , 4133.84615385 , 4134.35897436 , 4134.35897436 , 4171.79487179 , 4699.48717949 , 4131.79487179 , 4135.38461538 , 2037.0 , 2022.0 , 9.23 , 0.0 , 0.0 , 0.0 , 0.0 , 

32.0 , 4132.30769231 , 4130.25641026 , 4120.51282051 , 4131.79487179 , 4130.25641026 , 4129.23076923 , 4127.17948718 , 4135.38461538 , 4133.33333333 , 4134.87179487 , 4173.84615385 , 4697.43589744 , 4131.28205128 , 4131.28205128 , 2035.0 , 2017.0 , 9.239 , 0.0 , 0.0 , 0.0 , 0.0 , 

33.0 , 4130.25641026 , 4130.76923077 , 4132.30769231 , 4130.25641026 , 4128.71794872 , 4129.23076923 , 4128.71794872 , 4134.87179487 , 4133.33333333 , 4141.02564103 , 4173.33333333 , 4697.94871795 , 4132.30769231 , 4132.82051282 , 2034.0 , 2017.0 , 9.245 , 0.0 , 0.0 , 0.0 , 0.0 , 

34.0 , 4127.69230769 , 4132.30769231 , 4153.84615385 , 4129.23076923 , 4128.71794872 , 4128.71794872 , 4130.25641026 , 4133.33333333 , 4134.35897436 , 4142.56410256 , 4173.33333333 , 4702.05128205 , 4132.82051282 , 4140.0 , 2033.0 , 2014.0 , 9.253 , 0.0 , 0.0 , 0.0 , 0.0 , 

35.0 , 4129.74358974 , 4131.79487179 , 4148.20512821 , 4129.74358974 , 4127.69230769 , 4126.66666667 , 4127.69230769 , 4130.25641026 , 4132.82051282 , 4136.41025641 , 4173.84615385 , 4699.48717949 , 4130.25641026 , 4137.43589744 , 2033.0 , 2012.0 , 9.261 , 0.0 , 0.0 , 0.0 , 0.0 , 

36.0 , 4132.82051282 , 4132.30769231 , 4130.76923077 , 4130.25641026 , 4126.15384615 , 4126.66666667 , 4127.17948718 , 4131.28205128 , 4132.30769231 , 4138.46153846 , 4173.84615385 , 4698.97435897 , 4132.30769231 , 4133.33333333 , 2033.0 , 2010.0 , 9.269 , 0.0 , 0.0 , 0.0 , 0.0 , 

37.0 , 4131.28205128 , 4131.79487179 , 4136.92307692 , 4131.79487179 , 4127.69230769 , 4129.74358974 , 4129.23076923 , 4132.82051282 , 4134.87179487 , 4142.05128205 , 4172.30769231 , 4700.51282051 , 4133.84615385 , 4135.38461538 , 2032.0 , 2008.0 , 9.277 , 0.0 , 0.0 , 0.0 , 0.0 , 

38.0 , 4129.23076923 , 4129.23076923 , 4151.79487179 , 4133.33333333 , 4131.28205128 , 4130.76923077 , 4130.25641026 , 4132.82051282 , 4134.87179487 , 4140.0 , 4172.30769231 , 4698.97435897 , 4132.82051282 , 4136.92307692 , 2032.0 , 2006.0 , 9.285 , 0.0 , 0.0 , 0.0 , 0.0 , 

39.0 , 4129.74358974 , 4130.25641026 , 4142.56410256 , 4132.30769231 , 4129.23076923 , 4129.23076923 , 4129.74358974 , 4132.82051282 , 4133.84615385 , 4137.94871795 , 4173.84615385 , 4697.94871795 , 4131.28205128 , 4136.41025641 , 2034.0 , 2003.0 , 9.293 , 0.0 , 0.0 , 0.0 , 0.0 , 

40.0 , 4132.30769231 , 4132.82051282 , 4142.05128205 , 4131.28205128 , 4126.15384615 , 4128.20512821 , 4128.71794872 , 4134.87179487 , 4134.87179487 , 4140.51282051 , 4174.35897436 , 4700.51282051 , 4131.79487179 , 4138.97435897 , 2034.0 , 2003.0 , 9.3 , 0.0 , 0.0 , 0.0 , 0.0 , 

41.0 , 4132.82051282 , 4131.28205128 , 4135.8974359 , 4131.28205128 , 4130.25641026 , 4129.74358974 , 4128.71794872 , 4133.84615385 , 4133.33333333 , 4140.51282051 , 4171.79487179 , 4699.48717949 , 4132.30769231 , 4136.92307692 , 2034.0 , 2003.0 , 9.308 , 0.0 , 0.0 , 0.0 , 0.0 , 

42.0 , 4130.25641026 , 4128.71794872 , 4152.30769231 , 4131.28205128 , 4132.30769231 , 4128.71794872 , 4127.17948718 , 4133.84615385 , 4134.35897436 , 4142.05128205 , 4171.28205128 , 4700.0 , 4131.28205128 , 4133.33333333 , 2034.0 , 2003.0 , 9.316 , 0.0 , 0.0 , 0.0 , 0.0 , 

43.0 , 4130.76923077 , 4128.20512821 , 4143.07692308 , 4132.30769231 , 4129.23076923 , 4129.23076923 , 4128.71794872 , 4133.33333333 , 4136.41025641 , 4141.53846154 , 4171.28205128 , 4701.53846154 , 4127.69230769 , 4133.33333333 , 2033.0 , 2003.0 , 9.324 , 0.0 , 0.0 , 0.0 , 0.0 , 

44.0 , 4130.76923077 , 4128.20512821 , 4137.94871795 , 4132.30769231 , 4127.69230769 , 4133.33333333 , 4129.23076923 , 4131.28205128 , 4135.38461538 , 4141.02564103 , 4171.79487179 , 4701.02564103 , 4128.20512821 , 4134.87179487 , 2032.0 , 2000.0 , 9.332 , 0.0 , 0.0 , 0.0 , 0.0 , 

45.0 , 4130.25641026 , 4131.28205128 , 4130.25641026 , 4133.33333333 , 4128.71794872 , 4130.25641026 , 4128.20512821 , 4129.74358974 , 4129.74358974 , 4140.0 , 4171.28205128 , 4700.0 , 4129.23076923 , 4135.38461538 , 2033.0 , 1998.0 , 9.34 , 0.0 , 0.0 , 0.0 , 0.0 , 

46.0 , 4130.25641026 , 4131.79487179 , 4142.56410256 , 4131.28205128 , 4128.71794872 , 4123.07692308 , 4128.20512821 , 4132.82051282 , 4131.79487179 , 4137.94871795 , 4172.82051282 , 4699.48717949 , 4129.74358974 , 4135.8974359 , 2034.0 , 2000.0 , 9.348 , 0.0 , 0.0 , 0.0 , 0.0 , 

47.0 , 4130.76923077 , 4127.17948718 , 4131.79487179 , 4130.25641026 , 4129.23076923 , 4123.07692308 , 4130.25641026 , 4133.33333333 , 4134.35897436 , 4136.41025641 , 4173.33333333 , 4701.02564103 , 4130.25641026 , 4135.8974359 , 2034.0 , 2000.0 , 9.357 , 0.0 , 0.0 , 0.0 , 0.0 , 

48.0 , 4129.74358974 , 4127.69230769 , 4124.61538462 , 4133.33333333 , 4128.71794872 , 4126.15384615 , 4128.71794872 , 4132.30769231 , 4131.28205128 , 4136.41025641 , 4173.84615385 , 4702.05128205 , 4129.74358974 , 4135.38461538 , 2036.0 , 1999.0 , 9.364 , 0.0 , 0.0 , 0.0 , 0.0 , 

49.0 , 4132.30769231 , 4131.79487179 , 4120.0 , 4134.35897436 , 4127.69230769 , 4128.71794872 , 4129.74358974 , 4133.33333333 , 4132.30769231 , 4138.46153846 , 4173.33333333 , 4701.53846154 , 4129.74358974 , 4136.41025641 , 2036.0 , 1998.0 , 9.371 , 0.0 , 0.0 , 0.0 , 0.0 , 

