['COUNTER', 'AF3', 'F7', 'F3', 'FC5', 'T7', 'P7', 'O1', 'O2', 'P8', 'T8', 'FC6', 'F4', 'F8', 'AF4', 'GYROX', 'GYROY', 'TIMESTAMP', 'FUNC_ID', 'FUNC_VALUE', 'MARKER', 'SYNC_SIGNAL']
14.0 , 4131.79487179 , 4130.76923077 , 4126.66666667 , 4129.23076923 , 4131.28205128 , 4126.15384615 , 4126.66666667 , 4135.38461538 , 4137.94871795 , 4140.51282051 , 4168.71794872 , 4638.46153846 , 4127.69230769 , 4133.84615385 , 2047.0 , 2036.0 , 5.994 , 0.0 , 0.0 , 0.0 , 0.0 , 

15.0 , 4130.76923077 , 4132.30769231 , 4121.53846154 , 4130.76923077 , 4128.20512821 , 4127.69230769 , 4129.23076923 , 4134.35897436 , 4135.38461538 , 4140.51282051 , 4171.28205128 , 4637.94871795 , 4129.74358974 , 4133.84615385 , 2047.0 , 2035.0 , 6.003 , 0.0 , 0.0 , 0.0 , 0.0 , 

16.0 , 4129.74358974 , 4130.25641026 , 4117.94871795 , 4132.30769231 , 4127.17948718 , 4127.17948718 , 4130.25641026 , 4134.87179487 , 4134.87179487 , 4139.48717949 , 4171.28205128 , 4637.43589744 , 4128.71794872 , 4135.8974359 , 2045.0 , 2036.0 , 6.01 , 0.0 , 0.0 , 0.0 , 0.0 , 

17.0 , 4128.71794872 , 4129.23076923 , 4112.30769231 , 4130.76923077 , 4129.74358974 , 4129.74358974 , 4128.71794872 , 4134.35897436 , 4134.87179487 , 4137.94871795 , 4166.66666667 , 4631.28205128 , 4125.64102564 , 4134.87179487 , 2045.0 , 2035.0 , 6.018 , 0.0 , 0.0 , 0.0 , 0.0 , 

18.0 , 4131.28205128 , 4131.28205128 , 4095.38461538 , 4133.33333333 , 4130.76923077 , 4127.69230769 , 4128.71794872 , 4133.33333333 , 4135.38461538 , 4140.0 , 4166.15384615 , 4632.30769231 , 4129.23076923 , 4133.84615385 , 2045.0 , 2035.0 , 6.026 , 0.0 , 0.0 , 0.0 , 0.0 , 

19.0 , 4131.28205128 , 4131.28205128 , 4112.30769231 , 4133.33333333 , 4129.23076923 , 4126.15384615 , 4131.28205128 , 4133.84615385 , 4135.38461538 , 4143.58974359 , 4169.23076923 , 4635.8974359 , 4131.79487179 , 4134.35897436 , 2045.0 , 2036.0 , 6.034 , 0.0 , 0.0 , 0.0 , 0.0 , 

20.0 , 4130.76923077 , 4131.79487179 , 4123.58974359 , 4131.79487179 , 4128.71794872 , 4135.38461538 , 4131.28205128 , 4135.38461538 , 4136.92307692 , 4142.56410256 , 4169.23076923 , 4635.38461538 , 4129.23076923 , 4134.87179487 , 2044.0 , 2035.0 , 6.041 , 0.0 , 0.0 , 0.0 , 0.0 , 

21.0 , 4129.23076923 , 4131.79487179 , 4124.1025641 , 4132.82051282 , 4129.74358974 , 4135.38461538 , 4127.69230769 , 4133.84615385 , 4138.46153846 , 4141.02564103 , 4168.20512821 , 4635.8974359 , 4128.20512821 , 4135.8974359 , 2045.0 , 2035.0 , 6.05 , 0.0 , 0.0 , 0.0 , 0.0 , 

22.0 , 4130.76923077 , 4130.76923077 , 4128.20512821 , 4134.35897436 , 4129.23076923 , 4123.58974359 , 4125.64102564 , 4133.84615385 , 4136.92307692 , 4143.07692308 , 4170.25641026 , 4640.0 , 4131.28205128 , 4136.92307692 , 2044.0 , 2034.0 , 6.058 , 0.0 , 0.0 , 0.0 , 0.0 , 

23.0 , 4132.82051282 , 4129.74358974 , 4139.48717949 , 4131.28205128 , 4129.23076923 , 4126.66666667 , 4125.12820513 , 4135.8974359 , 4133.33333333 , 4141.53846154 , 4171.79487179 , 4637.43589744 , 4132.82051282 , 4135.8974359 , 2041.0 , 2034.0 , 6.066 , 0.0 , 0.0 , 0.0 , 0.0 , 

24.0 , 4132.30769231 , 4130.76923077 , 4140.0 , 4130.25641026 , 4130.25641026 , 4136.41025641 , 4126.15384615 , 4136.92307692 , 4133.33333333 , 4140.0 , 4169.74358974 , 4635.38461538 , 4131.79487179 , 4135.38461538 , 2040.0 , 2035.0 , 6.074 , 0.0 , 0.0 , 0.0 , 0.0 , 

25.0 , 4130.25641026 , 4130.76923077 , 4139.48717949 , 4132.30769231 , 4130.25641026 , 4133.84615385 , 4126.15384615 , 4134.35897436 , 4134.35897436 , 4142.56410256 , 4169.23076923 , 4636.92307692 , 4129.74358974 , 4135.38461538 , 2040.0 , 2035.0 , 6.08 , 0.0 , 0.0 , 0.0 , 0.0 , 

26.0 , 4132.82051282 , 4130.25641026 , 4146.66666667 , 4132.82051282 , 4129.23076923 , 4130.76923077 , 4125.64102564 , 4134.87179487 , 4136.92307692 , 4144.1025641 , 4170.25641026 , 4638.46153846 , 4130.76923077 , 4137.94871795 , 2040.0 , 2034.0 , 6.088 , 0.0 , 0.0 , 0.0 , 0.0 , 

27.0 , 4133.84615385 , 4131.79487179 , 4127.69230769 , 4132.30769231 , 4129.74358974 , 4133.84615385 , 4127.17948718 , 4136.92307692 , 4135.8974359 , 4140.51282051 , 4168.20512821 , 4637.43589744 , 4133.33333333 , 4137.94871795 , 2040.0 , 2034.0 , 6.098 , 0.0 , 0.0 , 0.0 , 0.0 , 

28.0 , 4131.79487179 , 4132.82051282 , 4133.84615385 , 4131.79487179 , 4132.82051282 , 4133.33333333 , 4128.71794872 , 4137.94871795 , 4133.33333333 , 4142.05128205 , 4169.23076923 , 4638.46153846 , 4131.28205128 , 4135.38461538 , 2042.0 , 2034.0 , 6.105 , 0.0 , 0.0 , 0.0 , 0.0 , 

29.0 , 4131.28205128 , 4131.79487179 , 4128.20512821 , 4131.28205128 , 4133.33333333 , 4127.17948718 , 4127.69230769 , 4133.33333333 , 4132.82051282 , 4141.53846154 , 4170.76923077 , 4635.8974359 , 4126.15384615 , 4133.33333333 , 2042.0 , 2035.0 , 6.114 , 0.0 , 0.0 , 0.0 , 0.0 , 

30.0 , 4133.33333333 , 4133.33333333 , 4134.35897436 , 4132.82051282 , 4131.79487179 , 4129.23076923 , 4126.66666667 , 4130.25641026 , 4135.8974359 , 4140.51282051 , 4170.76923077 , 4633.84615385 , 4130.76923077 , 4136.92307692 , 2043.0 , 2037.0 , 6.122 , 0.0 , 0.0 , 0.0 , 0.0 , 

31.0 , 4131.79487179 , 4132.82051282 , 4122.05128205 , 4133.84615385 , 4129.74358974 , 4138.46153846 , 4127.17948718 , 4130.25641026 , 4133.33333333 , 4137.43589744 , 4168.20512821 , 4633.33333333 , 4131.28205128 , 4138.97435897 , 2043.0 , 2038.0 , 6.128 , 0.0 , 0.0 , 0.0 , 0.0 , 

32.0 , 4130.25641026 , 4129.74358974 , 4130.25641026 , 4132.82051282 , 4129.74358974 , 4134.35897436 , 4128.20512821 , 4133.33333333 , 4132.30769231 , 4141.02564103 , 4169.23076923 , 4634.87179487 , 4128.71794872 , 4137.43589744 , 2044.0 , 2038.0 , 6.137 , 0.0 , 0.0 , 0.0 , 0.0 , 

33.0 , 4133.33333333 , 4131.28205128 , 4114.35897436 , 4135.38461538 , 4131.28205128 , 4125.64102564 , 4130.25641026 , 4131.28205128 , 4132.82051282 , 4139.48717949 , 4170.76923077 , 4635.38461538 , 4130.25641026 , 4135.38461538 , 2046.0 , 2038.0 , 6.145 , 0.0 , 0.0 , 0.0 , 0.0 , 

34.0 , 4132.82051282 , 4130.76923077 , 4094.87179487 , 4134.35897436 , 4132.30769231 , 4126.66666667 , 4128.71794872 , 4127.69230769 , 4130.76923077 , 4133.33333333 , 4168.71794872 , 4632.82051282 , 4131.79487179 , 4134.87179487 , 2046.0 , 2037.0 , 6.152 , 0.0 , 0.0 , 0.0 , 0.0 , 

35.0 , 4130.25641026 , 4130.25641026 , 4096.41025641 , 4132.30769231 , 4131.79487179 , 4129.74358974 , 4125.64102564 , 4128.71794872 , 4130.76923077 , 4135.38461538 , 4168.20512821 , 4634.35897436 , 4129.74358974 , 4135.8974359 , 2043.0 , 2036.0 , 6.16 , 0.0 , 0.0 , 0.0 , 0.0 , 

36.0 , 4130.76923077 , 4131.28205128 , 4123.58974359 , 4134.87179487 , 4129.74358974 , 4127.69230769 , 4125.64102564 , 4132.30769231 , 4134.87179487 , 4141.53846154 , 4170.76923077 , 4635.8974359 , 4130.25641026 , 4136.41025641 , 2043.0 , 2036.0 , 6.168 , 0.0 , 0.0 , 0.0 , 0.0 , 

37.0 , 4133.84615385 , 4132.30769231 , 4120.0 , 4136.41025641 , 4129.23076923 , 4127.69230769 , 4128.20512821 , 4133.84615385 , 4136.41025641 , 4143.58974359 , 4170.76923077 , 4635.8974359 , 4131.79487179 , 4137.43589744 , 2042.0 , 2035.0 , 6.176 , 0.0 , 0.0 , 0.0 , 0.0 , 

38.0 , 4131.28205128 , 4130.25641026 , 4118.97435897 , 4130.76923077 , 4129.23076923 , 4128.20512821 , 4129.23076923 , 4132.30769231 , 4132.30769231 , 4141.02564103 , 4166.66666667 , 4631.79487179 , 4129.74358974 , 4135.8974359 , 2041.0 , 2036.0 , 6.184 , 0.0 , 0.0 , 0.0 , 0.0 , 

39.0 , 4130.25641026 , 4128.71794872 , 4129.23076923 , 4129.74358974 , 4131.79487179 , 4127.17948718 , 4128.71794872 , 4131.28205128 , 4130.76923077 , 4138.97435897 , 4167.69230769 , 4632.30769231 , 4131.79487179 , 4133.84615385 , 2041.0 , 2034.0 , 6.192 , 0.0 , 0.0 , 0.0 , 0.0 , 

40.0 , 4131.28205128 , 4128.71794872 , 4131.79487179 , 4131.79487179 , 4131.79487179 , 4128.71794872 , 4126.66666667 , 4133.84615385 , 4133.84615385 , 4138.97435897 , 4169.23076923 , 4634.35897436 , 4131.79487179 , 4134.87179487 , 2040.0 , 2032.0 , 6.2 , 0.0 , 0.0 , 0.0 , 0.0 , 

41.0 , 4133.33333333 , 4129.74358974 , 4129.23076923 , 4132.30769231 , 4128.71794872 , 4128.20512821 , 4124.61538462 , 4137.43589744 , 4135.38461538 , 4142.05128205 , 4169.74358974 , 4633.84615385 , 4128.20512821 , 4137.94871795 , 2040.0 , 2032.0 , 6.208 , 0.0 , 0.0 , 0.0 , 0.0 , 

42.0 , 4131.79487179 , 4132.30769231 , 4139.48717949 , 4132.82051282 , 4128.20512821 , 4126.66666667 , 4124.61538462 , 4137.43589744 , 4133.84615385 , 4143.58974359 , 4170.25641026 , 4632.82051282 , 4129.74358974 , 4136.92307692 , 2041.0 , 2031.0 , 6.215 , 0.0 , 0.0 , 0.0 , 0.0 , 

43.0 , 4130.76923077 , 4133.33333333 , 4149.23076923 , 4133.84615385 , 4130.76923077 , 4127.17948718 , 4125.12820513 , 4138.46153846 , 4133.33333333 , 4145.64102564 , 4168.71794872 , 4636.41025641 , 4134.35897436 , 4136.41025641 , 2040.0 , 2032.0 , 6.223 , 0.0 , 0.0 , 0.0 , 0.0 , 

44.0 , 4130.76923077 , 4130.76923077 , 4131.79487179 , 4134.87179487 , 4130.25641026 , 4127.17948718 , 4125.12820513 , 4134.35897436 , 4132.30769231 , 4144.1025641 , 4167.17948718 , 4636.41025641 , 4129.23076923 , 4136.41025641 , 2040.0 , 2033.0 , 6.231 , 0.0 , 0.0 , 0.0 , 0.0 , 

45.0 , 4132.30769231 , 4130.25641026 , 4121.53846154 , 4135.38461538 , 4129.74358974 , 4127.17948718 , 4127.69230769 , 4130.76923077 , 4132.30769231 , 4141.53846154 , 4170.25641026 , 4632.82051282 , 4126.15384615 , 4135.8974359 , 2041.0 , 2033.0 , 6.239 , 0.0 , 0.0 , 0.0 , 0.0 , 

46.0 , 4133.33333333 , 4132.30769231 , 4120.0 , 4132.82051282 , 4131.28205128 , 4129.23076923 , 4129.23076923 , 4132.82051282 , 4133.33333333 , 4140.0 , 4170.76923077 , 4630.76923077 , 4130.25641026 , 4134.35897436 , 2042.0 , 2034.0 , 6.247 , 0.0 , 0.0 , 0.0 , 0.0 , 

47.0 , 4131.79487179 , 4133.33333333 , 4149.23076923 , 4132.30769231 , 4131.79487179 , 4129.74358974 , 4127.17948718 , 4136.92307692 , 4136.92307692 , 4143.07692308 , 4170.25641026 , 4633.33333333 , 4133.33333333 , 4136.41025641 , 2041.0 , 2035.0 , 6.255 , 0.0 , 0.0 , 0.0 , 0.0 , 

48.0 , 4129.74358974 , 4132.30769231 , 4132.82051282 , 4134.87179487 , 4131.28205128 , 4126.66666667 , 4126.66666667 , 4131.28205128 , 4135.8974359 , 4141.02564103 , 4170.25641026 , 4630.76923077 , 4127.17948718 , 4136.41025641 , 2042.0 , 2036.0 , 6.264 , 0.0 , 0.0 , 0.0 , 0.0 , 

49.0 , 4129.74358974 , 4127.69230769 , 4114.87179487 , 4133.84615385 , 4131.28205128 , 4125.64102564 , 4128.20512821 , 4128.20512821 , 4133.84615385 , 4140.51282051 , 4169.74358974 , 4628.20512821 , 4127.69230769 , 4135.38461538 , 2042.0 , 2036.0 , 6.271 , 0.0 , 0.0 , 0.0 , 0.0 , 

50.0 , 4132.30769231 , 4126.15384615 , 4112.30769231 , 4133.84615385 , 4130.76923077 , 4128.20512821 , 4129.23076923 , 4130.76923077 , 4135.38461538 , 4139.48717949 , 4167.17948718 , 4632.30769231 , 4131.28205128 , 4134.35897436 , 2041.0 , 2037.0 , 6.278 , 0.0 , 0.0 , 0.0 , 0.0 , 

51.0 , 4131.79487179 , 4129.74358974 , 4133.84615385 , 4135.38461538 , 4131.28205128 , 4129.23076923 , 4127.69230769 , 4133.33333333 , 4139.48717949 , 4138.46153846 , 4169.23076923 , 4636.41025641 , 4130.25641026 , 4135.38461538 , 2042.0 , 2035.0 , 6.286 , 0.0 , 0.0 , 0.0 , 0.0 , 

52.0 , 4132.82051282 , 4131.28205128 , 4125.64102564 , 4133.33333333 , 4131.28205128 , 4129.74358974 , 4127.69230769 , 4132.82051282 , 4135.38461538 , 4137.94871795 , 4170.25641026 , 4630.25641026 , 4127.17948718 , 4137.43589744 , 2041.0 , 2036.0 , 6.294 , 0.0 , 0.0 , 0.0 , 0.0 , 

53.0 , 4132.82051282 , 4128.71794872 , 4131.28205128 , 4129.74358974 , 4130.25641026 , 4129.23076923 , 4127.69230769 , 4134.35897436 , 4134.35897436 , 4139.48717949 , 4167.69230769 , 4626.66666667 , 4128.71794872 , 4136.92307692 , 2044.0 , 2033.0 , 6.302 , 0.0 , 0.0 , 0.0 , 0.0 , 

54.0 , 4133.33333333 , 4128.71794872 , 4132.82051282 , 4134.35897436 , 4129.74358974 , 4128.20512821 , 4127.69230769 , 4134.87179487 , 4136.41025641 , 4140.51282051 , 4168.20512821 , 4632.82051282 , 4130.25641026 , 4136.92307692 , 2042.0 , 2032.0 , 6.31 , 0.0 , 0.0 , 0.0 , 0.0 , 

55.0 , 4131.28205128 , 4130.25641026 , 4145.12820513 , 4136.92307692 , 4129.74358974 , 4129.23076923 , 4127.69230769 , 4135.38461538 , 4135.38461538 , 4141.53846154 , 4170.76923077 , 4634.87179487 , 4129.74358974 , 4135.8974359 , 2041.0 , 2030.0 , 6.318 , 0.0 , 0.0 , 0.0 , 0.0 , 

56.0 , 4130.76923077 , 4130.76923077 , 4135.8974359 , 4134.35897436 , 4130.25641026 , 4128.20512821 , 4128.20512821 , 4136.41025641 , 4132.82051282 , 4141.53846154 , 4171.79487179 , 4632.82051282 , 4131.28205128 , 4134.87179487 , 2043.0 , 2028.0 , 6.326 , 0.0 , 0.0 , 0.0 , 0.0 , 

57.0 , 4130.25641026 , 4129.74358974 , 4145.64102564 , 4131.79487179 , 4130.76923077 , 4128.20512821 , 4129.23076923 , 4135.8974359 , 4137.43589744 , 4141.53846154 , 4168.71794872 , 4632.82051282 , 4133.84615385 , 4135.38461538 , 2043.0 , 2028.0 , 6.334 , 0.0 , 0.0 , 0.0 , 0.0 , 

58.0 , 4131.79487179 , 4128.20512821 , 4159.48717949 , 4132.82051282 , 4131.79487179 , 4130.76923077 , 4128.20512821 , 4133.84615385 , 4138.97435897 , 4142.56410256 , 4167.17948718 , 4632.82051282 , 4131.28205128 , 4136.92307692 , 2040.0 , 2029.0 , 6.341 , 0.0 , 0.0 , 0.0 , 0.0 , 

59.0 , 4131.79487179 , 4127.69230769 , 4151.79487179 , 4136.41025641 , 4130.76923077 , 4130.25641026 , 4126.15384615 , 4132.82051282 , 4134.35897436 , 4143.07692308 , 4170.25641026 , 4629.74358974 , 4127.69230769 , 4136.92307692 , 2040.0 , 2031.0 , 6.349 , 0.0 , 0.0 , 0.0 , 0.0 , 

60.0 , 4131.79487179 , 4130.76923077 , 4149.74358974 , 4137.43589744 , 4128.20512821 , 4127.69230769 , 4127.17948718 , 4134.35897436 , 4136.41025641 , 4143.07692308 , 4174.35897436 , 4631.28205128 , 4128.20512821 , 4136.41025641 , 2040.0 , 2033.0 , 6.357 , 0.0 , 0.0 , 0.0 , 0.0 , 

61.0 , 4131.79487179 , 4132.30769231 , 4146.66666667 , 4133.33333333 , 4127.69230769 , 4129.23076923 , 4130.25641026 , 4135.8974359 , 4137.43589744 , 4142.05128205 , 4172.30769231 , 4633.84615385 , 4131.28205128 , 4135.8974359 , 2039.0 , 2034.0 , 6.365 , 0.0 , 0.0 , 0.0 , 0.0 , 

62.0 , 4131.28205128 , 4131.79487179 , 4151.79487179 , 4131.79487179 , 4130.76923077 , 4129.23076923 , 4130.25641026 , 4133.84615385 , 4136.92307692 , 4142.56410256 , 4168.20512821 , 4638.97435897 , 4132.82051282 , 4137.94871795 , 2041.0 , 2037.0 , 6.373 , 0.0 , 0.0 , 0.0 , 0.0 , 

63.0 , 4130.25641026 , 4129.74358974 , 4128.20512821 , 4134.35897436 , 4131.28205128 , 4125.12820513 , 4127.69230769 , 4128.20512821 , 4133.33333333 , 4139.48717949 , 4167.69230769 , 4637.43589744 , 4127.69230769 , 4137.43589744 , 2043.0 , 2037.0 , 6.382 , 0.0 , 0.0 , 0.0 , 0.0 , 

64.0 , 4132.82051282 , 4130.25641026 , 4122.05128205 , 4134.87179487 , 4128.71794872 , 4130.25641026 , 4126.66666667 , 4129.23076923 , 4131.28205128 , 4138.97435897 , 4167.69230769 , 4632.30769231 , 4127.17948718 , 4135.8974359 , 2044.0 , 2036.0 , 6.389 , 0.0 , 0.0 , 0.0 , 0.0 , 

65.0 , 4132.82051282 , 4131.28205128 , 4116.41025641 , 4131.79487179 , 4130.25641026 , 4134.87179487 , 4126.15384615 , 4128.20512821 , 4129.74358974 , 4139.48717949 , 4165.64102564 , 4628.20512821 , 4128.71794872 , 4134.35897436 , 2042.0 , 2035.0 , 6.397 , 0.0 , 0.0 , 0.0 , 0.0 , 

66.0 , 4130.76923077 , 4130.76923077 , 4117.43589744 , 4131.28205128 , 4133.33333333 , 4129.74358974 , 4128.20512821 , 4128.20512821 , 4131.28205128 , 4141.53846154 , 4167.69230769 , 4628.71794872 , 4129.74358974 , 4134.35897436 , 2044.0 , 2036.0 , 6.405 , 0.0 , 0.0 , 0.0 , 0.0 , 

67.0 , 4131.79487179 , 4131.79487179 , 4106.66666667 , 4131.28205128 , 4131.79487179 , 4129.23076923 , 4129.74358974 , 4132.30769231 , 4132.82051282 , 4141.02564103 , 4168.71794872 , 4629.74358974 , 4128.20512821 , 4135.38461538 , 2045.0 , 2036.0 , 6.412 , 0.0 , 0.0 , 0.0 , 0.0 , 

68.0 , 4133.33333333 , 4133.33333333 , 4126.66666667 , 4130.76923077 , 4127.69230769 , 4133.33333333 , 4128.20512821 , 4136.92307692 , 4133.84615385 , 4141.53846154 , 4169.74358974 , 4631.79487179 , 4128.20512821 , 4137.94871795 , 2045.0 , 2036.0 , 6.42 , 0.0 , 0.0 , 0.0 , 0.0 , 

69.0 , 4133.33333333 , 4130.76923077 , 4140.51282051 , 4130.76923077 , 4129.23076923 , 4131.79487179 , 4128.20512821 , 4134.35897436 , 4133.33333333 , 4141.02564103 , 4170.25641026 , 4632.30769231 , 4129.74358974 , 4135.8974359 , 2042.0 , 2038.0 , 6.428 , 0.0 , 0.0 , 0.0 , 0.0 , 

70.0 , 4132.30769231 , 4128.71794872 , 4147.17948718 , 4130.25641026 , 4132.30769231 , 4127.17948718 , 4129.74358974 , 4135.38461538 , 4133.84615385 , 4142.05128205 , 4170.25641026 , 4631.79487179 , 4132.30769231 , 4134.35897436 , 2042.0 , 2039.0 , 6.436 , 0.0 , 0.0 , 0.0 , 0.0 , 

71.0 , 4132.30769231 , 4131.79487179 , 4136.92307692 , 4132.30769231 , 4132.30769231 , 4125.12820513 , 4130.25641026 , 4137.94871795 , 4135.38461538 , 4141.53846154 , 4168.20512821 , 4632.82051282 , 4128.71794872 , 4137.43589744 , 2042.0 , 2041.0 , 6.444 , 0.0 , 0.0 , 0.0 , 0.0 , 

72.0 , 4130.76923077 , 4132.82051282 , 4139.48717949 , 4133.33333333 , 4130.25641026 , 4126.66666667 , 4128.71794872 , 4135.8974359 , 4134.35897436 , 4138.97435897 , 4168.20512821 , 4631.28205128 , 4126.15384615 , 4137.94871795 , 2044.0 , 2040.0 , 6.452 , 0.0 , 0.0 , 0.0 , 0.0 , 

73.0 , 4132.30769231 , 4130.76923077 , 4132.82051282 , 4131.79487179 , 4129.23076923 , 4135.8974359 , 4128.20512821 , 4132.82051282 , 4133.84615385 , 4140.0 , 4170.25641026 , 4630.25641026 , 4131.28205128 , 4136.92307692 , 2044.0 , 2040.0 , 6.46 , 0.0 , 0.0 , 0.0 , 0.0 , 

74.0 , 4129.74358974 , 4130.25641026 , 4143.58974359 , 4128.20512821 , 4128.20512821 , 4138.46153846 , 4128.20512821 , 4133.84615385 , 4136.41025641 , 4142.05128205 , 4168.20512821 , 4631.28205128 , 4132.30769231 , 4135.8974359 , 2043.0 , 2040.0 , 6.468 , 0.0 , 0.0 , 0.0 , 0.0 , 

75.0 , 4129.74358974 , 4132.30769231 , 4130.25641026 , 4129.74358974 , 4127.69230769 , 4130.25641026 , 4129.23076923 , 4133.33333333 , 4135.38461538 , 4138.97435897 , 4165.12820513 , 4633.33333333 , 4126.66666667 , 4134.35897436 , 2044.0 , 2041.0 , 6.476 , 0.0 , 0.0 , 0.0 , 0.0 , 

76.0 , 4131.28205128 , 4130.76923077 , 4129.23076923 , 4132.82051282 , 4128.71794872 , 4126.66666667 , 4128.20512821 , 4131.28205128 , 4134.87179487 , 4138.46153846 , 4168.71794872 , 4632.30769231 , 4128.20512821 , 4134.87179487 , 2046.0 , 2039.0 , 6.483 , 0.0 , 0.0 , 0.0 , 0.0 , 

77.0 , 4131.79487179 , 4129.23076923 , 4144.1025641 , 4131.28205128 , 4130.76923077 , 4128.71794872 , 4128.71794872 , 4131.79487179 , 4136.41025641 , 4144.61538462 , 4173.33333333 , 4634.35897436 , 4132.30769231 , 4137.94871795 , 2045.0 , 2039.0 , 6.491 , 0.0 , 0.0 , 0.0 , 0.0 , 

78.0 , 4128.71794872 , 4128.71794872 , 4142.56410256 , 4129.23076923 , 4130.76923077 , 4127.69230769 , 4130.25641026 , 4133.84615385 , 4135.38461538 , 4143.07692308 , 4169.23076923 , 4633.33333333 , 4130.76923077 , 4136.92307692 , 2046.0 , 2038.0 , 6.499 , 0.0 , 0.0 , 0.0 , 0.0 , 

79.0 , 4131.28205128 , 4129.74358974 , 4136.41025641 , 4132.82051282 , 4131.79487179 , 4125.64102564 , 4127.69230769 , 4135.8974359 , 4135.38461538 , 4138.46153846 , 4166.15384615 , 4633.84615385 , 4130.76923077 , 4132.82051282 , 2046.0 , 2037.0 , 6.506 , 0.0 , 0.0 , 0.0 , 0.0 , 

80.0 , 4134.35897436 , 4129.74358974 , 4130.76923077 , 4133.33333333 , 4131.28205128 , 4126.66666667 , 4125.12820513 , 4134.35897436 , 4134.35897436 , 4136.41025641 , 4168.20512821 , 4632.30769231 , 4130.25641026 , 4131.28205128 , 2047.0 , 2038.0 , 6.515 , 0.0 , 0.0 , 0.0 , 0.0 , 

81.0 , 4130.76923077 , 4128.71794872 , 4145.12820513 , 4130.25641026 , 4128.71794872 , 4126.66666667 , 4127.69230769 , 4135.8974359 , 4133.33333333 , 4138.97435897 , 4170.25641026 , 4633.84615385 , 4130.76923077 , 4136.41025641 , 2047.0 , 2035.0 , 6.523 , 0.0 , 0.0 , 0.0 , 0.0 , 

82.0 , 4129.23076923 , 4128.71794872 , 4140.0 , 4129.74358974 , 4128.71794872 , 4126.15384615 , 4128.71794872 , 4132.30769231 , 4131.79487179 , 4140.0 , 4168.20512821 , 4636.41025641 , 4129.74358974 , 4138.46153846 , 2047.0 , 2033.0 , 6.531 , 0.0 , 0.0 , 0.0 , 0.0 , 

83.0 , 4131.79487179 , 4131.28205128 , 4134.35897436 , 4132.30769231 , 4131.79487179 , 4128.20512821 , 4127.69230769 , 4127.69230769 , 4133.84615385 , 4140.0 , 4168.71794872 , 4636.41025641 , 4131.28205128 , 4135.38461538 , 2043.0 , 2031.0 , 6.538 , 0.0 , 0.0 , 0.0 , 0.0 , 

84.0 , 4132.30769231 , 4132.30769231 , 4124.61538462 , 4133.33333333 , 4130.25641026 , 4131.79487179 , 4128.20512821 , 4130.25641026 , 4134.87179487 , 4137.43589744 , 4168.71794872 , 4634.35897436 , 4129.74358974 , 4133.33333333 , 2044.0 , 2031.0 , 6.546 , 0.0 , 0.0 , 0.0 , 0.0 , 

85.0 , 4132.30769231 , 4132.30769231 , 4146.15384615 , 4131.28205128 , 4127.17948718 , 4130.76923077 , 4129.23076923 , 4137.43589744 , 4136.41025641 , 4141.53846154 , 4170.76923077 , 4636.41025641 , 4130.76923077 , 4134.87179487 , 2043.0 , 2031.0 , 6.554 , 0.0 , 0.0 , 0.0 , 0.0 , 

86.0 , 4134.87179487 , 4131.28205128 , 4140.51282051 , 4128.71794872 , 4130.25641026 , 4127.69230769 , 4129.23076923 , 4133.84615385 , 4134.35897436 , 4143.58974359 , 4171.28205128 , 4636.41025641 , 4131.28205128 , 4134.35897436 , 2042.0 , 2032.0 , 6.562 , 0.0 , 0.0 , 0.0 , 0.0 , 

87.0 , 4132.82051282 , 4129.74358974 , 4131.28205128 , 4128.20512821 , 4130.76923077 , 4128.20512821 , 4129.23076923 , 4128.71794872 , 4133.33333333 , 4139.48717949 , 4169.74358974 , 4634.35897436 , 4128.71794872 , 4133.84615385 , 2042.0 , 2033.0 , 6.57 , 0.0 , 0.0 , 0.0 , 0.0 , 

88.0 , 4130.76923077 , 4131.79487179 , 4123.07692308 , 4130.76923077 , 4128.71794872 , 4130.25641026 , 4129.23076923 , 4131.28205128 , 4133.84615385 , 4137.94871795 , 4169.23076923 , 4634.87179487 , 4126.15384615 , 4136.41025641 , 2039.0 , 2033.0 , 6.578 , 0.0 , 0.0 , 0.0 , 0.0 , 

89.0 , 4129.74358974 , 4133.33333333 , 4144.1025641 , 4129.23076923 , 4129.74358974 , 4129.74358974 , 4130.25641026 , 4134.87179487 , 4134.87179487 , 4141.53846154 , 4170.25641026 , 4637.43589744 , 4130.76923077 , 4138.97435897 , 2038.0 , 2034.0 , 6.586 , 0.0 , 0.0 , 0.0 , 0.0 , 

90.0 , 4129.23076923 , 4130.76923077 , 4142.56410256 , 4128.20512821 , 4129.23076923 , 4128.20512821 , 4129.74358974 , 4135.38461538 , 4133.84615385 , 4140.51282051 , 4168.71794872 , 4634.35897436 , 4133.33333333 , 4136.92307692 , 2037.0 , 2036.0 , 6.595 , 0.0 , 0.0 , 0.0 , 0.0 , 

91.0 , 4128.71794872 , 4130.25641026 , 4141.02564103 , 4132.82051282 , 4130.76923077 , 4125.64102564 , 4127.17948718 , 4135.8974359 , 4136.41025641 , 4141.02564103 , 4168.20512821 , 4631.28205128 , 4130.25641026 , 4132.30769231 , 2037.0 , 2036.0 , 6.602 , 0.0 , 0.0 , 0.0 , 0.0 , 

92.0 , 4132.30769231 , 4133.33333333 , 4126.15384615 , 4135.8974359 , 4133.84615385 , 4127.17948718 , 4127.69230769 , 4133.33333333 , 4136.92307692 , 4144.61538462 , 4170.76923077 , 4634.87179487 , 4129.74358974 , 4132.30769231 , 2038.0 , 2037.0 , 6.61 , 0.0 , 0.0 , 0.0 , 0.0 , 

93.0 , 4131.28205128 , 4130.76923077 , 4134.35897436 , 4131.28205128 , 4131.28205128 , 4129.74358974 , 4128.20512821 , 4132.82051282 , 4134.35897436 , 4144.1025641 , 4171.28205128 , 4635.8974359 , 4130.76923077 , 4134.87179487 , 2040.0 , 2036.0 , 6.617 , 0.0 , 0.0 , 0.0 , 0.0 , 

94.0 , 4129.74358974 , 4127.69230769 , 4150.76923077 , 4130.25641026 , 4130.25641026 , 4129.23076923 , 4126.66666667 , 4138.46153846 , 4133.84615385 , 4141.53846154 , 4170.76923077 , 4633.84615385 , 4130.25641026 , 4136.41025641 , 2039.0 , 2037.0 , 6.625 , 0.0 , 0.0 , 0.0 , 0.0 , 

95.0 , 4130.25641026 , 4128.20512821 , 4134.35897436 , 4131.79487179 , 4132.82051282 , 4128.20512821 , 4127.69230769 , 4135.38461538 , 4133.84615385 , 4137.94871795 , 4169.23076923 , 4632.30769231 , 4130.25641026 , 4134.35897436 , 2041.0 , 2037.0 , 6.633 , 0.0 , 0.0 , 0.0 , 0.0 , 

96.0 , 4132.82051282 , 4130.76923077 , 4117.43589744 , 4131.79487179 , 4131.79487179 , 4131.79487179 , 4129.74358974 , 4131.79487179 , 4132.82051282 , 4138.97435897 , 4168.71794872 , 4635.38461538 , 4132.30769231 , 4134.35897436 , 2041.0 , 2037.0 , 6.641 , 0.0 , 0.0 , 0.0 , 0.0 , 

97.0 , 4130.76923077 , 4133.33333333 , 4114.35897436 , 4129.23076923 , 4129.74358974 , 4133.84615385 , 4126.15384615 , 4131.28205128 , 4132.30769231 , 4140.51282051 , 4168.20512821 , 4633.33333333 , 4129.23076923 , 4132.82051282 , 2040.0 , 2038.0 , 6.649 , 0.0 , 0.0 , 0.0 , 0.0 , 

98.0 , 4129.74358974 , 4134.35897436 , 4124.61538462 , 4129.74358974 , 4132.82051282 , 4129.74358974 , 4124.61538462 , 4134.35897436 , 4135.38461538 , 4141.53846154 , 4168.20512821 , 4633.33333333 , 4128.71794872 , 4132.82051282 , 2040.0 , 2038.0 , 6.657 , 0.0 , 0.0 , 0.0 , 0.0 , 

99.0 , 4130.76923077 , 4133.33333333 , 4112.82051282 , 4132.82051282 , 4132.30769231 , 4126.15384615 , 4126.66666667 , 4132.82051282 , 4132.82051282 , 4136.41025641 , 4166.66666667 , 4631.79487179 , 4128.20512821 , 4132.30769231 , 2042.0 , 2038.0 , 6.665 , 0.0 , 0.0 , 0.0 , 0.0 , 

100.0 , 4130.25641026 , 4132.30769231 , 4108.71794872 , 4134.87179487 , 4131.79487179 , 4130.76923077 , 4129.74358974 , 4132.82051282 , 4132.30769231 , 4136.92307692 , 4167.69230769 , 4629.23076923 , 4128.20512821 , 4133.33333333 , 2043.0 , 2038.0 , 6.673 , 0.0 , 0.0 , 0.0 , 0.0 , 

101.0 , 4128.20512821 , 4129.74358974 , 4116.41025641 , 4132.30769231 , 4132.82051282 , 4133.33333333 , 4130.76923077 , 4133.84615385 , 4136.41025641 , 4141.02564103 , 4169.23076923 , 4628.20512821 , 4126.66666667 , 4134.35897436 , 2043.0 , 2038.0 , 6.68 , 0.0 , 0.0 , 0.0 , 0.0 , 

102.0 , 4128.71794872 , 4129.74358974 , 4134.87179487 , 4130.25641026 , 4131.28205128 , 4127.17948718 , 4128.71794872 , 4136.41025641 , 4138.97435897 , 4142.56410256 , 4169.74358974 , 4629.23076923 , 4127.69230769 , 4135.38461538 , 2043.0 , 2037.0 , 6.688 , 0.0 , 0.0 , 0.0 , 0.0 , 

103.0 , 4132.30769231 , 4130.76923077 , 4134.35897436 , 4130.76923077 , 4128.20512821 , 4126.15384615 , 4127.17948718 , 4135.8974359 , 4136.41025641 , 4143.58974359 , 4168.71794872 , 4631.28205128 , 4130.76923077 , 4135.8974359 , 2044.0 , 2036.0 , 6.696 , 0.0 , 0.0 , 0.0 , 0.0 , 

104.0 , 4133.33333333 , 4130.25641026 , 4137.43589744 , 4131.28205128 , 4128.71794872 , 4128.71794872 , 4129.23076923 , 4135.8974359 , 4134.87179487 , 4147.17948718 , 4170.25641026 , 4632.30769231 , 4133.84615385 , 4138.97435897 , 2045.0 , 2036.0 , 6.704 , 0.0 , 0.0 , 0.0 , 0.0 , 

105.0 , 4132.30769231 , 4129.23076923 , 4128.20512821 , 4132.82051282 , 4130.76923077 , 4127.17948718 , 4129.74358974 , 4136.92307692 , 4134.35897436 , 4146.15384615 , 4169.74358974 , 4632.82051282 , 4133.33333333 , 4137.43589744 , 2045.0 , 2035.0 , 6.712 , 0.0 , 0.0 , 0.0 , 0.0 , 

106.0 , 4130.25641026 , 4130.25641026 , 4151.28205128 , 4133.33333333 , 4129.74358974 , 4130.25641026 , 4127.17948718 , 4136.41025641 , 4136.92307692 , 4144.61538462 , 4168.20512821 , 4634.35897436 , 4133.33333333 , 4130.25641026 , 2043.0 , 2033.0 , 6.72 , 0.0 , 0.0 , 0.0 , 0.0 , 

107.0 , 4130.25641026 , 4131.28205128 , 4149.23076923 , 4133.33333333 , 4128.71794872 , 4134.35897436 , 4129.23076923 , 4133.33333333 , 4136.92307692 , 4142.05128205 , 4167.69230769 , 4633.33333333 , 4133.33333333 , 4131.79487179 , 2041.0 , 2031.0 , 6.728 , 0.0 , 0.0 , 0.0 , 0.0 , 

108.0 , 4130.76923077 , 4131.28205128 , 4134.87179487 , 4131.79487179 , 4130.25641026 , 4129.74358974 , 4130.25641026 , 4135.8974359 , 4134.87179487 , 4140.51282051 , 4169.23076923 , 4633.33333333 , 4131.79487179 , 4135.8974359 , 2043.0 , 2029.0 , 6.736 , 0.0 , 0.0 , 0.0 , 0.0 , 

109.0 , 4133.33333333 , 4131.28205128 , 4112.82051282 , 4132.82051282 , 4130.25641026 , 4129.23076923 , 4128.20512821 , 4135.8974359 , 4131.79487179 , 4138.97435897 , 4169.74358974 , 4634.87179487 , 4130.76923077 , 4134.87179487 , 2043.0 , 2028.0 , 6.743 , 0.0 , 0.0 , 0.0 , 0.0 , 

110.0 , 4132.30769231 , 4130.25641026 , 4131.79487179 , 4134.35897436 , 4129.74358974 , 4133.84615385 , 4128.20512821 , 4133.33333333 , 4135.8974359 , 4141.02564103 , 4168.71794872 , 4633.84615385 , 4131.79487179 , 4133.33333333 , 2044.0 , 2027.0 , 6.751 , 0.0 , 0.0 , 0.0 , 0.0 , 

111.0 , 4130.76923077 , 4131.28205128 , 4136.92307692 , 4133.84615385 , 4130.25641026 , 4128.20512821 , 4129.23076923 , 4133.33333333 , 4139.48717949 , 4142.05128205 , 4169.23076923 , 4632.30769231 , 4129.74358974 , 4135.8974359 , 2044.0 , 2029.0 , 6.759 , 0.0 , 0.0 , 0.0 , 0.0 , 

112.0 , 4130.76923077 , 4129.23076923 , 4123.58974359 , 4130.76923077 , 4130.76923077 , 4124.1025641 , 4129.23076923 , 4134.87179487 , 4137.43589744 , 4138.97435897 , 4170.76923077 , 4632.82051282 , 4126.66666667 , 4135.38461538 , 2044.0 , 2028.0 , 6.767 , 0.0 , 0.0 , 0.0 , 0.0 , 

113.0 , 4132.82051282 , 4128.71794872 , 4117.94871795 , 4130.25641026 , 4131.79487179 , 4133.84615385 , 4128.20512821 , 4131.28205128 , 4135.38461538 , 4138.97435897 , 4169.74358974 , 4636.41025641 , 4129.23076923 , 4134.87179487 , 2046.0 , 2029.0 , 6.775 , 0.0 , 0.0 , 0.0 , 0.0 , 

114.0 , 4129.23076923 , 4131.28205128 , 4124.1025641 , 4131.28205128 , 4132.82051282 , 4135.8974359 , 4127.17948718 , 4128.20512821 , 4134.35897436 , 4138.97435897 , 4167.69230769 , 4632.30769231 , 4132.30769231 , 4135.38461538 , 2045.0 , 2029.0 , 6.783 , 0.0 , 0.0 , 0.0 , 0.0 , 

115.0 , 4128.20512821 , 4132.82051282 , 4134.87179487 , 4132.30769231 , 4132.30769231 , 4128.20512821 , 4128.20512821 , 4133.84615385 , 4134.87179487 , 4140.51282051 , 4170.76923077 , 4628.20512821 , 4132.30769231 , 4136.92307692 , 2043.0 , 2030.0 , 6.791 , 0.0 , 0.0 , 0.0 , 0.0 , 

116.0 , 4129.74358974 , 4132.30769231 , 4117.43589744 , 4131.28205128 , 4130.76923077 , 4126.66666667 , 4128.20512821 , 4134.87179487 , 4133.33333333 , 4137.94871795 , 4170.25641026 , 4628.20512821 , 4129.74358974 , 4134.87179487 , 2043.0 , 2031.0 , 6.799 , 0.0 , 0.0 , 0.0 , 0.0 , 

117.0 , 4131.28205128 , 4132.30769231 , 4110.25641026 , 4131.79487179 , 4131.79487179 , 4129.74358974 , 4127.69230769 , 4133.84615385 , 4133.84615385 , 4137.43589744 , 4168.20512821 , 4632.82051282 , 4131.79487179 , 4134.35897436 , 2043.0 , 2030.0 , 6.807 , 0.0 , 0.0 , 0.0 , 0.0 , 

118.0 , 4131.28205128 , 4131.28205128 , 4121.53846154 , 4133.84615385 , 4130.76923077 , 4129.23076923 , 4129.23076923 , 4134.35897436 , 4134.35897436 , 4138.97435897 , 4168.71794872 , 4630.76923077 , 4128.71794872 , 4135.38461538 , 2043.0 , 2031.0 , 6.814 , 0.0 , 0.0 , 0.0 , 0.0 , 

119.0 , 4132.82051282 , 4131.79487179 , 4126.15384615 , 4133.33333333 , 4129.23076923 , 4126.15384615 , 4129.74358974 , 4136.41025641 , 4135.38461538 , 4140.51282051 , 4170.76923077 , 4628.20512821 , 4128.20512821 , 4134.87179487 , 2043.0 , 2032.0 , 6.822 , 0.0 , 0.0 , 0.0 , 0.0 , 

120.0 , 4132.82051282 , 4133.33333333 , 4114.35897436 , 4133.84615385 , 4129.23076923 , 4127.69230769 , 4129.23076923 , 4134.87179487 , 4135.38461538 , 4138.97435897 , 4170.25641026 , 4627.69230769 , 4130.76923077 , 4133.84615385 , 2043.0 , 2028.0 , 6.83 , 0.0 , 0.0 , 0.0 , 0.0 , 

121.0 , 4130.76923077 , 4130.76923077 , 4126.66666667 , 4134.35897436 , 4132.82051282 , 4129.23076923 , 4130.25641026 , 4133.33333333 , 4131.79487179 , 4140.0 , 4168.71794872 , 4626.15384615 , 4130.25641026 , 4136.41025641 , 2043.0 , 2025.0 , 6.838 , 0.0 , 0.0 , 0.0 , 0.0 , 

122.0 , 4131.28205128 , 4130.25641026 , 4131.28205128 , 4131.28205128 , 4137.43589744 , 4128.20512821 , 4129.23076923 , 4132.82051282 , 4132.30769231 , 4142.05128205 , 4168.20512821 , 4629.23076923 , 4129.23076923 , 4135.38461538 , 2046.0 , 2020.0 , 6.846 , 0.0 , 0.0 , 0.0 , 0.0 , 

123.0 , 4131.28205128 , 4130.76923077 , 4154.87179487 , 4129.74358974 , 4133.33333333 , 4128.20512821 , 4127.69230769 , 4136.92307692 , 4140.0 , 4144.1025641 , 4170.76923077 , 4633.84615385 , 4133.33333333 , 4134.87179487 , 2048.0 , 2017.0 , 6.854 , 0.0 , 0.0 , 0.0 , 0.0 , 

124.0 , 4130.25641026 , 4127.17948718 , 4138.97435897 , 4132.82051282 , 4127.69230769 , 4134.35897436 , 4129.23076923 , 4134.87179487 , 4137.43589744 , 4140.0 , 4170.76923077 , 4630.25641026 , 4131.28205128 , 4136.41025641 , 2051.0 , 2016.0 , 6.862 , 0.0 , 0.0 , 0.0 , 0.0 , 

125.0 , 4129.23076923 , 4126.66666667 , 4133.33333333 , 4132.30769231 , 4130.76923077 , 4133.33333333 , 4127.17948718 , 4133.84615385 , 4131.79487179 , 4138.46153846 , 4168.20512821 , 4626.15384615 , 4129.23076923 , 4135.8974359 , 2051.0 , 2016.0 , 6.87 , 0.0 , 0.0 , 0.0 , 0.0 , 

126.0 , 4132.30769231 , 4130.76923077 , 4127.69230769 , 4131.28205128 , 4134.87179487 , 4125.64102564 , 4125.64102564 , 4135.8974359 , 4133.84615385 , 4140.51282051 , 4167.17948718 , 4629.23076923 , 4132.30769231 , 4133.84615385 , 2051.0 , 2018.0 , 6.877 , 0.0 , 0.0 , 0.0 , 0.0 , 

127.0 , 4133.33333333 , 4129.23076923 , 4147.69230769 , 4132.82051282 , 4132.30769231 , 4126.15384615 , 4128.71794872 , 4137.43589744 , 4136.41025641 , 4144.1025641 , 4168.71794872 , 4633.33333333 , 4133.33333333 , 4134.35897436 , 2055.0 , 2019.0 , 6.885 , 0.0 , 0.0 , 0.0 , 0.0 , 

128.0 , 4131.28205128 , 4126.66666667 , 4141.53846154 , 4132.82051282 , 4130.25641026 , 4130.25641026 , 4129.23076923 , 4133.33333333 , 4131.28205128 , 4141.53846154 , 4168.71794872 , 4632.30769231 , 4129.23076923 , 4136.41025641 , 2055.0 , 2019.0 , 6.893 , 0.0 , 0.0 , 0.0 , 0.0 , 

0.0 , 4129.23076923 , 4130.25641026 , 4136.41025641 , 4131.28205128 , 4133.33333333 , 4131.28205128 , 4127.69230769 , 4132.30769231 , 4131.79487179 , 4138.97435897 , 4167.69230769 , 4630.76923077 , 4129.74358974 , 4136.92307692 , 2055.0 , 2020.0 , 6.901 , 0.0 , 0.0 , 0.0 , 0.0 , 

1.0 , 4131.28205128 , 4132.30769231 , 4135.8974359 , 4133.33333333 , 4133.33333333 , 4130.25641026 , 4129.74358974 , 4134.87179487 , 4135.8974359 , 4141.02564103 , 4168.20512821 , 4631.28205128 , 4131.28205128 , 4137.43589744 , 2055.0 , 2022.0 , 6.909 , 0.0 , 0.0 , 0.0 , 0.0 , 

2.0 , 4131.28205128 , 4129.74358974 , 4120.0 , 4134.87179487 , 4130.76923077 , 4128.20512821 , 4129.23076923 , 4131.79487179 , 4133.33333333 , 4141.02564103 , 4169.74358974 , 4629.23076923 , 4128.20512821 , 4135.8974359 , 2053.0 , 2022.0 , 6.917 , 0.0 , 0.0 , 0.0 , 0.0 , 

3.0 , 4129.74358974 , 4131.28205128 , 4106.15384615 , 4134.35897436 , 4131.28205128 , 4129.74358974 , 4128.20512821 , 4130.76923077 , 4132.82051282 , 4141.53846154 , 4170.25641026 , 4629.74358974 , 4129.23076923 , 4136.92307692 , 2053.0 , 2020.0 , 6.925 , 0.0 , 0.0 , 0.0 , 0.0 , 

4.0 , 4128.20512821 , 4133.84615385 , 4109.74358974 , 4133.84615385 , 4131.79487179 , 4131.28205128 , 4128.20512821 , 4132.82051282 , 4134.87179487 , 4139.48717949 , 4168.20512821 , 4628.71794872 , 4129.23076923 , 4136.92307692 , 2053.0 , 2019.0 , 6.933 , 0.0 , 0.0 , 0.0 , 0.0 , 

5.0 , 4129.23076923 , 4133.33333333 , 4126.15384615 , 4134.35897436 , 4128.20512821 , 4133.84615385 , 4127.69230769 , 4134.35897436 , 4137.94871795 , 4142.56410256 , 4167.69230769 , 4628.71794872 , 4131.28205128 , 4136.92307692 , 2054.0 , 2014.0 , 6.94 , 0.0 , 0.0 , 0.0 , 0.0 , 

6.0 , 4129.74358974 , 4131.28205128 , 4116.41025641 , 4132.30769231 , 4127.17948718 , 4138.46153846 , 4128.71794872 , 4131.79487179 , 4137.94871795 , 4143.07692308 , 4168.71794872 , 4626.66666667 , 4132.30769231 , 4134.87179487 , 2053.0 , 2012.0 , 6.948 , 0.0 , 0.0 , 0.0 , 0.0 , 

7.0 , 4132.30769231 , 4127.17948718 , 4113.84615385 , 4131.28205128 , 4132.30769231 , 4133.33333333 , 4130.25641026 , 4133.84615385 , 4137.94871795 , 4144.61538462 , 4169.74358974 , 4628.20512821 , 4131.28205128 , 4135.8974359 , 2053.0 , 2012.0 , 6.956 , 0.0 , 0.0 , 0.0 , 0.0 , 

8.0 , 4132.82051282 , 4125.64102564 , 4119.48717949 , 4132.82051282 , 4131.28205128 , 4123.58974359 , 4128.20512821 , 4135.8974359 , 4135.8974359 , 4143.07692308 , 4169.23076923 , 4629.74358974 , 4127.17948718 , 4136.41025641 , 2053.0 , 2010.0 , 6.964 , 0.0 , 0.0 , 0.0 , 0.0 , 

9.0 , 4130.25641026 , 4130.25641026 , 4134.87179487 , 4133.33333333 , 4126.66666667 , 4131.79487179 , 4128.20512821 , 4135.8974359 , 4134.35897436 , 4141.53846154 , 4170.25641026 , 4630.76923077 , 4131.79487179 , 4134.87179487 , 2052.0 , 2011.0 , 6.972 , 0.0 , 0.0 , 0.0 , 0.0 , 

10.0 , 4130.76923077 , 4133.33333333 , 4124.61538462 , 4133.84615385 , 4128.71794872 , 4140.0 , 4130.76923077 , 4132.82051282 , 4133.33333333 , 4140.0 , 4170.25641026 , 4628.71794872 , 4134.87179487 , 4133.84615385 , 2050.0 , 2013.0 , 6.98 , 0.0 , 0.0 , 0.0 , 0.0 , 

11.0 , 4132.30769231 , 4128.20512821 , 4120.51282051 , 4135.38461538 , 4131.28205128 , 4132.30769231 , 4129.74358974 , 4133.33333333 , 4133.33333333 , 4140.51282051 , 4169.23076923 , 4626.66666667 , 4131.79487179 , 4134.87179487 , 2049.0 , 2015.0 , 6.988 , 0.0 , 0.0 , 0.0 , 0.0 , 

12.0 , 4129.74358974 , 4126.66666667 , 4109.74358974 , 4134.35897436 , 4130.76923077 , 4131.79487179 , 4130.25641026 , 4132.82051282 , 4131.79487179 , 4138.97435897 , 4167.69230769 , 4627.69230769 , 4129.74358974 , 4134.87179487 , 2047.0 , 2019.0 , 6.996 , 0.0 , 0.0 , 0.0 , 0.0 , 

13.0 , 4128.20512821 , 4129.74358974 , 4118.46153846 , 4130.76923077 , 4128.71794872 , 4134.87179487 , 4130.76923077 , 4131.79487179 , 4130.25641026 , 4139.48717949 , 4169.23076923 , 4630.76923077 , 4132.30769231 , 4134.87179487 , 2046.0 , 2020.0 , 7.003 , 0.0 , 0.0 , 0.0 , 0.0 , 

14.0 , 4133.33333333 , 4130.76923077 , 4112.82051282 , 4134.87179487 , 4129.74358974 , 4127.17948718 , 4126.66666667 , 4132.30769231 , 4131.28205128 , 4140.51282051 , 4169.23076923 , 4628.71794872 , 4130.76923077 , 4136.41025641 , 2043.0 , 2027.0 , 7.011 , 0.0 , 0.0 , 0.0 , 0.0 , 

15.0 , 4132.82051282 , 4129.74358974 , 4098.97435897 , 4137.43589744 , 4130.76923077 , 4127.17948718 , 4125.12820513 , 4133.84615385 , 4133.84615385 , 4140.0 , 4165.64102564 , 4623.58974359 , 4127.69230769 , 4133.84615385 , 2042.0 , 2031.0 , 7.019 , 0.0 , 0.0 , 0.0 , 0.0 , 

16.0 , 4130.76923077 , 4130.76923077 , 4084.61538462 , 4135.8974359 , 4132.30769231 , 4137.43589744 , 4129.74358974 , 4131.28205128 , 4133.84615385 , 4140.0 , 4165.12820513 , 4625.12820513 , 4127.17948718 , 4132.30769231 , 2039.0 , 2034.0 , 7.027 , 0.0 , 0.0 , 0.0 , 0.0 , 

17.0 , 4131.79487179 , 4130.25641026 , 4090.76923077 , 4134.35897436 , 4131.28205128 , 4137.94871795 , 4130.25641026 , 4129.74358974 , 4130.76923077 , 4141.53846154 , 4169.74358974 , 4626.66666667 , 4129.74358974 , 4133.84615385 , 2040.0 , 2033.0 , 7.036 , 0.0 , 0.0 , 0.0 , 0.0 , 

18.0 , 4133.84615385 , 4132.82051282 , 4089.23076923 , 4136.41025641 , 4130.25641026 , 4135.8974359 , 4128.71794872 , 4133.84615385 , 4128.71794872 , 4142.05128205 , 4171.28205128 , 4625.64102564 , 4133.84615385 , 4135.8974359 , 2041.0 , 2034.0 , 7.044 , 0.0 , 0.0 , 0.0 , 0.0 , 

19.0 , 4131.28205128 , 4131.79487179 , 4082.56410256 , 4134.35897436 , 4130.76923077 , 4132.82051282 , 4128.71794872 , 4134.35897436 , 4129.23076923 , 4137.43589744 , 4166.15384615 , 4623.07692308 , 4132.82051282 , 4135.8974359 , 2041.0 , 2035.0 , 7.052 , 0.0 , 0.0 , 0.0 , 0.0 , 

20.0 , 4133.33333333 , 4127.69230769 , 4089.74358974 , 4132.30769231 , 4130.25641026 , 4132.30769231 , 4128.20512821 , 4132.30769231 , 4133.33333333 , 4139.48717949 , 4168.20512821 , 4624.61538462 , 4132.30769231 , 4134.35897436 , 2041.0 , 2035.0 , 7.06 , 0.0 , 0.0 , 0.0 , 0.0 , 

21.0 , 4134.35897436 , 4128.20512821 , 4125.12820513 , 4130.76923077 , 4129.74358974 , 4135.38461538 , 4126.66666667 , 4133.84615385 , 4134.87179487 , 4145.12820513 , 4173.84615385 , 4626.66666667 , 4132.82051282 , 4134.35897436 , 2040.0 , 2034.0 , 7.067 , 0.0 , 0.0 , 0.0 , 0.0 , 

22.0 , 4133.84615385 , 4133.84615385 , 4134.35897436 , 4131.79487179 , 4131.28205128 , 4131.28205128 , 4128.20512821 , 4136.92307692 , 4134.87179487 , 4145.12820513 , 4173.33333333 , 4628.20512821 , 4134.35897436 , 4137.43589744 , 2039.0 , 2034.0 , 7.074 , 0.0 , 0.0 , 0.0 , 0.0 , 

23.0 , 4133.33333333 , 4133.33333333 , 4139.48717949 , 4131.79487179 , 4131.79487179 , 4127.17948718 , 4129.74358974 , 4135.8974359 , 4138.97435897 , 4144.61538462 , 4170.76923077 , 4626.15384615 , 4136.41025641 , 4138.97435897 , 2038.0 , 2034.0 , 7.082 , 0.0 , 0.0 , 0.0 , 0.0 , 

24.0 , 4132.82051282 , 4129.74358974 , 4165.12820513 , 4131.28205128 , 4130.76923077 , 4130.76923077 , 4129.74358974 , 4134.87179487 , 4141.53846154 , 4145.64102564 , 4170.76923077 , 4625.64102564 , 4133.84615385 , 4137.94871795 , 2038.0 , 2033.0 , 7.09 , 0.0 , 0.0 , 0.0 , 0.0 , 

25.0 , 4132.30769231 , 4128.71794872 , 4163.07692308 , 4131.79487179 , 4130.25641026 , 4130.76923077 , 4128.71794872 , 4134.87179487 , 4137.94871795 , 4142.56410256 , 4169.74358974 , 4625.64102564 , 4131.28205128 , 4137.94871795 , 2037.0 , 2035.0 , 7.098 , 0.0 , 0.0 , 0.0 , 0.0 , 

26.0 , 4132.30769231 , 4129.23076923 , 4155.38461538 , 4132.82051282 , 4129.74358974 , 4129.23076923 , 4128.20512821 , 4135.8974359 , 4136.41025641 , 4142.05128205 , 4169.74358974 , 4627.17948718 , 4135.8974359 , 4139.48717949 , 2034.0 , 2035.0 , 7.106 , 0.0 , 0.0 , 0.0 , 0.0 , 

27.0 , 4131.79487179 , 4131.79487179 , 4132.30769231 , 4134.87179487 , 4129.74358974 , 4135.38461538 , 4129.23076923 , 4132.82051282 , 4133.33333333 , 4141.53846154 , 4169.74358974 , 4626.15384615 , 4133.33333333 , 4136.92307692 , 2033.0 , 2034.0 , 7.114 , 0.0 , 0.0 , 0.0 , 0.0 , 

28.0 , 4132.82051282 , 4132.30769231 , 4135.38461538 , 4135.8974359 , 4131.28205128 , 4135.38461538 , 4129.74358974 , 4134.87179487 , 4132.82051282 , 4141.02564103 , 4168.71794872 , 4625.64102564 , 4128.71794872 , 4134.87179487 , 2031.0 , 2035.0 , 7.122 , 0.0 , 0.0 , 0.0 , 0.0 , 

29.0 , 4133.33333333 , 4130.25641026 , 4115.38461538 , 4136.92307692 , 4130.25641026 , 4129.23076923 , 4128.71794872 , 4135.8974359 , 4134.35897436 , 4139.48717949 , 4166.66666667 , 4624.61538462 , 4128.20512821 , 4134.35897436 , 2030.0 , 2035.0 , 7.13 , 0.0 , 0.0 , 0.0 , 0.0 , 

30.0 , 4131.28205128 , 4129.74358974 , 4116.41025641 , 4137.43589744 , 4129.23076923 , 4131.79487179 , 4128.71794872 , 4132.30769231 , 4135.38461538 , 4143.58974359 , 4169.23076923 , 4625.64102564 , 4131.28205128 , 4134.35897436 , 2029.0 , 2038.0 , 7.137 , 0.0 , 0.0 , 0.0 , 0.0 , 

31.0 , 4132.82051282 , 4131.79487179 , 4102.56410256 , 4136.92307692 , 4131.28205128 , 4137.43589744 , 4130.76923077 , 4126.15384615 , 4132.30769231 , 4142.05128205 , 4168.71794872 , 4623.07692308 , 4130.25641026 , 4132.30769231 , 2028.0 , 2040.0 , 7.145 , 0.0 , 0.0 , 0.0 , 0.0 , 

32.0 , 4134.87179487 , 4130.25641026 , 4109.74358974 , 4133.84615385 , 4132.82051282 , 4136.92307692 , 4130.76923077 , 4132.82051282 , 4134.35897436 , 4140.0 , 4168.71794872 , 4619.48717949 , 4131.79487179 , 4132.82051282 , 2029.0 , 2039.0 , 7.153 , 0.0 , 0.0 , 0.0 , 0.0 , 

33.0 , 4132.30769231 , 4126.66666667 , 4105.64102564 , 4135.8974359 , 4132.82051282 , 4132.30769231 , 4129.23076923 , 4137.43589744 , 4134.87179487 , 4141.02564103 , 4169.23076923 , 4619.48717949 , 4129.23076923 , 4134.87179487 , 2030.0 , 2038.0 , 7.161 , 0.0 , 0.0 , 0.0 , 0.0 , 

34.0 , 4131.28205128 , 4127.69230769 , 4098.97435897 , 4137.43589744 , 4132.30769231 , 4132.82051282 , 4128.71794872 , 4130.76923077 , 4132.82051282 , 4141.53846154 , 4166.66666667 , 4620.51282051 , 4127.69230769 , 4136.92307692 , 2030.0 , 2038.0 , 7.169 , 0.0 , 0.0 , 0.0 , 0.0 , 

35.0 , 4134.87179487 , 4132.82051282 , 4108.20512821 , 4132.30769231 , 4132.30769231 , 4135.8974359 , 4129.74358974 , 4131.79487179 , 4133.33333333 , 4142.05128205 , 4167.17948718 , 4623.58974359 , 4132.30769231 , 4138.97435897 , 2032.0 , 2034.0 , 7.177 , 0.0 , 0.0 , 0.0 , 0.0 , 

36.0 , 4130.76923077 , 4133.33333333 , 4124.61538462 , 4130.76923077 , 4130.76923077 , 4132.30769231 , 4129.23076923 , 4136.41025641 , 4137.94871795 , 4140.51282051 , 4169.23076923 , 4625.12820513 , 4131.28205128 , 4136.41025641 , 2033.0 , 2033.0 , 7.185 , 0.0 , 0.0 , 0.0 , 0.0 , 

37.0 , 4128.20512821 , 4131.28205128 , 4117.43589744 , 4133.33333333 , 4130.76923077 , 4133.33333333 , 4128.20512821 , 4134.87179487 , 4143.07692308 , 4143.58974359 , 4168.71794872 , 4624.61538462 , 4129.23076923 , 4137.43589744 , 2032.0 , 2033.0 , 7.193 , 0.0 , 0.0 , 0.0 , 0.0 , 

38.0 , 4130.76923077 , 4129.23076923 , 4132.30769231 , 4130.76923077 , 4131.79487179 , 4135.8974359 , 4129.23076923 , 4135.8974359 , 4144.1025641 , 4145.64102564 , 4168.71794872 , 4624.61538462 , 4131.79487179 , 4137.94871795 , 2033.0 , 2035.0 , 7.2 , 0.0 , 0.0 , 0.0 , 0.0 , 

39.0 , 4132.82051282 , 4128.20512821 , 4152.30769231 , 4130.76923077 , 4131.79487179 , 4132.82051282 , 4131.28205128 , 4139.48717949 , 4141.02564103 , 4142.05128205 , 4170.25641026 , 4628.20512821 , 4135.8974359 , 4134.87179487 , 2035.0 , 2036.0 , 7.208 , 0.0 , 0.0 , 0.0 , 0.0 , 

40.0 , 4129.23076923 , 4129.23076923 , 4145.12820513 , 4134.87179487 , 4131.28205128 , 4130.76923077 , 4128.20512821 , 4134.35897436 , 4137.94871795 , 4138.46153846 , 4168.20512821 , 4623.07692308 , 4132.82051282 , 4132.30769231 , 2032.0 , 2036.0 , 7.216 , 0.0 , 0.0 , 0.0 , 0.0 , 

41.0 , 4129.74358974 , 4129.23076923 , 4126.15384615 , 4135.38461538 , 4131.79487179 , 4130.76923077 , 4127.17948718 , 4132.30769231 , 4136.41025641 , 4142.05128205 , 4167.69230769 , 4618.46153846 , 4130.25641026 , 4135.8974359 , 2031.0 , 2036.0 , 7.224 , 0.0 , 0.0 , 0.0 , 0.0 , 

42.0 , 4130.25641026 , 4126.15384615 , 4118.97435897 , 4132.82051282 , 4130.76923077 , 4128.71794872 , 4129.74358974 , 4131.28205128 , 4132.82051282 , 4141.53846154 , 4168.20512821 , 4618.97435897 , 4128.20512821 , 4134.35897436 , 2030.0 , 2035.0 , 7.232 , 0.0 , 0.0 , 0.0 , 0.0 , 

43.0 , 4130.25641026 , 4128.71794872 , 4115.8974359 , 4132.82051282 , 4130.25641026 , 4127.69230769 , 4130.25641026 , 4132.30769231 , 4135.38461538 , 4137.94871795 , 4169.23076923 , 4622.56410256 , 4130.76923077 , 4136.41025641 , 2031.0 , 2035.0 , 7.24 , 0.0 , 0.0 , 0.0 , 0.0 , 

44.0 , 4132.30769231 , 4132.30769231 , 4101.53846154 , 4131.28205128 , 4130.76923077 , 4129.74358974 , 4129.23076923 , 4134.35897436 , 4135.8974359 , 4137.43589744 , 4169.23076923 , 4620.51282051 , 4132.30769231 , 4137.94871795 , 2033.0 , 2036.0 , 7.247 , 0.0 , 0.0 , 0.0 , 0.0 , 

45.0 , 4132.30769231 , 4130.76923077 , 4108.20512821 , 4129.74358974 , 4131.28205128 , 4129.74358974 , 4127.17948718 , 4136.41025641 , 4134.35897436 , 4141.02564103 , 4169.23076923 , 4617.94871795 , 4132.30769231 , 4133.84615385 , 2035.0 , 2035.0 , 7.255 , 0.0 , 0.0 , 0.0 , 0.0 , 

46.0 , 4130.25641026 , 4128.71794872 , 4112.82051282 , 4129.74358974 , 4129.74358974 , 4132.30769231 , 4126.66666667 , 4134.35897436 , 4136.92307692 , 4140.0 , 4166.66666667 , 4616.92307692 , 4131.28205128 , 4134.35897436 , 2034.0 , 2035.0 , 7.264 , 0.0 , 0.0 , 0.0 , 0.0 , 

47.0 , 4131.28205128 , 4130.25641026 , 4143.58974359 , 4129.23076923 , 4130.25641026 , 4131.79487179 , 4129.23076923 , 4139.48717949 , 4141.02564103 , 4141.53846154 , 4168.20512821 , 4620.51282051 , 4133.33333333 , 4141.53846154 , 2035.0 , 2037.0 , 7.271 , 0.0 , 0.0 , 0.0 , 0.0 , 

48.0 , 4133.84615385 , 4130.76923077 , 4142.56410256 , 4130.25641026 , 4131.79487179 , 4127.17948718 , 4129.23076923 , 4140.51282051 , 4134.87179487 , 4143.07692308 , 4169.23076923 , 4620.0 , 4130.76923077 , 4139.48717949 , 2035.0 , 2038.0 , 7.278 , 0.0 , 0.0 , 0.0 , 0.0 , 

49.0 , 4132.30769231 , 4130.25641026 , 4131.28205128 , 4131.79487179 , 4131.79487179 , 4131.79487179 , 4127.17948718 , 4136.41025641 , 4130.76923077 , 4143.07692308 , 4169.23076923 , 4620.0 , 4130.76923077 , 4136.92307692 , 2036.0 , 2038.0 , 7.286 , 0.0 , 0.0 , 0.0 , 0.0 , 

50.0 , 4131.28205128 , 4131.79487179 , 4118.97435897 , 4131.79487179 , 4131.28205128 , 4134.35897436 , 4128.71794872 , 4133.33333333 , 4134.87179487 , 4138.97435897 , 4169.74358974 , 4622.05128205 , 4132.82051282 , 4140.51282051 , 2037.0 , 2037.0 , 7.295 , 0.0 , 0.0 , 0.0 , 0.0 , 

51.0 , 4131.28205128 , 4131.28205128 , 4141.53846154 , 4132.30769231 , 4130.25641026 , 4129.74358974 , 4128.20512821 , 4135.8974359 , 4135.8974359 , 4140.0 , 4170.76923077 , 4621.53846154 , 4134.87179487 , 4137.94871795 , 2037.0 , 2035.0 , 7.304 , 0.0 , 0.0 , 0.0 , 0.0 , 

52.0 , 4132.82051282 , 4131.79487179 , 4131.28205128 , 4134.87179487 , 4131.79487179 , 4131.79487179 , 4127.69230769 , 4135.8974359 , 4130.25641026 , 4140.51282051 , 4168.71794872 , 4619.48717949 , 4130.76923077 , 4133.33333333 , 2036.0 , 2035.0 , 7.312 , 0.0 , 0.0 , 0.0 , 0.0 , 

53.0 , 4132.82051282 , 4130.76923077 , 4127.69230769 , 4133.84615385 , 4131.28205128 , 4135.38461538 , 4129.74358974 , 4135.8974359 , 4132.82051282 , 4141.02564103 , 4167.17948718 , 4621.02564103 , 4129.23076923 , 4134.87179487 , 2036.0 , 2035.0 , 7.32 , 0.0 , 0.0 , 0.0 , 0.0 , 

54.0 , 4132.30769231 , 4128.20512821 , 4132.30769231 , 4131.79487179 , 4130.25641026 , 4131.28205128 , 4129.23076923 , 4135.8974359 , 4136.92307692 , 4142.05128205 , 4169.74358974 , 4623.07692308 , 4130.76923077 , 4136.92307692 , 2035.0 , 2035.0 , 7.326 , 0.0 , 0.0 , 0.0 , 0.0 , 

55.0 , 4131.28205128 , 4128.20512821 , 4146.66666667 , 4133.84615385 , 4131.28205128 , 4128.20512821 , 4125.64102564 , 4135.8974359 , 4135.8974359 , 4144.1025641 , 4171.28205128 , 4621.53846154 , 4131.79487179 , 4136.41025641 , 2035.0 , 2035.0 , 7.334 , 0.0 , 0.0 , 0.0 , 0.0 , 

56.0 , 4131.28205128 , 4131.28205128 , 4137.43589744 , 4135.38461538 , 4131.79487179 , 4129.74358974 , 4127.69230769 , 4134.87179487 , 4133.84615385 , 4141.53846154 , 4168.20512821 , 4619.48717949 , 4129.23076923 , 4138.97435897 , 2034.0 , 2035.0 , 7.342 , 0.0 , 0.0 , 0.0 , 0.0 , 

57.0 , 4130.25641026 , 4130.76923077 , 4146.66666667 , 4131.28205128 , 4130.76923077 , 4128.71794872 , 4129.74358974 , 4134.87179487 , 4135.8974359 , 4140.51282051 , 4167.69230769 , 4620.0 , 4128.20512821 , 4139.48717949 , 2034.0 , 2035.0 , 7.35 , 0.0 , 0.0 , 0.0 , 0.0 , 

58.0 , 4131.79487179 , 4129.23076923 , 4157.43589744 , 4131.28205128 , 4131.28205128 , 4129.23076923 , 4127.69230769 , 4135.8974359 , 4135.8974359 , 4140.51282051 , 4172.82051282 , 4623.58974359 , 4131.79487179 , 4137.94871795 , 2033.0 , 2034.0 , 7.358 , 0.0 , 0.0 , 0.0 , 0.0 , 

59.0 , 4133.33333333 , 4130.25641026 , 4160.0 , 4133.84615385 , 4132.82051282 , 4133.33333333 , 4126.66666667 , 4136.41025641 , 4133.84615385 , 4141.02564103 , 4174.87179487 , 4623.58974359 , 4136.41025641 , 4136.92307692 , 2034.0 , 2033.0 , 7.366 , 0.0 , 0.0 , 0.0 , 0.0 , 

60.0 , 4133.33333333 , 4131.28205128 , 4170.76923077 , 4131.79487179 , 4132.30769231 , 4131.79487179 , 4127.17948718 , 4135.8974359 , 4134.87179487 , 4144.61538462 , 4171.79487179 , 4623.58974359 , 4135.8974359 , 4137.94871795 , 2034.0 , 2032.0 , 7.374 , 0.0 , 0.0 , 0.0 , 0.0 , 

61.0 , 4133.33333333 , 4129.74358974 , 4150.25641026 , 4131.28205128 , 4132.82051282 , 4131.28205128 , 4127.69230769 , 4133.33333333 , 4134.87179487 , 4142.56410256 , 4169.23076923 , 4623.58974359 , 4129.74358974 , 4138.46153846 , 2035.0 , 2032.0 , 7.382 , 0.0 , 0.0 , 0.0 , 0.0 , 

62.0 , 4131.28205128 , 4129.74358974 , 4146.15384615 , 4133.84615385 , 4133.84615385 , 4130.25641026 , 4128.71794872 , 4134.87179487 , 4136.92307692 , 4142.56410256 , 4171.79487179 , 4624.61538462 , 4131.79487179 , 4138.46153846 , 2032.0 , 2029.0 , 7.39 , 0.0 , 0.0 , 0.0 , 0.0 , 

63.0 , 4129.23076923 , 4129.74358974 , 4133.84615385 , 4132.82051282 , 4130.25641026 , 4126.66666667 , 4128.20512821 , 4135.8974359 , 4134.35897436 , 4143.07692308 , 4171.79487179 , 4621.02564103 , 4132.30769231 , 4135.38461538 , 2033.0 , 2029.0 , 7.397 , 0.0 , 0.0 , 0.0 , 0.0 , 

64.0 , 4132.30769231 , 4131.28205128 , 4127.17948718 , 4132.30769231 , 4130.76923077 , 4130.25641026 , 4127.69230769 , 4134.35897436 , 4131.79487179 , 4143.07692308 , 4170.76923077 , 4621.02564103 , 4130.25641026 , 4137.43589744 , 2034.0 , 2030.0 , 7.405 , 0.0 , 0.0 , 0.0 , 0.0 , 

65.0 , 4133.84615385 , 4132.30769231 , 4113.33333333 , 4135.38461538 , 4133.84615385 , 4137.94871795 , 4126.66666667 , 4128.20512821 , 4130.25641026 , 4138.97435897 , 4169.74358974 , 4622.56410256 , 4131.79487179 , 4139.48717949 , 2034.0 , 2031.0 , 7.413 , 0.0 , 0.0 , 0.0 , 0.0 , 

66.0 , 4131.28205128 , 4130.25641026 , 4144.1025641 , 4132.30769231 , 4132.82051282 , 4136.41025641 , 4124.61538462 , 4130.76923077 , 4134.35897436 , 4140.51282051 , 4169.23076923 , 4623.07692308 , 4135.38461538 , 4138.46153846 , 2035.0 , 2030.0 , 7.42 , 0.0 , 0.0 , 0.0 , 0.0 , 

67.0 , 4132.82051282 , 4128.71794872 , 4139.48717949 , 4131.28205128 , 4131.28205128 , 4131.28205128 , 4126.66666667 , 4135.8974359 , 4134.87179487 , 4141.02564103 , 4167.17948718 , 4621.53846154 , 4127.69230769 , 4136.92307692 , 2036.0 , 2029.0 , 7.429 , 0.0 , 0.0 , 0.0 , 0.0 , 

68.0 , 4134.35897436 , 4130.76923077 , 4127.17948718 , 4135.38461538 , 4131.28205128 , 4130.25641026 , 4129.23076923 , 4135.8974359 , 4132.82051282 , 4140.51282051 , 4167.17948718 , 4621.53846154 , 4126.15384615 , 4137.43589744 , 2038.0 , 2030.0 , 7.437 , 0.0 , 0.0 , 0.0 , 0.0 , 

69.0 , 4132.30769231 , 4132.82051282 , 4130.76923077 , 4134.35897436 , 4131.28205128 , 4128.71794872 , 4126.66666667 , 4131.28205128 , 4131.79487179 , 4141.02564103 , 4168.20512821 , 4621.02564103 , 4130.25641026 , 4137.94871795 , 2037.0 , 2031.0 , 7.445 , 0.0 , 0.0 , 0.0 , 0.0 , 

70.0 , 4130.76923077 , 4129.74358974 , 4149.74358974 , 4130.25641026 , 4130.25641026 , 4127.69230769 , 4125.64102564 , 4134.87179487 , 4134.35897436 , 4145.12820513 , 4168.20512821 , 4622.56410256 , 4131.79487179 , 4136.92307692 , 2038.0 , 2030.0 , 7.453 , 0.0 , 0.0 , 0.0 , 0.0 , 

71.0 , 4134.35897436 , 4127.69230769 , 4143.58974359 , 4133.33333333 , 4132.30769231 , 4128.71794872 , 4129.23076923 , 4137.43589744 , 4134.35897436 , 4143.58974359 , 4169.23076923 , 4625.64102564 , 4129.74358974 , 4136.92307692 , 2040.0 , 2032.0 , 7.46 , 0.0 , 0.0 , 0.0 , 0.0 , 

72.0 , 4134.87179487 , 4128.20512821 , 4160.51282051 , 4133.33333333 , 4130.76923077 , 4129.23076923 , 4128.20512821 , 4135.8974359 , 4132.82051282 , 4141.53846154 , 4171.79487179 , 4622.56410256 , 4131.79487179 , 4137.43589744 , 2041.0 , 2034.0 , 7.468 , 0.0 , 0.0 , 0.0 , 0.0 , 

73.0 , 4132.30769231 , 4130.76923077 , 4165.64102564 , 4132.30769231 , 4129.23076923 , 4131.28205128 , 4126.15384615 , 4137.43589744 , 4132.30769231 , 4142.05128205 , 4171.28205128 , 4621.53846154 , 4133.84615385 , 4137.94871795 , 2043.0 , 2034.0 , 7.476 , 0.0 , 0.0 , 0.0 , 0.0 , 

74.0 , 4129.74358974 , 4130.76923077 , 4158.97435897 , 4134.87179487 , 4130.76923077 , 4128.71794872 , 4125.64102564 , 4136.41025641 , 4135.38461538 , 4141.53846154 , 4167.17948718 , 4624.1025641 , 4132.82051282 , 4135.8974359 , 2045.0 , 2035.0 , 7.484 , 0.0 , 0.0 , 0.0 , 0.0 , 

75.0 , 4132.30769231 , 4130.76923077 , 4144.61538462 , 4135.38461538 , 4131.28205128 , 4125.64102564 , 4127.17948718 , 4131.79487179 , 4137.43589744 , 4138.46153846 , 4168.20512821 , 4624.1025641 , 4129.74358974 , 4134.87179487 , 2047.0 , 2034.0 , 7.492 , 0.0 , 0.0 , 0.0 , 0.0 , 

76.0 , 4132.82051282 , 4131.79487179 , 4153.33333333 , 4133.84615385 , 4131.28205128 , 4128.20512821 , 4128.20512821 , 4135.8974359 , 4134.87179487 , 4138.97435897 , 4170.76923077 , 4621.53846154 , 4129.74358974 , 4135.8974359 , 2049.0 , 2035.0 , 7.499 , 0.0 , 0.0 , 0.0 , 0.0 , 

77.0 , 4131.79487179 , 4131.79487179 , 4153.33333333 , 4133.84615385 , 4131.28205128 , 4128.20512821 , 4128.20512821 , 4136.41025641 , 4133.33333333 , 4142.05128205 , 4170.25641026 , 4622.56410256 , 4131.28205128 , 4136.92307692 , 2053.0 , 2035.0 , 7.509 , 0.0 , 0.0 , 0.0 , 0.0 , 

78.0 , 4130.25641026 , 4130.76923077 , 4141.53846154 , 4130.76923077 , 4130.76923077 , 4127.69230769 , 4128.71794872 , 4129.74358974 , 4135.38461538 , 4138.97435897 , 4168.71794872 , 4622.05128205 , 4130.25641026 , 4136.92307692 , 2054.0 , 2036.0 , 7.517 , 0.0 , 0.0 , 0.0 , 0.0 , 

79.0 , 4131.28205128 , 4131.79487179 , 4144.1025641 , 4129.23076923 , 4130.25641026 , 4130.25641026 , 4129.23076923 , 4132.30769231 , 4134.87179487 , 4136.92307692 , 4170.25641026 , 4623.58974359 , 4129.74358974 , 4138.46153846 , 2057.0 , 2037.0 , 7.524 , 0.0 , 0.0 , 0.0 , 0.0 , 

80.0 , 4131.79487179 , 4132.30769231 , 4148.71794872 , 4131.79487179 , 4129.74358974 , 4129.23076923 , 4128.71794872 , 4135.8974359 , 4132.82051282 , 4137.43589744 , 4169.74358974 , 4625.12820513 , 4129.23076923 , 4137.94871795 , 2058.0 , 2038.0 , 7.532 , 0.0 , 0.0 , 0.0 , 0.0 , 

81.0 , 4132.30769231 , 4131.28205128 , 4165.64102564 , 4133.33333333 , 4128.71794872 , 4126.15384615 , 4128.20512821 , 4133.33333333 , 4134.35897436 , 4142.05128205 , 4169.23076923 , 4629.23076923 , 4132.82051282 , 4136.41025641 , 2057.0 , 2038.0 , 7.539 , 0.0 , 0.0 , 0.0 , 0.0 , 

82.0 , 4133.84615385 , 4131.79487179 , 4146.15384615 , 4131.79487179 , 4129.23076923 , 4128.20512821 , 4128.71794872 , 4129.23076923 , 4133.33333333 , 4140.51282051 , 4168.71794872 , 4628.20512821 , 4130.76923077 , 4135.38461538 , 2058.0 , 2037.0 , 7.547 , 0.0 , 0.0 , 0.0 , 0.0 , 

83.0 , 4133.33333333 , 4131.79487179 , 4135.38461538 , 4132.82051282 , 4130.25641026 , 4129.23076923 , 4126.66666667 , 4132.82051282 , 4134.35897436 , 4139.48717949 , 4168.20512821 , 4624.61538462 , 4128.20512821 , 4136.41025641 , 2059.0 , 2038.0 , 7.555 , 0.0 , 0.0 , 0.0 , 0.0 , 

84.0 , 4131.79487179 , 4130.76923077 , 4136.41025641 , 4135.8974359 , 4130.76923077 , 4127.69230769 , 4125.12820513 , 4134.35897436 , 4134.87179487 , 4142.05128205 , 4169.74358974 , 4623.58974359 , 4129.74358974 , 4137.94871795 , 2060.0 , 2036.0 , 7.563 , 0.0 , 0.0 , 0.0 , 0.0 , 

85.0 , 4130.25641026 , 4130.25641026 , 4159.48717949 , 4134.35897436 , 4131.28205128 , 4129.23076923 , 4126.66666667 , 4133.84615385 , 4134.35897436 , 4144.61538462 , 4169.74358974 , 4625.12820513 , 4133.33333333 , 4138.46153846 , 2060.0 , 2038.0 , 7.571 , 0.0 , 0.0 , 0.0 , 0.0 , 

86.0 , 4130.25641026 , 4131.28205128 , 4152.82051282 , 4131.79487179 , 4130.25641026 , 4134.35897436 , 4128.20512821 , 4134.35897436 , 4135.38461538 , 4141.53846154 , 4166.66666667 , 4623.07692308 , 4130.25641026 , 4136.92307692 , 2059.0 , 2037.0 , 7.579 , 0.0 , 0.0 , 0.0 , 0.0 , 

87.0 , 4130.25641026 , 4130.25641026 , 4158.97435897 , 4132.30769231 , 4130.76923077 , 4133.84615385 , 4128.20512821 , 4137.94871795 , 4137.94871795 , 4140.51282051 , 4166.66666667 , 4625.12820513 , 4128.71794872 , 4137.43589744 , 2059.0 , 2037.0 , 7.587 , 0.0 , 0.0 , 0.0 , 0.0 , 

88.0 , 4131.79487179 , 4130.25641026 , 4153.84615385 , 4134.35897436 , 4132.30769231 , 4128.71794872 , 4128.20512821 , 4135.8974359 , 4135.38461538 , 4140.51282051 , 4167.69230769 , 4630.25641026 , 4129.74358974 , 4138.97435897 , 2058.0 , 2037.0 , 7.594 , 0.0 , 0.0 , 0.0 , 0.0 , 

89.0 , 4132.30769231 , 4129.74358974 , 4185.12820513 , 4132.30769231 , 4130.76923077 , 4127.17948718 , 4128.20512821 , 4135.8974359 , 4138.97435897 , 4143.58974359 , 4170.76923077 , 4631.28205128 , 4133.33333333 , 4137.94871795 , 2058.0 , 2036.0 , 7.602 , 0.0 , 0.0 , 0.0 , 0.0 , 

90.0 , 4133.84615385 , 4127.17948718 , 4180.0 , 4131.28205128 , 4128.20512821 , 4128.71794872 , 4128.20512821 , 4137.43589744 , 4140.0 , 4143.07692308 , 4169.23076923 , 4629.23076923 , 4133.84615385 , 4135.38461538 , 2057.0 , 2038.0 , 7.61 , 0.0 , 0.0 , 0.0 , 0.0 , 

91.0 , 4132.30769231 , 4127.69230769 , 4156.41025641 , 4134.35897436 , 4128.71794872 , 4130.25641026 , 4128.20512821 , 4134.35897436 , 4133.84615385 , 4141.53846154 , 4166.66666667 , 4628.20512821 , 4130.76923077 , 4133.84615385 , 2057.0 , 2037.0 , 7.618 , 0.0 , 0.0 , 0.0 , 0.0 , 

92.0 , 4132.30769231 , 4131.28205128 , 4147.17948718 , 4136.92307692 , 4130.25641026 , 4130.25641026 , 4129.23076923 , 4130.25641026 , 4129.74358974 , 4140.0 , 4168.71794872 , 4627.17948718 , 4128.20512821 , 4133.33333333 , 2058.0 , 2036.0 , 7.626 , 0.0 , 0.0 , 0.0 , 0.0 , 

93.0 , 4133.84615385 , 4130.76923077 , 4162.05128205 , 4135.38461538 , 4128.71794872 , 4130.25641026 , 4127.69230769 , 4133.33333333 , 4134.87179487 , 4141.02564103 , 4171.79487179 , 4628.71794872 , 4129.74358974 , 4134.35897436 , 2058.0 , 2038.0 , 7.634 , 0.0 , 0.0 , 0.0 , 0.0 , 

94.0 , 4134.35897436 , 4130.76923077 , 4152.82051282 , 4132.30769231 , 4128.20512821 , 4130.25641026 , 4126.15384615 , 4133.33333333 , 4134.87179487 , 4141.53846154 , 4169.74358974 , 4631.28205128 , 4131.28205128 , 4136.41025641 , 2056.0 , 2037.0 , 7.642 , 0.0 , 0.0 , 0.0 , 0.0 , 

95.0 , 4132.30769231 , 4131.79487179 , 4151.28205128 , 4131.79487179 , 4130.25641026 , 4129.74358974 , 4126.15384615 , 4131.79487179 , 4132.30769231 , 4142.56410256 , 4166.66666667 , 4632.30769231 , 4130.76923077 , 4135.8974359 , 2055.0 , 2038.0 , 7.65 , 0.0 , 0.0 , 0.0 , 0.0 , 

96.0 , 4134.35897436 , 4130.76923077 , 4170.76923077 , 4133.84615385 , 4131.79487179 , 4128.20512821 , 4129.23076923 , 4136.41025641 , 4134.35897436 , 4145.12820513 , 4171.28205128 , 4633.33333333 , 4133.84615385 , 4137.94871795 , 2056.0 , 2037.0 , 7.658 , 0.0 , 0.0 , 0.0 , 0.0 , 

97.0 , 4134.87179487 , 4128.71794872 , 4149.23076923 , 4133.84615385 , 4129.23076923 , 4128.71794872 , 4129.74358974 , 4134.35897436 , 4132.82051282 , 4138.97435897 , 4172.30769231 , 4632.30769231 , 4131.79487179 , 4137.94871795 , 2053.0 , 2037.0 , 7.665 , 0.0 , 0.0 , 0.0 , 0.0 , 

98.0 , 4131.79487179 , 4128.20512821 , 4136.41025641 , 4131.79487179 , 4127.69230769 , 4129.23076923 , 4127.69230769 , 4131.79487179 , 4132.82051282 , 4137.94871795 , 4167.69230769 , 4634.35897436 , 4128.20512821 , 4136.41025641 , 2053.0 , 2038.0 , 7.673 , 0.0 , 0.0 , 0.0 , 0.0 , 

99.0 , 4131.28205128 , 4129.23076923 , 4151.79487179 , 4131.79487179 , 4130.76923077 , 4127.69230769 , 4129.74358974 , 4132.82051282 , 4136.41025641 , 4141.02564103 , 4165.64102564 , 4633.33333333 , 4128.71794872 , 4135.38461538 , 2053.0 , 2039.0 , 7.681 , 0.0 , 0.0 , 0.0 , 0.0 , 

100.0 , 4131.79487179 , 4131.79487179 , 4165.64102564 , 4134.87179487 , 4130.25641026 , 4130.76923077 , 4131.28205128 , 4135.38461538 , 4135.38461538 , 4140.51282051 , 4169.23076923 , 4632.82051282 , 4134.35897436 , 4135.8974359 , 2054.0 , 2036.0 , 7.689 , 0.0 , 0.0 , 0.0 , 0.0 , 

101.0 , 4131.79487179 , 4132.82051282 , 4143.58974359 , 4135.38461538 , 4127.17948718 , 4130.76923077 , 4127.69230769 , 4133.33333333 , 4131.28205128 , 4136.92307692 , 4171.28205128 , 4632.30769231 , 4131.79487179 , 4136.41025641 , 2053.0 , 2036.0 , 7.697 , 0.0 , 0.0 , 0.0 , 0.0 , 

102.0 , 4132.30769231 , 4130.25641026 , 4152.82051282 , 4132.30769231 , 4129.74358974 , 4125.64102564 , 4126.15384615 , 4132.30769231 , 4135.38461538 , 4143.07692308 , 4170.25641026 , 4632.30769231 , 4129.23076923 , 4138.46153846 , 2051.0 , 2035.0 , 7.705 , 0.0 , 0.0 , 0.0 , 0.0 , 

103.0 , 4133.84615385 , 4129.74358974 , 4154.35897436 , 4130.25641026 , 4133.84615385 , 4127.69230769 , 4128.20512821 , 4132.82051282 , 4136.92307692 , 4145.64102564 , 4168.71794872 , 4630.76923077 , 4131.28205128 , 4135.38461538 , 2052.0 , 2035.0 , 7.713 , 0.0 , 0.0 , 0.0 , 0.0 , 

104.0 , 4132.30769231 , 4129.74358974 , 4172.30769231 , 4128.71794872 , 4130.76923077 , 4131.28205128 , 4126.66666667 , 4134.87179487 , 4133.84615385 , 4142.56410256 , 4170.25641026 , 4632.82051282 , 4133.33333333 , 4132.30769231 , 2049.0 , 2037.0 , 7.721 , 0.0 , 0.0 , 0.0 , 0.0 , 

105.0 , 4131.28205128 , 4130.76923077 , 4167.69230769 , 4131.79487179 , 4128.20512821 , 4129.74358974 , 4127.17948718 , 4133.84615385 , 4132.82051282 , 4140.0 , 4173.33333333 , 4634.87179487 , 4130.76923077 , 4134.35897436 , 2050.0 , 2035.0 , 7.729 , 0.0 , 0.0 , 0.0 , 0.0 , 

106.0 , 4130.76923077 , 4131.79487179 , 4156.41025641 , 4135.8974359 , 4129.74358974 , 4129.23076923 , 4129.23076923 , 4132.30769231 , 4133.84615385 , 4142.05128205 , 4172.82051282 , 4635.38461538 , 4132.30769231 , 4136.41025641 , 2050.0 , 2034.0 , 7.736 , 0.0 , 0.0 , 0.0 , 0.0 , 

107.0 , 4132.30769231 , 4130.76923077 , 4132.82051282 , 4134.35897436 , 4130.76923077 , 4132.30769231 , 4129.23076923 , 4133.33333333 , 4131.79487179 , 4141.02564103 , 4169.23076923 , 4633.33333333 , 4132.82051282 , 4136.92307692 , 2048.0 , 2031.0 , 7.744 , 0.0 , 0.0 , 0.0 , 0.0 , 

108.0 , 4132.82051282 , 4129.23076923 , 4151.28205128 , 4129.23076923 , 4126.66666667 , 4132.30769231 , 4128.71794872 , 4135.38461538 , 4132.82051282 , 4138.97435897 , 4169.74358974 , 4632.82051282 , 4131.28205128 , 4136.41025641 , 2048.0 , 2027.0 , 7.753 , 0.0 , 0.0 , 0.0 , 0.0 , 

109.0 , 4131.28205128 , 4130.25641026 , 4157.94871795 , 4130.76923077 , 4124.61538462 , 4130.76923077 , 4129.23076923 , 4134.35897436 , 4133.33333333 , 4140.0 , 4172.30769231 , 4635.38461538 , 4129.23076923 , 4136.92307692 , 2047.0 , 2027.0 , 7.761 , 0.0 , 0.0 , 0.0 , 0.0 , 

110.0 , 4128.71794872 , 4131.79487179 , 4161.02564103 , 4134.35897436 , 4128.20512821 , 4128.71794872 , 4128.71794872 , 4134.35897436 , 4133.84615385 , 4142.05128205 , 4170.76923077 , 4636.41025641 , 4129.74358974 , 4137.43589744 , 2047.0 , 2028.0 , 7.769 , 0.0 , 0.0 , 0.0 , 0.0 , 

111.0 , 4129.74358974 , 4131.79487179 , 4162.05128205 , 4132.82051282 , 4129.74358974 , 4129.74358974 , 4128.71794872 , 4134.87179487 , 4137.43589744 , 4141.02564103 , 4170.25641026 , 4635.38461538 , 4130.76923077 , 4138.46153846 , 2049.0 , 2028.0 , 7.776 , 0.0 , 0.0 , 0.0 , 0.0 , 

112.0 , 4130.76923077 , 4130.76923077 , 4163.07692308 , 4131.79487179 , 4128.20512821 , 4133.33333333 , 4127.17948718 , 4134.87179487 , 4138.97435897 , 4140.0 , 4171.28205128 , 4634.87179487 , 4131.79487179 , 4135.8974359 , 2051.0 , 2031.0 , 7.784 , 0.0 , 0.0 , 0.0 , 0.0 , 

113.0 , 4133.84615385 , 4131.79487179 , 4156.41025641 , 4133.84615385 , 4128.71794872 , 4130.76923077 , 4126.66666667 , 4134.87179487 , 4134.35897436 , 4140.0 , 4171.28205128 , 4634.35897436 , 4133.33333333 , 4135.8974359 , 2052.0 , 2030.0 , 7.791 , 0.0 , 0.0 , 0.0 , 0.0 , 

114.0 , 4133.33333333 , 4131.28205128 , 4145.12820513 , 4133.33333333 , 4130.25641026 , 4127.17948718 , 4129.74358974 , 4132.82051282 , 4132.30769231 , 4138.46153846 , 4167.69230769 , 4632.82051282 , 4131.28205128 , 4135.8974359 , 2055.0 , 2026.0 , 7.8 , 0.0 , 0.0 , 0.0 , 0.0 , 

115.0 , 4131.28205128 , 4129.74358974 , 4141.02564103 , 4132.30769231 , 4131.28205128 , 4130.25641026 , 4131.79487179 , 4132.82051282 , 4134.35897436 , 4140.0 , 4168.20512821 , 4637.43589744 , 4130.76923077 , 4135.8974359 , 2059.0 , 2026.0 , 7.807 , 0.0 , 0.0 , 0.0 , 0.0 , 

116.0 , 4131.28205128 , 4128.20512821 , 4142.56410256 , 4132.30769231 , 4132.30769231 , 4131.28205128 , 4129.74358974 , 4133.84615385 , 4135.38461538 , 4142.56410256 , 4169.23076923 , 4636.92307692 , 4128.20512821 , 4136.92307692 , 2061.0 , 2028.0 , 7.815 , 0.0 , 0.0 , 0.0 , 0.0 , 

117.0 , 4131.28205128 , 4130.25641026 , 4151.79487179 , 4131.28205128 , 4130.25641026 , 4129.23076923 , 4127.69230769 , 4134.87179487 , 4136.92307692 , 4145.64102564 , 4170.76923077 , 4635.8974359 , 4130.25641026 , 4137.43589744 , 2063.0 , 2029.0 , 7.823 , 0.0 , 0.0 , 0.0 , 0.0 , 

118.0 , 4129.74358974 , 4131.28205128 , 4143.07692308 , 4129.74358974 , 4128.20512821 , 4130.25641026 , 4126.66666667 , 4130.76923077 , 4135.8974359 , 4143.58974359 , 4169.23076923 , 4639.48717949 , 4133.33333333 , 4133.33333333 , 2064.0 , 2031.0 , 7.832 , 0.0 , 0.0 , 0.0 , 0.0 , 

119.0 , 4131.79487179 , 4132.30769231 , 4155.38461538 , 4132.82051282 , 4131.28205128 , 4129.74358974 , 4126.66666667 , 4131.28205128 , 4136.41025641 , 4142.56410256 , 4169.23076923 , 4643.07692308 , 4132.30769231 , 4133.33333333 , 2063.0 , 2033.0 , 7.839 , 0.0 , 0.0 , 0.0 , 0.0 , 

120.0 , 4133.84615385 , 4131.28205128 , 4142.56410256 , 4132.82051282 , 4133.33333333 , 4125.12820513 , 4128.20512821 , 4131.28205128 , 4135.8974359 , 4140.51282051 , 4168.20512821 , 4638.97435897 , 4125.64102564 , 4134.87179487 , 2064.0 , 2034.0 , 7.847 , 0.0 , 0.0 , 0.0 , 0.0 , 

121.0 , 4132.30769231 , 4129.23076923 , 4114.87179487 , 4130.76923077 , 4130.76923077 , 4129.74358974 , 4128.71794872 , 4128.20512821 , 4134.87179487 , 4141.02564103 , 4167.17948718 , 4635.38461538 , 4126.66666667 , 4132.30769231 , 2065.0 , 2038.0 , 7.855 , 0.0 , 0.0 , 0.0 , 0.0 , 

122.0 , 4132.30769231 , 4130.76923077 , 4110.25641026 , 4133.84615385 , 4129.23076923 , 4136.92307692 , 4129.74358974 , 4128.20512821 , 4136.41025641 , 4141.02564103 , 4166.15384615 , 4635.8974359 , 4130.25641026 , 4130.76923077 , 2065.0 , 2039.0 , 7.862 , 0.0 , 0.0 , 0.0 , 0.0 , 

123.0 , 4130.76923077 , 4131.79487179 , 4135.38461538 , 4134.35897436 , 4130.76923077 , 4134.87179487 , 4130.25641026 , 4132.30769231 , 4137.94871795 , 4139.48717949 , 4168.20512821 , 4637.43589744 , 4129.23076923 , 4133.33333333 , 2065.0 , 2037.0 , 7.87 , 0.0 , 0.0 , 0.0 , 0.0 , 

124.0 , 4129.23076923 , 4129.74358974 , 4131.28205128 , 4132.30769231 , 4131.79487179 , 4132.30769231 , 4129.23076923 , 4130.76923077 , 4133.33333333 , 4138.46153846 , 4171.28205128 , 4639.48717949 , 4130.25641026 , 4134.87179487 , 2065.0 , 2037.0 , 7.878 , 0.0 , 0.0 , 0.0 , 0.0 , 

125.0 , 4130.76923077 , 4129.23076923 , 4131.28205128 , 4131.28205128 , 4129.74358974 , 4132.82051282 , 4127.69230769 , 4129.23076923 , 4133.33333333 , 4141.02564103 , 4172.30769231 , 4638.46153846 , 4131.79487179 , 4135.38461538 , 2065.0 , 2036.0 , 7.886 , 0.0 , 0.0 , 0.0 , 0.0 , 

126.0 , 4133.84615385 , 4132.30769231 , 4137.43589744 , 4131.28205128 , 4130.25641026 , 4134.87179487 , 4127.69230769 , 4134.87179487 , 4141.02564103 , 4143.58974359 , 4171.79487179 , 4637.94871795 , 4130.76923077 , 4138.46153846 , 2065.0 , 2034.0 , 7.894 , 0.0 , 0.0 , 0.0 , 0.0 , 

127.0 , 4130.25641026 , 4131.28205128 , 4146.66666667 , 4129.74358974 , 4131.79487179 , 4134.35897436 , 4127.17948718 , 4135.8974359 , 4141.02564103 , 4142.56410256 , 4171.28205128 , 4638.46153846 , 4131.28205128 , 4137.43589744 , 2064.0 , 2033.0 , 7.902 , 0.0 , 0.0 , 0.0 , 0.0 , 

128.0 , 4130.76923077 , 4130.76923077 , 4141.53846154 , 4131.79487179 , 4132.30769231 , 4133.33333333 , 4128.20512821 , 4133.33333333 , 4134.35897436 , 4143.07692308 , 4170.76923077 , 4639.48717949 , 4133.84615385 , 4135.8974359 , 2063.0 , 2033.0 , 7.91 , 0.0 , 0.0 , 0.0 , 0.0 , 

0.0 , 4131.28205128 , 4130.76923077 , 4141.02564103 , 4132.30769231 , 4130.25641026 , 4131.28205128 , 4129.74358974 , 4134.35897436 , 4133.33333333 , 4142.05128205 , 4169.23076923 , 4638.46153846 , 4131.28205128 , 4134.87179487 , 2062.0 , 2034.0 , 7.918 , 0.0 , 0.0 , 0.0 , 0.0 , 

1.0 , 4133.33333333 , 4130.25641026 , 4141.53846154 , 4131.28205128 , 4130.25641026 , 4130.76923077 , 4128.71794872 , 4136.41025641 , 4136.41025641 , 4142.05128205 , 4170.25641026 , 4639.48717949 , 4130.76923077 , 4135.8974359 , 2060.0 , 2036.0 , 7.925 , 0.0 , 0.0 , 0.0 , 0.0 , 

2.0 , 4133.33333333 , 4130.76923077 , 4138.97435897 , 4131.28205128 , 4130.76923077 , 4131.28205128 , 4127.17948718 , 4132.30769231 , 4135.8974359 , 4141.53846154 , 4171.28205128 , 4639.48717949 , 4132.30769231 , 4134.87179487 , 2058.0 , 2037.0 , 7.933 , 0.0 , 0.0 , 0.0 , 0.0 , 

3.0 , 4133.33333333 , 4131.79487179 , 4121.53846154 , 4132.82051282 , 4130.25641026 , 4131.79487179 , 4128.71794872 , 4131.79487179 , 4135.38461538 , 4138.97435897 , 4169.74358974 , 4639.48717949 , 4131.79487179 , 4135.8974359 , 2053.0 , 2042.0 , 7.941 , 0.0 , 0.0 , 0.0 , 0.0 , 

4.0 , 4131.28205128 , 4129.23076923 , 4115.8974359 , 4132.82051282 , 4129.23076923 , 4131.28205128 , 4129.74358974 , 4133.33333333 , 4134.35897436 , 4137.94871795 , 4168.20512821 , 4637.43589744 , 4129.74358974 , 4135.8974359 , 2052.0 , 2043.0 , 7.949 , 0.0 , 0.0 , 0.0 , 0.0 , 

5.0 , 4132.82051282 , 4128.71794872 , 4132.30769231 , 4133.33333333 , 4129.23076923 , 4128.20512821 , 4129.23076923 , 4135.38461538 , 4133.33333333 , 4142.05128205 , 4171.28205128 , 4639.48717949 , 4129.23076923 , 4133.84615385 , 2047.0 , 2046.0 , 7.956 , 0.0 , 0.0 , 0.0 , 0.0 , 

6.0 , 4132.30769231 , 4130.25641026 , 4132.82051282 , 4131.79487179 , 4129.23076923 , 4128.71794872 , 4127.17948718 , 4134.87179487 , 4134.87179487 , 4143.07692308 , 4171.28205128 , 4638.97435897 , 4128.71794872 , 4133.33333333 , 2047.0 , 2045.0 , 7.966 , 0.0 , 0.0 , 0.0 , 0.0 , 

7.0 , 4131.79487179 , 4131.28205128 , 4125.12820513 , 4132.30769231 , 4130.25641026 , 4130.25641026 , 4126.15384615 , 4134.87179487 , 4135.38461538 , 4142.05128205 , 4169.23076923 , 4638.46153846 , 4129.23076923 , 4135.8974359 , 2044.0 , 2045.0 , 7.973 , 0.0 , 0.0 , 0.0 , 0.0 , 

8.0 , 4134.87179487 , 4130.76923077 , 4127.69230769 , 4132.30769231 , 4131.28205128 , 4129.74358974 , 4128.20512821 , 4134.87179487 , 4132.82051282 , 4140.0 , 4169.23076923 , 4640.51282051 , 4128.71794872 , 4135.8974359 , 2038.0 , 2042.0 , 7.981 , 0.0 , 0.0 , 0.0 , 0.0 , 

9.0 , 4133.33333333 , 4129.74358974 , 4163.07692308 , 4131.28205128 , 4130.76923077 , 4128.71794872 , 4129.23076923 , 4138.97435897 , 4135.38461538 , 4141.53846154 , 4170.25641026 , 4642.05128205 , 4131.79487179 , 4136.92307692 , 2037.0 , 2039.0 , 7.989 , 0.0 , 0.0 , 0.0 , 0.0 , 

10.0 , 4129.23076923 , 4129.23076923 , 4161.53846154 , 4131.79487179 , 4131.79487179 , 4127.17948718 , 4128.20512821 , 4135.8974359 , 4137.94871795 , 4141.53846154 , 4168.71794872 , 4639.48717949 , 4129.74358974 , 4138.46153846 , 2033.0 , 2037.0 , 7.996 , 0.0 , 0.0 , 0.0 , 0.0 , 

11.0 , 4131.28205128 , 4130.25641026 , 4150.76923077 , 4129.74358974 , 4132.30769231 , 4126.15384615 , 4128.20512821 , 4131.79487179 , 4136.92307692 , 4142.05128205 , 4168.71794872 , 4638.97435897 , 4127.69230769 , 4136.92307692 , 2033.0 , 2037.0 , 8.004 , 0.0 , 0.0 , 0.0 , 0.0 , 

12.0 , 4133.33333333 , 4131.28205128 , 4142.05128205 , 4131.28205128 , 4131.28205128 , 4127.69230769 , 4129.23076923 , 4130.76923077 , 4136.92307692 , 4141.53846154 , 4169.23076923 , 4639.48717949 , 4132.30769231 , 4136.41025641 , 2036.0 , 2039.0 , 8.012 , 0.0 , 0.0 , 0.0 , 0.0 , 

13.0 , 4129.74358974 , 4128.71794872 , 4168.71794872 , 4135.8974359 , 4128.71794872 , 4127.17948718 , 4128.71794872 , 4132.82051282 , 4135.8974359 , 4144.61538462 , 4170.25641026 , 4638.46153846 , 4135.8974359 , 4137.43589744 , 2037.0 , 2038.0 , 8.02 , 0.0 , 0.0 , 0.0 , 0.0 , 

14.0 , 4130.25641026 , 4127.17948718 , 4151.28205128 , 4134.87179487 , 4128.20512821 , 4127.69230769 , 4128.20512821 , 4131.28205128 , 4132.30769231 , 4144.61538462 , 4168.71794872 , 4639.48717949 , 4129.23076923 , 4135.38461538 , 2038.0 , 2039.0 , 8.027 , 0.0 , 0.0 , 0.0 , 0.0 , 

15.0 , 4131.28205128 , 4128.20512821 , 4143.07692308 , 4128.71794872 , 4129.74358974 , 4130.25641026 , 4126.66666667 , 4132.82051282 , 4135.38461538 , 4144.1025641 , 4168.20512821 , 4641.02564103 , 4129.23076923 , 4134.87179487 , 2039.0 , 2041.0 , 8.036 , 0.0 , 0.0 , 0.0 , 0.0 , 

16.0 , 4131.28205128 , 4131.28205128 , 4132.30769231 , 4130.76923077 , 4130.76923077 , 4129.23076923 , 4125.64102564 , 4132.82051282 , 4137.43589744 , 4141.53846154 , 4168.71794872 , 4638.46153846 , 4133.33333333 , 4136.41025641 , 2039.0 , 2042.0 , 8.044 , 0.0 , 0.0 , 0.0 , 0.0 , 

17.0 , 4130.76923077 , 4130.25641026 , 4138.97435897 , 4136.41025641 , 4129.74358974 , 4127.69230769 , 4125.64102564 , 4132.82051282 , 4136.92307692 , 4140.0 , 4170.76923077 , 4636.92307692 , 4131.79487179 , 4133.84615385 , 2041.0 , 2044.0 , 8.052 , 0.0 , 0.0 , 0.0 , 0.0 , 

18.0 , 4129.23076923 , 4127.69230769 , 4148.20512821 , 4136.41025641 , 4130.76923077 , 4133.84615385 , 4126.66666667 , 4133.84615385 , 4136.92307692 , 4142.56410256 , 4169.74358974 , 4639.48717949 , 4130.76923077 , 4132.30769231 , 2041.0 , 2044.0 , 8.059 , 0.0 , 0.0 , 0.0 , 0.0 , 

19.0 , 4126.66666667 , 4128.71794872 , 4123.07692308 , 4133.84615385 , 4132.82051282 , 4136.41025641 , 4127.69230769 , 4130.25641026 , 4134.35897436 , 4139.48717949 , 4165.64102564 , 4637.43589744 , 4127.69230769 , 4133.33333333 , 2041.0 , 2044.0 , 8.067 , 0.0 , 0.0 , 0.0 , 0.0 , 

20.0 , 4131.79487179 , 4131.79487179 , 4093.33333333 , 4134.35897436 , 4132.82051282 , 4132.30769231 , 4129.23076923 , 4129.23076923 , 4133.33333333 , 4137.94871795 , 4166.66666667 , 4636.41025641 , 4127.69230769 , 4136.41025641 , 2039.0 , 2043.0 , 8.074 , 0.0 , 0.0 , 0.0 , 0.0 , 

21.0 , 4133.33333333 , 4131.79487179 , 4103.07692308 , 4135.8974359 , 4130.76923077 , 4131.28205128 , 4127.69230769 , 4130.76923077 , 4134.87179487 , 4138.97435897 , 4166.66666667 , 4635.8974359 , 4126.66666667 , 4133.33333333 , 2039.0 , 2041.0 , 8.083 , 0.0 , 0.0 , 0.0 , 0.0 , 

22.0 , 4133.84615385 , 4130.76923077 , 4127.17948718 , 4135.8974359 , 4130.25641026 , 4134.87179487 , 4128.20512821 , 4134.35897436 , 4135.38461538 , 4141.02564103 , 4168.20512821 , 4640.0 , 4128.20512821 , 4133.84615385 , 2040.0 , 2041.0 , 8.091 , 0.0 , 0.0 , 0.0 , 0.0 , 

23.0 , 4134.35897436 , 4129.74358974 , 4123.07692308 , 4133.33333333 , 4130.76923077 , 4134.35897436 , 4130.25641026 , 4133.33333333 , 4135.38461538 , 4138.46153846 , 4169.74358974 , 4640.0 , 4133.33333333 , 4136.41025641 , 2038.0 , 2040.0 , 8.099 , 0.0 , 0.0 , 0.0 , 0.0 , 

24.0 , 4131.79487179 , 4130.76923077 , 4126.15384615 , 4131.28205128 , 4132.30769231 , 4131.28205128 , 4129.74358974 , 4134.35897436 , 4137.94871795 , 4141.02564103 , 4171.28205128 , 4639.48717949 , 4136.41025641 , 4136.41025641 , 2037.0 , 2040.0 , 8.107 , 0.0 , 0.0 , 0.0 , 0.0 , 

25.0 , 4128.20512821 , 4132.30769231 , 4147.17948718 , 4132.30769231 , 4131.79487179 , 4128.71794872 , 4127.69230769 , 4135.8974359 , 4137.94871795 , 4145.12820513 , 4170.76923077 , 4640.51282051 , 4130.25641026 , 4135.38461538 , 2036.0 , 2039.0 , 8.115 , 0.0 , 0.0 , 0.0 , 0.0 , 

26.0 , 4131.28205128 , 4131.79487179 , 4151.79487179 , 4132.82051282 , 4131.28205128 , 4127.69230769 , 4129.23076923 , 4133.33333333 , 4135.8974359 , 4143.07692308 , 4168.71794872 , 4640.51282051 , 4130.76923077 , 4139.48717949 , 2037.0 , 2037.0 , 8.122 , 0.0 , 0.0 , 0.0 , 0.0 , 

27.0 , 4133.84615385 , 4128.71794872 , 4138.97435897 , 4131.28205128 , 4132.30769231 , 4130.76923077 , 4130.25641026 , 4133.84615385 , 4136.41025641 , 4141.02564103 , 4170.25641026 , 4639.48717949 , 4136.41025641 , 4140.0 , 2038.0 , 2037.0 , 8.13 , 0.0 , 0.0 , 0.0 , 0.0 , 

28.0 , 4129.74358974 , 4129.23076923 , 4170.76923077 , 4131.79487179 , 4131.79487179 , 4131.28205128 , 4128.20512821 , 4141.53846154 , 4141.02564103 , 4145.12820513 , 4171.28205128 , 4641.02564103 , 4133.84615385 , 4136.41025641 , 2038.0 , 2037.0 , 8.138 , 0.0 , 0.0 , 0.0 , 0.0 , 

29.0 , 4130.25641026 , 4131.79487179 , 4158.46153846 , 4132.30769231 , 4130.25641026 , 4129.23076923 , 4127.69230769 , 4140.51282051 , 4139.48717949 , 4144.1025641 , 4165.12820513 , 4640.0 , 4127.69230769 , 4134.35897436 , 2038.0 , 2038.0 , 8.146 , 0.0 , 0.0 , 0.0 , 0.0 , 

30.0 , 4130.76923077 , 4130.76923077 , 4125.12820513 , 4130.25641026 , 4130.76923077 , 4128.71794872 , 4129.23076923 , 4134.87179487 , 4133.84615385 , 4140.51282051 , 4163.07692308 , 4638.97435897 , 4130.25641026 , 4133.33333333 , 2038.0 , 2038.0 , 8.154 , 0.0 , 0.0 , 0.0 , 0.0 , 

31.0 , 4130.25641026 , 4129.23076923 , 4112.30769231 , 4131.79487179 , 4131.28205128 , 4129.74358974 , 4128.71794872 , 4134.35897436 , 4132.82051282 , 4138.46153846 , 4168.20512821 , 4640.0 , 4130.25641026 , 4132.82051282 , 2036.0 , 2038.0 , 8.162 , 0.0 , 0.0 , 0.0 , 0.0 , 

32.0 , 4130.76923077 , 4130.25641026 , 4136.41025641 , 4134.87179487 , 4129.74358974 , 4130.76923077 , 4127.17948718 , 4134.35897436 , 4138.97435897 , 4141.02564103 , 4170.76923077 , 4640.51282051 , 4128.71794872 , 4134.35897436 , 2036.0 , 2038.0 , 8.17 , 0.0 , 0.0 , 0.0 , 0.0 , 

33.0 , 4131.28205128 , 4131.28205128 , 4115.38461538 , 4132.82051282 , 4130.25641026 , 4130.25641026 , 4129.74358974 , 4132.30769231 , 4137.43589744 , 4140.0 , 4169.74358974 , 4637.94871795 , 4126.66666667 , 4134.87179487 , 2036.0 , 2036.0 , 8.178 , 0.0 , 0.0 , 0.0 , 0.0 , 

34.0 , 4129.23076923 , 4129.74358974 , 4115.8974359 , 4128.71794872 , 4129.74358974 , 4131.79487179 , 4131.79487179 , 4134.87179487 , 4132.82051282 , 4138.46153846 , 4170.76923077 , 4638.46153846 , 4129.74358974 , 4134.87179487 , 2037.0 , 2037.0 , 8.186 , 0.0 , 0.0 , 0.0 , 0.0 , 

35.0 , 4130.76923077 , 4129.74358974 , 4131.79487179 , 4130.25641026 , 4127.69230769 , 4134.35897436 , 4129.74358974 , 4134.35897436 , 4132.30769231 , 4138.46153846 , 4170.76923077 , 4640.51282051 , 4132.30769231 , 4136.41025641 , 2036.0 , 2035.0 , 8.193 , 0.0 , 0.0 , 0.0 , 0.0 , 

36.0 , 4131.79487179 , 4130.25641026 , 4126.66666667 , 4132.82051282 , 4127.69230769 , 4132.82051282 , 4126.66666667 , 4130.25641026 , 4135.38461538 , 4138.97435897 , 4167.69230769 , 4640.0 , 4128.20512821 , 4136.92307692 , 2036.0 , 2035.0 , 8.201 , 0.0 , 0.0 , 0.0 , 0.0 , 

37.0 , 4132.30769231 , 4132.30769231 , 4122.56410256 , 4132.30769231 , 4129.74358974 , 4133.33333333 , 4129.23076923 , 4131.79487179 , 4139.48717949 , 4140.51282051 , 4167.69230769 , 4641.53846154 , 4128.20512821 , 4137.94871795 , 2036.0 , 2036.0 , 8.21 , 0.0 , 0.0 , 0.0 , 0.0 , 

38.0 , 4131.28205128 , 4131.79487179 , 4127.17948718 , 4130.76923077 , 4129.74358974 , 4132.82051282 , 4131.28205128 , 4135.38461538 , 4138.46153846 , 4139.48717949 , 4168.71794872 , 4638.46153846 , 4130.25641026 , 4135.8974359 , 2036.0 , 2036.0 , 8.218 , 0.0 , 0.0 , 0.0 , 0.0 , 

39.0 , 4130.76923077 , 4131.79487179 , 4123.07692308 , 4131.28205128 , 4129.23076923 , 4129.74358974 , 4129.23076923 , 4135.38461538 , 4137.43589744 , 4141.53846154 , 4168.71794872 , 4636.92307692 , 4130.76923077 , 4134.35897436 , 2037.0 , 2036.0 , 8.225 , 0.0 , 0.0 , 0.0 , 0.0 , 

40.0 , 4131.28205128 , 4130.25641026 , 4139.48717949 , 4131.28205128 , 4129.74358974 , 4129.23076923 , 4127.17948718 , 4133.33333333 , 4140.51282051 , 4143.07692308 , 4168.20512821 , 4638.46153846 , 4131.79487179 , 4134.35897436 , 2038.0 , 2038.0 , 8.232 , 0.0 , 0.0 , 0.0 , 0.0 , 

41.0 , 4130.76923077 , 4129.23076923 , 4157.94871795 , 4131.28205128 , 4129.74358974 , 4130.76923077 , 4128.71794872 , 4134.87179487 , 4143.07692308 , 4144.61538462 , 4169.74358974 , 4642.05128205 , 4134.87179487 , 4136.41025641 , 2037.0 , 2039.0 , 8.241 , 0.0 , 0.0 , 0.0 , 0.0 , 

42.0 , 4128.71794872 , 4130.76923077 , 4132.30769231 , 4131.28205128 , 4130.76923077 , 4127.69230769 , 4130.25641026 , 4135.38461538 , 4135.8974359 , 4142.56410256 , 4169.74358974 , 4640.51282051 , 4129.23076923 , 4136.92307692 , 2039.0 , 2037.0 , 8.248 , 0.0 , 0.0 , 0.0 , 0.0 , 

43.0 , 4130.76923077 , 4132.82051282 , 4116.41025641 , 4131.79487179 , 4131.79487179 , 4127.69230769 , 4128.71794872 , 4134.35897436 , 4132.30769231 , 4140.0 , 4168.71794872 , 4638.46153846 , 4127.69230769 , 4136.41025641 , 2040.0 , 2037.0 , 8.256 , 0.0 , 0.0 , 0.0 , 0.0 , 

44.0 , 4132.82051282 , 4131.28205128 , 4122.56410256 , 4132.30769231 , 4131.79487179 , 4129.74358974 , 4128.20512821 , 4133.84615385 , 4135.38461538 , 4139.48717949 , 4168.71794872 , 4637.94871795 , 4131.28205128 , 4134.87179487 , 2039.0 , 2038.0 , 8.264 , 0.0 , 0.0 , 0.0 , 0.0 , 

45.0 , 4132.30769231 , 4130.25641026 , 4136.41025641 , 4131.79487179 , 4131.79487179 , 4132.30769231 , 4128.71794872 , 4136.41025641 , 4140.0 , 4142.05128205 , 4170.25641026 , 4638.97435897 , 4132.82051282 , 4134.87179487 , 2041.0 , 2037.0 , 8.272 , 0.0 , 0.0 , 0.0 , 0.0 , 

46.0 , 4133.33333333 , 4132.82051282 , 4121.02564103 , 4132.30769231 , 4132.30769231 , 4134.87179487 , 4129.23076923 , 4135.38461538 , 4137.43589744 , 4142.05128205 , 4170.25641026 , 4638.46153846 , 4129.74358974 , 4134.35897436 , 2041.0 , 2036.0 , 8.28 , 0.0 , 0.0 , 0.0 , 0.0 , 

47.0 , 4130.76923077 , 4131.28205128 , 4128.20512821 , 4132.30769231 , 4130.25641026 , 4130.25641026 , 4129.74358974 , 4134.87179487 , 4134.87179487 , 4142.56410256 , 4171.28205128 , 4638.46153846 , 4129.74358974 , 4133.84615385 , 2043.0 , 2036.0 , 8.287 , 0.0 , 0.0 , 0.0 , 0.0 , 

48.0 , 4129.74358974 , 4128.20512821 , 4129.23076923 , 4131.79487179 , 4129.23076923 , 4124.61538462 , 4130.76923077 , 4130.76923077 , 4137.94871795 , 4141.02564103 , 4168.71794872 , 4637.94871795 , 4127.69230769 , 4134.87179487 , 2043.0 , 2035.0 , 8.296 , 0.0 , 0.0 , 0.0 , 0.0 , 

49.0 , 4132.30769231 , 4128.71794872 , 4133.84615385 , 4129.74358974 , 4130.76923077 , 4132.30769231 , 4129.74358974 , 4130.76923077 , 4142.56410256 , 4140.51282051 , 4167.69230769 , 4639.48717949 , 4129.23076923 , 4136.92307692 , 2042.0 , 2035.0 , 8.304 , 0.0 , 0.0 , 0.0 , 0.0 , 

50.0 , 4132.82051282 , 4131.28205128 , 4116.92307692 , 4131.79487179 , 4130.76923077 , 4139.48717949 , 4128.71794872 , 4133.84615385 , 4137.94871795 , 4140.51282051 , 4170.25641026 , 4636.92307692 , 4129.74358974 , 4136.41025641 , 2044.0 , 2037.0 , 8.311 , 0.0 , 0.0 , 0.0 , 0.0 , 

51.0 , 4130.76923077 , 4129.74358974 , 4123.07692308 , 4132.82051282 , 4129.74358974 , 4135.38461538 , 4128.71794872 , 4135.38461538 , 4131.28205128 , 4140.51282051 , 4172.30769231 , 4634.35897436 , 4129.23076923 , 4136.92307692 , 2045.0 , 2037.0 , 8.32 , 0.0 , 0.0 , 0.0 , 0.0 , 

52.0 , 4131.79487179 , 4130.25641026 , 4130.76923077 , 4131.79487179 , 4130.76923077 , 4131.28205128 , 4130.25641026 , 4134.35897436 , 4135.8974359 , 4140.51282051 , 4170.76923077 , 4637.94871795 , 4133.84615385 , 4138.97435897 , 2044.0 , 2039.0 , 8.327 , 0.0 , 0.0 , 0.0 , 0.0 , 

53.0 , 4131.79487179 , 4133.33333333 , 4125.64102564 , 4131.28205128 , 4130.25641026 , 4131.79487179 , 4130.25641026 , 4134.35897436 , 4141.02564103 , 4140.0 , 4169.23076923 , 4640.0 , 4134.87179487 , 4136.41025641 , 2044.0 , 2041.0 , 8.335 , 0.0 , 0.0 , 0.0 , 0.0 , 

54.0 , 4131.28205128 , 4132.82051282 , 4113.84615385 , 4133.33333333 , 4129.23076923 , 4134.87179487 , 4129.74358974 , 4134.87179487 , 4138.46153846 , 4140.51282051 , 4169.74358974 , 4638.46153846 , 4131.79487179 , 4134.35897436 , 2045.0 , 2039.0 , 8.343 , 0.0 , 0.0 , 0.0 , 0.0 , 

55.0 , 4131.28205128 , 4129.74358974 , 4136.92307692 , 4133.84615385 , 4129.74358974 , 4132.30769231 , 4129.74358974 , 4134.87179487 , 4136.41025641 , 4143.58974359 , 4168.71794872 , 4636.92307692 , 4131.79487179 , 4135.38461538 , 2044.0 , 2039.0 , 8.351 , 0.0 , 0.0 , 0.0 , 0.0 , 

56.0 , 4133.33333333 , 4130.76923077 , 4136.92307692 , 4133.84615385 , 4130.25641026 , 4126.15384615 , 4129.23076923 , 4136.41025641 , 4135.8974359 , 4144.1025641 , 4168.20512821 , 4639.48717949 , 4133.33333333 , 4136.41025641 , 2043.0 , 2039.0 , 8.359 , 0.0 , 0.0 , 0.0 , 0.0 , 

57.0 , 4132.82051282 , 4132.30769231 , 4122.56410256 , 4132.82051282 , 4129.23076923 , 4126.66666667 , 4127.69230769 , 4135.8974359 , 4133.84615385 , 4140.51282051 , 4168.71794872 , 4636.41025641 , 4131.79487179 , 4132.82051282 , 2043.0 , 2039.0 , 8.367 , 0.0 , 0.0 , 0.0 , 0.0 , 

58.0 , 4132.82051282 , 4130.25641026 , 4124.1025641 , 4133.84615385 , 4130.76923077 , 4133.84615385 , 4128.71794872 , 4134.35897436 , 4133.84615385 , 4142.05128205 , 4170.76923077 , 4633.33333333 , 4133.84615385 , 4133.84615385 , 2044.0 , 2040.0 , 8.375 , 0.0 , 0.0 , 0.0 , 0.0 , 

59.0 , 4131.79487179 , 4128.71794872 , 4125.12820513 , 4134.87179487 , 4132.82051282 , 4135.8974359 , 4129.74358974 , 4134.87179487 , 4132.30769231 , 4140.51282051 , 4170.76923077 , 4634.35897436 , 4130.25641026 , 4136.41025641 , 2044.0 , 2039.0 , 8.383 , 0.0 , 0.0 , 0.0 , 0.0 , 

60.0 , 4130.25641026 , 4130.76923077 , 4132.30769231 , 4135.38461538 , 4130.25641026 , 4129.23076923 , 4127.69230769 , 4137.43589744 , 4134.35897436 , 4138.46153846 , 4170.25641026 , 4638.46153846 , 4127.69230769 , 4136.41025641 , 2044.0 , 2040.0 , 8.39 , 0.0 , 0.0 , 0.0 , 0.0 , 

61.0 , 4127.69230769 , 4131.79487179 , 4133.84615385 , 4133.33333333 , 4129.23076923 , 4128.71794872 , 4128.20512821 , 4134.35897436 , 4138.46153846 , 4138.46153846 , 4169.74358974 , 4636.92307692 , 4131.79487179 , 4134.87179487 , 2043.0 , 2039.0 , 8.398 , 0.0 , 0.0 , 0.0 , 0.0 , 

62.0 , 4130.25641026 , 4131.79487179 , 4131.79487179 , 4130.76923077 , 4131.28205128 , 4133.84615385 , 4131.28205128 , 4133.33333333 , 4138.46153846 , 4142.56410256 , 4171.28205128 , 4634.35897436 , 4134.87179487 , 4136.92307692 , 2044.0 , 2038.0 , 8.406 , 0.0 , 0.0 , 0.0 , 0.0 , 

63.0 , 4134.35897436 , 4130.25641026 , 4116.41025641 , 4131.79487179 , 4131.28205128 , 4135.38461538 , 4129.74358974 , 4135.38461538 , 4132.82051282 , 4141.53846154 , 4170.25641026 , 4635.38461538 , 4131.79487179 , 4138.46153846 , 2045.0 , 2038.0 , 8.415 , 0.0 , 0.0 , 0.0 , 0.0 , 

64.0 , 4132.30769231 , 4129.23076923 , 4141.02564103 , 4134.35897436 , 4129.74358974 , 4133.33333333 , 4127.69230769 , 4136.41025641 , 4136.41025641 , 4141.53846154 , 4168.71794872 , 4636.92307692 , 4134.35897436 , 4140.0 , 2044.0 , 2036.0 , 8.423 , 0.0 , 0.0 , 0.0 , 0.0 , 

65.0 , 4129.74358974 , 4129.74358974 , 4129.23076923 , 4132.30769231 , 4129.74358974 , 4135.8974359 , 4130.25641026 , 4133.33333333 , 4136.92307692 , 4142.56410256 , 4168.20512821 , 4634.35897436 , 4132.82051282 , 4138.97435897 , 2044.0 , 2036.0 , 8.43 , 0.0 , 0.0 , 0.0 , 0.0 , 

66.0 , 4130.25641026 , 4130.25641026 , 4129.23076923 , 4128.71794872 , 4129.23076923 , 4135.8974359 , 4130.76923077 , 4135.8974359 , 4133.84615385 , 4145.12820513 , 4170.25641026 , 4635.38461538 , 4130.76923077 , 4135.38461538 , 2044.0 , 2036.0 , 8.437 , 0.0 , 0.0 , 0.0 , 0.0 , 

67.0 , 4132.30769231 , 4131.79487179 , 4136.41025641 , 4132.30769231 , 4129.74358974 , 4129.23076923 , 4128.20512821 , 4135.38461538 , 4132.82051282 , 4146.15384615 , 4170.76923077 , 4638.46153846 , 4130.25641026 , 4133.33333333 , 2042.0 , 2036.0 , 8.445 , 0.0 , 0.0 , 0.0 , 0.0 , 

68.0 , 4131.28205128 , 4131.79487179 , 4137.43589744 , 4135.38461538 , 4129.74358974 , 4129.74358974 , 4128.71794872 , 4134.35897436 , 4133.33333333 , 4143.58974359 , 4169.74358974 , 4637.94871795 , 4130.76923077 , 4135.8974359 , 2043.0 , 2036.0 , 8.453 , 0.0 , 0.0 , 0.0 , 0.0 , 

69.0 , 4131.79487179 , 4131.28205128 , 4104.61538462 , 4135.38461538 , 4131.28205128 , 4135.38461538 , 4129.74358974 , 4133.84615385 , 4131.79487179 , 4137.94871795 , 4168.71794872 , 4635.38461538 , 4128.71794872 , 4135.8974359 , 2041.0 , 2038.0 , 8.461 , 0.0 , 0.0 , 0.0 , 0.0 , 

70.0 , 4130.25641026 , 4130.76923077 , 4097.94871795 , 4133.84615385 , 4133.33333333 , 4135.38461538 , 4128.20512821 , 4134.35897436 , 4133.84615385 , 4137.94871795 , 4168.20512821 , 4633.84615385 , 4128.71794872 , 4134.87179487 , 2040.0 , 2039.0 , 8.469 , 0.0 , 0.0 , 0.0 , 0.0 , 

71.0 , 4129.23076923 , 4130.76923077 , 4107.69230769 , 4133.33333333 , 4133.84615385 , 4132.82051282 , 4129.74358974 , 4136.41025641 , 4136.92307692 , 4143.58974359 , 4170.25641026 , 4635.8974359 , 4128.71794872 , 4135.8974359 , 2039.0 , 2038.0 , 8.477 , 0.0 , 0.0 , 0.0 , 0.0 , 

72.0 , 4130.25641026 , 4129.23076923 , 4118.97435897 , 4132.30769231 , 4130.76923077 , 4131.79487179 , 4130.25641026 , 4136.41025641 , 4134.35897436 , 4144.61538462 , 4169.74358974 , 4635.38461538 , 4127.69230769 , 4135.38461538 , 2039.0 , 2037.0 , 8.485 , 0.0 , 0.0 , 0.0 , 0.0 , 

73.0 , 4133.84615385 , 4130.25641026 , 4114.87179487 , 4132.30769231 , 4130.76923077 , 4133.84615385 , 4127.69230769 , 4134.87179487 , 4133.33333333 , 4141.53846154 , 4169.74358974 , 4632.30769231 , 4130.76923077 , 4135.8974359 , 2040.0 , 2036.0 , 8.493 , 0.0 , 0.0 , 0.0 , 0.0 , 

74.0 , 4134.35897436 , 4131.28205128 , 4117.43589744 , 4131.28205128 , 4130.25641026 , 4132.82051282 , 4126.66666667 , 4135.38461538 , 4135.8974359 , 4141.02564103 , 4169.23076923 , 4628.71794872 , 4133.33333333 , 4134.87179487 , 2039.0 , 2036.0 , 8.501 , 0.0 , 0.0 , 0.0 , 0.0 , 

75.0 , 4132.30769231 , 4129.74358974 , 4130.25641026 , 4130.76923077 , 4130.25641026 , 4133.84615385 , 4128.20512821 , 4138.46153846 , 4138.97435897 , 4143.07692308 , 4169.74358974 , 4632.82051282 , 4132.30769231 , 4134.87179487 , 2039.0 , 2035.0 , 8.509 , 0.0 , 0.0 , 0.0 , 0.0 , 

76.0 , 4128.71794872 , 4127.69230769 , 4125.12820513 , 4131.79487179 , 4131.28205128 , 4133.84615385 , 4129.74358974 , 4134.35897436 , 4137.94871795 , 4140.0 , 4168.71794872 , 4632.30769231 , 4128.20512821 , 4135.38461538 , 2038.0 , 2034.0 , 8.516 , 0.0 , 0.0 , 0.0 , 0.0 , 

77.0 , 4128.20512821 , 4127.69230769 , 4111.28205128 , 4132.30769231 , 4132.30769231 , 4130.25641026 , 4130.25641026 , 4131.79487179 , 4135.38461538 , 4141.53846154 , 4169.23076923 , 4630.76923077 , 4129.74358974 , 4137.43589744 , 2037.0 , 2031.0 , 8.524 , 0.0 , 0.0 , 0.0 , 0.0 , 

78.0 , 4129.74358974 , 4127.69230769 , 4116.41025641 , 4130.76923077 , 4131.28205128 , 4127.69230769 , 4128.20512821 , 4130.76923077 , 4133.33333333 , 4143.07692308 , 4169.23076923 , 4630.25641026 , 4128.71794872 , 4134.35897436 , 2037.0 , 2031.0 , 8.532 , 0.0 , 0.0 , 0.0 , 0.0 , 

79.0 , 4131.28205128 , 4127.69230769 , 4126.66666667 , 4129.74358974 , 4129.74358974 , 4127.69230769 , 4128.71794872 , 4133.84615385 , 4135.38461538 , 4144.1025641 , 4170.76923077 , 4631.79487179 , 4128.20512821 , 4132.30769231 , 2037.0 , 2030.0 , 8.54 , 0.0 , 0.0 , 0.0 , 0.0 , 

80.0 , 4130.25641026 , 4128.20512821 , 4117.94871795 , 4131.79487179 , 4130.25641026 , 4128.71794872 , 4130.76923077 , 4136.41025641 , 4135.38461538 , 4142.05128205 , 4171.28205128 , 4631.79487179 , 4129.74358974 , 4132.82051282 , 2037.0 , 2030.0 , 8.548 , 0.0 , 0.0 , 0.0 , 0.0 , 

81.0 , 4130.76923077 , 4129.74358974 , 4112.30769231 , 4133.33333333 , 4131.28205128 , 4131.28205128 , 4129.74358974 , 4135.38461538 , 4133.33333333 , 4141.02564103 , 4169.23076923 , 4631.28205128 , 4131.79487179 , 4134.35897436 , 2036.0 , 2033.0 , 8.556 , 0.0 , 0.0 , 0.0 , 0.0 , 

82.0 , 4131.79487179 , 4131.79487179 , 4101.02564103 , 4132.30769231 , 4131.79487179 , 4131.28205128 , 4127.69230769 , 4129.74358974 , 4132.30769231 , 4138.97435897 , 4167.17948718 , 4628.71794872 , 4129.23076923 , 4134.35897436 , 2037.0 , 2033.0 , 8.564 , 0.0 , 0.0 , 0.0 , 0.0 , 

83.0 , 4131.28205128 , 4130.76923077 , 4116.41025641 , 4131.28205128 , 4132.30769231 , 4132.30769231 , 4128.20512821 , 4132.30769231 , 4134.35897436 , 4141.02564103 , 4169.23076923 , 4632.30769231 , 4131.28205128 , 4133.84615385 , 2038.0 , 2036.0 , 8.572 , 0.0 , 0.0 , 0.0 , 0.0 , 

84.0 , 4132.82051282 , 4126.66666667 , 4113.84615385 , 4133.33333333 , 4132.82051282 , 4135.8974359 , 4127.17948718 , 4134.35897436 , 4131.28205128 , 4142.05128205 , 4170.76923077 , 4633.84615385 , 4134.35897436 , 4132.30769231 , 2038.0 , 2034.0 , 8.58 , 0.0 , 0.0 , 0.0 , 0.0 , 

85.0 , 4132.30769231 , 4127.69230769 , 4121.53846154 , 4133.84615385 , 4132.82051282 , 4134.87179487 , 4125.64102564 , 4132.82051282 , 4131.79487179 , 4141.53846154 , 4170.76923077 , 4630.76923077 , 4133.33333333 , 4133.84615385 , 2038.0 , 2035.0 , 8.587 , 0.0 , 0.0 , 0.0 , 0.0 , 

86.0 , 4130.76923077 , 4131.28205128 , 4120.0 , 4132.30769231 , 4133.84615385 , 4133.33333333 , 4127.69230769 , 4132.30769231 , 4134.35897436 , 4142.56410256 , 4169.74358974 , 4630.76923077 , 4131.79487179 , 4135.8974359 , 2037.0 , 2037.0 , 8.595 , 0.0 , 0.0 , 0.0 , 0.0 , 

87.0 , 4129.74358974 , 4130.76923077 , 4131.28205128 , 4130.25641026 , 4132.82051282 , 4132.82051282 , 4128.20512821 , 4134.87179487 , 4134.87179487 , 4147.17948718 , 4170.76923077 , 4630.76923077 , 4133.33333333 , 4136.41025641 , 2037.0 , 2038.0 , 8.603 , 0.0 , 0.0 , 0.0 , 0.0 , 

88.0 , 4131.28205128 , 4128.71794872 , 4123.58974359 , 4131.28205128 , 4129.74358974 , 4126.66666667 , 4128.20512821 , 4135.38461538 , 4135.8974359 , 4145.12820513 , 4170.25641026 , 4626.66666667 , 4128.71794872 , 4133.84615385 , 2037.0 , 2037.0 , 8.611 , 0.0 , 0.0 , 0.0 , 0.0 , 

89.0 , 4131.28205128 , 4128.71794872 , 4131.28205128 , 4133.33333333 , 4129.23076923 , 4127.69230769 , 4128.71794872 , 4133.84615385 , 4137.94871795 , 4140.0 , 4168.20512821 , 4629.23076923 , 4128.20512821 , 4134.35897436 , 2039.0 , 2037.0 , 8.619 , 0.0 , 0.0 , 0.0 , 0.0 , 

90.0 , 4132.82051282 , 4130.25641026 , 4122.05128205 , 4132.30769231 , 4132.30769231 , 4136.92307692 , 4127.69230769 , 4130.76923077 , 4136.92307692 , 4138.46153846 , 4167.69230769 , 4632.82051282 , 4133.33333333 , 4135.38461538 , 2039.0 , 2036.0 , 8.627 , 0.0 , 0.0 , 0.0 , 0.0 , 

91.0 , 4131.79487179 , 4130.76923077 , 4108.71794872 , 4131.28205128 , 4132.82051282 , 4133.84615385 , 4125.64102564 , 4131.28205128 , 4132.82051282 , 4140.51282051 , 4166.66666667 , 4628.71794872 , 4130.76923077 , 4131.79487179 , 2038.0 , 2035.0 , 8.635 , 0.0 , 0.0 , 0.0 , 0.0 , 

92.0 , 4131.79487179 , 4130.25641026 , 4103.58974359 , 4133.33333333 , 4130.25641026 , 4131.79487179 , 4128.20512821 , 4132.82051282 , 4132.82051282 , 4142.56410256 , 4168.20512821 , 4628.20512821 , 4127.69230769 , 4132.82051282 , 2039.0 , 2035.0 , 8.643 , 0.0 , 0.0 , 0.0 , 0.0 , 

93.0 , 4131.28205128 , 4129.23076923 , 4138.97435897 , 4131.79487179 , 4129.74358974 , 4136.92307692 , 4129.23076923 , 4133.33333333 , 4141.02564103 , 4144.1025641 , 4171.79487179 , 4630.25641026 , 4133.84615385 , 4137.43589744 , 2039.0 , 2036.0 , 8.65 , 0.0 , 0.0 , 0.0 , 0.0 , 

94.0 , 4130.76923077 , 4130.76923077 , 4166.66666667 , 4129.74358974 , 4132.30769231 , 4130.25641026 , 4127.69230769 , 4135.8974359 , 4144.1025641 , 4145.12820513 , 4172.30769231 , 4629.74358974 , 4137.43589744 , 4136.92307692 , 2039.0 , 2036.0 , 8.659 , 0.0 , 0.0 , 0.0 , 0.0 , 

95.0 , 4128.71794872 , 4130.25641026 , 4136.92307692 , 4130.76923077 , 4132.30769231 , 4125.64102564 , 4128.20512821 , 4134.87179487 , 4134.87179487 , 4144.1025641 , 4169.23076923 , 4626.15384615 , 4133.33333333 , 4135.38461538 , 2040.0 , 2037.0 , 8.667 , 0.0 , 0.0 , 0.0 , 0.0 , 

96.0 , 4128.71794872 , 4129.74358974 , 4122.05128205 , 4132.30769231 , 4129.74358974 , 4130.25641026 , 4130.76923077 , 4132.82051282 , 4134.35897436 , 4142.05128205 , 4170.25641026 , 4625.64102564 , 4131.79487179 , 4136.92307692 , 2041.0 , 2035.0 , 8.674 , 0.0 , 0.0 , 0.0 , 0.0 , 

97.0 , 4130.25641026 , 4130.76923077 , 4124.1025641 , 4129.74358974 , 4129.23076923 , 4130.25641026 , 4129.23076923 , 4132.82051282 , 4140.51282051 , 4137.94871795 , 4173.33333333 , 4623.58974359 , 4130.76923077 , 4133.33333333 , 2042.0 , 2035.0 , 8.682 , 0.0 , 0.0 , 0.0 , 0.0 , 

98.0 , 4131.79487179 , 4131.28205128 , 4133.84615385 , 4129.74358974 , 4132.30769231 , 4126.15384615 , 4128.71794872 , 4136.41025641 , 4138.46153846 , 4141.02564103 , 4171.79487179 , 4624.1025641 , 4134.35897436 , 4133.33333333 , 2042.0 , 2035.0 , 8.69 , 0.0 , 0.0 , 0.0 , 0.0 , 

99.0 , 4130.76923077 , 4130.25641026 , 4121.53846154 , 4131.79487179 , 4132.30769231 , 4126.66666667 , 4129.74358974 , 4131.79487179 , 4132.30769231 , 4141.53846154 , 4166.66666667 , 4627.69230769 , 4135.8974359 , 4135.38461538 , 2041.0 , 2034.0 , 8.698 , 0.0 , 0.0 , 0.0 , 0.0 , 

100.0 , 4132.82051282 , 4129.23076923 , 4121.53846154 , 4133.33333333 , 4131.79487179 , 4132.82051282 , 4128.71794872 , 4130.76923077 , 4134.87179487 , 4140.51282051 , 4167.17948718 , 4632.82051282 , 4132.30769231 , 4135.38461538 , 2044.0 , 2034.0 , 8.706 , 0.0 , 0.0 , 0.0 , 0.0 , 

101.0 , 4134.35897436 , 4130.25641026 , 4111.28205128 , 4133.33333333 , 4132.82051282 , 4136.92307692 , 4127.17948718 , 4133.33333333 , 4133.84615385 , 4138.97435897 , 4169.74358974 , 4629.23076923 , 4130.25641026 , 4135.8974359 , 2045.0 , 2035.0 , 8.713 , 0.0 , 0.0 , 0.0 , 0.0 , 

102.0 , 4130.76923077 , 4131.79487179 , 4118.46153846 , 4132.30769231 , 4130.76923077 , 4130.76923077 , 4128.71794872 , 4131.79487179 , 4134.35897436 , 4140.0 , 4169.23076923 , 4624.61538462 , 4134.87179487 , 4135.8974359 , 2042.0 , 2034.0 , 8.721 , 0.0 , 0.0 , 0.0 , 0.0 , 

103.0 , 4129.74358974 , 4132.30769231 , 4115.8974359 , 4131.28205128 , 4127.69230769 , 4125.12820513 , 4128.20512821 , 4130.25641026 , 4138.46153846 , 4144.1025641 , 4168.71794872 , 4627.17948718 , 4133.33333333 , 4134.87179487 , 2044.0 , 2034.0 , 8.729 , 0.0 , 0.0 , 0.0 , 0.0 , 

104.0 , 4130.76923077 , 4130.25641026 , 4145.64102564 , 4131.28205128 , 4130.25641026 , 4130.25641026 , 4126.66666667 , 4136.41025641 , 4137.94871795 , 4149.74358974 , 4171.28205128 , 4631.28205128 , 4131.28205128 , 4134.87179487 , 2044.0 , 2034.0 , 8.737 , 0.0 , 0.0 , 0.0 , 0.0 , 

105.0 , 4131.79487179 , 4127.69230769 , 4150.76923077 , 4131.28205128 , 4133.33333333 , 4129.23076923 , 4128.71794872 , 4136.92307692 , 4135.8974359 , 4142.05128205 , 4169.74358974 , 4627.17948718 , 4131.79487179 , 4133.84615385 , 2042.0 , 2033.0 , 8.745 , 0.0 , 0.0 , 0.0 , 0.0 , 

106.0 , 4130.76923077 , 4127.69230769 , 4130.25641026 , 4130.25641026 , 4129.23076923 , 4126.15384615 , 4128.20512821 , 4133.33333333 , 4138.46153846 , 4135.8974359 , 4167.69230769 , 4625.12820513 , 4130.76923077 , 4134.87179487 , 2042.0 , 2034.0 , 8.753 , 0.0 , 0.0 , 0.0 , 0.0 , 

107.0 , 4131.79487179 , 4132.30769231 , 4107.69230769 , 4130.76923077 , 4128.71794872 , 4134.35897436 , 4125.64102564 , 4132.82051282 , 4135.8974359 , 4141.02564103 , 4168.20512821 , 4627.17948718 , 4127.69230769 , 4135.8974359 , 2042.0 , 2032.0 , 8.761 , 0.0 , 0.0 , 0.0 , 0.0 , 

108.0 , 4130.76923077 , 4131.28205128 , 4129.74358974 , 4131.28205128 , 4132.82051282 , 4135.38461538 , 4126.66666667 , 4132.82051282 , 4133.33333333 , 4144.61538462 , 4169.74358974 , 4624.1025641 , 4128.20512821 , 4132.82051282 , 2041.0 , 2032.0 , 8.769 , 0.0 , 0.0 , 0.0 , 0.0 , 

109.0 , 4131.28205128 , 4125.64102564 , 4129.74358974 , 4131.79487179 , 4133.84615385 , 4132.30769231 , 4127.69230769 , 4132.82051282 , 4135.38461538 , 4144.1025641 , 4169.23076923 , 4622.05128205 , 4130.76923077 , 4132.30769231 , 2041.0 , 2032.0 , 8.777 , 0.0 , 0.0 , 0.0 , 0.0 , 

110.0 , 4130.76923077 , 4126.15384615 , 4111.79487179 , 4131.28205128 , 4132.30769231 , 4133.33333333 , 4125.64102564 , 4133.84615385 , 4134.35897436 , 4143.07692308 , 4168.20512821 , 4624.1025641 , 4131.28205128 , 4134.35897436 , 2040.0 , 2033.0 , 8.784 , 0.0 , 0.0 , 0.0 , 0.0 , 

111.0 , 4131.28205128 , 4132.30769231 , 4103.07692308 , 4131.79487179 , 4132.82051282 , 4131.28205128 , 4126.66666667 , 4133.84615385 , 4133.33333333 , 4142.05128205 , 4168.71794872 , 4625.64102564 , 4130.25641026 , 4135.38461538 , 2040.0 , 2032.0 , 8.792 , 0.0 , 0.0 , 0.0 , 0.0 , 

112.0 , 4130.76923077 , 4132.82051282 , 4123.58974359 , 4130.76923077 , 4131.28205128 , 4128.71794872 , 4128.71794872 , 4133.84615385 , 4137.94871795 , 4141.53846154 , 4168.20512821 , 4622.56410256 , 4130.25641026 , 4133.84615385 , 2039.0 , 2035.0 , 8.8 , 0.0 , 0.0 , 0.0 , 0.0 , 

113.0 , 4130.76923077 , 4131.28205128 , 4143.58974359 , 4131.79487179 , 4130.25641026 , 4130.25641026 , 4129.74358974 , 4137.94871795 , 4140.0 , 4146.66666667 , 4168.20512821 , 4623.07692308 , 4134.87179487 , 4134.35897436 , 2039.0 , 2035.0 , 8.808 , 0.0 , 0.0 , 0.0 , 0.0 , 

114.0 , 4131.28205128 , 4129.74358974 , 4132.30769231 , 4131.28205128 , 4131.28205128 , 4128.71794872 , 4129.74358974 , 4136.41025641 , 4136.41025641 , 4147.69230769 , 4169.23076923 , 4624.61538462 , 4134.35897436 , 4133.33333333 , 2039.0 , 2035.0 , 8.816 , 0.0 , 0.0 , 0.0 , 0.0 , 

115.0 , 4131.79487179 , 4129.74358974 , 4133.33333333 , 4130.76923077 , 4131.79487179 , 4127.17948718 , 4129.23076923 , 4132.30769231 , 4134.87179487 , 4144.61538462 , 4170.76923077 , 4625.64102564 , 4131.28205128 , 4134.35897436 , 2037.0 , 2035.0 , 8.824 , 0.0 , 0.0 , 0.0 , 0.0 , 

116.0 , 4131.79487179 , 4132.30769231 , 4138.46153846 , 4132.30769231 , 4130.76923077 , 4129.74358974 , 4129.23076923 , 4132.30769231 , 4135.38461538 , 4140.0 , 4167.69230769 , 4623.58974359 , 4130.76923077 , 4134.87179487 , 2037.0 , 2035.0 , 8.833 , 0.0 , 0.0 , 0.0 , 0.0 , 

117.0 , 4131.79487179 , 4132.30769231 , 4145.12820513 , 4132.82051282 , 4131.79487179 , 4128.20512821 , 4129.74358974 , 4135.38461538 , 4136.41025641 , 4140.51282051 , 4168.20512821 , 4624.61538462 , 4132.82051282 , 4136.41025641 , 2038.0 , 2035.0 , 8.84 , 0.0 , 0.0 , 0.0 , 0.0 , 

118.0 , 4130.25641026 , 4129.23076923 , 4127.69230769 , 4132.30769231 , 4131.28205128 , 4126.66666667 , 4128.71794872 , 4132.30769231 , 4134.87179487 , 4140.51282051 , 4169.74358974 , 4625.64102564 , 4130.25641026 , 4136.41025641 , 2038.0 , 2034.0 , 8.847 , 0.0 , 0.0 , 0.0 , 0.0 , 

119.0 , 4131.79487179 , 4129.74358974 , 4125.12820513 , 4132.30769231 , 4131.28205128 , 4132.30769231 , 4127.69230769 , 4130.76923077 , 4134.87179487 , 4142.56410256 , 4171.79487179 , 4625.12820513 , 4130.25641026 , 4134.87179487 , 2035.0 , 2034.0 , 8.855 , 0.0 , 0.0 , 0.0 , 0.0 , 

120.0 , 4133.84615385 , 4130.25641026 , 4122.05128205 , 4131.28205128 , 4132.30769231 , 4136.41025641 , 4127.69230769 , 4131.79487179 , 4135.38461538 , 4141.02564103 , 4170.25641026 , 4623.07692308 , 4129.23076923 , 4133.33333333 , 2035.0 , 2033.0 , 8.864 , 0.0 , 0.0 , 0.0 , 0.0 , 

121.0 , 4132.82051282 , 4128.71794872 , 4133.33333333 , 4130.76923077 , 4130.76923077 , 4128.20512821 , 4126.15384615 , 4132.82051282 , 4134.87179487 , 4141.02564103 , 4167.17948718 , 4626.66666667 , 4130.25641026 , 4135.38461538 , 2035.0 , 2031.0 , 8.872 , 0.0 , 0.0 , 0.0 , 0.0 , 

122.0 , 4131.79487179 , 4131.79487179 , 4124.1025641 , 4131.28205128 , 4130.76923077 , 4124.61538462 , 4126.66666667 , 4131.28205128 , 4132.30769231 , 4139.48717949 , 4167.17948718 , 4627.69230769 , 4131.28205128 , 4136.41025641 , 2032.0 , 2030.0 , 8.879 , 0.0 , 0.0 , 0.0 , 0.0 , 

123.0 , 4132.82051282 , 4129.74358974 , 4130.25641026 , 4130.25641026 , 4132.30769231 , 4129.74358974 , 4127.17948718 , 4133.33333333 , 4133.33333333 , 4141.53846154 , 4169.74358974 , 4622.56410256 , 4130.76923077 , 4135.8974359 , 2032.0 , 2030.0 , 8.887 , 0.0 , 0.0 , 0.0 , 0.0 , 

124.0 , 4134.87179487 , 4125.12820513 , 4119.48717949 , 4131.79487179 , 4132.30769231 , 4128.20512821 , 4127.69230769 , 4131.79487179 , 4134.87179487 , 4143.58974359 , 4169.23076923 , 4620.51282051 , 4129.23076923 , 4135.38461538 , 2033.0 , 2030.0 , 8.895 , 0.0 , 0.0 , 0.0 , 0.0 , 

125.0 , 4131.79487179 , 4129.74358974 , 4149.74358974 , 4134.35897436 , 4131.28205128 , 4125.64102564 , 4128.20512821 , 4133.84615385 , 4136.92307692 , 4145.12820513 , 4168.71794872 , 4624.1025641 , 4133.33333333 , 4134.87179487 , 2033.0 , 2031.0 , 8.902 , 0.0 , 0.0 , 0.0 , 0.0 , 

126.0 , 4130.76923077 , 4135.8974359 , 4156.92307692 , 4133.33333333 , 4130.25641026 , 4129.23076923 , 4128.71794872 , 4135.38461538 , 4136.41025641 , 4142.56410256 , 4169.74358974 , 4624.61538462 , 4133.33333333 , 4134.35897436 , 2029.0 , 2032.0 , 8.91 , 0.0 , 0.0 , 0.0 , 0.0 , 

127.0 , 4131.79487179 , 4132.82051282 , 4134.87179487 , 4132.82051282 , 4131.79487179 , 4130.76923077 , 4127.69230769 , 4134.35897436 , 4133.84615385 , 4141.02564103 , 4170.25641026 , 4621.02564103 , 4130.25641026 , 4135.38461538 , 2030.0 , 2033.0 , 8.918 , 0.0 , 0.0 , 0.0 , 0.0 , 

128.0 , 4131.79487179 , 4128.71794872 , 4123.07692308 , 4134.87179487 , 4132.30769231 , 4128.20512821 , 4126.66666667 , 4131.79487179 , 4133.33333333 , 4142.05128205 , 4170.25641026 , 4623.58974359 , 4132.82051282 , 4136.41025641 , 2029.0 , 2033.0 , 8.926 , 0.0 , 0.0 , 0.0 , 0.0 , 

0.0 , 4129.74358974 , 4128.71794872 , 4142.56410256 , 4131.79487179 , 4132.30769231 , 4126.15384615 , 4126.15384615 , 4131.79487179 , 4135.8974359 , 4142.56410256 , 4169.23076923 , 4624.1025641 , 4136.41025641 , 4136.41025641 , 2030.0 , 2034.0 , 8.934 , 0.0 , 0.0 , 0.0 , 0.0 , 

1.0 , 4131.28205128 , 4130.76923077 , 4144.1025641 , 4129.74358974 , 4136.92307692 , 4128.71794872 , 4125.12820513 , 4134.35897436 , 4136.41025641 , 4141.02564103 , 4168.71794872 , 4623.58974359 , 4133.33333333 , 4138.46153846 , 2031.0 , 2035.0 , 8.942 , 0.0 , 0.0 , 0.0 , 0.0 , 

2.0 , 4131.28205128 , 4131.28205128 , 4129.74358974 , 4131.28205128 , 4136.92307692 , 4132.82051282 , 4125.64102564 , 4135.38461538 , 4133.33333333 , 4140.0 , 4169.23076923 , 4625.12820513 , 4127.17948718 , 4136.41025641 , 2030.0 , 2035.0 , 8.95 , 0.0 , 0.0 , 0.0 , 0.0 , 

3.0 , 4132.30769231 , 4131.28205128 , 4126.66666667 , 4133.84615385 , 4130.76923077 , 4134.87179487 , 4126.15384615 , 4136.92307692 , 4134.87179487 , 4142.56410256 , 4170.76923077 , 4626.15384615 , 4127.69230769 , 4133.84615385 , 2030.0 , 2033.0 , 8.958 , 0.0 , 0.0 , 0.0 , 0.0 , 

4.0 , 4132.30769231 , 4130.76923077 , 4118.97435897 , 4134.35897436 , 4129.23076923 , 4132.82051282 , 4124.61538462 , 4134.35897436 , 4137.94871795 , 4141.53846154 , 4169.74358974 , 4622.56410256 , 4129.23076923 , 4132.30769231 , 2031.0 , 2037.0 , 8.966 , 0.0 , 0.0 , 0.0 , 0.0 , 

5.0 , 4132.82051282 , 4128.20512821 , 4130.76923077 , 4133.33333333 , 4132.82051282 , 4134.87179487 , 4127.17948718 , 4133.33333333 , 4134.87179487 , 4140.0 , 4168.71794872 , 4621.02564103 , 4130.76923077 , 4134.35897436 , 2031.0 , 2036.0 , 8.974 , 0.0 , 0.0 , 0.0 , 0.0 , 

6.0 , 4133.33333333 , 4127.17948718 , 4137.43589744 , 4133.84615385 , 4129.74358974 , 4133.84615385 , 4129.74358974 , 4133.33333333 , 4131.79487179 , 4140.51282051 , 4168.20512821 , 4623.07692308 , 4130.76923077 , 4136.41025641 , 2033.0 , 2035.0 , 8.981 , 0.0 , 0.0 , 0.0 , 0.0 , 

7.0 , 4132.30769231 , 4128.20512821 , 4147.69230769 , 4134.87179487 , 4128.20512821 , 4128.71794872 , 4126.15384615 , 4135.8974359 , 4136.92307692 , 4145.12820513 , 4171.79487179 , 4627.69230769 , 4132.30769231 , 4138.46153846 , 2031.0 , 2035.0 , 8.989 , 0.0 , 0.0 , 0.0 , 0.0 , 

8.0 , 4129.74358974 , 4128.71794872 , 4132.82051282 , 4135.38461538 , 4131.79487179 , 4127.69230769 , 4124.61538462 , 4133.84615385 , 4136.92307692 , 4142.05128205 , 4170.76923077 , 4624.1025641 , 4128.71794872 , 4134.35897436 , 2032.0 , 2034.0 , 8.997 , 0.0 , 0.0 , 0.0 , 0.0 , 

9.0 , 4131.79487179 , 4129.74358974 , 4134.35897436 , 4133.84615385 , 4131.28205128 , 4129.23076923 , 4128.20512821 , 4132.82051282 , 4134.35897436 , 4141.53846154 , 4167.17948718 , 4621.02564103 , 4128.71794872 , 4133.33333333 , 2031.0 , 2035.0 , 9.005 , 0.0 , 0.0 , 0.0 , 0.0 , 

10.0 , 4134.87179487 , 4131.28205128 , 4129.74358974 , 4133.33333333 , 4128.20512821 , 4129.23076923 , 4128.71794872 , 4132.30769231 , 4134.87179487 , 4140.51282051 , 4166.66666667 , 4623.07692308 , 4131.28205128 , 4135.8974359 , 2031.0 , 2032.0 , 9.013 , 0.0 , 0.0 , 0.0 , 0.0 , 

11.0 , 4133.33333333 , 4129.23076923 , 4125.12820513 , 4134.87179487 , 4130.25641026 , 4128.20512821 , 4126.15384615 , 4131.79487179 , 4136.92307692 , 4137.94871795 , 4169.23076923 , 4623.58974359 , 4132.30769231 , 4135.38461538 , 2033.0 , 2032.0 , 9.021 , 0.0 , 0.0 , 0.0 , 0.0 , 

12.0 , 4132.30769231 , 4130.25641026 , 4113.33333333 , 4133.33333333 , 4132.82051282 , 4130.25641026 , 4129.74358974 , 4132.82051282 , 4133.84615385 , 4138.46153846 , 4169.23076923 , 4621.02564103 , 4128.71794872 , 4134.87179487 , 2033.0 , 2032.0 , 9.029 , 0.0 , 0.0 , 0.0 , 0.0 , 

13.0 , 4132.30769231 , 4130.25641026 , 4136.41025641 , 4130.25641026 , 4130.76923077 , 4130.25641026 , 4129.74358974 , 4134.35897436 , 4136.41025641 , 4143.07692308 , 4170.25641026 , 4621.53846154 , 4131.28205128 , 4133.84615385 , 2032.0 , 2033.0 , 9.037 , 0.0 , 0.0 , 0.0 , 0.0 , 

14.0 , 4132.82051282 , 4125.64102564 , 4136.41025641 , 4132.30769231 , 4130.25641026 , 4127.17948718 , 4126.66666667 , 4133.33333333 , 4141.02564103 , 4141.53846154 , 4168.71794872 , 4623.58974359 , 4134.87179487 , 4132.82051282 , 2033.0 , 2032.0 , 9.044 , 0.0 , 0.0 , 0.0 , 0.0 , 

15.0 , 4131.79487179 , 4126.66666667 , 4148.20512821 , 4133.84615385 , 4132.82051282 , 4129.74358974 , 4128.71794872 , 4135.8974359 , 4140.0 , 4140.51282051 , 4166.66666667 , 4623.58974359 , 4135.38461538 , 4134.35897436 , 2031.0 , 2034.0 , 9.052 , 0.0 , 0.0 , 0.0 , 0.0 , 

16.0 , 4131.79487179 , 4132.30769231 , 4145.12820513 , 4131.28205128 , 4132.82051282 , 4130.25641026 , 4130.25641026 , 4137.94871795 , 4134.35897436 , 4142.05128205 , 4169.23076923 , 4624.1025641 , 4132.82051282 , 4136.92307692 , 2032.0 , 2033.0 , 9.06 , 0.0 , 0.0 , 0.0 , 0.0 , 

17.0 , 4128.71794872 , 4130.25641026 , 4132.30769231 , 4131.79487179 , 4129.74358974 , 4127.69230769 , 4126.66666667 , 4135.8974359 , 4131.79487179 , 4141.53846154 , 4170.76923077 , 4621.53846154 , 4129.74358974 , 4135.38461538 , 2030.0 , 2036.0 , 9.068 , 0.0 , 0.0 , 0.0 , 0.0 , 

18.0 , 4127.69230769 , 4128.20512821 , 4129.23076923 , 4133.84615385 , 4129.74358974 , 4134.87179487 , 4126.66666667 , 4135.38461538 , 4133.84615385 , 4140.0 , 4169.74358974 , 4624.1025641 , 4130.76923077 , 4135.8974359 , 2030.0 , 2035.0 , 9.076 , 0.0 , 0.0 , 0.0 , 0.0 , 

19.0 , 4130.76923077 , 4130.25641026 , 4134.35897436 , 4130.25641026 , 4130.25641026 , 4137.43589744 , 4130.76923077 , 4135.38461538 , 4134.35897436 , 4138.97435897 , 4166.66666667 , 4624.1025641 , 4131.79487179 , 4137.43589744 , 2029.0 , 2034.0 , 9.085 , 0.0 , 0.0 , 0.0 , 0.0 , 

20.0 , 4134.87179487 , 4132.82051282 , 4122.05128205 , 4129.23076923 , 4129.23076923 , 4128.20512821 , 4129.74358974 , 4133.84615385 , 4132.82051282 , 4139.48717949 , 4167.17948718 , 4617.94871795 , 4130.76923077 , 4137.94871795 , 2031.0 , 2033.0 , 9.092 , 0.0 , 0.0 , 0.0 , 0.0 , 

21.0 , 4130.25641026 , 4129.74358974 , 4129.74358974 , 4129.74358974 , 4129.23076923 , 4125.12820513 , 4126.15384615 , 4133.84615385 , 4134.35897436 , 4141.53846154 , 4169.74358974 , 4618.46153846 , 4130.76923077 , 4136.41025641 , 2032.0 , 2032.0 , 9.1 , 0.0 , 0.0 , 0.0 , 0.0 , 

22.0 , 4128.71794872 , 4127.17948718 , 4156.41025641 , 4130.25641026 , 4130.76923077 , 4128.20512821 , 4126.66666667 , 4138.97435897 , 4137.43589744 , 4144.1025641 , 4171.79487179 , 4625.64102564 , 4135.38461538 , 4136.41025641 , 2032.0 , 2030.0 , 9.107 , 0.0 , 0.0 , 0.0 , 0.0 , 

23.0 , 4131.28205128 , 4126.15384615 , 4147.69230769 , 4130.76923077 , 4128.71794872 , 4127.17948718 , 4128.71794872 , 4137.43589744 , 4136.41025641 , 4141.02564103 , 4169.23076923 , 4625.12820513 , 4134.87179487 , 4134.87179487 , 2034.0 , 2029.0 , 9.117 , 0.0 , 0.0 , 0.0 , 0.0 , 

24.0 , 4133.33333333 , 4130.25641026 , 4137.94871795 , 4130.76923077 , 4127.69230769 , 4129.23076923 , 4130.25641026 , 4136.41025641 , 4135.8974359 , 4142.56410256 , 4168.20512821 , 4621.53846154 , 4131.79487179 , 4136.92307692 , 2034.0 , 2027.0 , 9.124 , 0.0 , 0.0 , 0.0 , 0.0 , 

25.0 , 4132.82051282 , 4132.82051282 , 4132.30769231 , 4130.25641026 , 4130.76923077 , 4131.79487179 , 4130.25641026 , 4136.41025641 , 4134.35897436 , 4143.58974359 , 4169.23076923 , 4620.51282051 , 4128.71794872 , 4135.8974359 , 2035.0 , 2027.0 , 9.131 , 0.0 , 0.0 , 0.0 , 0.0 , 

26.0 , 4131.79487179 , 4129.74358974 , 4148.71794872 , 4131.28205128 , 4132.30769231 , 4126.66666667 , 4128.20512821 , 4136.92307692 , 4133.84615385 , 4141.02564103 , 4169.23076923 , 4623.58974359 , 4131.79487179 , 4134.35897436 , 2034.0 , 2026.0 , 9.139 , 0.0 , 0.0 , 0.0 , 0.0 , 

27.0 , 4130.76923077 , 4128.71794872 , 4137.94871795 , 4133.33333333 , 4132.30769231 , 4127.17948718 , 4128.20512821 , 4133.33333333 , 4133.33333333 , 4137.43589744 , 4169.23076923 , 4624.61538462 , 4132.82051282 , 4133.84615385 , 2034.0 , 2026.0 , 9.147 , 0.0 , 0.0 , 0.0 , 0.0 , 

28.0 , 4130.25641026 , 4130.76923077 , 4128.20512821 , 4131.79487179 , 4131.79487179 , 4129.74358974 , 4130.76923077 , 4134.35897436 , 4134.35897436 , 4137.94871795 , 4171.79487179 , 4621.53846154 , 4130.76923077 , 4134.87179487 , 2034.0 , 2028.0 , 9.155 , 0.0 , 0.0 , 0.0 , 0.0 , 

29.0 , 4130.25641026 , 4130.76923077 , 4123.58974359 , 4133.84615385 , 4130.76923077 , 4130.25641026 , 4131.28205128 , 4136.41025641 , 4134.35897436 , 4138.97435897 , 4169.74358974 , 4616.92307692 , 4130.25641026 , 4138.46153846 , 2035.0 , 2028.0 , 9.163 , 0.0 , 0.0 , 0.0 , 0.0 , 

30.0 , 4132.30769231 , 4130.25641026 , 4162.05128205 , 4136.41025641 , 4129.74358974 , 4129.74358974 , 4129.74358974 , 4138.97435897 , 4137.43589744 , 4143.58974359 , 4167.69230769 , 4620.0 , 4135.8974359 , 4138.97435897 , 2035.0 , 2028.0 , 9.171 , 0.0 , 0.0 , 0.0 , 0.0 , 

31.0 , 4133.84615385 , 4131.79487179 , 4148.20512821 , 4134.87179487 , 4130.76923077 , 4126.66666667 , 4130.25641026 , 4136.92307692 , 4134.35897436 , 4142.05128205 , 4168.71794872 , 4625.64102564 , 4133.84615385 , 4134.87179487 , 2036.0 , 2029.0 , 9.178 , 0.0 , 0.0 , 0.0 , 0.0 , 

32.0 , 4131.28205128 , 4131.79487179 , 4115.8974359 , 4130.76923077 , 4130.76923077 , 4128.20512821 , 4129.23076923 , 4131.79487179 , 4131.28205128 , 4136.41025641 , 4170.25641026 , 4625.12820513 , 4130.25641026 , 4134.35897436 , 2037.0 , 2030.0 , 9.186 , 0.0 , 0.0 , 0.0 , 0.0 , 

33.0 , 4132.82051282 , 4130.25641026 , 4113.84615385 , 4129.74358974 , 4132.82051282 , 4134.87179487 , 4129.23076923 , 4131.28205128 , 4136.41025641 , 4138.97435897 , 4168.71794872 , 4622.56410256 , 4130.76923077 , 4136.41025641 , 2037.0 , 2029.0 , 9.194 , 0.0 , 0.0 , 0.0 , 0.0 , 

34.0 , 4134.87179487 , 4129.23076923 , 4144.61538462 , 4131.79487179 , 4132.82051282 , 4135.8974359 , 4129.74358974 , 4135.8974359 , 4140.51282051 , 4146.15384615 , 4169.23076923 , 4622.56410256 , 4133.84615385 , 4135.8974359 , 2035.0 , 2028.0 , 9.202 , 0.0 , 0.0 , 0.0 , 0.0 , 

35.0 , 4132.82051282 , 4131.28205128 , 4136.92307692 , 4131.28205128 , 4130.25641026 , 4131.28205128 , 4129.23076923 , 4136.92307692 , 4134.87179487 , 4143.58974359 , 4172.82051282 , 4627.17948718 , 4134.87179487 , 4137.43589744 , 2035.0 , 2028.0 , 9.21 , 0.0 , 0.0 , 0.0 , 0.0 , 

36.0 , 4130.25641026 , 4133.33333333 , 4116.92307692 , 4129.74358974 , 4131.79487179 , 4130.25641026 , 4130.25641026 , 4133.84615385 , 4129.74358974 , 4135.8974359 , 4171.28205128 , 4626.15384615 , 4134.35897436 , 4137.94871795 , 2035.0 , 2025.0 , 9.218 , 0.0 , 0.0 , 0.0 , 0.0 , 

37.0 , 4132.30769231 , 4132.82051282 , 4119.48717949 , 4131.28205128 , 4132.82051282 , 4134.87179487 , 4130.76923077 , 4133.33333333 , 4132.30769231 , 4137.43589744 , 4167.17948718 , 4620.0 , 4132.82051282 , 4134.87179487 , 2035.0 , 2026.0 , 9.226 , 0.0 , 0.0 , 0.0 , 0.0 , 

38.0 , 4131.79487179 , 4132.30769231 , 4143.07692308 , 4131.79487179 , 4129.23076923 , 4135.38461538 , 4128.71794872 , 4134.87179487 , 4134.87179487 , 4143.07692308 , 4167.17948718 , 4618.46153846 , 4130.76923077 , 4133.84615385 , 2039.0 , 2024.0 , 9.234 , 0.0 , 0.0 , 0.0 , 0.0 , 

39.0 , 4131.28205128 , 4132.82051282 , 4151.28205128 , 4132.30769231 , 4129.23076923 , 4130.25641026 , 4130.25641026 , 4136.41025641 , 4133.33333333 , 4143.58974359 , 4170.76923077 , 4626.15384615 , 4133.84615385 , 4138.46153846 , 2040.0 , 2024.0 , 9.242 , 0.0 , 0.0 , 0.0 , 0.0 , 

40.0 , 4130.76923077 , 4129.74358974 , 4134.35897436 , 4132.30769231 , 4132.30769231 , 4129.23076923 , 4132.30769231 , 4132.30769231 , 4132.30769231 , 4140.51282051 , 4170.25641026 , 4625.12820513 , 4134.35897436 , 4138.97435897 , 2042.0 , 2023.0 , 9.249 , 0.0 , 0.0 , 0.0 , 0.0 , 

41.0 , 4132.30769231 , 4129.23076923 , 4137.43589744 , 4131.79487179 , 4132.30769231 , 4132.82051282 , 4130.76923077 , 4131.28205128 , 4135.8974359 , 4143.07692308 , 4169.23076923 , 4620.51282051 , 4133.33333333 , 4135.8974359 , 2048.0 , 2019.0 , 9.257 , 0.0 , 0.0 , 0.0 , 0.0 , 

42.0 , 4132.82051282 , 4131.28205128 , 4137.43589744 , 4130.25641026 , 4130.76923077 , 4131.79487179 , 4130.25641026 , 4134.35897436 , 4135.38461538 , 4143.07692308 , 4166.66666667 , 4621.02564103 , 4132.30769231 , 4134.87179487 , 2050.0 , 2018.0 , 9.265 , 0.0 , 0.0 , 0.0 , 0.0 , 

43.0 , 4133.33333333 , 4130.76923077 , 4132.82051282 , 4130.76923077 , 4129.23076923 , 4127.69230769 , 4131.28205128 , 4134.87179487 , 4131.28205128 , 4139.48717949 , 4167.17948718 , 4624.61538462 , 4133.33333333 , 4137.94871795 , 2057.0 , 2014.0 , 9.273 , 0.0 , 0.0 , 0.0 , 0.0 , 

44.0 , 4132.82051282 , 4129.74358974 , 4126.66666667 , 4132.82051282 , 4128.71794872 , 4128.71794872 , 4128.71794872 , 4130.76923077 , 4131.28205128 , 4137.94871795 , 4168.20512821 , 4622.05128205 , 4133.84615385 , 4136.92307692 , 2058.0 , 2013.0 , 9.281 , 0.0 , 0.0 , 0.0 , 0.0 , 

45.0 , 4132.82051282 , 4130.76923077 , 4145.64102564 , 4132.82051282 , 4131.28205128 , 4131.28205128 , 4127.17948718 , 4131.79487179 , 4134.35897436 , 4142.56410256 , 4168.20512821 , 4623.58974359 , 4136.41025641 , 4136.41025641 , 2057.0 , 2012.0 , 9.289 , 0.0 , 0.0 , 0.0 , 0.0 , 

46.0 , 4133.33333333 , 4131.79487179 , 4131.28205128 , 4133.84615385 , 4131.79487179 , 4131.28205128 , 4129.23076923 , 4132.30769231 , 4135.38461538 , 4141.53846154 , 4166.15384615 , 4624.1025641 , 4132.82051282 , 4137.43589744 , 2057.0 , 2012.0 , 9.297 , 0.0 , 0.0 , 0.0 , 0.0 , 

47.0 , 4133.33333333 , 4131.28205128 , 4125.64102564 , 4135.8974359 , 4131.79487179 , 4130.25641026 , 4128.20512821 , 4133.33333333 , 4136.92307692 , 4140.0 , 4168.71794872 , 4621.53846154 , 4130.25641026 , 4133.84615385 , 2057.0 , 2012.0 , 9.305 , 0.0 , 0.0 , 0.0 , 0.0 , 

48.0 , 4133.33333333 , 4130.76923077 , 4121.53846154 , 4134.35897436 , 4133.84615385 , 4129.23076923 , 4126.66666667 , 4132.82051282 , 4134.35897436 , 4141.02564103 , 4168.71794872 , 4619.48717949 , 4131.79487179 , 4130.76923077 , 2054.0 , 2011.0 , 9.313 , 0.0 , 0.0 , 0.0 , 0.0 , 

49.0 , 4131.28205128 , 4131.79487179 , 4120.0 , 4130.25641026 , 4131.79487179 , 4127.17948718 , 4129.74358974 , 4131.79487179 , 4133.33333333 , 4141.02564103 , 4165.64102564 , 4618.97435897 , 4131.79487179 , 4134.35897436 , 2054.0 , 2010.0 , 9.321 , 0.0 , 0.0 , 0.0 , 0.0 , 

50.0 , 4130.76923077 , 4133.33333333 , 4106.66666667 , 4131.28205128 , 4128.71794872 , 4128.71794872 , 4133.33333333 , 4133.84615385 , 4135.38461538 , 4139.48717949 , 4165.64102564 , 4621.53846154 , 4129.23076923 , 4137.94871795 , 2053.0 , 2008.0 , 9.329 , 0.0 , 0.0 , 0.0 , 0.0 , 

51.0 , 4130.25641026 , 4130.25641026 , 4129.23076923 , 4133.33333333 , 4129.74358974 , 4130.25641026 , 4130.76923077 , 4136.92307692 , 4136.41025641 , 4144.1025641 , 4169.23076923 , 4622.56410256 , 4131.28205128 , 4134.87179487 , 2053.0 , 2008.0 , 9.336 , 0.0 , 0.0 , 0.0 , 0.0 , 

