['COUNTER', 'AF3', 'F7', 'F3', 'FC5', 'T7', 'P7', 'O1', 'O2', 'P8', 'T8', 'FC6', 'F4', 'F8', 'AF4', 'GYROX', 'GYROY', 'TIMESTAMP', 'FUNC_ID', 'FUNC_VALUE', 'MARKER', 'SYNC_SIGNAL']
7.0 , 4130.25641026 , 4134.35897436 , 4131.28205128 , 4132.82051282 , 4127.69230769 , 4130.25641026 , 4131.79487179 , 4194.87179487 , 4145.64102564 , 4140.0 , 4188.71794872 , 4912.82051282 , 4136.92307692 , 4138.46153846 , 2056.0 , 2031.0 , 267.373 , 0.0 , 0.0 , 0.0 , 0.0 , 

8.0 , 4136.41025641 , 4135.38461538 , 4133.33333333 , 4126.66666667 , 4130.25641026 , 4124.61538462 , 4122.56410256 , 4182.56410256 , 4132.30769231 , 4138.97435897 , 4184.61538462 , 4913.84615385 , 4126.66666667 , 4140.0 , 2055.0 , 2027.0 , 267.379 , 0.0 , 0.0 , 0.0 , 0.0 , 

9.0 , 4132.30769231 , 4136.41025641 , 4128.20512821 , 4135.8974359 , 4130.25641026 , 4130.76923077 , 4131.28205128 , 4191.28205128 , 4135.8974359 , 4140.0 , 4189.74358974 , 4907.17948718 , 4137.94871795 , 4138.97435897 , 2056.0 , 2023.0 , 267.386 , 0.0 , 0.0 , 0.0 , 0.0 , 

10.0 , 4130.25641026 , 4128.20512821 , 4131.79487179 , 4134.35897436 , 4129.23076923 , 4125.64102564 , 4122.56410256 , 4171.28205128 , 4122.05128205 , 4134.87179487 , 4184.61538462 , 4914.87179487 , 4129.23076923 , 4140.0 , 2056.0 , 2022.0 , 267.399 , 0.0 , 0.0 , 0.0 , 0.0 , 

11.0 , 4129.23076923 , 4130.76923077 , 4126.66666667 , 4134.87179487 , 4129.74358974 , 4126.66666667 , 4122.56410256 , 4177.43589744 , 4126.66666667 , 4134.35897436 , 4189.74358974 , 4912.30769231 , 4140.51282051 , 4134.35897436 , 2055.0 , 2021.0 , 267.404 , 0.0 , 0.0 , 0.0 , 0.0 , 

12.0 , 4134.87179487 , 4122.56410256 , 4133.33333333 , 4125.12820513 , 4131.28205128 , 4117.43589744 , 4111.28205128 , 4169.23076923 , 4118.97435897 , 4134.35897436 , 4186.15384615 , 4911.79487179 , 4134.87179487 , 4135.38461538 , 2052.0 , 2022.0 , 267.412 , 0.0 , 0.0 , 0.0 , 0.0 , 

13.0 , 4130.25641026 , 4126.15384615 , 4127.17948718 , 4136.41025641 , 4127.69230769 , 4123.07692308 , 4123.07692308 , 4185.12820513 , 4138.97435897 , 4138.97435897 , 4191.28205128 , 4904.1025641 , 4146.66666667 , 4136.41025641 , 2052.0 , 2023.0 , 267.419 , 0.0 , 0.0 , 0.0 , 0.0 , 

14.0 , 4130.25641026 , 4121.53846154 , 4133.33333333 , 4127.69230769 , 4125.12820513 , 4116.41025641 , 4113.33333333 , 4173.84615385 , 4131.28205128 , 4135.8974359 , 4188.71794872 , 4910.76923077 , 4131.79487179 , 4138.46153846 , 2049.0 , 2023.0 , 267.43 , 0.0 , 0.0 , 0.0 , 0.0 , 

15.0 , 4128.20512821 , 4129.74358974 , 4127.69230769 , 4132.30769231 , 4129.23076923 , 4124.1025641 , 4125.12820513 , 4190.25641026 , 4142.05128205 , 4137.94871795 , 4191.28205128 , 4907.69230769 , 4142.05128205 , 4137.43589744 , 2048.0 , 2024.0 , 267.437 , 0.0 , 0.0 , 0.0 , 0.0 , 

16.0 , 4127.69230769 , 4123.07692308 , 4133.33333333 , 4124.61538462 , 4129.74358974 , 4122.05128205 , 4122.56410256 , 4188.71794872 , 4144.1025641 , 4139.48717949 , 4185.64102564 , 4907.17948718 , 4134.35897436 , 4139.48717949 , 2048.0 , 2024.0 , 267.442 , 0.0 , 0.0 , 0.0 , 0.0 , 

17.0 , 4130.25641026 , 4125.64102564 , 4129.74358974 , 4127.69230769 , 4129.23076923 , 4128.71794872 , 4130.25641026 , 4203.58974359 , 4150.76923077 , 4142.56410256 , 4192.30769231 , 4903.58974359 , 4133.84615385 , 4136.41025641 , 2048.0 , 2025.0 , 267.45 , 0.0 , 0.0 , 0.0 , 0.0 , 

18.0 , 4133.84615385 , 4123.58974359 , 4135.38461538 , 4122.56410256 , 4128.71794872 , 4128.20512821 , 4124.1025641 , 4195.8974359 , 4133.84615385 , 4139.48717949 , 4188.71794872 , 4910.76923077 , 4126.66666667 , 4136.41025641 , 2045.0 , 2025.0 , 267.462 , 0.0 , 0.0 , 0.0 , 0.0 , 

19.0 , 4132.82051282 , 4133.33333333 , 4136.92307692 , 4129.74358974 , 4129.74358974 , 4135.8974359 , 4134.35897436 , 4195.8974359 , 4132.30769231 , 4140.51282051 , 4184.61538462 , 4911.28205128 , 4131.79487179 , 4136.41025641 , 2045.0 , 2024.0 , 267.468 , 0.0 , 0.0 , 0.0 , 0.0 , 

20.0 , 4130.76923077 , 4128.71794872 , 4141.53846154 , 4124.61538462 , 4128.71794872 , 4130.76923077 , 4128.20512821 , 4188.71794872 , 4134.35897436 , 4138.97435897 , 4181.02564103 , 4915.8974359 , 4126.15384615 , 4138.46153846 , 2045.0 , 2026.0 , 267.473 , 0.0 , 0.0 , 0.0 , 0.0 , 

21.0 , 4134.87179487 , 4128.71794872 , 4136.92307692 , 4126.15384615 , 4130.25641026 , 4129.74358974 , 4125.64102564 , 4183.58974359 , 4132.82051282 , 4138.46153846 , 4185.64102564 , 4913.84615385 , 4126.66666667 , 4141.53846154 , 2047.0 , 2024.0 , 267.482 , 0.0 , 0.0 , 0.0 , 0.0 , 

22.0 , 4133.33333333 , 4130.25641026 , 4132.30769231 , 4130.25641026 , 4129.23076923 , 4127.69230769 , 4124.61538462 , 4180.0 , 4131.79487179 , 4140.0 , 4184.1025641 , 4910.76923077 , 4129.74358974 , 4141.53846154 , 2049.0 , 2024.0 , 267.496 , 0.0 , 0.0 , 0.0 , 0.0 , 

23.0 , 4133.84615385 , 4133.33333333 , 4133.33333333 , 4130.76923077 , 4131.79487179 , 4128.20512821 , 4123.58974359 , 4176.41025641 , 4127.17948718 , 4138.97435897 , 4182.56410256 , 4909.74358974 , 4128.20512821 , 4137.94871795 , 2050.0 , 2025.0 , 267.5 , 0.0 , 0.0 , 0.0 , 0.0 , 

24.0 , 4132.30769231 , 4131.79487179 , 4129.74358974 , 4133.33333333 , 4131.79487179 , 4130.76923077 , 4125.12820513 , 4177.94871795 , 4136.41025641 , 4136.41025641 , 4187.17948718 , 4909.74358974 , 4138.97435897 , 4134.87179487 , 2052.0 , 2024.0 , 267.505 , 0.0 , 0.0 , 0.0 , 0.0 , 

25.0 , 4136.41025641 , 4129.74358974 , 4131.28205128 , 4134.87179487 , 4129.23076923 , 4126.15384615 , 4119.48717949 , 4171.28205128 , 4130.76923077 , 4136.92307692 , 4188.71794872 , 4911.79487179 , 4138.97435897 , 4139.48717949 , 2054.0 , 2023.0 , 267.513 , 0.0 , 0.0 , 0.0 , 0.0 , 

26.0 , 4132.82051282 , 4131.79487179 , 4127.69230769 , 4138.46153846 , 4127.17948718 , 4126.66666667 , 4123.07692308 , 4186.66666667 , 4138.97435897 , 4140.0 , 4193.33333333 , 4908.20512821 , 4145.12820513 , 4137.43589744 , 2059.0 , 2022.0 , 267.528 , 0.0 , 0.0 , 0.0 , 0.0 , 

27.0 , 4130.76923077 , 4125.64102564 , 4130.25641026 , 4127.69230769 , 4129.74358974 , 4122.56410256 , 4117.43589744 , 4176.92307692 , 4131.28205128 , 4136.92307692 , 4190.25641026 , 4906.66666667 , 4135.8974359 , 4136.92307692 , 2061.0 , 2021.0 , 267.531 , 0.0 , 0.0 , 0.0 , 0.0 , 

28.0 , 4128.20512821 , 4124.61538462 , 4125.12820513 , 4132.82051282 , 4127.17948718 , 4125.64102564 , 4124.1025641 , 4186.15384615 , 4145.12820513 , 4138.46153846 , 4191.28205128 , 4903.58974359 , 4141.53846154 , 4137.94871795 , 2064.0 , 2023.0 , 267.536 , 0.0 , 0.0 , 0.0 , 0.0 , 

29.0 , 4132.82051282 , 4117.43589744 , 4135.38461538 , 4124.1025641 , 4125.64102564 , 4116.92307692 , 4113.33333333 , 4182.56410256 , 4137.94871795 , 4137.94871795 , 4186.15384615 , 4910.25641026 , 4122.05128205 , 4140.51282051 , 2064.0 , 2024.0 , 267.545 , 0.0 , 0.0 , 0.0 , 0.0 , 

30.0 , 4128.71794872 , 4124.61538462 , 4129.74358974 , 4123.58974359 , 4127.69230769 , 4126.66666667 , 4124.61538462 , 4203.58974359 , 4146.15384615 , 4138.46153846 , 4191.79487179 , 4907.17948718 , 4129.23076923 , 4135.38461538 , 2064.0 , 2028.0 , 267.556 , 0.0 , 0.0 , 0.0 , 0.0 , 

31.0 , 4130.25641026 , 4121.53846154 , 4133.84615385 , 4118.46153846 , 4128.20512821 , 4125.12820513 , 4121.02564103 , 4187.69230769 , 4134.87179487 , 4136.41025641 , 4183.07692308 , 4911.79487179 , 4121.53846154 , 4136.92307692 , 2065.0 , 2028.0 , 267.563 , 0.0 , 0.0 , 0.0 , 0.0 , 

32.0 , 4130.25641026 , 4133.33333333 , 4131.28205128 , 4134.87179487 , 4128.71794872 , 4132.30769231 , 4130.76923077 , 4196.41025641 , 4145.64102564 , 4140.51282051 , 4187.17948718 , 4909.23076923 , 4133.33333333 , 4136.41025641 , 2064.0 , 2028.0 , 267.567 , 0.0 , 0.0 , 0.0 , 0.0 , 

33.0 , 4130.25641026 , 4132.30769231 , 4141.53846154 , 4126.15384615 , 4131.28205128 , 4129.23076923 , 4122.05128205 , 4186.66666667 , 4133.84615385 , 4137.94871795 , 4188.20512821 , 4915.38461538 , 4121.53846154 , 4136.41025641 , 2062.0 , 2030.0 , 267.576 , 0.0 , 0.0 , 0.0 , 0.0 , 

34.0 , 4128.71794872 , 4137.43589744 , 4133.33333333 , 4131.28205128 , 4131.79487179 , 4133.33333333 , 4131.28205128 , 4194.35897436 , 4136.41025641 , 4138.46153846 , 4190.25641026 , 4911.28205128 , 4135.38461538 , 4135.38461538 , 2059.0 , 2031.0 , 267.588 , 0.0 , 0.0 , 0.0 , 0.0 , 

35.0 , 4132.82051282 , 4131.28205128 , 4133.84615385 , 4131.28205128 , 4127.69230769 , 4127.17948718 , 4123.07692308 , 4176.92307692 , 4128.20512821 , 4137.94871795 , 4181.53846154 , 4914.35897436 , 4133.33333333 , 4138.97435897 , 2055.0 , 2032.0 , 267.595 , 0.0 , 0.0 , 0.0 , 0.0 , 

36.0 , 4132.82051282 , 4136.92307692 , 4129.74358974 , 4141.02564103 , 4130.25641026 , 4137.43589744 , 4134.35897436 , 4180.51282051 , 4132.82051282 , 4140.51282051 , 4187.69230769 , 4913.33333333 , 4138.46153846 , 4139.48717949 , 2054.0 , 2033.0 , 267.6 , 0.0 , 0.0 , 0.0 , 0.0 , 

37.0 , 4128.71794872 , 4129.23076923 , 4130.76923077 , 4134.87179487 , 4130.76923077 , 4130.25641026 , 4125.64102564 , 4175.8974359 , 4123.58974359 , 4133.84615385 , 4186.15384615 , 4914.87179487 , 4134.87179487 , 4138.46153846 , 2051.0 , 2033.0 , 267.608 , 0.0 , 0.0 , 0.0 , 0.0 , 

38.0 , 4129.23076923 , 4128.20512821 , 4126.15384615 , 4137.94871795 , 4126.66666667 , 4120.51282051 , 4115.8974359 , 4176.92307692 , 4125.64102564 , 4130.76923077 , 4187.17948718 , 4908.20512821 , 4142.05128205 , 4136.92307692 , 2049.0 , 2034.0 , 267.622 , 0.0 , 0.0 , 0.0 , 0.0 , 

39.0 , 4130.76923077 , 4121.53846154 , 4129.23076923 , 4132.30769231 , 4122.56410256 , 4113.84615385 , 4107.17948718 , 4173.84615385 , 4128.20512821 , 4132.82051282 , 4188.71794872 , 4909.23076923 , 4137.43589744 , 4138.46153846 , 2046.0 , 2032.0 , 267.626 , 0.0 , 0.0 , 0.0 , 0.0 , 

40.0 , 4129.23076923 , 4124.1025641 , 4128.71794872 , 4131.28205128 , 4125.64102564 , 4118.97435897 , 4114.35897436 , 4179.48717949 , 4129.74358974 , 4135.8974359 , 4191.79487179 , 4909.23076923 , 4133.84615385 , 4137.94871795 , 2043.0 , 2032.0 , 267.631 , 0.0 , 0.0 , 0.0 , 0.0 , 

41.0 , 4124.1025641 , 4126.66666667 , 4125.64102564 , 4131.28205128 , 4126.66666667 , 4122.56410256 , 4116.41025641 , 4188.20512821 , 4140.51282051 , 4136.41025641 , 4191.28205128 , 4905.64102564 , 4136.41025641 , 4135.38461538 , 2042.0 , 2032.0 , 267.639 , 0.0 , 0.0 , 0.0 , 0.0 , 

42.0 , 4130.76923077 , 4124.1025641 , 4128.71794872 , 4126.66666667 , 4127.69230769 , 4123.58974359 , 4115.8974359 , 4190.76923077 , 4140.0 , 4138.97435897 , 4190.76923077 , 4903.07692308 , 4134.87179487 , 4136.92307692 , 2040.0 , 2033.0 , 267.65 , 0.0 , 0.0 , 0.0 , 0.0 , 

43.0 , 4130.25641026 , 4122.05128205 , 4130.76923077 , 4127.17948718 , 4128.20512821 , 4124.61538462 , 4124.1025641 , 4200.0 , 4146.66666667 , 4141.02564103 , 4191.79487179 , 4904.61538462 , 4140.0 , 4136.92307692 , 2041.0 , 2034.0 , 267.657 , 0.0 , 0.0 , 0.0 , 0.0 , 

44.0 , 4131.28205128 , 4126.15384615 , 4135.8974359 , 4123.07692308 , 4130.25641026 , 4124.1025641 , 4122.05128205 , 4188.71794872 , 4141.02564103 , 4137.43589744 , 4188.20512821 , 4909.74358974 , 4129.74358974 , 4136.92307692 , 2038.0 , 2034.0 , 267.665 , 0.0 , 0.0 , 0.0 , 0.0 , 

45.0 , 4130.25641026 , 4132.82051282 , 4129.23076923 , 4128.20512821 , 4130.25641026 , 4133.84615385 , 4132.30769231 , 4200.51282051 , 4145.64102564 , 4138.46153846 , 4192.30769231 , 4904.61538462 , 4133.84615385 , 4135.38461538 , 2038.0 , 2034.0 , 267.672 , 0.0 , 0.0 , 0.0 , 0.0 , 

46.0 , 4134.87179487 , 4127.69230769 , 4135.8974359 , 4126.66666667 , 4132.82051282 , 4130.76923077 , 4129.74358974 , 4188.71794872 , 4127.17948718 , 4138.46153846 , 4186.66666667 , 4909.23076923 , 4123.07692308 , 4138.97435897 , 2039.0 , 2036.0 , 267.684 , 0.0 , 0.0 , 0.0 , 0.0 , 

47.0 , 4132.30769231 , 4136.92307692 , 4133.33333333 , 4139.48717949 , 4133.33333333 , 4133.33333333 , 4131.28205128 , 4190.76923077 , 4136.41025641 , 4136.41025641 , 4185.12820513 , 4914.35897436 , 4132.82051282 , 4138.46153846 , 2038.0 , 2037.0 , 267.689 , 0.0 , 0.0 , 0.0 , 0.0 , 

48.0 , 4135.38461538 , 4136.92307692 , 4136.92307692 , 4131.79487179 , 4129.23076923 , 4124.61538462 , 4116.92307692 , 4171.79487179 , 4125.12820513 , 4131.28205128 , 4180.0 , 4918.97435897 , 4124.1025641 , 4138.97435897 , 2037.0 , 2037.0 , 267.694 , 0.0 , 0.0 , 0.0 , 0.0 , 

49.0 , 4131.28205128 , 4137.43589744 , 4126.15384615 , 4136.41025641 , 4126.66666667 , 4129.74358974 , 4128.20512821 , 4182.56410256 , 4129.23076923 , 4135.8974359 , 4187.69230769 , 4907.69230769 , 4141.02564103 , 4136.92307692 , 2039.0 , 2036.0 , 267.702 , 0.0 , 0.0 , 0.0 , 0.0 , 

50.0 , 4130.25641026 , 4125.12820513 , 4134.35897436 , 4132.30769231 , 4129.23076923 , 4126.15384615 , 4118.46153846 , 4169.74358974 , 4121.02564103 , 4136.41025641 , 4185.64102564 , 4913.84615385 , 4134.87179487 , 4140.0 , 2040.0 , 2036.0 , 267.716 , 0.0 , 0.0 , 0.0 , 0.0 , 

51.0 , 4129.23076923 , 4131.28205128 , 4128.71794872 , 4139.48717949 , 4129.74358974 , 4132.30769231 , 4126.15384615 , 4182.56410256 , 4135.8974359 , 4137.94871795 , 4193.33333333 , 4913.33333333 , 4144.1025641 , 4138.97435897 , 2039.0 , 2035.0 , 267.719 , 0.0 , 0.0 , 0.0 , 0.0 , 

52.0 , 4130.76923077 , 4127.17948718 , 4128.71794872 , 4129.23076923 , 4127.69230769 , 4118.46153846 , 4114.87179487 , 4171.28205128 , 4124.61538462 , 4135.8974359 , 4192.82051282 , 4909.74358974 , 4136.41025641 , 4139.48717949 , 2039.0 , 2035.0 , 267.726 , 0.0 , 0.0 , 0.0 , 0.0 , 

53.0 , 4129.23076923 , 4131.28205128 , 4122.56410256 , 4137.43589744 , 4128.20512821 , 4121.02564103 , 4120.0 , 4184.61538462 , 4136.41025641 , 4139.48717949 , 4197.94871795 , 4900.51282051 , 4146.66666667 , 4138.46153846 , 2038.0 , 2034.0 , 267.734 , 0.0 , 0.0 , 0.0 , 0.0 , 

54.0 , 4128.20512821 , 4122.56410256 , 4132.82051282 , 4130.25641026 , 4127.69230769 , 4120.51282051 , 4116.41025641 , 4183.07692308 , 4142.05128205 , 4138.97435897 , 4189.74358974 , 4908.20512821 , 4135.8974359 , 4140.51282051 , 2038.0 , 2033.0 , 267.747 , 0.0 , 0.0 , 0.0 , 0.0 , 

55.0 , 4126.15384615 , 4125.64102564 , 4133.33333333 , 4128.71794872 , 4129.23076923 , 4125.64102564 , 4130.25641026 , 4191.79487179 , 4145.12820513 , 4142.05128205 , 4188.71794872 , 4907.69230769 , 4136.92307692 , 4137.43589744 , 2038.0 , 2034.0 , 267.751 , 0.0 , 0.0 , 0.0 , 0.0 , 

56.0 , 4126.66666667 , 4122.56410256 , 4134.87179487 , 4123.58974359 , 4129.74358974 , 4122.05128205 , 4124.61538462 , 4188.71794872 , 4132.82051282 , 4138.97435897 , 4186.66666667 , 4909.23076923 , 4131.28205128 , 4137.43589744 , 2036.0 , 2033.0 , 267.757 , 0.0 , 0.0 , 0.0 , 0.0 , 

57.0 , 4131.79487179 , 4126.15384615 , 4134.35897436 , 4125.12820513 , 4130.25641026 , 4128.20512821 , 4125.64102564 , 4197.43589744 , 4136.41025641 , 4138.97435897 , 4187.17948718 , 4907.69230769 , 4128.20512821 , 4140.0 , 2036.0 , 2034.0 , 267.765 , 0.0 , 0.0 , 0.0 , 0.0 , 

58.0 , 4131.28205128 , 4123.58974359 , 4137.43589744 , 4117.94871795 , 4127.17948718 , 4130.76923077 , 4127.17948718 , 4197.43589744 , 4141.53846154 , 4140.51282051 , 4184.1025641 , 4912.30769231 , 4123.07692308 , 4137.94871795 , 2035.0 , 2033.0 , 267.779 , 0.0 , 0.0 , 0.0 , 0.0 , 

59.0 , 4131.28205128 , 4127.17948718 , 4139.48717949 , 4120.51282051 , 4131.28205128 , 4131.28205128 , 4130.76923077 , 4189.23076923 , 4135.8974359 , 4140.0 , 4186.66666667 , 4913.84615385 , 4124.1025641 , 4134.35897436 , 2035.0 , 2032.0 , 267.783 , 0.0 , 0.0 , 0.0 , 0.0 , 

60.0 , 4129.23076923 , 4132.30769231 , 4137.43589744 , 4125.64102564 , 4132.30769231 , 4131.28205128 , 4130.76923077 , 4193.33333333 , 4138.97435897 , 4137.94871795 , 4186.15384615 , 4911.79487179 , 4131.28205128 , 4134.87179487 , 2034.0 , 2032.0 , 267.788 , 0.0 , 0.0 , 0.0 , 0.0 , 

61.0 , 4132.82051282 , 4134.87179487 , 4135.38461538 , 4126.15384615 , 4128.71794872 , 4130.25641026 , 4129.23076923 , 4184.61538462 , 4133.84615385 , 4140.0 , 4182.56410256 , 4911.28205128 , 4128.71794872 , 4140.51282051 , 2034.0 , 2033.0 , 267.796 , 0.0 , 0.0 , 0.0 , 0.0 , 

62.0 , 4129.74358974 , 4134.87179487 , 4126.66666667 , 4136.92307692 , 4126.15384615 , 4131.28205128 , 4129.74358974 , 4182.05128205 , 4133.84615385 , 4139.48717949 , 4190.25641026 , 4908.20512821 , 4141.02564103 , 4138.46153846 , 2034.0 , 2033.0 , 267.808 , 0.0 , 0.0 , 0.0 , 0.0 , 

63.0 , 4131.79487179 , 4134.87179487 , 4129.74358974 , 4140.51282051 , 4129.23076923 , 4127.69230769 , 4118.97435897 , 4169.23076923 , 4120.0 , 4131.79487179 , 4189.23076923 , 4911.28205128 , 4137.94871795 , 4136.92307692 , 2033.0 , 2034.0 , 267.815 , 0.0 , 0.0 , 0.0 , 0.0 , 

64.0 , 4128.71794872 , 4138.46153846 , 4129.74358974 , 4141.53846154 , 4131.79487179 , 4131.79487179 , 4127.17948718 , 4184.1025641 , 4132.30769231 , 4133.33333333 , 4188.71794872 , 4906.66666667 , 4142.56410256 , 4137.43589744 , 2034.0 , 2036.0 , 267.819 , 0.0 , 0.0 , 0.0 , 0.0 , 

65.0 , 4132.30769231 , 4126.15384615 , 4134.87179487 , 4129.23076923 , 4132.82051282 , 4118.97435897 , 4118.97435897 , 4174.35897436 , 4124.1025641 , 4136.41025641 , 4187.69230769 , 4908.20512821 , 4131.28205128 , 4140.0 , 2034.0 , 2036.0 , 267.829 , 0.0 , 0.0 , 0.0 , 0.0 , 

66.0 , 4131.28205128 , 4125.12820513 , 4126.66666667 , 4136.92307692 , 4130.25641026 , 4119.48717949 , 4117.94871795 , 4186.15384615 , 4131.28205128 , 4137.43589744 , 4194.87179487 , 4907.69230769 , 4144.1025641 , 4135.8974359 , 2033.0 , 2037.0 , 267.845 , 0.0 , 0.0 , 0.0 , 0.0 , 

67.0 , 4131.28205128 , 4120.0 , 4134.87179487 , 4128.20512821 , 4127.69230769 , 4118.46153846 , 4106.15384615 , 4176.41025641 , 4124.1025641 , 4133.33333333 , 4187.17948718 , 4914.87179487 , 4130.76923077 , 4138.97435897 , 2033.0 , 2036.0 , 267.848 , 0.0 , 0.0 , 0.0 , 0.0 , 

68.0 , 4126.15384615 , 4126.15384615 , 4130.76923077 , 4128.71794872 , 4129.23076923 , 4128.71794872 , 4121.02564103 , 4194.35897436 , 4141.02564103 , 4140.0 , 4190.76923077 , 4906.15384615 , 4138.46153846 , 4137.43589744 , 2034.0 , 2037.0 , 267.852 , 0.0 , 0.0 , 0.0 , 0.0 , 

69.0 , 4128.20512821 , 4121.02564103 , 4133.84615385 , 4118.46153846 , 4130.76923077 , 4121.02564103 , 4113.84615385 , 4187.17948718 , 4132.82051282 , 4140.0 , 4187.69230769 , 4906.66666667 , 4129.23076923 , 4137.94871795 , 2036.0 , 2039.0 , 267.86 , 0.0 , 0.0 , 0.0 , 0.0 , 

70.0 , 4127.69230769 , 4130.25641026 , 4127.69230769 , 4130.76923077 , 4130.25641026 , 4128.71794872 , 4127.17948718 , 4202.05128205 , 4142.56410256 , 4138.46153846 , 4194.35897436 , 4905.64102564 , 4137.94871795 , 4135.38461538 , 2037.0 , 2040.0 , 267.872 , 0.0 , 0.0 , 0.0 , 0.0 , 

71.0 , 4128.20512821 , 4124.61538462 , 4137.43589744 , 4125.12820513 , 4128.71794872 , 4129.23076923 , 4125.12820513 , 4192.30769231 , 4138.46153846 , 4137.94871795 , 4190.76923077 , 4909.74358974 , 4127.17948718 , 4136.41025641 , 2036.0 , 2040.0 , 267.878 , 0.0 , 0.0 , 0.0 , 0.0 , 

72.0 , 4129.74358974 , 4131.28205128 , 4134.35897436 , 4128.71794872 , 4129.74358974 , 4139.48717949 , 4133.84615385 , 4200.51282051 , 4145.12820513 , 4144.1025641 , 4191.28205128 , 4903.58974359 , 4132.82051282 , 4133.84615385 , 2037.0 , 2040.0 , 267.884 , 0.0 , 0.0 , 0.0 , 0.0 , 

73.0 , 4133.84615385 , 4131.79487179 , 4135.8974359 , 4127.17948718 , 4131.79487179 , 4134.35897436 , 4126.66666667 , 4183.07692308 , 4129.74358974 , 4140.51282051 , 4183.58974359 , 4909.74358974 , 4126.15384615 , 4137.43589744 , 2038.0 , 2041.0 , 267.89 , 0.0 , 0.0 , 0.0 , 0.0 , 

74.0 , 4134.35897436 , 4137.94871795 , 4131.79487179 , 4136.41025641 , 4132.82051282 , 4131.28205128 , 4129.74358974 , 4175.8974359 , 4124.61538462 , 4137.43589744 , 4184.61538462 , 4914.35897436 , 4132.82051282 , 4138.97435897 , 2039.0 , 2040.0 , 267.902 , 0.0 , 0.0 , 0.0 , 0.0 , 

75.0 , 4131.79487179 , 4129.23076923 , 4135.8974359 , 4133.84615385 , 4126.66666667 , 4126.15384615 , 4120.51282051 , 4172.82051282 , 4125.12820513 , 4136.41025641 , 4182.56410256 , 4918.46153846 , 4129.74358974 , 4140.51282051 , 2039.0 , 2040.0 , 267.909 , 0.0 , 0.0 , 0.0 , 0.0 , 

76.0 , 4134.87179487 , 4131.28205128 , 4134.87179487 , 4134.87179487 , 4128.71794872 , 4132.82051282 , 4121.02564103 , 4174.87179487 , 4125.12820513 , 4140.0 , 4184.61538462 , 4912.82051282 , 4131.79487179 , 4140.51282051 , 2040.0 , 2043.0 , 267.915 , 0.0 , 0.0 , 0.0 , 0.0 , 

77.0 , 4132.30769231 , 4130.76923077 , 4130.25641026 , 4138.46153846 , 4131.79487179 , 4129.74358974 , 4119.48717949 , 4172.82051282 , 4125.12820513 , 4141.02564103 , 4187.69230769 , 4912.30769231 , 4141.02564103 , 4137.94871795 , 2039.0 , 2043.0 , 267.922 , 0.0 , 0.0 , 0.0 , 0.0 , 

78.0 , 4131.79487179 , 4129.23076923 , 4129.23076923 , 4138.97435897 , 4131.28205128 , 4123.58974359 , 4116.41025641 , 4173.33333333 , 4124.61538462 , 4137.94871795 , 4188.71794872 , 4913.33333333 , 4140.0 , 4137.43589744 , 2040.0 , 2042.0 , 267.934 , 0.0 , 0.0 , 0.0 , 0.0 , 

79.0 , 4131.79487179 , 4128.20512821 , 4131.79487179 , 4134.35897436 , 4127.69230769 , 4124.1025641 , 4116.41025641 , 4181.53846154 , 4137.94871795 , 4134.87179487 , 4189.74358974 , 4908.71794872 , 4139.48717949 , 4136.92307692 , 2041.0 , 2040.0 , 267.941 , 0.0 , 0.0 , 0.0 , 0.0 , 

80.0 , 4133.84615385 , 4127.17948718 , 4132.82051282 , 4129.74358974 , 4130.25641026 , 4124.1025641 , 4115.8974359 , 4178.46153846 , 4133.84615385 , 4136.92307692 , 4188.71794872 , 4907.17948718 , 4136.41025641 , 4137.43589744 , 2042.0 , 2040.0 , 267.947 , 0.0 , 0.0 , 0.0 , 0.0 , 

81.0 , 4127.17948718 , 4128.71794872 , 4124.1025641 , 4135.8974359 , 4130.25641026 , 4127.17948718 , 4126.66666667 , 4196.41025641 , 4141.53846154 , 4144.1025641 , 4192.30769231 , 4907.17948718 , 4144.1025641 , 4135.8974359 , 2043.0 , 2039.0 , 267.953 , 0.0 , 0.0 , 0.0 , 0.0 , 

82.0 , 4131.28205128 , 4124.1025641 , 4132.30769231 , 4128.71794872 , 4129.74358974 , 4123.58974359 , 4121.53846154 , 4187.69230769 , 4136.92307692 , 4140.51282051 , 4188.20512821 , 4907.17948718 , 4127.69230769 , 4138.46153846 , 2044.0 , 2037.0 , 267.966 , 0.0 , 0.0 , 0.0 , 0.0 , 

83.0 , 4130.25641026 , 4126.66666667 , 4134.87179487 , 4128.20512821 , 4129.23076923 , 4133.33333333 , 4128.20512821 , 4195.38461538 , 4147.69230769 , 4137.94871795 , 4189.74358974 , 4901.53846154 , 4131.79487179 , 4137.94871795 , 2044.0 , 2036.0 , 267.972 , 0.0 , 0.0 , 0.0 , 0.0 , 

84.0 , 4130.76923077 , 4124.61538462 , 4141.02564103 , 4121.02564103 , 4130.25641026 , 4131.79487179 , 4123.58974359 , 4187.17948718 , 4128.71794872 , 4138.46153846 , 4183.07692308 , 4910.25641026 , 4121.53846154 , 4140.51282051 , 2045.0 , 2036.0 , 267.978 , 0.0 , 0.0 , 0.0 , 0.0 , 

85.0 , 4129.23076923 , 4131.28205128 , 4134.35897436 , 4130.76923077 , 4130.25641026 , 4137.43589744 , 4131.79487179 , 4202.05128205 , 4135.8974359 , 4141.53846154 , 4187.69230769 , 4910.25641026 , 4129.23076923 , 4138.97435897 , 2044.0 , 2037.0 , 267.986 , 0.0 , 0.0 , 0.0 , 0.0 , 

86.0 , 4132.82051282 , 4123.58974359 , 4141.53846154 , 4122.05128205 , 4129.74358974 , 4130.76923077 , 4120.51282051 , 4187.69230769 , 4132.30769231 , 4136.41025641 , 4185.64102564 , 4913.33333333 , 4118.97435897 , 4140.51282051 , 2044.0 , 2039.0 , 267.998 , 0.0 , 0.0 , 0.0 , 0.0 , 

87.0 , 4132.30769231 , 4133.33333333 , 4133.33333333 , 4131.28205128 , 4131.28205128 , 4134.87179487 , 4131.79487179 , 4195.8974359 , 4143.07692308 , 4138.46153846 , 4191.28205128 , 4908.20512821 , 4135.38461538 , 4138.46153846 , 2044.0 , 2041.0 , 268.004 , 0.0 , 0.0 , 0.0 , 0.0 , 

88.0 , 4134.87179487 , 4133.84615385 , 4133.33333333 , 4131.79487179 , 4131.28205128 , 4127.17948718 , 4123.07692308 , 4174.87179487 , 4126.15384615 , 4138.46153846 , 4185.12820513 , 4912.30769231 , 4131.79487179 , 4139.48717949 , 2044.0 , 2041.0 , 268.01 , 0.0 , 0.0 , 0.0 , 0.0 , 

89.0 , 4129.74358974 , 4135.8974359 , 4125.12820513 , 4143.07692308 , 4131.28205128 , 4132.82051282 , 4129.23076923 , 4178.46153846 , 4131.79487179 , 4138.46153846 , 4189.74358974 , 4907.69230769 , 4144.1025641 , 4137.43589744 , 2044.0 , 2041.0 , 268.017 , 0.0 , 0.0 , 0.0 , 0.0 , 

90.0 , 4126.66666667 , 4127.17948718 , 4131.28205128 , 4135.38461538 , 4130.25641026 , 4127.17948718 , 4120.51282051 , 4170.25641026 , 4124.61538462 , 4137.43589744 , 4187.17948718 , 4910.76923077 , 4135.8974359 , 4140.0 , 2045.0 , 2040.0 , 268.029 , 0.0 , 0.0 , 0.0 , 0.0 , 

91.0 , 4131.28205128 , 4135.8974359 , 4128.71794872 , 4142.05128205 , 4130.76923077 , 4132.82051282 , 4128.20512821 , 4179.48717949 , 4128.71794872 , 4139.48717949 , 4190.25641026 , 4906.66666667 , 4143.58974359 , 4140.0 , 2045.0 , 2042.0 , 268.036 , 0.0 , 0.0 , 0.0 , 0.0 , 

92.0 , 4133.33333333 , 4128.20512821 , 4127.69230769 , 4131.79487179 , 4128.20512821 , 4128.71794872 , 4119.48717949 , 4174.87179487 , 4124.61538462 , 4133.84615385 , 4187.69230769 , 4908.20512821 , 4139.48717949 , 4141.02564103 , 2044.0 , 2041.0 , 268.041 , 0.0 , 0.0 , 0.0 , 0.0 , 

93.0 , 4128.71794872 , 4124.61538462 , 4124.1025641 , 4128.20512821 , 4127.17948718 , 4124.61538462 , 4118.46153846 , 4187.69230769 , 4133.33333333 , 4135.38461538 , 4192.30769231 , 4906.66666667 , 4140.51282051 , 4139.48717949 , 2045.0 , 2040.0 , 268.049 , 0.0 , 0.0 , 0.0 , 0.0 , 

94.0 , 4125.12820513 , 4118.97435897 , 4132.30769231 , 4124.61538462 , 4126.66666667 , 4119.48717949 , 4113.33333333 , 4192.82051282 , 4140.0 , 4140.0 , 4188.20512821 , 4909.23076923 , 4131.79487179 , 4136.92307692 , 2045.0 , 2038.0 , 268.061 , 0.0 , 0.0 , 0.0 , 0.0 , 

95.0 , 4128.71794872 , 4120.51282051 , 4135.38461538 , 4122.56410256 , 4129.23076923 , 4128.71794872 , 4121.53846154 , 4195.8974359 , 4140.0 , 4141.53846154 , 4187.69230769 , 4907.17948718 , 4128.71794872 , 4137.43589744 , 2043.0 , 2034.0 , 268.067 , 0.0 , 0.0 , 0.0 , 0.0 , 

96.0 , 4126.66666667 , 4119.48717949 , 4134.35897436 , 4120.0 , 4128.20512821 , 4130.76923077 , 4127.17948718 , 4199.48717949 , 4145.12820513 , 4138.97435897 , 4190.76923077 , 4907.17948718 , 4130.76923077 , 4136.92307692 , 2042.0 , 2032.0 , 268.073 , 0.0 , 0.0 , 0.0 , 0.0 , 

97.0 , 4128.71794872 , 4123.58974359 , 4135.8974359 , 4126.66666667 , 4129.74358974 , 4126.15384615 , 4129.74358974 , 4195.38461538 , 4144.1025641 , 4137.94871795 , 4189.23076923 , 4908.20512821 , 4124.61538462 , 4135.8974359 , 2043.0 , 2032.0 , 268.081 , 0.0 , 0.0 , 0.0 , 0.0 , 

98.0 , 4130.25641026 , 4130.25641026 , 4133.33333333 , 4133.33333333 , 4131.28205128 , 4133.33333333 , 4137.43589744 , 4195.8974359 , 4141.53846154 , 4138.46153846 , 4186.66666667 , 4907.69230769 , 4129.74358974 , 4133.84615385 , 2043.0 , 2033.0 , 268.092 , 0.0 , 0.0 , 0.0 , 0.0 , 

99.0 , 4134.35897436 , 4133.33333333 , 4136.41025641 , 4126.15384615 , 4133.84615385 , 4137.43589744 , 4134.87179487 , 4184.61538462 , 4127.17948718 , 4140.0 , 4186.15384615 , 4909.74358974 , 4128.71794872 , 4139.48717949 , 2042.0 , 2033.0 , 268.098 , 0.0 , 0.0 , 0.0 , 0.0 , 

100.0 , 4129.74358974 , 4138.97435897 , 4132.30769231 , 4134.87179487 , 4131.79487179 , 4138.46153846 , 4135.8974359 , 4194.35897436 , 4143.07692308 , 4141.53846154 , 4192.30769231 , 4908.20512821 , 4140.0 , 4140.0 , 2043.0 , 2033.0 , 268.104 , 0.0 , 0.0 , 0.0 , 0.0 , 

101.0 , 4132.30769231 , 4131.28205128 , 4135.38461538 , 4134.87179487 , 4131.28205128 , 4129.23076923 , 4126.15384615 , 4176.41025641 , 4132.30769231 , 4137.43589744 , 4186.15384615 , 4913.33333333 , 4128.71794872 , 4137.94871795 , 2043.0 , 2034.0 , 268.112 , 0.0 , 0.0 , 0.0 , 0.0 , 

102.0 , 4132.82051282 , 4126.66666667 , 4129.23076923 , 4137.43589744 , 4131.28205128 , 4129.74358974 , 4130.25641026 , 4181.02564103 , 4129.74358974 , 4140.0 , 4188.20512821 , 4910.76923077 , 4141.02564103 , 4135.8974359 , 2043.0 , 2034.0 , 268.123 , 0.0 , 0.0 , 0.0 , 0.0 , 

103.0 , 4132.82051282 , 4121.53846154 , 4134.35897436 , 4130.25641026 , 4131.28205128 , 4121.02564103 , 4116.92307692 , 4169.23076923 , 4119.48717949 , 4136.92307692 , 4184.1025641 , 4912.30769231 , 4134.35897436 , 4141.02564103 , 2043.0 , 2035.0 , 268.13 , 0.0 , 0.0 , 0.0 , 0.0 , 

104.0 , 4125.12820513 , 4131.79487179 , 4126.66666667 , 4140.0 , 4128.71794872 , 4127.69230769 , 4122.56410256 , 4180.51282051 , 4135.8974359 , 4133.33333333 , 4189.23076923 , 4906.15384615 , 4143.07692308 , 4140.51282051 , 2045.0 , 2039.0 , 268.136 , 0.0 , 0.0 , 0.0 , 0.0 , 

105.0 , 4129.74358974 , 4123.58974359 , 4133.33333333 , 4128.71794872 , 4127.17948718 , 4121.53846154 , 4110.76923077 , 4168.20512821 , 4125.12820513 , 4132.30769231 , 4186.66666667 , 4910.25641026 , 4131.28205128 , 4141.02564103 , 2046.0 , 2039.0 , 268.145 , 0.0 , 0.0 , 0.0 , 0.0 , 

106.0 , 4131.79487179 , 4129.23076923 , 4126.15384615 , 4133.84615385 , 4127.69230769 , 4125.64102564 , 4120.0 , 4187.69230769 , 4138.97435897 , 4138.46153846 , 4194.35897436 , 4906.66666667 , 4144.61538462 , 4137.94871795 , 2046.0 , 2041.0 , 268.156 , 0.0 , 0.0 , 0.0 , 0.0 , 

107.0 , 4129.74358974 , 4125.64102564 , 4129.23076923 , 4128.71794872 , 4128.20512821 , 4118.97435897 , 4114.35897436 , 4180.0 , 4138.97435897 , 4138.46153846 , 4191.28205128 , 4909.23076923 , 4133.33333333 , 4138.46153846 , 2046.0 , 2040.0 , 268.162 , 0.0 , 0.0 , 0.0 , 0.0 , 

108.0 , 4126.66666667 , 4126.66666667 , 4127.17948718 , 4134.87179487 , 4129.74358974 , 4128.71794872 , 4126.66666667 , 4193.33333333 , 4147.69230769 , 4142.56410256 , 4194.87179487 , 4903.58974359 , 4139.48717949 , 4137.43589744 , 2046.0 , 2040.0 , 268.166 , 0.0 , 0.0 , 0.0 , 0.0 , 

109.0 , 4131.79487179 , 4121.02564103 , 4135.38461538 , 4125.12820513 , 4130.25641026 , 4130.25641026 , 4124.61538462 , 4189.74358974 , 4141.53846154 , 4143.58974359 , 4188.20512821 , 4907.17948718 , 4132.30769231 , 4140.0 , 2047.0 , 2039.0 , 268.175 , 0.0 , 0.0 , 0.0 , 0.0 , 

110.0 , 4133.33333333 , 4131.79487179 , 4132.30769231 , 4128.71794872 , 4131.28205128 , 4135.38461538 , 4136.92307692 , 4197.94871795 , 4146.15384615 , 4141.02564103 , 4189.23076923 , 4905.64102564 , 4134.35897436 , 4138.97435897 , 2047.0 , 2038.0 , 268.188 , 0.0 , 0.0 , 0.0 , 0.0 , 

111.0 , 4129.74358974 , 4125.64102564 , 4138.97435897 , 4123.58974359 , 4130.25641026 , 4128.71794872 , 4132.30769231 , 4192.30769231 , 4137.94871795 , 4136.41025641 , 4184.1025641 , 4911.79487179 , 4124.61538462 , 4137.94871795 , 2048.0 , 2037.0 , 268.193 , 0.0 , 0.0 , 0.0 , 0.0 , 

112.0 , 4130.76923077 , 4126.66666667 , 4138.97435897 , 4126.66666667 , 4131.79487179 , 4131.79487179 , 4132.82051282 , 4192.82051282 , 4134.87179487 , 4140.0 , 4183.58974359 , 4912.30769231 , 4125.12820513 , 4139.48717949 , 2048.0 , 2036.0 , 268.199 , 0.0 , 0.0 , 0.0 , 0.0 , 

113.0 , 4131.28205128 , 4130.76923077 , 4135.8974359 , 4128.20512821 , 4131.28205128 , 4130.76923077 , 4125.64102564 , 4181.53846154 , 4132.82051282 , 4142.05128205 , 4181.53846154 , 4912.82051282 , 4125.64102564 , 4142.05128205 , 2047.0 , 2036.0 , 268.205 , 0.0 , 0.0 , 0.0 , 0.0 , 

114.0 , 4135.8974359 , 4136.41025641 , 4132.30769231 , 4133.33333333 , 4131.79487179 , 4129.74358974 , 4127.69230769 , 4172.82051282 , 4125.12820513 , 4142.05128205 , 4182.56410256 , 4914.35897436 , 4131.28205128 , 4139.48717949 , 2049.0 , 2038.0 , 268.217 , 0.0 , 0.0 , 0.0 , 0.0 , 

115.0 , 4132.82051282 , 4133.33333333 , 4130.25641026 , 4138.46153846 , 4128.20512821 , 4128.20512821 , 4128.71794872 , 4174.87179487 , 4127.17948718 , 4137.94871795 , 4185.64102564 , 4914.87179487 , 4140.51282051 , 4135.8974359 , 2049.0 , 2038.0 , 268.223 , 0.0 , 0.0 , 0.0 , 0.0 , 

116.0 , 4131.79487179 , 4134.35897436 , 4129.74358974 , 4137.94871795 , 4128.71794872 , 4127.69230769 , 4120.0 , 4168.20512821 , 4127.17948718 , 4133.33333333 , 4186.66666667 , 4910.25641026 , 4138.46153846 , 4138.97435897 , 2048.0 , 2039.0 , 268.23 , 0.0 , 0.0 , 0.0 , 0.0 , 

117.0 , 4130.25641026 , 4135.38461538 , 4125.64102564 , 4136.92307692 , 4129.23076923 , 4132.82051282 , 4123.58974359 , 4173.84615385 , 4136.41025641 , 4136.41025641 , 4188.71794872 , 4904.61538462 , 4147.17948718 , 4139.48717949 , 2048.0 , 2040.0 , 268.238 , 0.0 , 0.0 , 0.0 , 0.0 , 

118.0 , 4136.41025641 , 4127.69230769 , 4130.25641026 , 4131.79487179 , 4130.25641026 , 4128.20512821 , 4122.05128205 , 4170.25641026 , 4126.15384615 , 4138.97435897 , 4187.69230769 , 4906.15384615 , 4138.46153846 , 4138.97435897 , 2047.0 , 2041.0 , 268.249 , 0.0 , 0.0 , 0.0 , 0.0 , 

119.0 , 4131.79487179 , 4128.71794872 , 4127.69230769 , 4139.48717949 , 4127.69230769 , 4126.66666667 , 4122.56410256 , 4191.79487179 , 4138.97435897 , 4140.51282051 , 4195.8974359 , 4903.07692308 , 4138.46153846 , 4137.94871795 , 2047.0 , 2042.0 , 268.256 , 0.0 , 0.0 , 0.0 , 0.0 , 

120.0 , 4130.25641026 , 4122.56410256 , 4134.87179487 , 4128.71794872 , 4128.71794872 , 4121.02564103 , 4110.76923077 , 4184.1025641 , 4133.33333333 , 4137.94871795 , 4190.25641026 , 4907.69230769 , 4127.17948718 , 4143.07692308 , 2047.0 , 2042.0 , 268.263 , 0.0 , 0.0 , 0.0 , 0.0 , 

121.0 , 4128.20512821 , 4123.58974359 , 4128.71794872 , 4128.20512821 , 4130.25641026 , 4128.71794872 , 4125.12820513 , 4193.84615385 , 4145.64102564 , 4140.0 , 4187.17948718 , 4906.66666667 , 4138.97435897 , 4141.02564103 , 2046.0 , 2042.0 , 268.269 , 0.0 , 0.0 , 0.0 , 0.0 , 

122.0 , 4129.74358974 , 4118.46153846 , 4136.41025641 , 4118.97435897 , 4129.23076923 , 4121.02564103 , 4119.48717949 , 4187.17948718 , 4137.43589744 , 4138.46153846 , 4183.07692308 , 4909.23076923 , 4123.58974359 , 4138.46153846 , 2046.0 , 2043.0 , 268.281 , 0.0 , 0.0 , 0.0 , 0.0 , 

123.0 , 4127.69230769 , 4127.17948718 , 4133.84615385 , 4125.64102564 , 4127.17948718 , 4127.17948718 , 4129.23076923 , 4203.07692308 , 4145.12820513 , 4142.05128205 , 4191.28205128 , 4904.61538462 , 4131.79487179 , 4134.87179487 , 2045.0 , 2040.0 , 268.286 , 0.0 , 0.0 , 0.0 , 0.0 , 

124.0 , 4131.28205128 , 4122.56410256 , 4139.48717949 , 4122.05128205 , 4128.71794872 , 4127.17948718 , 4127.69230769 , 4183.58974359 , 4130.25641026 , 4140.0 , 4184.61538462 , 4911.28205128 , 4124.61538462 , 4138.97435897 , 2044.0 , 2039.0 , 268.293 , 0.0 , 0.0 , 0.0 , 0.0 , 

125.0 , 4131.28205128 , 4133.33333333 , 4131.28205128 , 4134.87179487 , 4131.79487179 , 4136.41025641 , 4137.94871795 , 4195.38461538 , 4140.51282051 , 4142.05128205 , 4188.71794872 , 4909.23076923 , 4134.35897436 , 4138.46153846 , 2044.0 , 2037.0 , 268.301 , 0.0 , 0.0 , 0.0 , 0.0 , 

126.0 , 4132.30769231 , 4133.84615385 , 4136.41025641 , 4127.69230769 , 4132.30769231 , 4125.64102564 , 4124.1025641 , 4190.76923077 , 4132.30769231 , 4141.02564103 , 4187.17948718 , 4913.84615385 , 4124.1025641 , 4136.41025641 , 2043.0 , 2036.0 , 268.312 , 0.0 , 0.0 , 0.0 , 0.0 , 

127.0 , 4132.30769231 , 4136.92307692 , 4130.76923077 , 4134.87179487 , 4132.82051282 , 4129.23076923 , 4132.82051282 , 4191.79487179 , 4132.82051282 , 4140.51282051 , 4190.76923077 , 4910.25641026 , 4136.41025641 , 4132.82051282 , 2042.0 , 2034.0 , 268.319 , 0.0 , 0.0 , 0.0 , 0.0 , 

128.0 , 4134.35897436 , 4128.20512821 , 4129.74358974 , 4136.41025641 , 4130.25641026 , 4131.79487179 , 4126.66666667 , 4171.79487179 , 4121.02564103 , 4137.94871795 , 4185.12820513 , 4914.35897436 , 4136.41025641 , 4137.43589744 , 2043.0 , 2033.0 , 268.324 , 0.0 , 0.0 , 0.0 , 0.0 , 

0.0 , 4133.84615385 , 4135.8974359 , 4126.15384615 , 4143.07692308 , 4130.25641026 , 4138.97435897 , 4127.69230769 , 4175.8974359 , 4124.61538462 , 4138.97435897 , 4187.69230769 , 4911.28205128 , 4143.07692308 , 4139.48717949 , 2043.0 , 2032.0 , 268.333 , 0.0 , 0.0 , 0.0 , 0.0 , 

1.0 , 4129.23076923 , 4129.74358974 , 4131.28205128 , 4132.30769231 , 4128.71794872 , 4128.20512821 , 4117.94871795 , 4173.84615385 , 4125.64102564 , 4136.41025641 , 4185.64102564 , 4910.25641026 , 4137.94871795 , 4138.97435897 , 2042.0 , 2031.0 , 268.346 , 0.0 , 0.0 , 0.0 , 0.0 , 

2.0 , 4130.25641026 , 4125.64102564 , 4128.20512821 , 4129.74358974 , 4129.23076923 , 4123.58974359 , 4116.41025641 , 4177.43589744 , 4126.15384615 , 4136.92307692 , 4187.69230769 , 4907.17948718 , 4137.43589744 , 4138.97435897 , 2041.0 , 2031.0 , 268.351 , 0.0 , 0.0 , 0.0 , 0.0 , 

3.0 , 4130.25641026 , 4123.58974359 , 4130.25641026 , 4128.71794872 , 4128.71794872 , 4121.53846154 , 4110.76923077 , 4180.0 , 4129.74358974 , 4136.41025641 , 4189.74358974 , 4908.71794872 , 4137.94871795 , 4140.0 , 2042.0 , 2030.0 , 268.355 , 0.0 , 0.0 , 0.0 , 0.0 , 

4.0 , 4130.25641026 , 4127.17948718 , 4131.28205128 , 4129.23076923 , 4128.71794872 , 4122.05128205 , 4115.8974359 , 4182.56410256 , 4133.33333333 , 4136.92307692 , 4191.28205128 , 4907.69230769 , 4135.8974359 , 4138.97435897 , 2042.0 , 2030.0 , 268.364 , 0.0 , 0.0 , 0.0 , 0.0 , 

5.0 , 4126.66666667 , 4124.1025641 , 4126.66666667 , 4129.74358974 , 4127.17948718 , 4124.61538462 , 4122.05128205 , 4196.41025641 , 4147.17948718 , 4138.97435897 , 4189.23076923 , 4904.61538462 , 4134.87179487 , 4138.46153846 , 2044.0 , 2030.0 , 268.377 , 0.0 , 0.0 , 0.0 , 0.0 , 

6.0 , 4130.76923077 , 4122.56410256 , 4132.82051282 , 4125.12820513 , 4131.79487179 , 4125.64102564 , 4117.43589744 , 4193.84615385 , 4142.56410256 , 4140.0 , 4186.15384615 , 4903.58974359 , 4127.17948718 , 4138.97435897 , 2043.0 , 2028.0 , 268.382 , 0.0 , 0.0 , 0.0 , 0.0 , 

7.0 , 4129.23076923 , 4127.69230769 , 4135.8974359 , 4131.28205128 , 4131.28205128 , 4130.76923077 , 4125.64102564 , 4200.0 , 4144.1025641 , 4140.51282051 , 4190.76923077 , 4903.58974359 , 4138.97435897 , 4134.87179487 , 2043.0 , 2029.0 , 268.388 , 0.0 , 0.0 , 0.0 , 0.0 , 

8.0 , 4132.30769231 , 4127.69230769 , 4139.48717949 , 4131.79487179 , 4128.20512821 , 4130.25641026 , 4128.71794872 , 4190.76923077 , 4132.82051282 , 4138.97435897 , 4187.17948718 , 4910.25641026 , 4131.79487179 , 4137.94871795 , 2043.0 , 2030.0 , 268.395 , 0.0 , 0.0 , 0.0 , 0.0 , 

9.0 , 4130.76923077 , 4134.35897436 , 4132.30769231 , 4136.41025641 , 4130.25641026 , 4136.92307692 , 4137.43589744 , 4201.02564103 , 4140.51282051 , 4141.02564103 , 4186.15384615 , 4908.71794872 , 4135.8974359 , 4139.48717949 , 2043.0 , 2029.0 , 268.407 , 0.0 , 0.0 , 0.0 , 0.0 , 

10.0 , 4134.35897436 , 4130.25641026 , 4137.43589744 , 4124.61538462 , 4133.33333333 , 4126.66666667 , 4126.66666667 , 4175.38461538 , 4123.58974359 , 4136.92307692 , 4181.53846154 , 4915.38461538 , 4123.58974359 , 4141.53846154 , 2041.0 , 2028.0 , 268.414 , 0.0 , 0.0 , 0.0 , 0.0 , 

11.0 , 4131.28205128 , 4133.33333333 , 4128.71794872 , 4134.35897436 , 4129.23076923 , 4127.69230769 , 4131.28205128 , 4179.48717949 , 4128.71794872 , 4138.46153846 , 4189.74358974 , 4913.33333333 , 4135.38461538 , 4138.97435897 , 2040.0 , 2028.0 , 268.418 , 0.0 , 0.0 , 0.0 , 0.0 , 

12.0 , 4133.84615385 , 4130.25641026 , 4135.38461538 , 4132.30769231 , 4127.69230769 , 4126.66666667 , 4119.48717949 , 4172.30769231 , 4120.0 , 4137.43589744 , 4184.61538462 , 4914.35897436 , 4126.66666667 , 4141.53846154 , 2039.0 , 2025.0 , 268.427 , 0.0 , 0.0 , 0.0 , 0.0 , 

13.0 , 4133.33333333 , 4136.41025641 , 4129.74358974 , 4137.43589744 , 4129.74358974 , 4137.43589744 , 4129.23076923 , 4182.05128205 , 4132.82051282 , 4136.92307692 , 4188.20512821 , 4908.71794872 , 4140.51282051 , 4138.97435897 , 2038.0 , 2026.0 , 268.439 , 0.0 , 0.0 , 0.0 , 0.0 , 

14.0 , 4133.84615385 , 4126.15384615 , 4131.79487179 , 4128.71794872 , 4127.17948718 , 4125.64102564 , 4121.53846154 , 4162.05128205 , 4123.58974359 , 4132.82051282 , 4186.66666667 , 4914.87179487 , 4133.84615385 , 4138.97435897 , 2036.0 , 2027.0 , 268.445 , 0.0 , 0.0 , 0.0 , 0.0 , 

15.0 , 4131.79487179 , 4132.82051282 , 4125.12820513 , 4139.48717949 , 4127.17948718 , 4126.66666667 , 4128.71794872 , 4180.0 , 4134.35897436 , 4137.43589744 , 4193.84615385 , 4909.23076923 , 4142.56410256 , 4136.92307692 , 2036.0 , 2029.0 , 268.45 , 0.0 , 0.0 , 0.0 , 0.0 , 

16.0 , 4132.82051282 , 4128.71794872 , 4129.74358974 , 4134.35897436 , 4129.23076923 , 4122.05128205 , 4114.87179487 , 4181.53846154 , 4129.23076923 , 4137.43589744 , 4189.23076923 , 4908.71794872 , 4132.82051282 , 4139.48717949 , 2035.0 , 2028.0 , 268.458 , 0.0 , 0.0 , 0.0 , 0.0 , 

17.0 , 4130.76923077 , 4129.23076923 , 4123.58974359 , 4137.43589744 , 4127.69230769 , 4127.69230769 , 4123.07692308 , 4194.87179487 , 4141.53846154 , 4140.51282051 , 4192.30769231 , 4905.64102564 , 4141.53846154 , 4139.48717949 , 2037.0 , 2029.0 , 268.469 , 0.0 , 0.0 , 0.0 , 0.0 , 

18.0 , 4129.74358974 , 4120.0 , 4131.28205128 , 4126.15384615 , 4126.66666667 , 4121.02564103 , 4123.58974359 , 4190.25641026 , 4145.64102564 , 4141.02564103 , 4188.20512821 , 4911.28205128 , 4133.33333333 , 4138.97435897 , 2037.0 , 2029.0 , 268.477 , 0.0 , 0.0 , 0.0 , 0.0 , 

19.0 , 4131.79487179 , 4122.56410256 , 4135.8974359 , 4124.61538462 , 4131.28205128 , 4123.07692308 , 4129.74358974 , 4197.43589744 , 4146.66666667 , 4143.58974359 , 4187.17948718 , 4908.71794872 , 4127.69230769 , 4137.43589744 , 2037.0 , 2032.0 , 268.482 , 0.0 , 0.0 , 0.0 , 0.0 , 

20.0 , 4130.25641026 , 4117.94871795 , 4138.46153846 , 4119.48717949 , 4130.25641026 , 4123.58974359 , 4124.1025641 , 4195.8974359 , 4139.48717949 , 4141.02564103 , 4185.64102564 , 4908.71794872 , 4122.56410256 , 4138.46153846 , 2038.0 , 2033.0 , 268.49 , 0.0 , 0.0 , 0.0 , 0.0 , 

21.0 , 4130.76923077 , 4124.61538462 , 4136.41025641 , 4121.53846154 , 4129.74358974 , 4130.25641026 , 4129.23076923 , 4195.38461538 , 4141.53846154 , 4139.48717949 , 4188.20512821 , 4908.20512821 , 4126.15384615 , 4137.94871795 , 2038.0 , 2033.0 , 268.502 , 0.0 , 0.0 , 0.0 , 0.0 , 

22.0 , 4131.28205128 , 4131.28205128 , 4140.51282051 , 4125.64102564 , 4129.74358974 , 4132.82051282 , 4130.76923077 , 4194.35897436 , 4148.20512821 , 4138.46153846 , 4183.58974359 , 4912.30769231 , 4126.15384615 , 4136.41025641 , 2039.0 , 2034.0 , 268.507 , 0.0 , 0.0 , 0.0 , 0.0 , 

23.0 , 4136.41025641 , 4133.33333333 , 4142.05128205 , 4131.79487179 , 4130.25641026 , 4130.76923077 , 4125.64102564 , 4184.1025641 , 4135.8974359 , 4138.46153846 , 4182.05128205 , 4913.33333333 , 4123.07692308 , 4137.94871795 , 2041.0 , 2036.0 , 268.513 , 0.0 , 0.0 , 0.0 , 0.0 , 

24.0 , 4134.87179487 , 4134.35897436 , 4130.25641026 , 4137.94871795 , 4127.69230769 , 4131.79487179 , 4128.20512821 , 4185.64102564 , 4133.84615385 , 4139.48717949 , 4188.71794872 , 4909.23076923 , 4133.33333333 , 4136.92307692 , 2041.0 , 2033.0 , 268.521 , 0.0 , 0.0 , 0.0 , 0.0 , 

25.0 , 4135.38461538 , 4133.33333333 , 4128.20512821 , 4133.33333333 , 4128.71794872 , 4131.28205128 , 4132.30769231 , 4175.8974359 , 4128.71794872 , 4137.43589744 , 4186.15384615 , 4910.76923077 , 4131.79487179 , 4138.97435897 , 2044.0 , 2035.0 , 268.533 , 0.0 , 0.0 , 0.0 , 0.0 , 

26.0 , 4131.28205128 , 4131.28205128 , 4125.12820513 , 4140.0 , 4128.20512821 , 4131.79487179 , 4134.87179487 , 4181.02564103 , 4138.97435897 , 4137.43589744 , 4187.17948718 , 4910.76923077 , 4145.12820513 , 4139.48717949 , 2045.0 , 2036.0 , 268.539 , 0.0 , 0.0 , 0.0 , 0.0 , 

27.0 , 4135.8974359 , 4125.64102564 , 4130.76923077 , 4138.97435897 , 4130.25641026 , 4123.07692308 , 4114.87179487 , 4168.20512821 , 4125.12820513 , 4134.87179487 , 4187.17948718 , 4912.30769231 , 4140.51282051 , 4141.02564103 , 2046.0 , 2035.0 , 268.545 , 0.0 , 0.0 , 0.0 , 0.0 , 

28.0 , 4132.82051282 , 4131.79487179 , 4124.61538462 , 4141.53846154 , 4130.25641026 , 4128.20512821 , 4118.97435897 , 4182.56410256 , 4130.25641026 , 4136.92307692 , 4192.30769231 , 4902.56410256 , 4148.20512821 , 4136.92307692 , 2047.0 , 2033.0 , 268.552 , 0.0 , 0.0 , 0.0 , 0.0 , 

29.0 , 4133.33333333 , 4121.53846154 , 4132.82051282 , 4127.17948718 , 4129.23076923 , 4122.05128205 , 4115.38461538 , 4173.84615385 , 4123.07692308 , 4137.43589744 , 4186.15384615 , 4904.61538462 , 4131.79487179 , 4138.97435897 , 2047.0 , 2035.0 , 268.565 , 0.0 , 0.0 , 0.0 , 0.0 , 

30.0 , 4129.74358974 , 4119.48717949 , 4129.74358974 , 4130.76923077 , 4128.71794872 , 4121.53846154 , 4122.56410256 , 4195.38461538 , 4144.1025641 , 4141.53846154 , 4193.33333333 , 4905.64102564 , 4137.94871795 , 4139.48717949 , 2048.0 , 2036.0 , 268.571 , 0.0 , 0.0 , 0.0 , 0.0 , 

31.0 , 4130.25641026 , 4115.38461538 , 4135.8974359 , 4122.05128205 , 4128.71794872 , 4110.76923077 , 4113.33333333 , 4191.79487179 , 4140.0 , 4139.48717949 , 4188.71794872 , 4910.76923077 , 4123.58974359 , 4140.0 , 2049.0 , 2038.0 , 268.577 , 0.0 , 0.0 , 0.0 , 0.0 , 

32.0 , 4125.12820513 , 4128.71794872 , 4128.71794872 , 4128.71794872 , 4130.25641026 , 4123.58974359 , 4131.28205128 , 4204.61538462 , 4151.79487179 , 4141.53846154 , 4189.74358974 , 4902.05128205 , 4134.87179487 , 4132.82051282 , 2049.0 , 2039.0 , 268.585 , 0.0 , 0.0 , 0.0 , 0.0 , 

33.0 , 4129.23076923 , 4124.1025641 , 4138.46153846 , 4123.07692308 , 4128.20512821 , 4127.17948718 , 4127.69230769 , 4189.74358974 , 4147.17948718 , 4139.48717949 , 4184.1025641 , 4904.61538462 , 4129.23076923 , 4132.30769231 , 2048.0 , 2040.0 , 268.598 , 0.0 , 0.0 , 0.0 , 0.0 , 

34.0 , 4133.33333333 , 4130.76923077 , 4135.38461538 , 4131.79487179 , 4127.69230769 , 4137.43589744 , 4134.87179487 , 4197.43589744 , 4153.33333333 , 4141.02564103 , 4189.74358974 , 4904.1025641 , 4135.8974359 , 4133.84615385 , 2048.0 , 2041.0 , 268.603 , 0.0 , 0.0 , 0.0 , 0.0 , 

35.0 , 4133.33333333 , 4130.25641026 , 4137.43589744 , 4126.66666667 , 4130.76923077 , 4134.35897436 , 4131.79487179 , 4182.56410256 , 4133.84615385 , 4136.41025641 , 4185.64102564 , 4912.30769231 , 4124.1025641 , 4138.46153846 , 2047.0 , 2041.0 , 268.609 , 0.0 , 0.0 , 0.0 , 0.0 , 

36.0 , 4129.74358974 , 4136.92307692 , 4131.28205128 , 4137.94871795 , 4134.87179487 , 4138.97435897 , 4142.05128205 , 4188.71794872 , 4131.79487179 , 4136.92307692 , 4187.69230769 , 4910.76923077 , 4132.82051282 , 4139.48717949 , 2048.0 , 2041.0 , 268.617 , 0.0 , 0.0 , 0.0 , 0.0 , 

37.0 , 4130.76923077 , 4132.82051282 , 4133.33333333 , 4137.43589744 , 4130.76923077 , 4131.79487179 , 4126.15384615 , 4182.56410256 , 4127.17948718 , 4135.8974359 , 4184.1025641 , 4914.35897436 , 4131.28205128 , 4140.0 , 2047.0 , 2038.0 , 268.629 , 0.0 , 0.0 , 0.0 , 0.0 , 

38.0 , 4136.41025641 , 4135.8974359 , 4129.74358974 , 4137.94871795 , 4130.25641026 , 4133.33333333 , 4124.61538462 , 4179.48717949 , 4122.05128205 , 4135.8974359 , 4186.66666667 , 4913.84615385 , 4131.28205128 , 4138.46153846 , 2044.0 , 2035.0 , 268.635 , 0.0 , 0.0 , 0.0 , 0.0 , 

39.0 , 4132.82051282 , 4128.20512821 , 4131.28205128 , 4133.33333333 , 4129.23076923 , 4129.74358974 , 4126.15384615 , 4174.35897436 , 4119.48717949 , 4132.30769231 , 4185.64102564 , 4915.38461538 , 4131.79487179 , 4138.46153846 , 2043.0 , 2032.0 , 268.639 , 0.0 , 0.0 , 0.0 , 0.0 , 

40.0 , 4130.25641026 , 4129.23076923 , 4130.76923077 , 4135.38461538 , 4127.17948718 , 4124.61538462 , 4124.1025641 , 4173.33333333 , 4125.64102564 , 4132.30769231 , 4187.69230769 , 4910.76923077 , 4139.48717949 , 4138.46153846 , 2042.0 , 2030.0 , 268.648 , 0.0 , 0.0 , 0.0 , 0.0 , 

41.0 , 4132.30769231 , 4129.74358974 , 4127.17948718 , 4133.33333333 , 4124.1025641 , 4123.07692308 , 4116.41025641 , 4174.35897436 , 4135.8974359 , 4136.41025641 , 4190.25641026 , 4907.69230769 , 4142.56410256 , 4136.92307692 , 2042.0 , 2028.0 , 268.663 , 0.0 , 0.0 , 0.0 , 0.0 , 

42.0 , 4136.92307692 , 4127.17948718 , 4126.66666667 , 4129.23076923 , 4124.61538462 , 4122.05128205 , 4115.8974359 , 4175.8974359 , 4132.82051282 , 4138.46153846 , 4191.28205128 , 4906.15384615 , 4135.8974359 , 4137.94871795 , 2040.0 , 2026.0 , 268.666 , 0.0 , 0.0 , 0.0 , 0.0 , 

43.0 , 4128.20512821 , 4126.15384615 , 4124.1025641 , 4135.8974359 , 4122.56410256 , 4124.1025641 , 4123.07692308 , 4189.23076923 , 4143.07692308 , 4140.51282051 , 4193.33333333 , 4904.1025641 , 4141.53846154 , 4136.92307692 , 2040.0 , 2024.0 , 268.671 , 0.0 , 0.0 , 0.0 , 0.0 , 

44.0 , 4126.66666667 , 4123.58974359 , 4130.25641026 , 4131.79487179 , 4126.15384615 , 4124.61538462 , 4119.48717949 , 4185.12820513 , 4138.97435897 , 4140.0 , 4190.25641026 , 4906.66666667 , 4133.84615385 , 4136.92307692 , 2039.0 , 2024.0 , 268.679 , 0.0 , 0.0 , 0.0 , 0.0 , 

45.0 , 4127.69230769 , 4122.56410256 , 4128.71794872 , 4129.74358974 , 4130.25641026 , 4131.28205128 , 4127.69230769 , 4203.58974359 , 4148.71794872 , 4142.05128205 , 4192.82051282 , 4906.15384615 , 4138.46153846 , 4135.8974359 , 2041.0 , 2023.0 , 268.692 , 0.0 , 0.0 , 0.0 , 0.0 , 

46.0 , 4134.35897436 , 4120.51282051 , 4138.46153846 , 4121.53846154 , 4130.76923077 , 4125.64102564 , 4124.61538462 , 4194.35897436 , 4137.43589744 , 4140.0 , 4187.17948718 , 4910.76923077 , 4122.56410256 , 4136.92307692 , 2040.0 , 2026.0 , 268.698 , 0.0 , 0.0 , 0.0 , 0.0 , 

47.0 , 4133.33333333 , 4131.79487179 , 4137.94871795 , 4128.20512821 , 4129.23076923 , 4134.87179487 , 4138.46153846 , 4201.53846154 , 4141.53846154 , 4137.43589744 , 4189.23076923 , 4908.20512821 , 4126.15384615 , 4134.87179487 , 2042.0 , 2026.0 , 268.702 , 0.0 , 0.0 , 0.0 , 0.0 , 

48.0 , 4133.33333333 , 4127.17948718 , 4144.61538462 , 4119.48717949 , 4130.25641026 , 4133.84615385 , 4128.20512821 , 4186.15384615 , 4128.71794872 , 4135.38461538 , 4183.58974359 , 4914.35897436 , 4115.8974359 , 4137.43589744 , 2043.0 , 2026.0 , 268.712 , 0.0 , 0.0 , 0.0 , 0.0 , 

49.0 , 4130.25641026 , 4133.84615385 , 4133.84615385 , 4129.74358974 , 4131.79487179 , 4135.38461538 , 4128.20512821 , 4193.33333333 , 4140.0 , 4143.07692308 , 4185.12820513 , 4913.84615385 , 4134.35897436 , 4136.41025641 , 2044.0 , 2027.0 , 268.8 , 0.0 , 0.0 , 0.0 , 0.0 , 

50.0 , 4135.38461538 , 4132.82051282 , 4135.38461538 , 4130.76923077 , 4131.28205128 , 4124.1025641 , 4117.94871795 , 4171.79487179 , 4123.58974359 , 4140.51282051 , 4178.97435897 , 4918.46153846 , 4125.12820513 , 4139.48717949 , 2044.0 , 2026.0 , 268.803 , 0.0 , 0.0 , 0.0 , 0.0 , 

51.0 , 4132.30769231 , 4136.92307692 , 4128.71794872 , 4140.51282051 , 4130.25641026 , 4132.82051282 , 4133.84615385 , 4179.48717949 , 4130.25641026 , 4138.46153846 , 4189.23076923 , 4910.76923077 , 4135.8974359 , 4138.46153846 , 2045.0 , 2026.0 , 268.803 , 0.0 , 0.0 , 0.0 , 0.0 , 

52.0 , 4129.74358974 , 4128.20512821 , 4134.35897436 , 4134.35897436 , 4129.74358974 , 4128.71794872 , 4121.02564103 , 4169.74358974 , 4126.15384615 , 4138.46153846 , 4188.71794872 , 4912.30769231 , 4132.82051282 , 4139.48717949 , 2045.0 , 2028.0 , 268.803 , 0.0 , 0.0 , 0.0 , 0.0 , 

53.0 , 4132.82051282 , 4135.38461538 , 4126.66666667 , 4141.02564103 , 4132.30769231 , 4133.33333333 , 4123.07692308 , 4176.92307692 , 4132.30769231 , 4141.02564103 , 4191.28205128 , 4906.15384615 , 4143.07692308 , 4137.94871795 , 2045.0 , 2026.0 , 268.803 , 0.0 , 0.0 , 0.0 , 0.0 , 

54.0 , 4133.84615385 , 4128.71794872 , 4127.17948718 , 4130.76923077 , 4130.76923077 , 4124.1025641 , 4116.92307692 , 4168.20512821 , 4125.12820513 , 4134.35897436 , 4187.69230769 , 4909.23076923 , 4134.87179487 , 4140.51282051 , 2043.0 , 2028.0 , 268.803 , 0.0 , 0.0 , 0.0 , 0.0 , 

55.0 , 4129.74358974 , 4129.74358974 , 4124.1025641 , 4132.30769231 , 4128.71794872 , 4122.56410256 , 4123.58974359 , 4184.1025641 , 4136.41025641 , 4133.84615385 , 4191.79487179 , 4907.17948718 , 4140.51282051 , 4141.02564103 , 2043.0 , 2028.0 , 268.803 , 0.0 , 0.0 , 0.0 , 0.0 , 

56.0 , 4128.71794872 , 4125.12820513 , 4131.28205128 , 4127.69230769 , 4128.71794872 , 4119.48717949 , 4115.8974359 , 4191.28205128 , 4135.38461538 , 4135.38461538 , 4190.25641026 , 4907.17948718 , 4132.30769231 , 4140.0 , 2045.0 , 2027.0 , 268.803 , 0.0 , 0.0 , 0.0 , 0.0 , 

57.0 , 4132.30769231 , 4123.07692308 , 4135.8974359 , 4126.15384615 , 4130.25641026 , 4124.61538462 , 4118.46153846 , 4198.46153846 , 4133.84615385 , 4140.0 , 4192.82051282 , 4906.66666667 , 4126.66666667 , 4137.43589744 , 2045.0 , 2027.0 , 268.803 , 0.0 , 0.0 , 0.0 , 0.0 , 

58.0 , 4129.23076923 , 4116.92307692 , 4137.94871795 , 4122.56410256 , 4126.15384615 , 4123.07692308 , 4118.97435897 , 4197.94871795 , 4141.02564103 , 4143.07692308 , 4189.23076923 , 4910.76923077 , 4125.64102564 , 4136.41025641 , 2045.0 , 2027.0 , 268.803 , 0.0 , 0.0 , 0.0 , 0.0 , 

59.0 , 4131.28205128 , 4122.56410256 , 4134.35897436 , 4125.12820513 , 4126.15384615 , 4124.61538462 , 4121.02564103 , 4195.38461538 , 4140.0 , 4142.56410256 , 4188.71794872 , 4905.64102564 , 4126.66666667 , 4138.97435897 , 2045.0 , 2027.0 , 268.803 , 0.0 , 0.0 , 0.0 , 0.0 , 

60.0 , 4128.71794872 , 4125.12820513 , 4134.35897436 , 4126.15384615 , 4127.69230769 , 4133.33333333 , 4130.25641026 , 4197.94871795 , 4140.0 , 4141.02564103 , 4191.28205128 , 4904.61538462 , 4128.71794872 , 4137.43589744 , 2044.0 , 2025.0 , 268.813 , 0.0 , 0.0 , 0.0 , 0.0 , 

61.0 , 4130.76923077 , 4124.61538462 , 4140.51282051 , 4124.1025641 , 4130.76923077 , 4136.41025641 , 4135.38461538 , 4190.76923077 , 4135.38461538 , 4141.02564103 , 4186.15384615 , 4912.30769231 , 4123.58974359 , 4134.87179487 , 2046.0 , 2028.0 , 268.818 , 0.0 , 0.0 , 0.0 , 0.0 , 

62.0 , 4130.76923077 , 4133.33333333 , 4131.28205128 , 4133.33333333 , 4130.25641026 , 4134.35897436 , 4133.84615385 , 4194.87179487 , 4142.56410256 , 4140.51282051 , 4186.66666667 , 4909.74358974 , 4135.8974359 , 4133.84615385 , 2045.0 , 2028.0 , 268.822 , 0.0 , 0.0 , 0.0 , 0.0 , 

63.0 , 4133.84615385 , 4135.38461538 , 4131.28205128 , 4132.82051282 , 4131.28205128 , 4127.69230769 , 4124.61538462 , 4176.92307692 , 4124.61538462 , 4136.41025641 , 4186.66666667 , 4909.74358974 , 4129.74358974 , 4140.51282051 , 2048.0 , 2034.0 , 268.829 , 0.0 , 0.0 , 0.0 , 0.0 , 

64.0 , 4130.76923077 , 4133.84615385 , 4127.17948718 , 4140.51282051 , 4129.74358974 , 4130.76923077 , 4134.87179487 , 4183.07692308 , 4128.71794872 , 4135.8974359 , 4189.23076923 , 4910.76923077 , 4139.48717949 , 4141.02564103 , 2049.0 , 2035.0 , 268.847 , 0.0 , 0.0 , 0.0 , 0.0 , 

65.0 , 4136.41025641 , 4129.23076923 , 4132.30769231 , 4136.41025641 , 4128.71794872 , 4123.07692308 , 4120.0 , 4171.28205128 , 4119.48717949 , 4133.84615385 , 4184.1025641 , 4914.35897436 , 4134.87179487 , 4141.02564103 , 2050.0 , 2035.0 , 268.849 , 0.0 , 0.0 , 0.0 , 0.0 , 

66.0 , 4131.28205128 , 4136.41025641 , 4126.66666667 , 4141.53846154 , 4129.74358974 , 4128.71794872 , 4116.92307692 , 4182.05128205 , 4128.20512821 , 4134.35897436 , 4192.30769231 , 4908.71794872 , 4147.17948718 , 4135.8974359 , 2049.0 , 2037.0 , 268.853 , 0.0 , 0.0 , 0.0 , 0.0 , 

67.0 , 4128.71794872 , 4125.64102564 , 4133.33333333 , 4130.25641026 , 4130.76923077 , 4121.53846154 , 4109.74358974 , 4170.25641026 , 4116.41025641 , 4131.28205128 , 4190.76923077 , 4912.30769231 , 4134.35897436 , 4135.8974359 , 2048.0 , 2035.0 , 268.862 , 0.0 , 0.0 , 0.0 , 0.0 , 

68.0 , 4127.69230769 , 4125.64102564 , 4125.12820513 , 4136.92307692 , 4128.71794872 , 4122.05128205 , 4121.02564103 , 4188.71794872 , 4135.8974359 , 4137.94871795 , 4194.35897436 , 4904.61538462 , 4142.56410256 , 4137.43589744 , 2050.0 , 2037.0 , 268.875 , 0.0 , 0.0 , 0.0 , 0.0 , 

69.0 , 4128.20512821 , 4117.43589744 , 4130.76923077 , 4127.17948718 , 4125.12820513 , 4113.84615385 , 4105.64102564 , 4181.53846154 , 4135.8974359 , 4140.51282051 , 4189.23076923 , 4905.12820513 , 4131.79487179 , 4141.02564103 , 2049.0 , 2038.0 , 268.882 , 0.0 , 0.0 , 0.0 , 0.0 , 

70.0 , 4125.12820513 , 4124.61538462 , 4127.17948718 , 4129.74358974 , 4129.23076923 , 4125.12820513 , 4118.46153846 , 4197.43589744 , 4145.64102564 , 4141.53846154 , 4194.87179487 , 4903.07692308 , 4141.53846154 , 4135.8974359 , 2049.0 , 2037.0 , 268.887 , 0.0 , 0.0 , 0.0 , 0.0 , 

71.0 , 4129.23076923 , 4121.02564103 , 4136.41025641 , 4121.02564103 , 4131.79487179 , 4123.07692308 , 4126.66666667 , 4191.28205128 , 4141.53846154 , 4137.94871795 , 4188.71794872 , 4909.74358974 , 4128.71794872 , 4136.41025641 , 2050.0 , 2038.0 , 268.892 , 0.0 , 0.0 , 0.0 , 0.0 , 

72.0 , 4129.74358974 , 4129.74358974 , 4134.87179487 , 4129.74358974 , 4129.23076923 , 4131.28205128 , 4139.48717949 , 4201.53846154 , 4147.69230769 , 4140.0 , 4191.28205128 , 4906.15384615 , 4133.33333333 , 4137.94871795 , 2048.0 , 2036.0 , 268.904 , 0.0 , 0.0 , 0.0 , 0.0 , 

73.0 , 4129.23076923 , 4128.71794872 , 4136.41025641 , 4128.71794872 , 4126.15384615 , 4130.25641026 , 4127.17948718 , 4190.76923077 , 4131.79487179 , 4137.94871795 , 4188.71794872 , 4907.69230769 , 4129.74358974 , 4138.97435897 , 2049.0 , 2036.0 , 268.91 , 0.0 , 0.0 , 0.0 , 0.0 , 

74.0 , 4132.82051282 , 4134.87179487 , 4132.30769231 , 4133.84615385 , 4129.23076923 , 4133.33333333 , 4132.30769231 , 4191.79487179 , 4131.79487179 , 4138.97435897 , 4186.66666667 , 4906.66666667 , 4130.76923077 , 4138.97435897 , 2047.0 , 2036.0 , 268.916 , 0.0 , 0.0 , 0.0 , 0.0 , 

75.0 , 4132.30769231 , 4130.25641026 , 4136.41025641 , 4128.71794872 , 4129.23076923 , 4129.23076923 , 4128.71794872 , 4186.15384615 , 4136.41025641 , 4140.0 , 4182.05128205 , 4915.8974359 , 4121.53846154 , 4138.46153846 , 2046.0 , 2034.0 , 268.924 , 0.0 , 0.0 , 0.0 , 0.0 , 

76.0 , 4131.28205128 , 4131.28205128 , 4134.35897436 , 4128.71794872 , 4128.71794872 , 4129.74358974 , 4127.17948718 , 4180.51282051 , 4134.87179487 , 4139.48717949 , 4187.69230769 , 4917.94871795 , 4128.20512821 , 4136.41025641 , 2045.0 , 2035.0 , 268.941 , 0.0 , 0.0 , 0.0 , 0.0 , 

77.0 , 4130.25641026 , 4129.23076923 , 4132.82051282 , 4129.23076923 , 4129.23076923 , 4126.15384615 , 4125.12820513 , 4174.87179487 , 4130.25641026 , 4137.43589744 , 4189.74358974 , 4912.30769231 , 4136.41025641 , 4135.8974359 , 2045.0 , 2034.0 , 268.941 , 0.0 , 0.0 , 0.0 , 0.0 , 

78.0 , 4133.33333333 , 4131.28205128 , 4133.33333333 , 4132.30769231 , 4132.82051282 , 4126.15384615 , 4125.12820513 , 4172.82051282 , 4126.66666667 , 4137.43589744 , 4186.15384615 , 4910.25641026 , 4133.33333333 , 4138.46153846 , 2043.0 , 2035.0 , 268.947 , 0.0 , 0.0 , 0.0 , 0.0 , 

79.0 , 4129.23076923 , 4131.79487179 , 4127.17948718 , 4136.41025641 , 4130.25641026 , 4127.69230769 , 4118.97435897 , 4178.46153846 , 4135.38461538 , 4137.43589744 , 4189.23076923 , 4909.23076923 , 4142.05128205 , 4138.97435897 , 2042.0 , 2034.0 , 268.954 , 0.0 , 0.0 , 0.0 , 0.0 , 

80.0 , 4129.23076923 , 4128.71794872 , 4125.64102564 , 4134.35897436 , 4129.74358974 , 4117.94871795 , 4108.71794872 , 4172.82051282 , 4129.23076923 , 4134.35897436 , 4191.79487179 , 4906.66666667 , 4141.53846154 , 4138.46153846 , 2041.0 , 2033.0 , 268.969 , 0.0 , 0.0 , 0.0 , 0.0 , 

81.0 , 4127.69230769 , 4130.25641026 , 4123.07692308 , 4137.94871795 , 4127.69230769 , 4118.46153846 , 4118.46153846 , 4188.71794872 , 4136.41025641 , 4133.84615385 , 4196.41025641 , 4902.05128205 , 4145.64102564 , 4135.8974359 , 2042.0 , 2033.0 , 268.974 , 0.0 , 0.0 , 0.0 , 0.0 , 

82.0 , 4132.82051282 , 4124.61538462 , 4130.76923077 , 4128.20512821 , 4125.64102564 , 4122.56410256 , 4115.8974359 , 4184.61538462 , 4130.25641026 , 4133.84615385 , 4191.79487179 , 4907.17948718 , 4131.28205128 , 4137.43589744 , 2043.0 , 2034.0 , 268.979 , 0.0 , 0.0 , 0.0 , 0.0 , 

83.0 , 4128.20512821 , 4123.58974359 , 4125.64102564 , 4131.28205128 , 4126.15384615 , 4128.20512821 , 4121.53846154 , 4201.02564103 , 4145.64102564 , 4140.0 , 4191.28205128 , 4904.61538462 , 4138.97435897 , 4135.8974359 , 2042.0 , 2033.0 , 268.987 , 0.0 , 0.0 , 0.0 , 0.0 , 

84.0 , 4130.25641026 , 4120.0 , 4135.38461538 , 4124.1025641 , 4130.25641026 , 4117.43589744 , 4115.38461538 , 4191.28205128 , 4136.41025641 , 4141.53846154 , 4184.61538462 , 4907.17948718 , 4124.1025641 , 4137.94871795 , 2042.0 , 2033.0 , 268.999 , 0.0 , 0.0 , 0.0 , 0.0 , 

85.0 , 4130.25641026 , 4129.74358974 , 4135.8974359 , 4128.71794872 , 4130.76923077 , 4131.28205128 , 4128.71794872 , 4202.56410256 , 4140.51282051 , 4140.51282051 , 4189.23076923 , 4903.58974359 , 4131.28205128 , 4138.46153846 , 2042.0 , 2035.0 , 269.006 , 0.0 , 0.0 , 0.0 , 0.0 , 

86.0 , 4132.30769231 , 4123.58974359 , 4141.53846154 , 4121.02564103 , 4131.28205128 , 4131.28205128 , 4122.56410256 , 4187.69230769 , 4128.71794872 , 4137.43589744 , 4184.61538462 , 4910.76923077 , 4122.56410256 , 4140.51282051 , 2043.0 , 2032.0 , 269.011 , 0.0 , 0.0 , 0.0 , 0.0 , 

87.0 , 4130.76923077 , 4132.30769231 , 4130.25641026 , 4136.92307692 , 4134.87179487 , 4131.79487179 , 4134.87179487 , 4197.43589744 , 4143.07692308 , 4142.05128205 , 4189.23076923 , 4911.79487179 , 4133.84615385 , 4136.92307692 , 2041.0 , 2032.0 , 269.017 , 0.0 , 0.0 , 0.0 , 0.0 , 

88.0 , 4132.82051282 , 4134.35897436 , 4135.8974359 , 4134.35897436 , 4135.8974359 , 4128.20512821 , 4128.20512821 , 4180.0 , 4131.79487179 , 4137.43589744 , 4184.1025641 , 4918.46153846 , 4120.51282051 , 4139.48717949 , 2041.0 , 2033.0 , 269.03 , 0.0 , 0.0 , 0.0 , 0.0 , 

89.0 , 4129.74358974 , 4140.0 , 4132.30769231 , 4140.0 , 4131.79487179 , 4137.94871795 , 4134.87179487 , 4183.58974359 , 4132.82051282 , 4136.41025641 , 4189.23076923 , 4911.79487179 , 4131.28205128 , 4137.43589744 , 2041.0 , 2031.0 , 269.037 , 0.0 , 0.0 , 0.0 , 0.0 , 

90.0 , 4131.79487179 , 4130.76923077 , 4131.79487179 , 4134.87179487 , 4126.15384615 , 4125.64102564 , 4122.05128205 , 4171.28205128 , 4124.61538462 , 4135.8974359 , 4186.15384615 , 4913.84615385 , 4131.79487179 , 4136.41025641 , 2041.0 , 2032.0 , 269.042 , 0.0 , 0.0 , 0.0 , 0.0 , 

91.0 , 4134.87179487 , 4136.92307692 , 4125.64102564 , 4142.05128205 , 4131.28205128 , 4130.76923077 , 4129.23076923 , 4180.0 , 4132.30769231 , 4138.97435897 , 4189.74358974 , 4909.74358974 , 4143.58974359 , 4135.38461538 , 2041.0 , 2033.0 , 269.05 , 0.0 , 0.0 , 0.0 , 0.0 , 

92.0 , 4131.28205128 , 4129.74358974 , 4131.79487179 , 4134.87179487 , 4131.79487179 , 4128.71794872 , 4120.51282051 , 4173.33333333 , 4127.69230769 , 4134.87179487 , 4187.17948718 , 4911.28205128 , 4138.46153846 , 4136.41025641 , 2042.0 , 2034.0 , 269.063 , 0.0 , 0.0 , 0.0 , 0.0 , 

93.0 , 4129.74358974 , 4128.71794872 , 4126.66666667 , 4134.35897436 , 4124.61538462 , 4121.53846154 , 4114.35897436 , 4176.41025641 , 4131.28205128 , 4136.41025641 , 4191.79487179 , 4907.17948718 , 4142.05128205 , 4138.46153846 , 2039.0 , 2033.0 , 269.068 , 0.0 , 0.0 , 0.0 , 0.0 , 

94.0 , 4131.28205128 , 4126.15384615 , 4129.23076923 , 4129.74358974 , 4122.56410256 , 4114.35897436 , 4108.20512821 , 4178.97435897 , 4134.87179487 , 4136.41025641 , 4190.25641026 , 4906.66666667 , 4135.38461538 , 4140.51282051 , 2039.0 , 2033.0 , 269.073 , 0.0 , 0.0 , 0.0 , 0.0 , 

95.0 , 4132.82051282 , 4124.1025641 , 4134.35897436 , 4129.74358974 , 4130.76923077 , 4118.97435897 , 4119.48717949 , 4189.74358974 , 4138.46153846 , 4135.38461538 , 4189.74358974 , 4908.71794872 , 4132.82051282 , 4137.43589744 , 2039.0 , 2032.0 , 269.081 , 0.0 , 0.0 , 0.0 , 0.0 , 

96.0 , 4126.15384615 , 4116.41025641 , 4133.33333333 , 4126.15384615 , 4130.25641026 , 4119.48717949 , 4121.02564103 , 4196.92307692 , 4145.12820513 , 4138.46153846 , 4191.28205128 , 4909.23076923 , 4134.87179487 , 4133.84615385 , 2038.0 , 2032.0 , 269.099 , 0.0 , 0.0 , 0.0 , 0.0 , 

97.0 , 4128.71794872 , 4120.0 , 4132.30769231 , 4123.07692308 , 4128.20512821 , 4120.0 , 4114.87179487 , 4190.25641026 , 4137.43589744 , 4140.51282051 , 4191.79487179 , 4906.15384615 , 4128.20512821 , 4136.92307692 , 2038.0 , 2032.0 , 269.099 , 0.0 , 0.0 , 0.0 , 0.0 , 

98.0 , 4130.25641026 , 4126.66666667 , 4132.82051282 , 4127.69230769 , 4127.69230769 , 4128.20512821 , 4124.1025641 , 4195.8974359 , 4144.1025641 , 4140.51282051 , 4192.30769231 , 4905.12820513 , 4132.30769231 , 4135.8974359 , 2037.0 , 2035.0 , 269.105 , 0.0 , 0.0 , 0.0 , 0.0 , 

99.0 , 4133.84615385 , 4127.69230769 , 4138.97435897 , 4124.1025641 , 4128.71794872 , 4130.25641026 , 4128.20512821 , 4192.82051282 , 4141.02564103 , 4139.48717949 , 4189.23076923 , 4909.23076923 , 4128.71794872 , 4136.41025641 , 2037.0 , 2034.0 , 269.114 , 0.0 , 0.0 , 0.0 , 0.0 , 

100.0 , 4130.25641026 , 4136.92307692 , 4134.87179487 , 4129.74358974 , 4129.74358974 , 4137.43589744 , 4135.38461538 , 4203.58974359 , 4148.71794872 , 4142.56410256 , 4190.76923077 , 4908.20512821 , 4137.94871795 , 4137.94871795 , 2037.0 , 2035.0 , 269.126 , 0.0 , 0.0 , 0.0 , 0.0 , 

101.0 , 4133.33333333 , 4134.87179487 , 4139.48717949 , 4127.69230769 , 4131.79487179 , 4131.79487179 , 4128.71794872 , 4180.51282051 , 4130.25641026 , 4138.46153846 , 4183.58974359 , 4916.41025641 , 4127.17948718 , 4140.0 , 2039.0 , 2033.0 , 269.132 , 0.0 , 0.0 , 0.0 , 0.0 , 

102.0 , 4133.33333333 , 4134.35897436 , 4132.30769231 , 4136.41025641 , 4130.25641026 , 4130.76923077 , 4134.35897436 , 4184.1025641 , 4132.82051282 , 4137.43589744 , 4188.20512821 , 4915.38461538 , 4136.92307692 , 4136.41025641 , 2040.0 , 2031.0 , 269.137 , 0.0 , 0.0 , 0.0 , 0.0 , 

103.0 , 4136.92307692 , 4131.28205128 , 4135.8974359 , 4129.74358974 , 4131.79487179 , 4125.12820513 , 4118.46153846 , 4172.82051282 , 4118.97435897 , 4134.87179487 , 4185.64102564 , 4914.87179487 , 4125.64102564 , 4141.02564103 , 2039.0 , 2029.0 , 269.144 , 0.0 , 0.0 , 0.0 , 0.0 , 

104.0 , 4134.87179487 , 4138.97435897 , 4128.71794872 , 4140.51282051 , 4131.28205128 , 4132.30769231 , 4123.58974359 , 4181.53846154 , 4128.20512821 , 4134.87179487 , 4188.71794872 , 4909.74358974 , 4142.05128205 , 4138.46153846 , 2039.0 , 2030.0 , 269.156 , 0.0 , 0.0 , 0.0 , 0.0 , 

105.0 , 4136.92307692 , 4129.23076923 , 4134.35897436 , 4135.38461538 , 4127.69230769 , 4119.48717949 , 4114.87179487 , 4163.58974359 , 4119.48717949 , 4133.84615385 , 4182.05128205 , 4915.38461538 , 4135.8974359 , 4136.92307692 , 2039.0 , 2030.0 , 269.164 , 0.0 , 0.0 , 0.0 , 0.0 , 

106.0 , 4132.82051282 , 4133.84615385 , 4125.64102564 , 4140.0 , 4128.71794872 , 4122.05128205 , 4123.58974359 , 4180.0 , 4132.30769231 , 4138.46153846 , 4191.79487179 , 4906.15384615 , 4144.61538462 , 4136.41025641 , 2038.0 , 2032.0 , 269.168 , 0.0 , 0.0 , 0.0 , 0.0 , 

107.0 , 4127.69230769 , 4125.12820513 , 4127.17948718 , 4129.74358974 , 4129.23076923 , 4118.46153846 , 4112.30769231 , 4175.8974359 , 4130.25641026 , 4135.8974359 , 4194.35897436 , 4904.61538462 , 4138.46153846 , 4139.48717949 , 2036.0 , 2034.0 , 269.176 , 0.0 , 0.0 , 0.0 , 0.0 , 

108.0 , 4126.15384615 , 4127.17948718 , 4122.56410256 , 4135.8974359 , 4127.17948718 , 4125.64102564 , 4122.05128205 , 4189.23076923 , 4143.58974359 , 4139.48717949 , 4196.41025641 , 4902.56410256 , 4147.17948718 , 4136.92307692 , 2037.0 , 2034.0 , 269.188 , 0.0 , 0.0 , 0.0 , 0.0 , 

109.0 , 4130.76923077 , 4124.1025641 , 4131.79487179 , 4128.20512821 , 4127.17948718 , 4121.02564103 , 4118.46153846 , 4185.12820513 , 4136.92307692 , 4140.0 , 4189.23076923 , 4906.66666667 , 4129.23076923 , 4138.97435897 , 2037.0 , 2036.0 , 269.195 , 0.0 , 0.0 , 0.0 , 0.0 , 

110.0 , 4130.25641026 , 4131.28205128 , 4129.74358974 , 4127.17948718 , 4131.79487179 , 4127.17948718 , 4127.17948718 , 4198.46153846 , 4142.56410256 , 4140.0 , 4194.35897436 , 4902.56410256 , 4130.76923077 , 4138.46153846 , 2038.0 , 2036.0 , 269.2 , 0.0 , 0.0 , 0.0 , 0.0 , 

111.0 , 4127.17948718 , 4124.1025641 , 4130.76923077 , 4123.58974359 , 4130.25641026 , 4125.12820513 , 4123.07692308 , 4195.8974359 , 4140.0 , 4136.92307692 , 4190.76923077 , 4910.25641026 , 4129.74358974 , 4140.51282051 , 2037.0 , 2035.0 , 269.207 , 0.0 , 0.0 , 0.0 , 0.0 , 

112.0 , 4131.79487179 , 4130.25641026 , 4133.33333333 , 4130.25641026 , 4131.28205128 , 4130.25641026 , 4129.74358974 , 4196.41025641 , 4138.97435897 , 4138.97435897 , 4186.66666667 , 4912.82051282 , 4124.61538462 , 4139.48717949 , 2037.0 , 2036.0 , 269.219 , 0.0 , 0.0 , 0.0 , 0.0 , 

113.0 , 4132.82051282 , 4134.35897436 , 4141.53846154 , 4124.61538462 , 4131.28205128 , 4132.82051282 , 4127.69230769 , 4193.84615385 , 4134.87179487 , 4137.94871795 , 4183.58974359 , 4911.79487179 , 4117.43589744 , 4136.92307692 , 2037.0 , 2036.0 , 269.225 , 0.0 , 0.0 , 0.0 , 0.0 , 

114.0 , 4131.79487179 , 4134.87179487 , 4139.48717949 , 4126.66666667 , 4130.76923077 , 4135.38461538 , 4126.66666667 , 4189.74358974 , 4129.74358974 , 4139.48717949 , 4185.64102564 , 4912.82051282 , 4124.1025641 , 4138.97435897 , 2035.0 , 2034.0 , 269.231 , 0.0 , 0.0 , 0.0 , 0.0 , 

115.0 , 4128.20512821 , 4132.30769231 , 4130.25641026 , 4135.38461538 , 4130.76923077 , 4132.30769231 , 4127.17948718 , 4186.66666667 , 4134.35897436 , 4141.02564103 , 4188.20512821 , 4915.8974359 , 4136.41025641 , 4140.51282051 , 2034.0 , 2035.0 , 269.239 , 0.0 , 0.0 , 0.0 , 0.0 , 

116.0 , 4135.8974359 , 4136.41025641 , 4131.28205128 , 4138.46153846 , 4132.82051282 , 4128.20512821 , 4127.17948718 , 4175.38461538 , 4125.64102564 , 4136.92307692 , 4188.20512821 , 4913.84615385 , 4135.38461538 , 4139.48717949 , 2033.0 , 2032.0 , 269.252 , 0.0 , 0.0 , 0.0 , 0.0 , 

117.0 , 4134.87179487 , 4137.43589744 , 4128.20512821 , 4141.02564103 , 4131.28205128 , 4131.79487179 , 4129.23076923 , 4181.02564103 , 4127.69230769 , 4134.87179487 , 4189.74358974 , 4910.25641026 , 4144.61538462 , 4137.43589744 , 2033.0 , 2030.0 , 269.256 , 0.0 , 0.0 , 0.0 , 0.0 , 

118.0 , 4132.30769231 , 4129.74358974 , 4129.74358974 , 4135.8974359 , 4132.30769231 , 4127.17948718 , 4117.43589744 , 4173.33333333 , 4123.07692308 , 4136.92307692 , 4186.66666667 , 4912.30769231 , 4138.46153846 , 4141.02564103 , 2035.0 , 2030.0 , 269.263 , 0.0 , 0.0 , 0.0 , 0.0 , 

119.0 , 4126.66666667 , 4133.84615385 , 4124.1025641 , 4137.94871795 , 4130.76923077 , 4126.66666667 , 4118.46153846 , 4187.69230769 , 4141.02564103 , 4139.48717949 , 4193.33333333 , 4906.15384615 , 4144.1025641 , 4137.43589744 , 2035.0 , 2030.0 , 269.269 , 0.0 , 0.0 , 0.0 , 0.0 , 

120.0 , 4129.74358974 , 4127.17948718 , 4131.79487179 , 4125.12820513 , 4128.20512821 , 4118.97435897 , 4110.76923077 , 4181.02564103 , 4129.74358974 , 4135.38461538 , 4188.71794872 , 4908.20512821 , 4133.84615385 , 4137.94871795 , 2036.0 , 2029.0 , 269.283 , 0.0 , 0.0 , 0.0 , 0.0 , 

121.0 , 4125.12820513 , 4123.58974359 , 4129.23076923 , 4130.25641026 , 4128.20512821 , 4124.61538462 , 4122.05128205 , 4198.97435897 , 4135.8974359 , 4136.92307692 , 4190.25641026 , 4907.69230769 , 4142.05128205 , 4138.46153846 , 2037.0 , 2029.0 , 269.288 , 0.0 , 0.0 , 0.0 , 0.0 , 

122.0 , 4128.20512821 , 4114.87179487 , 4137.94871795 , 4120.0 , 4129.74358974 , 4119.48717949 , 4114.35897436 , 4189.74358974 , 4129.74358974 , 4138.46153846 , 4187.17948718 , 4911.79487179 , 4122.56410256 , 4141.02564103 , 2038.0 , 2029.0 , 269.294 , 0.0 , 0.0 , 0.0 , 0.0 , 

123.0 , 4129.23076923 , 4124.61538462 , 4131.79487179 , 4123.07692308 , 4129.23076923 , 4128.71794872 , 4125.64102564 , 4203.58974359 , 4146.15384615 , 4143.58974359 , 4194.87179487 , 4906.15384615 , 4130.25641026 , 4138.46153846 , 2038.0 , 2030.0 , 269.302 , 0.0 , 0.0 , 0.0 , 0.0 , 

124.0 , 4130.76923077 , 4123.07692308 , 4139.48717949 , 4117.43589744 , 4129.74358974 , 4129.23076923 , 4121.02564103 , 4191.28205128 , 4136.92307692 , 4139.48717949 , 4185.64102564 , 4911.79487179 , 4123.07692308 , 4137.94871795 , 2039.0 , 2031.0 , 269.316 , 0.0 , 0.0 , 0.0 , 0.0 , 

125.0 , 4128.20512821 , 4134.35897436 , 4134.35897436 , 4129.23076923 , 4133.33333333 , 4136.41025641 , 4135.8974359 , 4201.02564103 , 4141.53846154 , 4137.94871795 , 4188.71794872 , 4907.69230769 , 4132.82051282 , 4136.41025641 , 2039.0 , 2047.0 , 269.321 , 0.0 , 0.0 , 0.0 , 0.0 , 

126.0 , 4130.25641026 , 4130.25641026 , 4137.94871795 , 4122.05128205 , 4133.33333333 , 4129.74358974 , 4132.82051282 , 4187.17948718 , 4132.82051282 , 4137.94871795 , 4185.64102564 , 4910.25641026 , 4122.05128205 , 4139.48717949 , 2041.0 , 2033.0 , 269.325 , 0.0 , 0.0 , 0.0 , 0.0 , 

127.0 , 4133.33333333 , 4135.38461538 , 4131.79487179 , 4131.28205128 , 4132.82051282 , 4137.43589744 , 4140.51282051 , 4194.87179487 , 4143.07692308 , 4140.0 , 4188.20512821 , 4907.69230769 , 4131.79487179 , 4137.43589744 , 2041.0 , 2033.0 , 269.333 , 0.0 , 0.0 , 0.0 , 0.0 , 

128.0 , 4135.38461538 , 4133.84615385 , 4134.35897436 , 4134.35897436 , 4132.30769231 , 4132.82051282 , 4128.20512821 , 4182.05128205 , 4129.74358974 , 4135.8974359 , 4184.61538462 , 4912.82051282 , 4129.23076923 , 4138.97435897 , 2043.0 , 2036.0 , 269.347 , 0.0 , 0.0 , 0.0 , 0.0 , 

0.0 , 4135.8974359 , 4138.46153846 , 4128.71794872 , 4139.48717949 , 4133.84615385 , 4132.82051282 , 4133.33333333 , 4176.41025641 , 4120.51282051 , 4138.46153846 , 4188.20512821 , 4912.82051282 , 4137.94871795 , 4141.02564103 , 2043.0 , 2037.0 , 269.352 , 0.0 , 0.0 , 0.0 , 0.0 , 

1.0 , 4136.41025641 , 4129.74358974 , 4129.23076923 , 4133.84615385 , 4132.30769231 , 4124.61538462 , 4126.66666667 , 4169.23076923 , 4118.46153846 , 4137.43589744 , 4184.1025641 , 4916.41025641 , 4137.43589744 , 4141.02564103 , 2042.0 , 2037.0 , 269.356 , 0.0 , 0.0 , 0.0 , 0.0 , 

2.0 , 4135.38461538 , 4131.79487179 , 4127.69230769 , 4136.41025641 , 4130.25641026 , 4123.58974359 , 4118.97435897 , 4175.8974359 , 4125.12820513 , 4134.35897436 , 4186.66666667 , 4911.79487179 , 4138.97435897 , 4138.46153846 , 2043.0 , 2038.0 , 269.365 , 0.0 , 0.0 , 0.0 , 0.0 , 

3.0 , 4131.28205128 , 4126.15384615 , 4127.17948718 , 4132.30769231 , 4126.66666667 , 4121.02564103 , 4111.79487179 , 4179.48717949 , 4128.20512821 , 4133.33333333 , 4190.76923077 , 4907.69230769 , 4139.48717949 , 4139.48717949 , 2043.0 , 2035.0 , 269.38 , 0.0 , 0.0 , 0.0 , 0.0 , 

4.0 , 4134.35897436 , 4122.05128205 , 4128.20512821 , 4130.25641026 , 4127.69230769 , 4120.51282051 , 4116.41025641 , 4178.97435897 , 4129.23076923 , 4137.43589744 , 4189.23076923 , 4908.20512821 , 4138.97435897 , 4141.02564103 , 2043.0 , 2036.0 , 269.383 , 0.0 , 0.0 , 0.0 , 0.0 , 

5.0 , 4130.25641026 , 4124.61538462 , 4128.20512821 , 4130.25641026 , 4129.23076923 , 4118.97435897 , 4118.46153846 , 4187.17948718 , 4144.61538462 , 4140.0 , 4188.20512821 , 4905.64102564 , 4137.94871795 , 4138.46153846 , 2043.0 , 2036.0 , 269.389 , 0.0 , 0.0 , 0.0 , 0.0 , 

6.0 , 4128.20512821 , 4127.69230769 , 4131.79487179 , 4124.1025641 , 4130.76923077 , 4120.0 , 4113.84615385 , 4189.74358974 , 4142.05128205 , 4140.51282051 , 4190.76923077 , 4905.12820513 , 4127.17948718 , 4138.97435897 , 2043.0 , 2035.0 , 269.398 , 0.0 , 0.0 , 0.0 , 0.0 , 

7.0 , 4126.15384615 , 4127.69230769 , 4128.20512821 , 4126.15384615 , 4128.71794872 , 4131.28205128 , 4126.15384615 , 4202.05128205 , 4147.17948718 , 4143.58974359 , 4193.84615385 , 4906.15384615 , 4135.8974359 , 4140.0 , 2044.0 , 2036.0 , 269.413 , 0.0 , 0.0 , 0.0 , 0.0 , 

8.0 , 4132.30769231 , 4123.07692308 , 4137.94871795 , 4124.61538462 , 4130.76923077 , 4128.71794872 , 4126.66666667 , 4188.20512821 , 4136.92307692 , 4140.0 , 4185.12820513 , 4912.30769231 , 4125.12820513 , 4142.05128205 , 2043.0 , 2037.0 , 269.415 , 0.0 , 0.0 , 0.0 , 0.0 , 

9.0 , 4130.25641026 , 4129.74358974 , 4136.92307692 , 4130.76923077 , 4133.33333333 , 4134.35897436 , 4133.33333333 , 4198.46153846 , 4145.12820513 , 4136.92307692 , 4187.17948718 , 4908.71794872 , 4129.74358974 , 4137.43589744 , 2043.0 , 2038.0 , 269.42 , 0.0 , 0.0 , 0.0 , 0.0 , 

10.0 , 4133.33333333 , 4127.69230769 , 4141.02564103 , 4122.56410256 , 4133.33333333 , 4133.33333333 , 4125.64102564 , 4185.12820513 , 4130.76923077 , 4135.38461538 , 4183.07692308 , 4912.82051282 , 4121.53846154 , 4139.48717949 , 2043.0 , 2038.0 , 269.43 , 0.0 , 0.0 , 0.0 , 0.0 , 

11.0 , 4132.30769231 , 4135.38461538 , 4133.33333333 , 4134.87179487 , 4130.76923077 , 4136.41025641 , 4132.30769231 , 4191.79487179 , 4136.41025641 , 4138.97435897 , 4184.61538462 , 4911.28205128 , 4134.35897436 , 4141.02564103 , 2044.0 , 2040.0 , 269.447 , 0.0 , 0.0 , 0.0 , 0.0 , 

12.0 , 4136.92307692 , 4130.76923077 , 4138.97435897 , 4132.30769231 , 4129.74358974 , 4125.64102564 , 4122.56410256 , 4172.30769231 , 4120.51282051 , 4136.92307692 , 4178.97435897 , 4916.41025641 , 4122.56410256 , 4141.02564103 , 2044.0 , 2040.0 , 269.447 , 0.0 , 0.0 , 0.0 , 0.0 , 

13.0 , 4134.87179487 , 4136.41025641 , 4129.23076923 , 4138.46153846 , 4129.23076923 , 4132.82051282 , 4133.84615385 , 4179.48717949 , 4129.23076923 , 4138.97435897 , 4189.23076923 , 4911.28205128 , 4140.0 , 4136.41025641 , 2045.0 , 2038.0 , 269.452 , 0.0 , 0.0 , 0.0 , 0.0 , 

14.0 , 4132.82051282 , 4128.71794872 , 4130.76923077 , 4131.28205128 , 4128.71794872 , 4123.58974359 , 4122.05128205 , 4166.15384615 , 4122.05128205 , 4137.94871795 , 4186.15384615 , 4913.33333333 , 4136.92307692 , 4140.0 , 2043.0 , 2037.0 , 269.46 , 0.0 , 0.0 , 0.0 , 0.0 , 

15.0 , 4131.28205128 , 4136.92307692 , 4122.56410256 , 4140.0 , 4130.76923077 , 4126.66666667 , 4125.12820513 , 4180.51282051 , 4133.33333333 , 4139.48717949 , 4188.71794872 , 4905.12820513 , 4142.56410256 , 4138.46153846 , 2043.0 , 2037.0 , 269.472 , 0.0 , 0.0 , 0.0 , 0.0 , 

16.0 , 4132.82051282 , 4131.28205128 , 4126.66666667 , 4130.25641026 , 4129.23076923 , 4122.56410256 , 4117.94871795 , 4174.35897436 , 4129.74358974 , 4137.43589744 , 4186.15384615 , 4905.64102564 , 4134.35897436 , 4136.92307692 , 2044.0 , 2036.0 , 269.479 , 0.0 , 0.0 , 0.0 , 0.0 , 

17.0 , 4129.74358974 , 4134.35897436 , 4123.07692308 , 4137.94871795 , 4128.71794872 , 4126.15384615 , 4125.64102564 , 4188.71794872 , 4142.56410256 , 4138.97435897 , 4193.84615385 , 4904.1025641 , 4145.12820513 , 4137.43589744 , 2043.0 , 2037.0 , 269.483 , 0.0 , 0.0 , 0.0 , 0.0 , 

18.0 , 4127.69230769 , 4126.66666667 , 4129.74358974 , 4132.82051282 , 4130.25641026 , 4120.51282051 , 4116.41025641 , 4190.25641026 , 4142.05128205 , 4136.92307692 , 4189.74358974 , 4907.69230769 , 4133.33333333 , 4139.48717949 , 2043.0 , 2036.0 , 269.491 , 0.0 , 0.0 , 0.0 , 0.0 , 

19.0 , 4132.30769231 , 4124.1025641 , 4130.25641026 , 4125.12820513 , 4130.76923077 , 4125.12820513 , 4124.1025641 , 4199.48717949 , 4144.61538462 , 4139.48717949 , 4190.25641026 , 4904.1025641 , 4129.74358974 , 4135.8974359 , 2043.0 , 2036.0 , 269.51 , 0.0 , 0.0 , 0.0 , 0.0 , 

20.0 , 4132.82051282 , 4114.87179487 , 4134.87179487 , 4117.43589744 , 4128.20512821 , 4122.05128205 , 4124.1025641 , 4194.87179487 , 4144.61538462 , 4140.51282051 , 4187.17948718 , 4909.23076923 , 4126.15384615 , 4135.8974359 , 2043.0 , 2036.0 , 269.51 , 0.0 , 0.0 , 0.0 , 0.0 , 

21.0 , 4130.76923077 , 4120.0 , 4136.41025641 , 4124.61538462 , 4134.35897436 , 4126.66666667 , 4126.66666667 , 4190.76923077 , 4142.56410256 , 4141.53846154 , 4187.69230769 , 4910.25641026 , 4126.15384615 , 4138.46153846 , 2043.0 , 2037.0 , 269.515 , 0.0 , 0.0 , 0.0 , 0.0 , 

22.0 , 4128.20512821 , 4125.64102564 , 4137.94871795 , 4123.07692308 , 4133.33333333 , 4133.33333333 , 4128.71794872 , 4191.28205128 , 4143.07692308 , 4140.0 , 4186.66666667 , 4909.74358974 , 4125.64102564 , 4137.94871795 , 2043.0 , 2036.0 , 269.523 , 0.0 , 0.0 , 0.0 , 0.0 , 

23.0 , 4134.87179487 , 4128.20512821 , 4138.97435897 , 4122.56410256 , 4127.69230769 , 4131.79487179 , 4130.76923077 , 4189.23076923 , 4137.94871795 , 4140.0 , 4185.12820513 , 4910.25641026 , 4122.56410256 , 4136.92307692 , 2045.0 , 2037.0 , 269.536 , 0.0 , 0.0 , 0.0 , 0.0 , 

24.0 , 4136.41025641 , 4133.33333333 , 4134.35897436 , 4134.87179487 , 4128.20512821 , 4130.76923077 , 4132.30769231 , 4191.79487179 , 4137.43589744 , 4142.56410256 , 4187.17948718 , 4910.25641026 , 4128.71794872 , 4136.41025641 , 2042.0 , 2035.0 , 269.54 , 0.0 , 0.0 , 0.0 , 0.0 , 

25.0 , 4136.41025641 , 4136.92307692 , 4134.87179487 , 4135.38461538 , 4134.87179487 , 4132.82051282 , 4129.23076923 , 4177.94871795 , 4125.12820513 , 4140.51282051 , 4185.64102564 , 4913.84615385 , 4126.15384615 , 4138.46153846 , 2043.0 , 2036.0 , 269.546 , 0.0 , 0.0 , 0.0 , 0.0 , 

26.0 , 4129.74358974 , 4136.41025641 , 4128.20512821 , 4138.46153846 , 4131.79487179 , 4135.38461538 , 4134.35897436 , 4182.05128205 , 4135.8974359 , 4137.94871795 , 4189.23076923 , 4911.28205128 , 4142.05128205 , 4137.43589744 , 2044.0 , 2036.0 , 269.554 , 0.0 , 0.0 , 0.0 , 0.0 , 

27.0 , 4135.8974359 , 4129.23076923 , 4130.76923077 , 4137.43589744 , 4128.71794872 , 4126.15384615 , 4119.48717949 , 4168.20512821 , 4127.17948718 , 4133.33333333 , 4185.12820513 , 4911.79487179 , 4135.8974359 , 4139.48717949 , 2043.0 , 2035.0 , 269.566 , 0.0 , 0.0 , 0.0 , 0.0 , 

28.0 , 4134.87179487 , 4134.87179487 , 4124.61538462 , 4142.05128205 , 4129.23076923 , 4130.76923077 , 4122.05128205 , 4180.0 , 4129.23076923 , 4133.84615385 , 4188.71794872 , 4907.69230769 , 4144.61538462 , 4135.8974359 , 2045.0 , 2036.0 , 269.573 , 0.0 , 0.0 , 0.0 , 0.0 , 

29.0 , 4130.76923077 , 4127.17948718 , 4129.74358974 , 4127.69230769 , 4129.23076923 , 4122.56410256 , 4113.84615385 , 4171.28205128 , 4116.92307692 , 4132.82051282 , 4187.17948718 , 4912.82051282 , 4133.84615385 , 4138.46153846 , 2044.0 , 2035.0 , 269.579 , 0.0 , 0.0 , 0.0 , 0.0 , 

30.0 , 4126.66666667 , 4127.17948718 , 4125.12820513 , 4133.84615385 , 4128.20512821 , 4122.56410256 , 4117.43589744 , 4189.23076923 , 4138.97435897 , 4136.92307692 , 4191.79487179 , 4904.1025641 , 4139.48717949 , 4139.48717949 , 2045.0 , 2035.0 , 269.586 , 0.0 , 0.0 , 0.0 , 0.0 , 

31.0 , 4133.84615385 , 4123.07692308 , 4134.35897436 , 4127.17948718 , 4128.20512821 , 4115.38461538 , 4105.12820513 , 4181.53846154 , 4135.8974359 , 4136.92307692 , 4187.17948718 , 4904.61538462 , 4125.64102564 , 4138.97435897 , 2046.0 , 2034.0 , 269.602 , 0.0 , 0.0 , 0.0 , 0.0 , 

32.0 , 4131.28205128 , 4127.17948718 , 4127.17948718 , 4131.79487179 , 4128.20512821 , 4126.66666667 , 4123.07692308 , 4198.46153846 , 4144.1025641 , 4141.02564103 , 4194.35897436 , 4903.58974359 , 4138.97435897 , 4134.87179487 , 2045.0 , 2034.0 , 269.604 , 0.0 , 0.0 , 0.0 , 0.0 , 

33.0 , 4128.20512821 , 4115.8974359 , 4134.35897436 , 4121.53846154 , 4127.69230769 , 4124.1025641 , 4120.51282051 , 4190.25641026 , 4139.48717949 , 4140.51282051 , 4190.76923077 , 4910.76923077 , 4125.64102564 , 4138.97435897 , 2045.0 , 2034.0 , 269.608 , 0.0 , 0.0 , 0.0 , 0.0 , 

34.0 , 4129.23076923 , 4128.71794872 , 4131.79487179 , 4129.23076923 , 4129.23076923 , 4131.28205128 , 4127.69230769 , 4197.43589744 , 4150.25641026 , 4139.48717949 , 4194.35897436 , 4905.64102564 , 4129.74358974 , 4137.94871795 , 2046.0 , 2033.0 , 269.617 , 0.0 , 0.0 , 0.0 , 0.0 , 

35.0 , 4133.33333333 , 4130.76923077 , 4136.41025641 , 4123.07692308 , 4129.74358974 , 4132.30769231 , 4126.15384615 , 4184.61538462 , 4135.8974359 , 4135.38461538 , 4188.20512821 , 4909.23076923 , 4125.64102564 , 4136.92307692 , 2045.0 , 2036.0 , 269.629 , 0.0 , 0.0 , 0.0 , 0.0 , 

36.0 , 4130.76923077 , 4133.84615385 , 4133.33333333 , 4129.23076923 , 4131.79487179 , 4138.97435897 , 4139.48717949 , 4196.92307692 , 4138.97435897 , 4139.48717949 , 4190.25641026 , 4908.20512821 , 4132.82051282 , 4137.43589744 , 2044.0 , 2035.0 , 269.635 , 0.0 , 0.0 , 0.0 , 0.0 , 

37.0 , 4130.25641026 , 4130.25641026 , 4137.43589744 , 4127.69230769 , 4131.79487179 , 4127.17948718 , 4124.1025641 , 4190.76923077 , 4136.41025641 , 4138.97435897 , 4186.66666667 , 4913.84615385 , 4124.61538462 , 4141.02564103 , 2043.0 , 2036.0 , 269.64 , 0.0 , 0.0 , 0.0 , 0.0 , 

38.0 , 4135.8974359 , 4136.92307692 , 4133.33333333 , 4135.38461538 , 4130.76923077 , 4127.17948718 , 4123.58974359 , 4178.46153846 , 4128.71794872 , 4138.46153846 , 4188.20512821 , 4914.35897436 , 4131.28205128 , 4140.0 , 2044.0 , 2036.0 , 269.649 , 0.0 , 0.0 , 0.0 , 0.0 , 

39.0 , 4135.8974359 , 4131.79487179 , 4134.35897436 , 4130.76923077 , 4128.20512821 , 4128.71794872 , 4126.66666667 , 4171.79487179 , 4125.64102564 , 4135.8974359 , 4184.1025641 , 4916.92307692 , 4135.8974359 , 4138.97435897 , 2043.0 , 2035.0 , 269.666 , 0.0 , 0.0 , 0.0 , 0.0 , 

40.0 , 4134.87179487 , 4130.25641026 , 4133.84615385 , 4129.23076923 , 4129.23076923 , 4129.23076923 , 4125.12820513 , 4179.48717949 , 4129.74358974 , 4134.35897436 , 4183.07692308 , 4913.84615385 , 4133.84615385 , 4139.48717949 , 2043.0 , 2038.0 , 269.666 , 0.0 , 0.0 , 0.0 , 0.0 , 

41.0 , 4130.76923077 , 4129.23076923 , 4126.66666667 , 4132.82051282 , 4127.69230769 , 4124.1025641 , 4116.41025641 , 4179.48717949 , 4133.33333333 , 4134.87179487 , 4189.23076923 , 4909.23076923 , 4139.48717949 , 4136.92307692 , 2042.0 , 2036.0 , 269.672 , 0.0 , 0.0 , 0.0 , 0.0 , 

42.0 , 4130.76923077 , 4129.74358974 , 4126.15384615 , 4134.87179487 , 4128.71794872 , 4120.0 , 4112.82051282 , 4168.20512821 , 4125.12820513 , 4136.41025641 , 4193.84615385 , 4908.71794872 , 4142.05128205 , 4137.43589744 , 2042.0 , 2036.0 , 269.68 , 0.0 , 0.0 , 0.0 , 0.0 , 

43.0 , 4126.66666667 , 4127.69230769 , 4126.15384615 , 4135.8974359 , 4128.71794872 , 4122.56410256 , 4121.02564103 , 4182.56410256 , 4135.38461538 , 4136.92307692 , 4196.92307692 , 4908.71794872 , 4142.56410256 , 4137.94871795 , 2043.0 , 2036.0 , 269.698 , 0.0 , 0.0 , 0.0 , 0.0 , 

44.0 , 4128.71794872 , 4117.94871795 , 4129.23076923 , 4126.66666667 , 4129.74358974 , 4120.0 , 4118.97435897 , 4187.17948718 , 4137.94871795 , 4136.92307692 , 4191.28205128 , 4908.71794872 , 4129.74358974 , 4137.94871795 , 2043.0 , 2035.0 , 269.7 , 0.0 , 0.0 , 0.0 , 0.0 , 

45.0 , 4127.69230769 , 4122.56410256 , 4126.66666667 , 4126.66666667 , 4128.71794872 , 4127.69230769 , 4125.12820513 , 4206.15384615 , 4153.84615385 , 4142.56410256 , 4190.25641026 , 4906.66666667 , 4138.97435897 , 4135.38461538 , 2045.0 , 2036.0 , 269.704 , 0.0 , 0.0 , 0.0 , 0.0 , 

46.0 , 4133.84615385 , 4128.20512821 , 4140.51282051 , 4121.02564103 , 4129.23076923 , 4128.20512821 , 4121.53846154 , 4191.79487179 , 4140.51282051 , 4142.56410256 , 4183.07692308 , 4913.84615385 , 4122.05128205 , 4139.48717949 , 2045.0 , 2035.0 , 269.712 , 0.0 , 0.0 , 0.0 , 0.0 , 

47.0 , 4132.30769231 , 4129.74358974 , 4136.92307692 , 4129.23076923 , 4129.23076923 , 4131.28205128 , 4133.33333333 , 4199.48717949 , 4143.07692308 , 4139.48717949 , 4186.15384615 , 4908.20512821 , 4124.61538462 , 4138.97435897 , 2046.0 , 2035.0 , 269.724 , 0.0 , 0.0 , 0.0 , 0.0 , 

48.0 , 4133.33333333 , 4118.97435897 , 4139.48717949 , 4118.46153846 , 4129.74358974 , 4121.53846154 , 4120.0 , 4187.69230769 , 4130.76923077 , 4136.92307692 , 4181.53846154 , 4910.25641026 , 4119.48717949 , 4140.51282051 , 2047.0 , 2034.0 , 269.732 , 0.0 , 0.0 , 0.0 , 0.0 , 

49.0 , 4130.25641026 , 4133.84615385 , 4132.30769231 , 4128.71794872 , 4130.25641026 , 4133.33333333 , 4126.15384615 , 4197.43589744 , 4141.53846154 , 4142.56410256 , 4187.17948718 , 4909.23076923 , 4134.35897436 , 4138.97435897 , 2048.0 , 2034.0 , 269.736 , 0.0 , 0.0 , 0.0 , 0.0 , 

50.0 , 4132.30769231 , 4135.8974359 , 4137.94871795 , 4130.76923077 , 4129.74358974 , 4130.25641026 , 4123.58974359 , 4175.8974359 , 4123.58974359 , 4138.97435897 , 4183.58974359 , 4914.87179487 , 4122.56410256 , 4140.0 , 2046.0 , 2032.0 , 269.742 , 0.0 , 0.0 , 0.0 , 0.0 , 

51.0 , 4132.82051282 , 4135.38461538 , 4127.69230769 , 4139.48717949 , 4130.25641026 , 4131.79487179 , 4134.87179487 , 4182.56410256 , 4130.76923077 , 4138.97435897 , 4187.17948718 , 4909.23076923 , 4136.92307692 , 4138.46153846 , 2045.0 , 2031.0 , 269.756 , 0.0 , 0.0 , 0.0 , 0.0 , 

52.0 , 4136.92307692 , 4126.15384615 , 4130.25641026 , 4129.74358974 , 4130.25641026 , 4127.17948718 , 4118.46153846 , 4171.79487179 , 4129.74358974 , 4138.46153846 , 4182.56410256 , 4914.87179487 , 4133.84615385 , 4140.51282051 , 2045.0 , 2031.0 , 269.762 , 0.0 , 0.0 , 0.0 , 0.0 , 

53.0 , 4135.38461538 , 4138.97435897 , 4123.07692308 , 4135.8974359 , 4129.74358974 , 4133.84615385 , 4124.1025641 , 4180.51282051 , 4136.92307692 , 4138.97435897 , 4190.76923077 , 4910.25641026 , 4143.58974359 , 4136.92307692 , 2045.0 , 2032.0 , 269.766 , 0.0 , 0.0 , 0.0 , 0.0 , 

54.0 , 4133.84615385 , 4134.35897436 , 4123.58974359 , 4128.71794872 , 4127.17948718 , 4124.61538462 , 4119.48717949 , 4170.76923077 , 4123.58974359 , 4134.35897436 , 4189.23076923 , 4908.71794872 , 4138.97435897 , 4137.43589744 , 2044.0 , 2036.0 , 269.774 , 0.0 , 0.0 , 0.0 , 0.0 , 

55.0 , 4133.84615385 , 4131.79487179 , 4123.07692308 , 4132.30769231 , 4127.69230769 , 4126.66666667 , 4123.58974359 , 4180.0 , 4133.84615385 , 4138.46153846 , 4190.25641026 , 4907.69230769 , 4138.46153846 , 4138.97435897 , 2044.0 , 2036.0 , 269.787 , 0.0 , 0.0 , 0.0 , 0.0 , 

56.0 , 4130.76923077 , 4126.15384615 , 4133.84615385 , 4126.66666667 , 4128.71794872 , 4121.02564103 , 4111.79487179 , 4182.05128205 , 4138.97435897 , 4138.46153846 , 4186.66666667 , 4913.84615385 , 4125.64102564 , 4138.97435897 , 2044.0 , 2037.0 , 269.795 , 0.0 , 0.0 , 0.0 , 0.0 , 

57.0 , 4130.25641026 , 4125.12820513 , 4133.33333333 , 4123.58974359 , 4129.74358974 , 4120.51282051 , 4114.87179487 , 4191.79487179 , 4136.41025641 , 4139.48717949 , 4190.76923077 , 4909.74358974 , 4127.17948718 , 4135.8974359 , 2042.0 , 2040.0 , 269.798 , 0.0 , 0.0 , 0.0 , 0.0 , 

58.0 , 4129.23076923 , 4115.8974359 , 4132.82051282 , 4120.51282051 , 4126.66666667 , 4121.53846154 , 4121.53846154 , 4197.94871795 , 4141.53846154 , 4142.56410256 , 4190.76923077 , 4908.71794872 , 4130.76923077 , 4136.92307692 , 2043.0 , 2038.0 , 269.805 , 0.0 , 0.0 , 0.0 , 0.0 , 

59.0 , 4132.30769231 , 4121.53846154 , 4135.8974359 , 4123.58974359 , 4129.23076923 , 4128.20512821 , 4126.15384615 , 4200.0 , 4143.07692308 , 4143.07692308 , 4187.17948718 , 4911.28205128 , 4127.17948718 , 4139.48717949 , 2042.0 , 2038.0 , 269.818 , 0.0 , 0.0 , 0.0 , 0.0 , 

60.0 , 4128.71794872 , 4126.66666667 , 4135.38461538 , 4122.05128205 , 4130.76923077 , 4131.79487179 , 4126.15384615 , 4200.51282051 , 4145.12820513 , 4140.0 , 4187.17948718 , 4911.79487179 , 4125.12820513 , 4138.46153846 , 2041.0 , 2037.0 , 269.825 , 0.0 , 0.0 , 0.0 , 0.0 , 

61.0 , 4129.74358974 , 4123.58974359 , 4136.92307692 , 4120.51282051 , 4132.30769231 , 4128.71794872 , 4126.15384615 , 4192.30769231 , 4140.51282051 , 4139.48717949 , 4187.69230769 , 4909.74358974 , 4122.05128205 , 4137.94871795 , 2039.0 , 2035.0 , 269.83 , 0.0 , 0.0 , 0.0 , 0.0 , 

62.0 , 4128.71794872 , 4129.74358974 , 4132.30769231 , 4133.33333333 , 4130.25641026 , 4134.35897436 , 4135.8974359 , 4200.51282051 , 4148.20512821 , 4142.56410256 , 4190.25641026 , 4907.17948718 , 4135.38461538 , 4137.94871795 , 2039.0 , 2032.0 , 269.837 , 0.0 , 0.0 , 0.0 , 0.0 , 

63.0 , 4134.87179487 , 4134.35897436 , 4133.84615385 , 4131.28205128 , 4130.25641026 , 4133.33333333 , 4129.23076923 , 4183.07692308 , 4132.30769231 , 4138.97435897 , 4185.64102564 , 4913.33333333 , 4131.28205128 , 4140.0 , 2040.0 , 2032.0 , 269.849 , 0.0 , 0.0 , 0.0 , 0.0 , 

64.0 , 4132.82051282 , 4137.94871795 , 4128.20512821 , 4134.87179487 , 4130.25641026 , 4134.35897436 , 4130.76923077 , 4186.66666667 , 4134.87179487 , 4139.48717949 , 4189.74358974 , 4912.82051282 , 4140.51282051 , 4138.46153846 , 2040.0 , 2031.0 , 269.857 , 0.0 , 0.0 , 0.0 , 0.0 , 

65.0 , 4132.82051282 , 4131.28205128 , 4136.41025641 , 4131.79487179 , 4130.76923077 , 4124.1025641 , 4117.43589744 , 4172.30769231 , 4121.02564103 , 4136.41025641 , 4186.15384615 , 4914.35897436 , 4128.20512821 , 4143.58974359 , 2040.0 , 2031.0 , 269.862 , 0.0 , 0.0 , 0.0 , 0.0 , 

66.0 , 4129.23076923 , 4133.33333333 , 4127.69230769 , 4141.53846154 , 4129.23076923 , 4126.66666667 , 4117.94871795 , 4183.07692308 , 4129.74358974 , 4134.87179487 , 4191.28205128 , 4908.20512821 , 4142.56410256 , 4140.51282051 , 2041.0 , 2030.0 , 269.868 , 0.0 , 0.0 , 0.0 , 0.0 , 

67.0 , 4133.33333333 , 4124.61538462 , 4129.23076923 , 4131.79487179 , 4127.69230769 , 4117.94871795 , 4105.12820513 , 4172.82051282 , 4121.53846154 , 4131.28205128 , 4186.66666667 , 4913.33333333 , 4137.43589744 , 4136.92307692 , 2040.0 , 2030.0 , 269.88 , 0.0 , 0.0 , 0.0 , 0.0 , 

68.0 , 4131.79487179 , 4130.76923077 , 4126.15384615 , 4134.87179487 , 4130.25641026 , 4122.05128205 , 4115.38461538 , 4185.64102564 , 4137.43589744 , 4135.8974359 , 4191.28205128 , 4908.71794872 , 4142.56410256 , 4135.8974359 , 2044.0 , 2030.0 , 269.888 , 0.0 , 0.0 , 0.0 , 0.0 , 

69.0 , 4130.25641026 , 4124.61538462 , 4134.87179487 , 4126.15384615 , 4129.74358974 , 4118.46153846 , 4109.74358974 , 4173.84615385 , 4131.28205128 , 4136.41025641 , 4189.74358974 , 4910.76923077 , 4125.64102564 , 4140.51282051 , 2044.0 , 2031.0 , 269.893 , 0.0 , 0.0 , 0.0 , 0.0 , 

70.0 , 4128.20512821 , 4129.74358974 , 4125.12820513 , 4134.87179487 , 4128.71794872 , 4129.23076923 , 4125.12820513 , 4196.41025641 , 4145.12820513 , 4140.51282051 , 4196.41025641 , 4904.61538462 , 4140.0 , 4138.46153846 , 2044.0 , 2033.0 , 269.901 , 0.0 , 0.0 , 0.0 , 0.0 , 

71.0 , 4129.23076923 , 4123.07692308 , 4128.71794872 , 4124.61538462 , 4129.74358974 , 4125.64102564 , 4119.48717949 , 4192.30769231 , 4143.07692308 , 4138.46153846 , 4189.74358974 , 4907.17948718 , 4131.28205128 , 4138.97435897 , 2046.0 , 2034.0 , 269.913 , 0.0 , 0.0 , 0.0 , 0.0 , 

72.0 , 4128.71794872 , 4129.23076923 , 4128.71794872 , 4128.71794872 , 4131.79487179 , 4129.74358974 , 4127.17948718 , 4198.46153846 , 4149.23076923 , 4137.94871795 , 4192.30769231 , 4904.1025641 , 4131.28205128 , 4136.92307692 , 2046.0 , 2034.0 , 269.918 , 0.0 , 0.0 , 0.0 , 0.0 , 

73.0 , 4131.28205128 , 4127.69230769 , 4135.8974359 , 4126.15384615 , 4131.79487179 , 4127.69230769 , 4125.12820513 , 4192.82051282 , 4140.51282051 , 4137.94871795 , 4188.20512821 , 4910.25641026 , 4125.64102564 , 4136.92307692 , 2047.0 , 2033.0 , 269.925 , 0.0 , 0.0 , 0.0 , 0.0 , 

74.0 , 4135.8974359 , 4135.8974359 , 4133.84615385 , 4130.76923077 , 4133.84615385 , 4134.35897436 , 4133.84615385 , 4194.87179487 , 4138.46153846 , 4141.53846154 , 4187.69230769 , 4911.79487179 , 4129.74358974 , 4137.43589744 , 2047.0 , 2034.0 , 269.932 , 0.0 , 0.0 , 0.0 , 0.0 , 

75.0 , 4134.87179487 , 4130.76923077 , 4137.43589744 , 4124.61538462 , 4133.33333333 , 4128.71794872 , 4126.15384615 , 4183.07692308 , 4129.74358974 , 4136.92307692 , 4183.58974359 , 4915.8974359 , 4121.02564103 , 4137.94871795 , 2047.0 , 2034.0 , 269.947 , 0.0 , 0.0 , 0.0 , 0.0 , 

76.0 , 4134.35897436 , 4132.30769231 , 4134.87179487 , 4127.69230769 , 4133.84615385 , 4127.69230769 , 4126.66666667 , 4179.48717949 , 4125.12820513 , 4136.41025641 , 4187.69230769 , 4917.43589744 , 4124.1025641 , 4137.94871795 , 2046.0 , 2034.0 , 269.95 , 0.0 , 0.0 , 0.0 , 0.0 , 

77.0 , 4131.28205128 , 4131.79487179 , 4131.28205128 , 4132.30769231 , 4132.30769231 , 4126.15384615 , 4124.61538462 , 4177.43589744 , 4126.66666667 , 4137.43589744 , 4187.17948718 , 4918.46153846 , 4134.87179487 , 4139.48717949 , 2046.0 , 2035.0 , 269.956 , 0.0 , 0.0 , 0.0 , 0.0 , 

78.0 , 4133.84615385 , 4131.79487179 , 4132.30769231 , 4136.92307692 , 4131.28205128 , 4127.69230769 , 4121.53846154 , 4173.33333333 , 4123.58974359 , 4138.46153846 , 4185.64102564 , 4915.38461538 , 4136.92307692 , 4140.51282051 , 2045.0 , 2035.0 , 269.965 , 0.0 , 0.0 , 0.0 , 0.0 , 

79.0 , 4131.28205128 , 4131.28205128 , 4129.23076923 , 4136.41025641 , 4129.74358974 , 4130.25641026 , 4120.51282051 , 4177.94871795 , 4129.23076923 , 4139.48717949 , 4188.71794872 , 4910.25641026 , 4141.53846154 , 4137.43589744 , 2046.0 , 2034.0 , 269.981 , 0.0 , 0.0 , 0.0 , 0.0 , 

80.0 , 4130.76923077 , 4130.76923077 , 4126.15384615 , 4130.76923077 , 4132.30769231 , 4125.12820513 , 4114.35897436 , 4169.23076923 , 4125.12820513 , 4136.92307692 , 4189.23076923 , 4908.20512821 , 4136.41025641 , 4137.94871795 , 2046.0 , 2034.0 , 269.983 , 0.0 , 0.0 , 0.0 , 0.0 , 

81.0 , 4128.71794872 , 4132.82051282 , 4121.53846154 , 4136.92307692 , 4129.23076923 , 4126.66666667 , 4119.48717949 , 4185.64102564 , 4141.02564103 , 4136.41025641 , 4194.35897436 , 4903.07692308 , 4141.02564103 , 4138.97435897 , 2046.0 , 2034.0 , 269.988 , 0.0 , 0.0 , 0.0 , 0.0 , 

82.0 , 4133.84615385 , 4127.17948718 , 4130.76923077 , 4129.23076923 , 4127.69230769 , 4121.53846154 , 4114.87179487 , 4184.61538462 , 4138.46153846 , 4134.35897436 , 4189.74358974 , 4904.1025641 , 4130.25641026 , 4143.58974359 , 2045.0 , 2036.0 , 269.996 , 0.0 , 0.0 , 0.0 , 0.0 , 

83.0 , 4127.17948718 , 4127.17948718 , 4125.12820513 , 4131.79487179 , 4129.74358974 , 4125.64102564 , 4121.53846154 , 4195.38461538 , 4147.69230769 , 4136.92307692 , 4188.71794872 , 4903.58974359 , 4139.48717949 , 4138.97435897 , 2045.0 , 2037.0 , 270.013 , 0.0 , 0.0 , 0.0 , 0.0 , 

84.0 , 4127.69230769 , 4119.48717949 , 4135.38461538 , 4122.05128205 , 4129.23076923 , 4121.53846154 , 4112.30769231 , 4183.58974359 , 4132.82051282 , 4136.92307692 , 4185.12820513 , 4911.79487179 , 4125.64102564 , 4136.41025641 , 2043.0 , 2035.0 , 270.013 , 0.0 , 0.0 , 0.0 , 0.0 , 

85.0 , 4129.74358974 , 4124.1025641 , 4138.46153846 , 4123.58974359 , 4125.64102564 , 4130.76923077 , 4127.17948718 , 4203.07692308 , 4142.56410256 , 4141.02564103 , 4192.30769231 , 4908.71794872 , 4129.74358974 , 4134.87179487 , 2043.0 , 2036.0 , 270.018 , 0.0 , 0.0 , 0.0 , 0.0 , 

86.0 , 4133.33333333 , 4119.48717949 , 4144.61538462 , 4114.35897436 , 4126.66666667 , 4126.15384615 , 4126.66666667 , 4191.28205128 , 4133.84615385 , 4138.46153846 , 4184.61538462 , 4911.28205128 , 4117.43589744 , 4138.97435897 , 2043.0 , 2036.0 , 270.027 , 0.0 , 0.0 , 0.0 , 0.0 , 

87.0 , 4129.74358974 , 4129.23076923 , 4132.82051282 , 4130.76923077 , 4130.76923077 , 4132.82051282 , 4136.41025641 , 4201.02564103 , 4145.64102564 , 4138.97435897 , 4188.71794872 , 4906.66666667 , 4131.79487179 , 4139.48717949 , 2042.0 , 2037.0 , 270.041 , 0.0 , 0.0 , 0.0 , 0.0 , 

88.0 , 4132.82051282 , 4129.23076923 , 4137.94871795 , 4129.74358974 , 4132.30769231 , 4126.66666667 , 4123.58974359 , 4186.15384615 , 4132.30769231 , 4136.92307692 , 4186.15384615 , 4912.82051282 , 4124.61538462 , 4142.56410256 , 2042.0 , 2037.0 , 270.045 , 0.0 , 0.0 , 0.0 , 0.0 , 

89.0 , 4131.79487179 , 4136.92307692 , 4131.28205128 , 4134.35897436 , 4132.30769231 , 4132.82051282 , 4134.35897436 , 4189.23076923 , 4137.94871795 , 4138.97435897 , 4189.74358974 , 4911.28205128 , 4136.92307692 , 4138.97435897 , 2042.0 , 2036.0 , 270.05 , 0.0 , 0.0 , 0.0 , 0.0 , 

90.0 , 4132.30769231 , 4129.74358974 , 4133.33333333 , 4129.23076923 , 4128.20512821 , 4129.23076923 , 4127.17948718 , 4173.33333333 , 4132.30769231 , 4137.94871795 , 4186.15384615 , 4912.82051282 , 4132.30769231 , 4139.48717949 , 2042.0 , 2036.0 , 270.059 , 0.0 , 0.0 , 0.0 , 0.0 , 

91.0 , 4134.35897436 , 4134.87179487 , 4127.69230769 , 4138.97435897 , 4128.71794872 , 4135.8974359 , 4127.17948718 , 4180.0 , 4132.82051282 , 4138.97435897 , 4191.79487179 , 4905.12820513 , 4140.51282051 , 4139.48717949 , 2042.0 , 2036.0 , 270.072 , 0.0 , 0.0 , 0.0 , 0.0 , 

92.0 , 4134.35897436 , 4129.23076923 , 4127.69230769 , 4131.79487179 , 4130.76923077 , 4125.64102564 , 4114.35897436 , 4173.33333333 , 4121.02564103 , 4137.43589744 , 4187.69230769 , 4907.69230769 , 4136.41025641 , 4140.51282051 , 2042.0 , 2037.0 , 270.079 , 0.0 , 0.0 , 0.0 , 0.0 , 

93.0 , 4133.84615385 , 4131.28205128 , 4125.12820513 , 4131.79487179 , 4131.79487179 , 4120.0 , 4117.94871795 , 4177.94871795 , 4127.69230769 , 4139.48717949 , 4189.74358974 , 4908.20512821 , 4139.48717949 , 4140.51282051 , 2043.0 , 2036.0 , 270.083 , 0.0 , 0.0 , 0.0 , 0.0 , 

94.0 , 4128.71794872 , 4126.66666667 , 4129.74358974 , 4129.23076923 , 4129.23076923 , 4114.87179487 , 4114.35897436 , 4178.97435897 , 4134.87179487 , 4136.92307692 , 4188.71794872 , 4909.23076923 , 4134.87179487 , 4139.48717949 , 2043.0 , 2034.0 , 270.089 , 0.0 , 0.0 , 0.0 , 0.0 , 

95.0 , 4126.66666667 , 4125.12820513 , 4130.25641026 , 4132.30769231 , 4130.25641026 , 4120.0 , 4116.41025641 , 4186.66666667 , 4137.43589744 , 4134.87179487 , 4188.20512821 , 4907.17948718 , 4133.84615385 , 4138.97435897 , 2044.0 , 2035.0 , 270.102 , 0.0 , 0.0 , 0.0 , 0.0 , 

96.0 , 4127.17948718 , 4120.0 , 4130.76923077 , 4130.25641026 , 4127.17948718 , 4120.0 , 4118.46153846 , 4194.87179487 , 4148.20512821 , 4136.41025641 , 4189.23076923 , 4907.69230769 , 4135.38461538 , 4139.48717949 , 2043.0 , 2034.0 , 270.109 , 0.0 , 0.0 , 0.0 , 0.0 , 

97.0 , 4132.82051282 , 4122.05128205 , 4133.84615385 , 4126.15384615 , 4126.66666667 , 4118.97435897 , 4121.02564103 , 4192.30769231 , 4146.15384615 , 4138.97435897 , 4193.84615385 , 4908.20512821 , 4128.71794872 , 4138.46153846 , 2043.0 , 2034.0 , 270.115 , 0.0 , 0.0 , 0.0 , 0.0 , 

98.0 , 4127.69230769 , 4127.69230769 , 4127.69230769 , 4128.20512821 , 4127.69230769 , 4127.69230769 , 4128.71794872 , 4197.94871795 , 4147.69230769 , 4140.0 , 4193.84615385 , 4905.12820513 , 4133.33333333 , 4135.8974359 , 2043.0 , 2035.0 , 270.122 , 0.0 , 0.0 , 0.0 , 0.0 , 

99.0 , 4130.76923077 , 4126.15384615 , 4129.74358974 , 4129.23076923 , 4131.28205128 , 4128.71794872 , 4127.17948718 , 4191.28205128 , 4141.53846154 , 4139.48717949 , 4185.64102564 , 4905.12820513 , 4127.69230769 , 4137.43589744 , 2043.0 , 2035.0 , 270.134 , 0.0 , 0.0 , 0.0 , 0.0 , 

100.0 , 4131.79487179 , 4131.28205128 , 4130.25641026 , 4134.87179487 , 4129.74358974 , 4134.35897436 , 4131.28205128 , 4198.97435897 , 4147.69230769 , 4140.0 , 4189.74358974 , 4905.64102564 , 4134.87179487 , 4136.92307692 , 2043.0 , 2036.0 , 270.14 , 0.0 , 0.0 , 0.0 , 0.0 , 

101.0 , 4133.84615385 , 4131.79487179 , 4135.8974359 , 4125.64102564 , 4128.20512821 , 4132.82051282 , 4124.1025641 , 4180.51282051 , 4126.15384615 , 4137.94871795 , 4187.17948718 , 4912.30769231 , 4124.1025641 , 4138.46153846 , 2042.0 , 2035.0 , 270.145 , 0.0 , 0.0 , 0.0 , 0.0 , 

102.0 , 4130.76923077 , 4135.38461538 , 4128.20512821 , 4137.43589744 , 4128.71794872 , 4133.33333333 , 4130.76923077 , 4188.20512821 , 4132.82051282 , 4140.0 , 4187.69230769 , 4910.76923077 , 4135.8974359 , 4136.92307692 , 2041.0 , 2034.0 , 270.153 , 0.0 , 0.0 , 0.0 , 0.0 , 

103.0 , 4135.38461538 , 4128.71794872 , 4135.8974359 , 4134.87179487 , 4131.79487179 , 4122.56410256 , 4118.46153846 , 4173.33333333 , 4123.07692308 , 4137.43589744 , 4183.58974359 , 4916.41025641 , 4129.23076923 , 4140.0 , 2042.0 , 2036.0 , 270.166 , 0.0 , 0.0 , 0.0 , 0.0 , 

104.0 , 4131.79487179 , 4133.33333333 , 4129.74358974 , 4136.41025641 , 4131.28205128 , 4131.79487179 , 4126.66666667 , 4181.02564103 , 4127.17948718 , 4137.94871795 , 4191.79487179 , 4910.76923077 , 4142.05128205 , 4136.92307692 , 2042.0 , 2037.0 , 270.17 , 0.0 , 0.0 , 0.0 , 0.0 , 

105.0 , 4131.79487179 , 4127.69230769 , 4131.28205128 , 4127.69230769 , 4128.71794872 , 4124.61538462 , 4116.41025641 , 4167.17948718 , 4115.8974359 , 4132.82051282 , 4186.66666667 , 4912.82051282 , 4131.28205128 , 4136.41025641 , 2040.0 , 2034.0 , 270.177 , 0.0 , 0.0 , 0.0 , 0.0 , 

106.0 , 4130.25641026 , 4135.38461538 , 4125.12820513 , 4138.97435897 , 4127.69230769 , 4124.61538462 , 4122.05128205 , 4186.15384615 , 4139.48717949 , 4134.87179487 , 4192.82051282 , 4905.64102564 , 4143.07692308 , 4135.8974359 , 2041.0 , 2035.0 , 270.185 , 0.0 , 0.0 , 0.0 , 0.0 , 

107.0 , 4129.74358974 , 4126.15384615 , 4131.28205128 , 4130.76923077 , 4128.20512821 , 4119.48717949 , 4112.30769231 , 4180.0 , 4135.8974359 , 4134.87179487 , 4188.71794872 , 4904.61538462 , 4136.41025641 , 4140.0 , 2039.0 , 2036.0 , 270.197 , 0.0 , 0.0 , 0.0 , 0.0 , 

108.0 , 4127.17948718 , 4126.66666667 , 4122.05128205 , 4135.38461538 , 4130.76923077 , 4128.71794872 , 4125.64102564 , 4191.79487179 , 4138.46153846 , 4138.97435897 , 4193.84615385 , 4901.53846154 , 4143.58974359 , 4139.48717949 , 2040.0 , 2035.0 , 270.202 , 0.0 , 0.0 , 0.0 , 0.0 , 

109.0 , 4129.74358974 , 4121.53846154 , 4127.69230769 , 4127.17948718 , 4129.74358974 , 4122.05128205 , 4118.97435897 , 4184.1025641 , 4139.48717949 , 4138.97435897 , 4191.79487179 , 4908.71794872 , 4131.79487179 , 4139.48717949 , 2041.0 , 2034.0 , 270.207 , 0.0 , 0.0 , 0.0 , 0.0 , 

110.0 , 4131.79487179 , 4128.20512821 , 4129.23076923 , 4127.69230769 , 4128.71794872 , 4129.23076923 , 4126.66666667 , 4193.84615385 , 4151.28205128 , 4140.51282051 , 4192.30769231 , 4904.1025641 , 4134.87179487 , 4138.46153846 , 2043.0 , 2035.0 , 270.216 , 0.0 , 0.0 , 0.0 , 0.0 , 

111.0 , 4130.25641026 , 4124.1025641 , 4134.87179487 , 4124.61538462 , 4128.20512821 , 4131.28205128 , 4126.15384615 , 4193.33333333 , 4138.97435897 , 4137.94871795 , 4185.64102564 , 4907.17948718 , 4128.71794872 , 4139.48717949 , 2044.0 , 2035.0 , 270.23 , 0.0 , 0.0 , 0.0 , 0.0 , 

112.0 , 4132.30769231 , 4129.23076923 , 4135.8974359 , 4130.76923077 , 4131.79487179 , 4130.25641026 , 4130.76923077 , 4196.92307692 , 4131.28205128 , 4137.43589744 , 4184.61538462 , 4910.25641026 , 4125.64102564 , 4139.48717949 , 2042.0 , 2036.0 , 270.233 , 0.0 , 0.0 , 0.0 , 0.0 , 

113.0 , 4131.79487179 , 4129.23076923 , 4138.97435897 , 4125.64102564 , 4131.28205128 , 4125.64102564 , 4126.66666667 , 4190.76923077 , 4134.87179487 , 4135.8974359 , 4182.56410256 , 4910.76923077 , 4121.02564103 , 4139.48717949 , 2043.0 , 2036.0 , 270.239 , 0.0 , 0.0 , 0.0 , 0.0 , 

114.0 , 4131.79487179 , 4131.79487179 , 4134.87179487 , 4127.69230769 , 4130.25641026 , 4130.76923077 , 4125.64102564 , 4183.07692308 , 4135.38461538 , 4137.43589744 , 4186.66666667 , 4908.20512821 , 4126.66666667 , 4138.97435897 , 2044.0 , 2037.0 , 270.248 , 0.0 , 0.0 , 0.0 , 0.0 , 

115.0 , 4130.25641026 , 4132.82051282 , 4130.76923077 , 4133.33333333 , 4130.25641026 , 4131.79487179 , 4125.64102564 , 4183.07692308 , 4137.94871795 , 4138.46153846 , 4190.25641026 , 4911.28205128 , 4133.84615385 , 4136.41025641 , 2045.0 , 2037.0 , 270.26 , 0.0 , 0.0 , 0.0 , 0.0 , 

116.0 , 4134.87179487 , 4133.33333333 , 4133.33333333 , 4130.25641026 , 4132.82051282 , 4128.71794872 , 4126.15384615 , 4174.35897436 , 4131.79487179 , 4135.8974359 , 4186.15384615 , 4915.38461538 , 4125.12820513 , 4135.38461538 , 2044.0 , 2038.0 , 270.266 , 0.0 , 0.0 , 0.0 , 0.0 , 

117.0 , 4130.25641026 , 4131.28205128 , 4126.66666667 , 4136.41025641 , 4128.20512821 , 4132.30769231 , 4129.23076923 , 4175.38461538 , 4135.8974359 , 4136.92307692 , 4189.74358974 , 4909.23076923 , 4138.46153846 , 4135.38461538 , 2043.0 , 2038.0 , 270.27 , 0.0 , 0.0 , 0.0 , 0.0 , 

118.0 , 4131.79487179 , 4129.74358974 , 4125.12820513 , 4138.97435897 , 4127.69230769 , 4127.17948718 , 4118.46153846 , 4169.74358974 , 4127.17948718 , 4137.43589744 , 4190.76923077 , 4907.69230769 , 4138.46153846 , 4137.94871795 , 2044.0 , 2037.0 , 270.279 , 0.0 , 0.0 , 0.0 , 0.0 , 

119.0 , 4130.25641026 , 4136.92307692 , 4125.12820513 , 4141.02564103 , 4129.23076923 , 4131.79487179 , 4126.15384615 , 4192.82051282 , 4138.46153846 , 4138.46153846 , 4191.79487179 , 4908.71794872 , 4141.02564103 , 4135.38461538 , 2044.0 , 2037.0 , 270.294 , 0.0 , 0.0 , 0.0 , 0.0 , 

120.0 , 4130.76923077 , 4126.66666667 , 4140.0 , 4129.23076923 , 4129.74358974 , 4127.17948718 , 4120.51282051 , 4184.61538462 , 4130.25641026 , 4136.92307692 , 4188.20512821 , 4912.82051282 , 4127.17948718 , 4137.43589744 , 2043.0 , 2038.0 , 270.297 , 0.0 , 0.0 , 0.0 , 0.0 , 

121.0 , 4126.15384615 , 4122.56410256 , 4132.82051282 , 4134.35897436 , 4129.23076923 , 4126.66666667 , 4123.07692308 , 4195.38461538 , 4142.56410256 , 4139.48717949 , 4193.33333333 , 4908.71794872 , 4138.97435897 , 4137.94871795 , 2043.0 , 2037.0 , 270.302 , 0.0 , 0.0 , 0.0 , 0.0 , 

122.0 , 4130.25641026 , 4119.48717949 , 4133.33333333 , 4125.12820513 , 4128.71794872 , 4117.94871795 , 4112.30769231 , 4186.15384615 , 4133.33333333 , 4134.35897436 , 4185.64102564 , 4913.84615385 , 4123.07692308 , 4138.97435897 , 2042.0 , 2037.0 , 270.311 , 0.0 , 0.0 , 0.0 , 0.0 , 

123.0 , 4128.71794872 , 4127.69230769 , 4131.28205128 , 4131.79487179 , 4127.69230769 , 4130.76923077 , 4127.69230769 , 4201.02564103 , 4145.64102564 , 4137.94871795 , 4190.76923077 , 4907.17948718 , 4131.28205128 , 4134.35897436 , 2043.0 , 2037.0 , 270.325 , 0.0 , 0.0 , 0.0 , 0.0 , 

124.0 , 4129.23076923 , 4118.46153846 , 4141.53846154 , 4124.1025641 , 4129.23076923 , 4126.15384615 , 4120.51282051 , 4187.17948718 , 4136.41025641 , 4140.0 , 4186.66666667 , 4907.69230769 , 4125.12820513 , 4138.46153846 , 2042.0 , 2037.0 , 270.329 , 0.0 , 0.0 , 0.0 , 0.0 , 

125.0 , 4127.17948718 , 4130.25641026 , 4130.76923077 , 4129.74358974 , 4132.30769231 , 4131.28205128 , 4130.76923077 , 4198.46153846 , 4143.07692308 , 4140.51282051 , 4190.25641026 , 4905.64102564 , 4134.87179487 , 4140.51282051 , 2044.0 , 2037.0 , 270.333 , 0.0 , 0.0 , 0.0 , 0.0 , 

126.0 , 4129.74358974 , 4133.33333333 , 4134.87179487 , 4123.58974359 , 4131.28205128 , 4129.74358974 , 4127.17948718 , 4184.1025641 , 4131.79487179 , 4134.87179487 , 4186.15384615 , 4912.30769231 , 4124.1025641 , 4138.46153846 , 2044.0 , 2035.0 , 270.342 , 0.0 , 0.0 , 0.0 , 0.0 , 

127.0 , 4132.30769231 , 4137.94871795 , 4131.28205128 , 4134.87179487 , 4131.28205128 , 4135.38461538 , 4137.94871795 , 4188.20512821 , 4137.43589744 , 4138.97435897 , 4189.74358974 , 4908.71794872 , 4135.8974359 , 4134.87179487 , 2044.0 , 2033.0 , 270.354 , 0.0 , 0.0 , 0.0 , 0.0 , 

128.0 , 4132.82051282 , 4129.74358974 , 4132.30769231 , 4134.35897436 , 4129.74358974 , 4129.74358974 , 4124.1025641 , 4176.41025641 , 4132.30769231 , 4141.02564103 , 4184.61538462 , 4914.35897436 , 4131.79487179 , 4140.0 , 2044.0 , 2032.0 , 270.361 , 0.0 , 0.0 , 0.0 , 0.0 , 

0.0 , 4130.25641026 , 4134.87179487 , 4129.74358974 , 4137.94871795 , 4130.25641026 , 4133.33333333 , 4123.58974359 , 4175.8974359 , 4131.79487179 , 4141.53846154 , 4190.25641026 , 4912.30769231 , 4135.38461538 , 4138.97435897 , 2045.0 , 2031.0 , 270.366 , 0.0 , 0.0 , 0.0 , 0.0 , 

1.0 , 4128.71794872 , 4128.20512821 , 4134.35897436 , 4131.28205128 , 4129.74358974 , 4128.20512821 , 4120.51282051 , 4169.74358974 , 4125.64102564 , 4137.43589744 , 4186.66666667 , 4911.79487179 , 4133.84615385 , 4136.92307692 , 2045.0 , 2033.0 , 270.374 , 0.0 , 0.0 , 0.0 , 0.0 , 

2.0 , 4131.28205128 , 4129.23076923 , 4128.71794872 , 4133.33333333 , 4129.23076923 , 4125.12820513 , 4121.02564103 , 4173.84615385 , 4126.66666667 , 4134.35897436 , 4184.61538462 , 4908.71794872 , 4138.46153846 , 4136.92307692 , 2044.0 , 2036.0 , 270.391 , 0.0 , 0.0 , 0.0 , 0.0 , 

3.0 , 4128.71794872 , 4127.69230769 , 4129.74358974 , 4131.79487179 , 4128.20512821 , 4122.05128205 , 4113.33333333 , 4177.43589744 , 4131.79487179 , 4133.84615385 , 4189.23076923 , 4907.69230769 , 4137.43589744 , 4136.92307692 , 2043.0 , 2037.0 , 270.393 , 0.0 , 0.0 , 0.0 , 0.0 , 

4.0 , 4127.69230769 , 4125.64102564 , 4135.38461538 , 4130.25641026 , 4129.74358974 , 4126.15384615 , 4115.8974359 , 4182.56410256 , 4133.84615385 , 4140.0 , 4193.33333333 , 4905.64102564 , 4131.79487179 , 4137.94871795 , 2043.0 , 2039.0 , 270.397 , 0.0 , 0.0 , 0.0 , 0.0 , 

5.0 , 4125.64102564 , 4121.53846154 , 4129.23076923 , 4131.79487179 , 4127.17948718 , 4122.05128205 , 4120.0 , 4195.38461538 , 4147.17948718 , 4142.05128205 , 4192.82051282 , 4903.58974359 , 4140.0 , 4137.94871795 , 2043.0 , 2039.0 , 270.405 , 0.0 , 0.0 , 0.0 , 0.0 , 

6.0 , 4129.74358974 , 4122.56410256 , 4127.17948718 , 4126.66666667 , 4126.15384615 , 4114.87179487 , 4115.38461538 , 4190.25641026 , 4145.64102564 , 4139.48717949 , 4192.82051282 , 4903.58974359 , 4136.92307692 , 4140.0 , 2043.0 , 2040.0 , 270.418 , 0.0 , 0.0 , 0.0 , 0.0 , 

7.0 , 4126.66666667 , 4127.17948718 , 4128.20512821 , 4127.69230769 , 4127.69230769 , 4128.20512821 , 4127.17948718 , 4198.46153846 , 4149.23076923 , 4141.53846154 , 4194.87179487 , 4903.07692308 , 4136.92307692 , 4137.43589744 , 2043.0 , 2039.0 , 270.424 , 0.0 , 0.0 , 0.0 , 0.0 , 

8.0 , 4128.71794872 , 4123.58974359 , 4136.41025641 , 4126.15384615 , 4132.30769231 , 4134.87179487 , 4129.74358974 , 4190.25641026 , 4134.87179487 , 4141.02564103 , 4185.64102564 , 4909.74358974 , 4125.12820513 , 4136.92307692 , 2043.0 , 2037.0 , 270.43 , 0.0 , 0.0 , 0.0 , 0.0 , 

9.0 , 4129.23076923 , 4129.23076923 , 4132.30769231 , 4131.79487179 , 4131.79487179 , 4135.8974359 , 4134.87179487 , 4201.02564103 , 4143.58974359 , 4139.48717949 , 4186.66666667 , 4907.69230769 , 4133.33333333 , 4135.8974359 , 2040.0 , 2035.0 , 270.437 , 0.0 , 0.0 , 0.0 , 0.0 , 

10.0 , 4135.8974359 , 4126.66666667 , 4138.46153846 , 4120.51282051 , 4132.30769231 , 4127.17948718 , 4123.58974359 , 4184.1025641 , 4130.76923077 , 4135.8974359 , 4184.1025641 , 4911.79487179 , 4119.48717949 , 4139.48717949 , 2041.0 , 2033.0 , 270.45 , 0.0 , 0.0 , 0.0 , 0.0 , 

11.0 , 4134.87179487 , 4132.82051282 , 4131.28205128 , 4130.76923077 , 4132.30769231 , 4136.92307692 , 4133.33333333 , 4191.79487179 , 4136.92307692 , 4140.0 , 4187.17948718 , 4912.30769231 , 4129.23076923 , 4136.41025641 , 2039.0 , 2034.0 , 270.455 , 0.0 , 0.0 , 0.0 , 0.0 , 

12.0 , 4136.41025641 , 4128.71794872 , 4136.41025641 , 4128.20512821 , 4130.76923077 , 4129.74358974 , 4123.58974359 , 4176.41025641 , 4125.12820513 , 4140.0 , 4178.97435897 , 4920.51282051 , 4123.07692308 , 4136.92307692 , 2038.0 , 2033.0 , 270.46 , 0.0 , 0.0 , 0.0 , 0.0 , 

13.0 , 4131.28205128 , 4134.87179487 , 4129.74358974 , 4138.46153846 , 4128.71794872 , 4131.79487179 , 4130.25641026 , 4182.56410256 , 4136.41025641 , 4141.53846154 , 4187.69230769 , 4911.28205128 , 4138.46153846 , 4137.43589744 , 2039.0 , 2032.0 , 270.468 , 0.0 , 0.0 , 0.0 , 0.0 , 

14.0 , 4128.71794872 , 4127.17948718 , 4134.87179487 , 4133.84615385 , 4128.71794872 , 4124.1025641 , 4120.51282051 , 4164.61538462 , 4124.61538462 , 4137.94871795 , 4186.66666667 , 4910.76923077 , 4133.33333333 , 4138.97435897 , 2039.0 , 2031.0 , 270.482 , 0.0 , 0.0 , 0.0 , 0.0 , 

15.0 , 4129.23076923 , 4135.38461538 , 4126.66666667 , 4136.92307692 , 4131.28205128 , 4133.33333333 , 4129.74358974 , 4177.43589744 , 4134.87179487 , 4141.53846154 , 4192.30769231 , 4907.17948718 , 4144.61538462 , 4134.87179487 , 2042.0 , 2031.0 , 270.487 , 0.0 , 0.0 , 0.0 , 0.0 , 

16.0 , 4132.30769231 , 4129.74358974 , 4129.23076923 , 4125.12820513 , 4130.25641026 , 4126.66666667 , 4118.97435897 , 4172.30769231 , 4132.82051282 , 4140.0 , 4189.74358974 , 4910.25641026 , 4132.82051282 , 4135.38461538 , 2042.0 , 2030.0 , 270.491 , 0.0 , 0.0 , 0.0 , 0.0 , 

17.0 , 4129.23076923 , 4130.25641026 , 4124.1025641 , 4137.43589744 , 4129.74358974 , 4126.15384615 , 4124.1025641 , 4190.76923077 , 4144.1025641 , 4139.48717949 , 4193.84615385 , 4905.64102564 , 4138.46153846 , 4135.38461538 , 2040.0 , 2031.0 , 270.5 , 0.0 , 0.0 , 0.0 , 0.0 , 

18.0 , 4129.74358974 , 4126.66666667 , 4132.30769231 , 4133.84615385 , 4130.25641026 , 4122.56410256 , 4120.0 , 4193.84615385 , 4141.53846154 , 4138.46153846 , 4187.69230769 , 4908.71794872 , 4131.79487179 , 4138.46153846 , 2043.0 , 2031.0 , 270.512 , 0.0 , 0.0 , 0.0 , 0.0 , 

19.0 , 4132.82051282 , 4131.28205128 , 4134.35897436 , 4125.64102564 , 4133.84615385 , 4129.74358974 , 4124.1025641 , 4194.35897436 , 4140.51282051 , 4139.48717949 , 4189.23076923 , 4907.69230769 , 4130.76923077 , 4140.0 , 2043.0 , 2031.0 , 270.515 , 0.0 , 0.0 , 0.0 , 0.0 , 

20.0 , 4128.71794872 , 4119.48717949 , 4136.92307692 , 4117.43589744 , 4131.79487179 , 4126.66666667 , 4118.46153846 , 4186.15384615 , 4135.8974359 , 4135.38461538 , 4188.20512821 , 4909.23076923 , 4124.1025641 , 4142.56410256 , 2044.0 , 2033.0 , 270.522 , 0.0 , 0.0 , 0.0 , 0.0 , 

21.0 , 4128.20512821 , 4121.53846154 , 4134.87179487 , 4124.1025641 , 4131.28205128 , 4127.17948718 , 4124.61538462 , 4193.84615385 , 4138.46153846 , 4136.41025641 , 4187.17948718 , 4906.66666667 , 4125.12820513 , 4140.0 , 2044.0 , 2034.0 , 270.531 , 0.0 , 0.0 , 0.0 , 0.0 , 

22.0 , 4130.25641026 , 4129.74358974 , 4134.87179487 , 4125.12820513 , 4130.76923077 , 4127.69230769 , 4127.17948718 , 4197.43589744 , 4144.1025641 , 4139.48717949 , 4186.15384615 , 4908.20512821 , 4128.71794872 , 4135.8974359 , 2043.0 , 2035.0 , 270.548 , 0.0 , 0.0 , 0.0 , 0.0 , 

23.0 , 4133.84615385 , 4130.76923077 , 4136.41025641 , 4126.66666667 , 4130.76923077 , 4125.12820513 , 4124.61538462 , 4185.64102564 , 4137.94871795 , 4137.94871795 , 4186.66666667 , 4911.79487179 , 4126.66666667 , 4137.94871795 , 2042.0 , 2034.0 , 270.549 , 0.0 , 0.0 , 0.0 , 0.0 , 

24.0 , 4131.28205128 , 4130.25641026 , 4131.28205128 , 4132.82051282 , 4129.74358974 , 4125.64102564 , 4126.66666667 , 4186.15384615 , 4142.56410256 , 4138.97435897 , 4187.69230769 , 4911.28205128 , 4134.87179487 , 4141.53846154 , 2043.0 , 2035.0 , 270.555 , 0.0 , 0.0 , 0.0 , 0.0 , 

25.0 , 4135.8974359 , 4133.84615385 , 4133.33333333 , 4129.74358974 , 4132.30769231 , 4126.66666667 , 4125.64102564 , 4176.41025641 , 4133.84615385 , 4141.02564103 , 4185.64102564 , 4912.30769231 , 4131.28205128 , 4141.02564103 , 2043.0 , 2036.0 , 270.563 , 0.0 , 0.0 , 0.0 , 0.0 , 

26.0 , 4130.76923077 , 4133.84615385 , 4129.23076923 , 4134.35897436 , 4131.79487179 , 4133.84615385 , 4133.84615385 , 4183.58974359 , 4138.97435897 , 4140.0 , 4190.25641026 , 4911.79487179 , 4142.05128205 , 4135.8974359 , 2044.0 , 2035.0 , 270.581 , 0.0 , 0.0 , 0.0 , 0.0 , 

27.0 , 4129.74358974 , 4127.17948718 , 4133.33333333 , 4131.79487179 , 4132.30769231 , 4129.23076923 , 4123.58974359 , 4172.30769231 , 4126.15384615 , 4134.35897436 , 4187.17948718 , 4914.87179487 , 4132.82051282 , 4142.05128205 , 2044.0 , 2036.0 , 270.581 , 0.0 , 0.0 , 0.0 , 0.0 , 

28.0 , 4128.20512821 , 4135.38461538 , 4128.71794872 , 4137.43589744 , 4131.79487179 , 4130.25641026 , 4123.58974359 , 4185.64102564 , 4132.82051282 , 4136.92307692 , 4189.74358974 , 4908.71794872 , 4140.51282051 , 4141.53846154 , 2044.0 , 2036.0 , 270.585 , 0.0 , 0.0 , 0.0 , 0.0 , 

29.0 , 4133.84615385 , 4126.66666667 , 4134.87179487 , 4125.12820513 , 4130.25641026 , 4120.0 , 4114.35897436 , 4175.8974359 , 4125.12820513 , 4137.94871795 , 4185.12820513 , 4909.74358974 , 4131.28205128 , 4138.46153846 , 2043.0 , 2034.0 , 270.594 , 0.0 , 0.0 , 0.0 , 0.0 , 

30.0 , 4129.74358974 , 4127.17948718 , 4126.66666667 , 4131.79487179 , 4127.17948718 , 4123.58974359 , 4125.64102564 , 4193.84615385 , 4146.66666667 , 4140.51282051 , 4191.28205128 , 4906.15384615 , 4142.56410256 , 4135.38461538 , 2042.0 , 2035.0 , 270.607 , 0.0 , 0.0 , 0.0 , 0.0 , 

31.0 , 4129.23076923 , 4124.61538462 , 4133.33333333 , 4124.1025641 , 4126.66666667 , 4117.43589744 , 4114.87179487 , 4183.58974359 , 4141.53846154 , 4136.41025641 , 4187.69230769 , 4912.82051282 , 4126.15384615 , 4142.05128205 , 2043.0 , 2035.0 , 270.613 , 0.0 , 0.0 , 0.0 , 0.0 , 

32.0 , 4128.20512821 , 4132.30769231 , 4127.69230769 , 4127.69230769 , 4128.71794872 , 4124.61538462 , 4126.15384615 , 4196.92307692 , 4147.17948718 , 4137.43589744 , 4193.84615385 , 4906.15384615 , 4136.41025641 , 4138.97435897 , 2043.0 , 2035.0 , 270.618 , 0.0 , 0.0 , 0.0 , 0.0 , 

33.0 , 4131.28205128 , 4122.56410256 , 4133.84615385 , 4121.53846154 , 4129.74358974 , 4122.05128205 , 4122.05128205 , 4188.20512821 , 4138.46153846 , 4136.92307692 , 4188.71794872 , 4907.17948718 , 4131.79487179 , 4135.38461538 , 2041.0 , 2036.0 , 270.625 , 0.0 , 0.0 , 0.0 , 0.0 , 

34.0 , 4131.79487179 , 4131.79487179 , 4130.76923077 , 4134.35897436 , 4130.76923077 , 4132.30769231 , 4131.28205128 , 4198.46153846 , 4147.17948718 , 4141.02564103 , 4190.76923077 , 4905.64102564 , 4138.97435897 , 4135.8974359 , 2042.0 , 2037.0 , 270.638 , 0.0 , 0.0 , 0.0 , 0.0 , 

35.0 , 4131.28205128 , 4129.74358974 , 4137.94871795 , 4128.20512821 , 4130.76923077 , 4128.71794872 , 4123.07692308 , 4184.1025641 , 4134.87179487 , 4138.46153846 , 4185.12820513 , 4911.79487179 , 4126.15384615 , 4140.51282051 , 2042.0 , 2037.0 , 270.645 , 0.0 , 0.0 , 0.0 , 0.0 , 

36.0 , 4130.76923077 , 4133.33333333 , 4132.30769231 , 4132.82051282 , 4132.30769231 , 4130.76923077 , 4131.79487179 , 4190.76923077 , 4140.51282051 , 4138.97435897 , 4188.71794872 , 4908.71794872 , 4132.30769231 , 4140.51282051 , 2043.0 , 2035.0 , 270.649 , 0.0 , 0.0 , 0.0 , 0.0 , 

37.0 , 4132.82051282 , 4129.23076923 , 4137.43589744 , 4132.82051282 , 4129.23076923 , 4126.15384615 , 4122.05128205 , 4185.64102564 , 4139.48717949 , 4138.46153846 , 4186.66666667 , 4911.79487179 , 4129.74358974 , 4138.97435897 , 2042.0 , 2036.0 , 270.656 , 0.0 , 0.0 , 0.0 , 0.0 , 

38.0 , 4134.35897436 , 4132.82051282 , 4134.35897436 , 4134.87179487 , 4127.69230769 , 4130.25641026 , 4123.07692308 , 4178.46153846 , 4133.84615385 , 4141.02564103 , 4187.69230769 , 4911.79487179 , 4134.87179487 , 4137.43589744 , 2043.0 , 2036.0 , 270.671 , 0.0 , 0.0 , 0.0 , 0.0 , 

39.0 , 4130.25641026 , 4127.17948718 , 4130.25641026 , 4126.15384615 , 4129.23076923 , 4125.64102564 , 4120.51282051 , 4171.79487179 , 4128.71794872 , 4139.48717949 , 4183.07692308 , 4913.84615385 , 4135.38461538 , 4139.48717949 , 2043.0 , 2035.0 , 270.676 , 0.0 , 0.0 , 0.0 , 0.0 , 

40.0 , 4132.30769231 , 4128.20512821 , 4129.23076923 , 4128.20512821 , 4134.35897436 , 4123.07692308 , 4120.51282051 , 4178.97435897 , 4129.74358974 , 4135.8974359 , 4185.64102564 , 4910.76923077 , 4137.43589744 , 4140.0 , 2043.0 , 2034.0 , 270.682 , 0.0 , 0.0 , 0.0 , 0.0 , 

41.0 , 4131.79487179 , 4128.20512821 , 4130.25641026 , 4135.38461538 , 4131.28205128 , 4124.61538462 , 4119.48717949 , 4185.64102564 , 4131.79487179 , 4130.25641026 , 4190.76923077 , 4908.20512821 , 4143.58974359 , 4136.92307692 , 2041.0 , 2034.0 , 270.688 , 0.0 , 0.0 , 0.0 , 0.0 , 

42.0 , 4132.30769231 , 4127.69230769 , 4128.20512821 , 4135.38461538 , 4127.69230769 , 4123.58974359 , 4120.51282051 , 4181.53846154 , 4128.20512821 , 4130.76923077 , 4188.71794872 , 4908.20512821 , 4139.48717949 , 4137.94871795 , 2042.0 , 2035.0 , 270.703 , 0.0 , 0.0 , 0.0 , 0.0 , 

43.0 , 4127.69230769 , 4128.20512821 , 4123.07692308 , 4133.84615385 , 4129.23076923 , 4122.56410256 , 4124.1025641 , 4193.33333333 , 4143.07692308 , 4136.41025641 , 4189.74358974 , 4907.17948718 , 4143.58974359 , 4138.97435897 , 2042.0 , 2034.0 , 270.708 , 0.0 , 0.0 , 0.0 , 0.0 , 

