['COUNTER', 'AF3', 'F7', 'F3', 'FC5', 'T7', 'P7', 'O1', 'O2', 'P8', 'T8', 'FC6', 'F4', 'F8', 'AF4', 'GYROX', 'GYROY', 'TIMESTAMP', 'FUNC_ID', 'FUNC_VALUE', 'MARKER', 'SYNC_SIGNAL']
4.0 , 4134.35897436 , 4130.76923077 , 4132.82051282 , 4133.33333333 , 4133.33333333 , 4131.28205128 , 4129.23076923 , 4129.74358974 , 4133.84615385 , 4135.8974359 , 4193.84615385 , 4912.30769231 , 4136.41025641 , 4137.94871795 , 2042.0 , 2034.0 , 11.468 , 0.0 , 0.0 , 0.0 , 0.0 , 

5.0 , 4135.38461538 , 4130.76923077 , 4136.41025641 , 4134.35897436 , 4133.33333333 , 4131.79487179 , 4128.71794872 , 4134.87179487 , 4135.8974359 , 4136.41025641 , 4194.35897436 , 4909.74358974 , 4136.41025641 , 4137.94871795 , 2041.0 , 2034.0 , 11.476 , 0.0 , 0.0 , 0.0 , 0.0 , 

6.0 , 4132.30769231 , 4130.76923077 , 4138.46153846 , 4133.33333333 , 4133.33333333 , 4132.82051282 , 4126.66666667 , 4140.51282051 , 4135.38461538 , 4137.43589744 , 4192.30769231 , 4908.20512821 , 4135.8974359 , 4140.0 , 2042.0 , 2034.0 , 11.484 , 0.0 , 0.0 , 0.0 , 0.0 , 

7.0 , 4130.25641026 , 4129.74358974 , 4134.87179487 , 4131.79487179 , 4133.33333333 , 4130.76923077 , 4128.71794872 , 4134.87179487 , 4131.79487179 , 4137.94871795 , 4191.79487179 , 4910.25641026 , 4135.8974359 , 4141.02564103 , 2041.0 , 2036.0 , 11.491 , 0.0 , 0.0 , 0.0 , 0.0 , 

8.0 , 4132.30769231 , 4131.28205128 , 4133.84615385 , 4130.76923077 , 4133.33333333 , 4130.25641026 , 4130.76923077 , 4132.82051282 , 4130.76923077 , 4137.43589744 , 4191.79487179 , 4910.76923077 , 4135.8974359 , 4138.97435897 , 2042.0 , 2037.0 , 11.499 , 0.0 , 0.0 , 0.0 , 0.0 , 

9.0 , 4136.92307692 , 4133.84615385 , 4136.41025641 , 4132.30769231 , 4130.76923077 , 4133.84615385 , 4130.25641026 , 4136.92307692 , 4134.87179487 , 4137.43589744 , 4190.76923077 , 4911.79487179 , 4135.38461538 , 4139.48717949 , 2042.0 , 2036.0 , 11.507 , 0.0 , 0.0 , 0.0 , 0.0 , 

10.0 , 4135.38461538 , 4132.30769231 , 4133.33333333 , 4132.82051282 , 4131.28205128 , 4132.82051282 , 4131.28205128 , 4135.8974359 , 4138.46153846 , 4138.46153846 , 4191.28205128 , 4910.25641026 , 4134.87179487 , 4138.46153846 , 2041.0 , 2035.0 , 11.516 , 0.0 , 0.0 , 0.0 , 0.0 , 

11.0 , 4132.82051282 , 4130.25641026 , 4134.35897436 , 4131.79487179 , 4134.35897436 , 4129.74358974 , 4130.25641026 , 4131.28205128 , 4136.92307692 , 4138.97435897 , 4190.76923077 , 4909.74358974 , 4136.92307692 , 4137.43589744 , 2042.0 , 2036.0 , 11.524 , 0.0 , 0.0 , 0.0 , 0.0 , 

12.0 , 4131.79487179 , 4132.30769231 , 4133.33333333 , 4130.76923077 , 4133.84615385 , 4129.74358974 , 4127.17948718 , 4131.79487179 , 4135.8974359 , 4137.94871795 , 4189.74358974 , 4908.20512821 , 4136.92307692 , 4138.97435897 , 2041.0 , 2035.0 , 11.531 , 0.0 , 0.0 , 0.0 , 0.0 , 

13.0 , 4136.41025641 , 4134.87179487 , 4134.35897436 , 4134.35897436 , 4131.28205128 , 4132.30769231 , 4127.69230769 , 4136.41025641 , 4134.87179487 , 4136.92307692 , 4190.25641026 , 4913.33333333 , 4134.87179487 , 4141.53846154 , 2042.0 , 2036.0 , 11.539 , 0.0 , 0.0 , 0.0 , 0.0 , 

14.0 , 4137.43589744 , 4133.33333333 , 4132.82051282 , 4135.38461538 , 4133.84615385 , 4131.79487179 , 4129.74358974 , 4136.92307692 , 4135.8974359 , 4137.43589744 , 4190.76923077 , 4913.33333333 , 4135.38461538 , 4138.97435897 , 2041.0 , 2035.0 , 11.547 , 0.0 , 0.0 , 0.0 , 0.0 , 

15.0 , 4137.94871795 , 4133.33333333 , 4136.92307692 , 4134.35897436 , 4134.35897436 , 4130.25641026 , 4130.76923077 , 4135.8974359 , 4134.35897436 , 4138.97435897 , 4190.25641026 , 4913.84615385 , 4136.41025641 , 4138.97435897 , 2041.0 , 2036.0 , 11.554 , 0.0 , 0.0 , 0.0 , 0.0 , 

16.0 , 4133.33333333 , 4131.79487179 , 4133.84615385 , 4133.33333333 , 4131.28205128 , 4130.76923077 , 4130.25641026 , 4137.43589744 , 4131.79487179 , 4137.94871795 , 4190.76923077 , 4910.76923077 , 4135.38461538 , 4138.97435897 , 2041.0 , 2036.0 , 11.562 , 0.0 , 0.0 , 0.0 , 0.0 , 

17.0 , 4132.82051282 , 4133.84615385 , 4134.35897436 , 4134.35897436 , 4131.79487179 , 4133.33333333 , 4125.64102564 , 4135.38461538 , 4130.76923077 , 4135.8974359 , 4192.30769231 , 4909.74358974 , 4136.41025641 , 4139.48717949 , 2041.0 , 2036.0 , 11.571 , 0.0 , 0.0 , 0.0 , 0.0 , 

18.0 , 4131.79487179 , 4132.82051282 , 4134.35897436 , 4135.8974359 , 4135.38461538 , 4132.30769231 , 4125.64102564 , 4133.84615385 , 4132.30769231 , 4135.8974359 , 4191.79487179 , 4908.20512821 , 4137.43589744 , 4137.43589744 , 2041.0 , 2036.0 , 11.579 , 0.0 , 0.0 , 0.0 , 0.0 , 

19.0 , 4134.87179487 , 4132.82051282 , 4136.92307692 , 4133.84615385 , 4134.35897436 , 4130.25641026 , 4130.76923077 , 4134.87179487 , 4130.76923077 , 4138.46153846 , 4192.82051282 , 4912.82051282 , 4135.8974359 , 4138.97435897 , 2041.0 , 2036.0 , 11.586 , 0.0 , 0.0 , 0.0 , 0.0 , 

20.0 , 4133.33333333 , 4131.28205128 , 4134.87179487 , 4132.30769231 , 4131.28205128 , 4130.76923077 , 4130.25641026 , 4131.79487179 , 4132.30769231 , 4137.43589744 , 4193.84615385 , 4912.30769231 , 4135.8974359 , 4139.48717949 , 2040.0 , 2037.0 , 11.594 , 0.0 , 0.0 , 0.0 , 0.0 , 

21.0 , 4134.35897436 , 4131.28205128 , 4135.8974359 , 4135.38461538 , 4129.23076923 , 4130.76923077 , 4126.66666667 , 4130.25641026 , 4134.35897436 , 4135.8974359 , 4193.33333333 , 4912.82051282 , 4136.92307692 , 4140.51282051 , 2040.0 , 2035.0 , 11.602 , 0.0 , 0.0 , 0.0 , 0.0 , 

22.0 , 4134.35897436 , 4132.30769231 , 4134.35897436 , 4134.35897436 , 4131.79487179 , 4130.25641026 , 4131.79487179 , 4136.41025641 , 4132.82051282 , 4137.43589744 , 4191.79487179 , 4912.82051282 , 4135.38461538 , 4139.48717949 , 2042.0 , 2036.0 , 11.61 , 0.0 , 0.0 , 0.0 , 0.0 , 

23.0 , 4135.8974359 , 4133.84615385 , 4135.8974359 , 4130.76923077 , 4131.79487179 , 4132.82051282 , 4135.8974359 , 4138.46153846 , 4132.82051282 , 4137.43589744 , 4193.33333333 , 4911.28205128 , 4135.38461538 , 4140.0 , 2041.0 , 2037.0 , 11.618 , 0.0 , 0.0 , 0.0 , 0.0 , 

24.0 , 4134.35897436 , 4131.79487179 , 4134.87179487 , 4132.82051282 , 4130.76923077 , 4131.79487179 , 4130.76923077 , 4135.8974359 , 4136.41025641 , 4136.41025641 , 4194.35897436 , 4907.17948718 , 4137.43589744 , 4140.51282051 , 2041.0 , 2035.0 , 11.625 , 0.0 , 0.0 , 0.0 , 0.0 , 

25.0 , 4133.33333333 , 4131.28205128 , 4134.35897436 , 4137.43589744 , 4133.33333333 , 4129.74358974 , 4129.74358974 , 4136.41025641 , 4135.8974359 , 4136.41025641 , 4192.82051282 , 4910.25641026 , 4136.41025641 , 4141.02564103 , 2041.0 , 2034.0 , 11.634 , 0.0 , 0.0 , 0.0 , 0.0 , 

26.0 , 4134.35897436 , 4133.84615385 , 4135.38461538 , 4134.87179487 , 4133.33333333 , 4131.28205128 , 4131.28205128 , 4136.41025641 , 4134.35897436 , 4136.41025641 , 4191.28205128 , 4913.84615385 , 4135.38461538 , 4140.0 , 2041.0 , 2036.0 , 11.642 , 0.0 , 0.0 , 0.0 , 0.0 , 

27.0 , 4133.84615385 , 4131.79487179 , 4134.35897436 , 4132.30769231 , 4132.82051282 , 4131.79487179 , 4128.20512821 , 4133.33333333 , 4133.84615385 , 4136.92307692 , 4191.79487179 , 4911.79487179 , 4136.41025641 , 4138.46153846 , 2042.0 , 2035.0 , 11.649 , 0.0 , 0.0 , 0.0 , 0.0 , 

28.0 , 4134.35897436 , 4129.23076923 , 4135.8974359 , 4135.38461538 , 4134.87179487 , 4131.79487179 , 4132.82051282 , 4133.84615385 , 4135.38461538 , 4139.48717949 , 4193.84615385 , 4911.28205128 , 4136.41025641 , 4139.48717949 , 2042.0 , 2036.0 , 11.658 , 0.0 , 0.0 , 0.0 , 0.0 , 

29.0 , 4133.84615385 , 4131.79487179 , 4136.41025641 , 4134.87179487 , 4134.35897436 , 4132.30769231 , 4137.94871795 , 4136.92307692 , 4138.46153846 , 4138.97435897 , 4193.33333333 , 4912.82051282 , 4135.38461538 , 4140.51282051 , 2041.0 , 2035.0 , 11.666 , 0.0 , 0.0 , 0.0 , 0.0 , 

30.0 , 4135.38461538 , 4134.87179487 , 4137.43589744 , 4132.30769231 , 4131.79487179 , 4131.79487179 , 4131.28205128 , 4135.38461538 , 4136.92307692 , 4135.8974359 , 4192.82051282 , 4914.87179487 , 4135.8974359 , 4140.51282051 , 2041.0 , 2036.0 , 11.673 , 0.0 , 0.0 , 0.0 , 0.0 , 

31.0 , 4133.84615385 , 4133.33333333 , 4131.79487179 , 4132.82051282 , 4134.35897436 , 4129.74358974 , 4127.69230769 , 4132.30769231 , 4132.82051282 , 4136.41025641 , 4192.82051282 , 4911.79487179 , 4136.41025641 , 4137.94871795 , 2041.0 , 2036.0 , 11.68 , 0.0 , 0.0 , 0.0 , 0.0 , 

32.0 , 4135.38461538 , 4133.84615385 , 4133.84615385 , 4135.8974359 , 4133.84615385 , 4129.74358974 , 4132.30769231 , 4133.84615385 , 4134.35897436 , 4137.43589744 , 4193.84615385 , 4911.28205128 , 4135.38461538 , 4138.97435897 , 2040.0 , 2035.0 , 11.69 , 0.0 , 0.0 , 0.0 , 0.0 , 

33.0 , 4134.35897436 , 4133.33333333 , 4133.33333333 , 4134.35897436 , 4132.30769231 , 4129.23076923 , 4130.76923077 , 4134.35897436 , 4139.48717949 , 4136.41025641 , 4192.82051282 , 4909.74358974 , 4134.35897436 , 4140.0 , 2042.0 , 2036.0 , 11.696 , 0.0 , 0.0 , 0.0 , 0.0 , 

34.0 , 4134.87179487 , 4133.84615385 , 4134.35897436 , 4131.79487179 , 4131.79487179 , 4128.71794872 , 4123.58974359 , 4132.82051282 , 4136.92307692 , 4137.94871795 , 4192.30769231 , 4913.33333333 , 4135.38461538 , 4140.51282051 , 2041.0 , 2037.0 , 11.705 , 0.0 , 0.0 , 0.0 , 0.0 , 

35.0 , 4131.79487179 , 4133.33333333 , 4133.33333333 , 4131.79487179 , 4132.82051282 , 4130.25641026 , 4126.66666667 , 4135.8974359 , 4135.8974359 , 4138.46153846 , 4190.76923077 , 4911.28205128 , 4135.8974359 , 4137.94871795 , 2042.0 , 2035.0 , 11.712 , 0.0 , 0.0 , 0.0 , 0.0 , 

36.0 , 4132.30769231 , 4134.87179487 , 4138.46153846 , 4132.30769231 , 4132.30769231 , 4131.28205128 , 4133.33333333 , 4136.92307692 , 4137.94871795 , 4135.8974359 , 4191.79487179 , 4910.25641026 , 4134.35897436 , 4140.0 , 2042.0 , 2035.0 , 11.72 , 0.0 , 0.0 , 0.0 , 0.0 , 

37.0 , 4130.25641026 , 4133.84615385 , 4137.43589744 , 4131.79487179 , 4132.30769231 , 4132.30769231 , 4132.82051282 , 4135.8974359 , 4135.8974359 , 4136.41025641 , 4195.8974359 , 4909.23076923 , 4133.84615385 , 4140.0 , 2042.0 , 2035.0 , 11.728 , 0.0 , 0.0 , 0.0 , 0.0 , 

38.0 , 4132.82051282 , 4135.8974359 , 4139.48717949 , 4133.33333333 , 4130.76923077 , 4133.33333333 , 4128.20512821 , 4136.92307692 , 4131.28205128 , 4137.43589744 , 4195.38461538 , 4911.79487179 , 4134.87179487 , 4140.0 , 2042.0 , 2035.0 , 11.737 , 0.0 , 0.0 , 0.0 , 0.0 , 

39.0 , 4132.82051282 , 4133.84615385 , 4136.92307692 , 4131.79487179 , 4133.33333333 , 4130.76923077 , 4129.23076923 , 4133.84615385 , 4133.84615385 , 4135.38461538 , 4191.79487179 , 4912.30769231 , 4134.35897436 , 4139.48717949 , 2042.0 , 2036.0 , 11.744 , 0.0 , 0.0 , 0.0 , 0.0 , 

40.0 , 4132.82051282 , 4129.74358974 , 4134.35897436 , 4130.76923077 , 4133.84615385 , 4128.71794872 , 4131.28205128 , 4128.71794872 , 4137.94871795 , 4136.41025641 , 4193.33333333 , 4912.30769231 , 4134.35897436 , 4140.0 , 2042.0 , 2036.0 , 11.751 , 0.0 , 0.0 , 0.0 , 0.0 , 

41.0 , 4131.28205128 , 4129.74358974 , 4133.84615385 , 4132.30769231 , 4132.82051282 , 4131.28205128 , 4133.33333333 , 4134.87179487 , 4137.43589744 , 4140.0 , 4194.87179487 , 4909.74358974 , 4134.35897436 , 4138.46153846 , 2042.0 , 2035.0 , 11.759 , 0.0 , 0.0 , 0.0 , 0.0 , 

42.0 , 4133.33333333 , 4135.38461538 , 4137.94871795 , 4133.84615385 , 4132.82051282 , 4133.84615385 , 4132.30769231 , 4139.48717949 , 4136.92307692 , 4138.46153846 , 4192.82051282 , 4911.79487179 , 4134.35897436 , 4138.97435897 , 2043.0 , 2035.0 , 11.768 , 0.0 , 0.0 , 0.0 , 0.0 , 

43.0 , 4133.84615385 , 4135.8974359 , 4134.35897436 , 4134.35897436 , 4132.82051282 , 4132.30769231 , 4127.69230769 , 4133.33333333 , 4137.43589744 , 4134.87179487 , 4192.82051282 , 4913.84615385 , 4134.35897436 , 4138.97435897 , 2041.0 , 2036.0 , 11.776 , 0.0 , 0.0 , 0.0 , 0.0 , 

44.0 , 4132.82051282 , 4132.82051282 , 4129.74358974 , 4133.33333333 , 4131.28205128 , 4131.28205128 , 4128.71794872 , 4130.76923077 , 4135.8974359 , 4135.8974359 , 4190.76923077 , 4913.84615385 , 4134.35897436 , 4139.48717949 , 2042.0 , 2034.0 , 11.783 , 0.0 , 0.0 , 0.0 , 0.0 , 

45.0 , 4134.35897436 , 4132.82051282 , 4131.79487179 , 4131.79487179 , 4133.84615385 , 4132.82051282 , 4131.79487179 , 4130.25641026 , 4133.84615385 , 4137.43589744 , 4189.74358974 , 4912.82051282 , 4134.35897436 , 4140.51282051 , 2040.0 , 2035.0 , 11.792 , 0.0 , 0.0 , 0.0 , 0.0 , 

46.0 , 4134.35897436 , 4133.33333333 , 4130.76923077 , 4131.28205128 , 4133.33333333 , 4135.38461538 , 4129.23076923 , 4127.69230769 , 4134.35897436 , 4136.92307692 , 4192.30769231 , 4909.74358974 , 4134.35897436 , 4140.0 , 2041.0 , 2036.0 , 11.8 , 0.0 , 0.0 , 0.0 , 0.0 , 

47.0 , 4135.38461538 , 4134.35897436 , 4132.30769231 , 4135.38461538 , 4131.79487179 , 4134.35897436 , 4127.17948718 , 4133.33333333 , 4134.87179487 , 4136.41025641 , 4192.30769231 , 4910.76923077 , 4134.35897436 , 4138.97435897 , 2041.0 , 2035.0 , 11.808 , 0.0 , 0.0 , 0.0 , 0.0 , 

48.0 , 4134.35897436 , 4133.33333333 , 4134.87179487 , 4136.41025641 , 4135.38461538 , 4131.79487179 , 4129.23076923 , 4138.46153846 , 4134.87179487 , 4136.41025641 , 4190.76923077 , 4911.28205128 , 4134.35897436 , 4138.97435897 , 2040.0 , 2036.0 , 11.814 , 0.0 , 0.0 , 0.0 , 0.0 , 

49.0 , 4130.76923077 , 4132.82051282 , 4134.87179487 , 4134.87179487 , 4135.8974359 , 4132.30769231 , 4129.74358974 , 4136.92307692 , 4135.8974359 , 4137.43589744 , 4191.79487179 , 4910.76923077 , 4134.35897436 , 4141.02564103 , 2041.0 , 2035.0 , 11.823 , 0.0 , 0.0 , 0.0 , 0.0 , 

50.0 , 4127.17948718 , 4131.28205128 , 4128.71794872 , 4133.33333333 , 4133.33333333 , 4130.76923077 , 4128.71794872 , 4136.41025641 , 4139.48717949 , 4137.43589744 , 4193.33333333 , 4908.20512821 , 4134.35897436 , 4141.02564103 , 2041.0 , 2036.0 , 11.83 , 0.0 , 0.0 , 0.0 , 0.0 , 

51.0 , 4135.38461538 , 4133.33333333 , 4132.82051282 , 4132.82051282 , 4133.84615385 , 4128.20512821 , 4129.23076923 , 4138.46153846 , 4137.43589744 , 4137.43589744 , 4195.38461538 , 4914.35897436 , 4134.35897436 , 4142.05128205 , 2043.0 , 2036.0 , 11.838 , 0.0 , 0.0 , 0.0 , 0.0 , 

52.0 , 4136.41025641 , 4132.82051282 , 4132.82051282 , 4131.79487179 , 4136.41025641 , 4128.20512821 , 4132.82051282 , 4137.94871795 , 4135.38461538 , 4137.94871795 , 4194.87179487 , 4914.87179487 , 4134.35897436 , 4139.48717949 , 2041.0 , 2035.0 , 11.846 , 0.0 , 0.0 , 0.0 , 0.0 , 

53.0 , 4134.35897436 , 4133.33333333 , 4133.33333333 , 4131.28205128 , 4131.79487179 , 4129.23076923 , 4133.84615385 , 4136.92307692 , 4134.87179487 , 4137.43589744 , 4192.30769231 , 4914.35897436 , 4133.84615385 , 4139.48717949 , 2042.0 , 2035.0 , 11.854 , 0.0 , 0.0 , 0.0 , 0.0 , 

54.0 , 4133.84615385 , 4131.28205128 , 4132.82051282 , 4131.28205128 , 4131.79487179 , 4129.74358974 , 4128.71794872 , 4134.87179487 , 4134.87179487 , 4135.38461538 , 4190.76923077 , 4911.28205128 , 4135.38461538 , 4138.46153846 , 2040.0 , 2036.0 , 11.862 , 0.0 , 0.0 , 0.0 , 0.0 , 

55.0 , 4136.92307692 , 4133.84615385 , 4138.46153846 , 4131.79487179 , 4133.84615385 , 4130.25641026 , 4129.74358974 , 4132.82051282 , 4132.82051282 , 4135.38461538 , 4191.79487179 , 4912.30769231 , 4137.43589744 , 4138.46153846 , 2041.0 , 2035.0 , 11.87 , 0.0 , 0.0 , 0.0 , 0.0 , 

56.0 , 4132.82051282 , 4134.87179487 , 4136.41025641 , 4132.82051282 , 4133.33333333 , 4131.79487179 , 4136.92307692 , 4135.38461538 , 4136.92307692 , 4137.94871795 , 4190.76923077 , 4911.28205128 , 4136.41025641 , 4136.92307692 , 2041.0 , 2036.0 , 11.877 , 0.0 , 0.0 , 0.0 , 0.0 , 

57.0 , 4134.35897436 , 4134.35897436 , 4136.92307692 , 4134.35897436 , 4131.28205128 , 4133.33333333 , 4133.84615385 , 4135.38461538 , 4137.94871795 , 4137.43589744 , 4193.33333333 , 4914.35897436 , 4135.8974359 , 4140.0 , 2041.0 , 2034.0 , 11.886 , 0.0 , 0.0 , 0.0 , 0.0 , 

58.0 , 4136.41025641 , 4132.30769231 , 4135.8974359 , 4132.82051282 , 4132.30769231 , 4132.30769231 , 4127.17948718 , 4131.28205128 , 4135.38461538 , 4136.92307692 , 4194.87179487 , 4910.76923077 , 4137.43589744 , 4140.0 , 2041.0 , 2033.0 , 11.893 , 0.0 , 0.0 , 0.0 , 0.0 , 

59.0 , 4135.38461538 , 4134.35897436 , 4133.84615385 , 4132.82051282 , 4132.82051282 , 4129.23076923 , 4127.17948718 , 4131.28205128 , 4136.41025641 , 4137.94871795 , 4191.28205128 , 4909.74358974 , 4135.38461538 , 4139.48717949 , 2040.0 , 2034.0 , 11.901 , 0.0 , 0.0 , 0.0 , 0.0 , 

60.0 , 4132.30769231 , 4134.87179487 , 4131.28205128 , 4134.87179487 , 4132.82051282 , 4128.71794872 , 4129.74358974 , 4135.38461538 , 4135.8974359 , 4137.94871795 , 4189.23076923 , 4911.28205128 , 4133.33333333 , 4138.97435897 , 2040.0 , 2035.0 , 11.909 , 0.0 , 0.0 , 0.0 , 0.0 , 

61.0 , 4132.82051282 , 4134.35897436 , 4132.82051282 , 4133.33333333 , 4134.87179487 , 4131.79487179 , 4129.74358974 , 4135.8974359 , 4132.30769231 , 4137.43589744 , 4190.25641026 , 4911.79487179 , 4136.41025641 , 4137.94871795 , 2041.0 , 2036.0 , 11.917 , 0.0 , 0.0 , 0.0 , 0.0 , 

62.0 , 4132.30769231 , 4133.84615385 , 4136.41025641 , 4134.35897436 , 4135.8974359 , 4131.28205128 , 4128.20512821 , 4135.8974359 , 4133.84615385 , 4137.94871795 , 4190.25641026 , 4908.20512821 , 4138.46153846 , 4139.48717949 , 2040.0 , 2035.0 , 11.925 , 0.0 , 0.0 , 0.0 , 0.0 , 

63.0 , 4132.82051282 , 4133.33333333 , 4136.41025641 , 4138.97435897 , 4132.82051282 , 4129.74358974 , 4128.71794872 , 4136.92307692 , 4136.92307692 , 4136.41025641 , 4192.82051282 , 4907.69230769 , 4136.92307692 , 4142.05128205 , 2041.0 , 2037.0 , 11.934 , 0.0 , 0.0 , 0.0 , 0.0 , 

64.0 , 4135.8974359 , 4133.33333333 , 4134.87179487 , 4134.87179487 , 4130.76923077 , 4130.76923077 , 4131.28205128 , 4136.41025641 , 4134.35897436 , 4135.8974359 , 4194.87179487 , 4910.76923077 , 4136.41025641 , 4140.0 , 2042.0 , 2037.0 , 11.94 , 0.0 , 0.0 , 0.0 , 0.0 , 

65.0 , 4135.38461538 , 4131.79487179 , 4134.35897436 , 4128.20512821 , 4130.76923077 , 4129.23076923 , 4130.25641026 , 4136.92307692 , 4135.38461538 , 4137.43589744 , 4190.76923077 , 4912.82051282 , 4136.92307692 , 4138.97435897 , 2041.0 , 2036.0 , 11.948 , 0.0 , 0.0 , 0.0 , 0.0 , 

66.0 , 4135.8974359 , 4129.23076923 , 4136.41025641 , 4132.30769231 , 4131.28205128 , 4127.69230769 , 4127.69230769 , 4135.38461538 , 4135.8974359 , 4136.92307692 , 4190.76923077 , 4914.87179487 , 4136.41025641 , 4142.05128205 , 2042.0 , 2036.0 , 11.957 , 0.0 , 0.0 , 0.0 , 0.0 , 

67.0 , 4132.30769231 , 4129.23076923 , 4132.82051282 , 4134.87179487 , 4133.84615385 , 4129.23076923 , 4129.74358974 , 4132.30769231 , 4133.33333333 , 4135.8974359 , 4193.33333333 , 4908.71794872 , 4136.92307692 , 4140.51282051 , 2041.0 , 2036.0 , 11.964 , 0.0 , 0.0 , 0.0 , 0.0 , 

68.0 , 4132.82051282 , 4134.87179487 , 4133.84615385 , 4130.76923077 , 4132.30769231 , 4130.25641026 , 4129.23076923 , 4131.79487179 , 4134.87179487 , 4136.92307692 , 4191.79487179 , 4906.66666667 , 4136.92307692 , 4136.92307692 , 2041.0 , 2035.0 , 11.972 , 0.0 , 0.0 , 0.0 , 0.0 , 

69.0 , 4134.87179487 , 4132.30769231 , 4131.28205128 , 4130.76923077 , 4130.76923077 , 4127.69230769 , 4127.69230769 , 4130.76923077 , 4137.43589744 , 4137.43589744 , 4189.74358974 , 4909.23076923 , 4136.92307692 , 4136.92307692 , 2042.0 , 2035.0 , 11.98 , 0.0 , 0.0 , 0.0 , 0.0 , 

70.0 , 4135.8974359 , 4128.20512821 , 4132.82051282 , 4133.33333333 , 4131.28205128 , 4127.17948718 , 4130.76923077 , 4132.30769231 , 4133.84615385 , 4137.94871795 , 4190.25641026 , 4911.28205128 , 4135.8974359 , 4142.05128205 , 2041.0 , 2036.0 , 11.99 , 0.0 , 0.0 , 0.0 , 0.0 , 

71.0 , 4130.76923077 , 4129.23076923 , 4132.30769231 , 4131.28205128 , 4133.33333333 , 4128.20512821 , 4130.76923077 , 4137.43589744 , 4135.38461538 , 4137.94871795 , 4190.76923077 , 4907.69230769 , 4133.84615385 , 4139.48717949 , 2041.0 , 2037.0 , 11.996 , 0.0 , 0.0 , 0.0 , 0.0 , 

72.0 , 4131.79487179 , 4133.84615385 , 4134.87179487 , 4132.30769231 , 4130.25641026 , 4131.28205128 , 4127.69230769 , 4136.92307692 , 4136.92307692 , 4137.43589744 , 4193.33333333 , 4911.79487179 , 4133.84615385 , 4136.92307692 , 2041.0 , 2036.0 , 12.004 , 0.0 , 0.0 , 0.0 , 0.0 , 

73.0 , 4132.30769231 , 4132.82051282 , 4132.82051282 , 4132.30769231 , 4130.76923077 , 4134.35897436 , 4130.25641026 , 4134.87179487 , 4135.8974359 , 4137.94871795 , 4192.30769231 , 4913.33333333 , 4135.8974359 , 4138.46153846 , 2041.0 , 2035.0 , 12.011 , 0.0 , 0.0 , 0.0 , 0.0 , 

74.0 , 4132.30769231 , 4133.33333333 , 4136.92307692 , 4132.30769231 , 4132.82051282 , 4132.82051282 , 4132.30769231 , 4137.94871795 , 4134.35897436 , 4136.92307692 , 4191.28205128 , 4913.33333333 , 4136.92307692 , 4142.05128205 , 2041.0 , 2034.0 , 12.019 , 0.0 , 0.0 , 0.0 , 0.0 , 

75.0 , 4129.74358974 , 4132.30769231 , 4133.33333333 , 4134.87179487 , 4133.33333333 , 4129.23076923 , 4129.74358974 , 4135.38461538 , 4133.84615385 , 4137.94871795 , 4192.30769231 , 4909.23076923 , 4136.41025641 , 4137.94871795 , 2041.0 , 2037.0 , 12.027 , 0.0 , 0.0 , 0.0 , 0.0 , 

76.0 , 4131.79487179 , 4131.79487179 , 4131.79487179 , 4136.41025641 , 4131.79487179 , 4129.74358974 , 4128.20512821 , 4130.25641026 , 4132.82051282 , 4138.97435897 , 4191.79487179 , 4913.33333333 , 4136.92307692 , 4136.92307692 , 2042.0 , 2036.0 , 12.035 , 0.0 , 0.0 , 0.0 , 0.0 , 

77.0 , 4131.79487179 , 4131.79487179 , 4135.8974359 , 4131.28205128 , 4133.33333333 , 4130.25641026 , 4128.71794872 , 4133.33333333 , 4135.38461538 , 4137.43589744 , 4190.25641026 , 4916.41025641 , 4136.92307692 , 4140.0 , 2042.0 , 2034.0 , 12.044 , 0.0 , 0.0 , 0.0 , 0.0 , 

78.0 , 4132.82051282 , 4135.8974359 , 4137.94871795 , 4129.74358974 , 4132.82051282 , 4128.71794872 , 4128.71794872 , 4134.87179487 , 4135.8974359 , 4136.41025641 , 4192.30769231 , 4915.38461538 , 4134.87179487 , 4141.02564103 , 2041.0 , 2035.0 , 12.051 , 0.0 , 0.0 , 0.0 , 0.0 , 

79.0 , 4131.28205128 , 4134.87179487 , 4133.33333333 , 4133.84615385 , 4131.79487179 , 4129.23076923 , 4130.25641026 , 4134.35897436 , 4133.84615385 , 4137.94871795 , 4191.79487179 , 4911.28205128 , 4134.35897436 , 4138.46153846 , 2042.0 , 2036.0 , 12.059 , 0.0 , 0.0 , 0.0 , 0.0 , 

80.0 , 4133.84615385 , 4132.82051282 , 4134.35897436 , 4133.33333333 , 4131.79487179 , 4130.25641026 , 4131.28205128 , 4135.38461538 , 4134.35897436 , 4137.43589744 , 4191.79487179 , 4911.28205128 , 4136.41025641 , 4139.48717949 , 2043.0 , 2035.0 , 12.067 , 0.0 , 0.0 , 0.0 , 0.0 , 

81.0 , 4135.8974359 , 4133.84615385 , 4136.92307692 , 4132.30769231 , 4133.33333333 , 4130.25641026 , 4129.74358974 , 4133.84615385 , 4136.92307692 , 4135.38461538 , 4193.84615385 , 4910.76923077 , 4135.8974359 , 4140.0 , 2042.0 , 2036.0 , 12.074 , 0.0 , 0.0 , 0.0 , 0.0 , 

82.0 , 4134.35897436 , 4133.33333333 , 4135.8974359 , 4134.35897436 , 4132.30769231 , 4130.76923077 , 4128.20512821 , 4132.82051282 , 4136.92307692 , 4136.41025641 , 4192.82051282 , 4909.23076923 , 4134.35897436 , 4137.94871795 , 2042.0 , 2036.0 , 12.082 , 0.0 , 0.0 , 0.0 , 0.0 , 

83.0 , 4135.8974359 , 4131.28205128 , 4135.8974359 , 4133.84615385 , 4131.79487179 , 4130.76923077 , 4128.71794872 , 4135.38461538 , 4135.8974359 , 4137.94871795 , 4190.25641026 , 4910.76923077 , 4135.38461538 , 4138.46153846 , 2042.0 , 2035.0 , 12.09 , 0.0 , 0.0 , 0.0 , 0.0 , 

84.0 , 4135.38461538 , 4132.82051282 , 4135.38461538 , 4131.79487179 , 4132.30769231 , 4131.28205128 , 4129.74358974 , 4137.43589744 , 4134.87179487 , 4137.43589744 , 4188.71794872 , 4911.79487179 , 4135.8974359 , 4138.97435897 , 2041.0 , 2036.0 , 12.098 , 0.0 , 0.0 , 0.0 , 0.0 , 

85.0 , 4131.28205128 , 4134.35897436 , 4137.94871795 , 4134.35897436 , 4132.82051282 , 4132.30769231 , 4129.74358974 , 4135.8974359 , 4131.79487179 , 4137.43589744 , 4188.71794872 , 4912.82051282 , 4135.38461538 , 4140.51282051 , 2040.0 , 2035.0 , 12.11 , 0.0 , 0.0 , 0.0 , 0.0 , 

86.0 , 4130.25641026 , 4131.79487179 , 4134.87179487 , 4134.87179487 , 4135.38461538 , 4131.79487179 , 4128.20512821 , 4134.87179487 , 4133.33333333 , 4138.46153846 , 4190.76923077 , 4911.79487179 , 4135.8974359 , 4140.0 , 2041.0 , 2035.0 , 12.115 , 0.0 , 0.0 , 0.0 , 0.0 , 

87.0 , 4136.92307692 , 4133.84615385 , 4132.30769231 , 4134.87179487 , 4133.84615385 , 4131.79487179 , 4128.71794872 , 4134.35897436 , 4134.87179487 , 4137.94871795 , 4190.76923077 , 4913.84615385 , 4136.41025641 , 4138.46153846 , 2041.0 , 2035.0 , 12.122 , 0.0 , 0.0 , 0.0 , 0.0 , 

88.0 , 4134.87179487 , 4133.84615385 , 4130.25641026 , 4134.35897436 , 4130.76923077 , 4133.33333333 , 4130.25641026 , 4132.82051282 , 4133.84615385 , 4136.41025641 , 4190.76923077 , 4912.30769231 , 4135.38461538 , 4137.43589744 , 2041.0 , 2036.0 , 12.13 , 0.0 , 0.0 , 0.0 , 0.0 , 

89.0 , 4134.35897436 , 4131.79487179 , 4136.92307692 , 4134.87179487 , 4131.28205128 , 4132.82051282 , 4129.23076923 , 4133.84615385 , 4133.84615385 , 4138.97435897 , 4193.84615385 , 4912.82051282 , 4135.8974359 , 4141.02564103 , 2040.0 , 2035.0 , 12.138 , 0.0 , 0.0 , 0.0 , 0.0 , 

90.0 , 4135.38461538 , 4129.74358974 , 4133.84615385 , 4136.41025641 , 4133.33333333 , 4129.74358974 , 4128.20512821 , 4135.8974359 , 4138.97435897 , 4140.0 , 4193.33333333 , 4911.28205128 , 4136.41025641 , 4138.46153846 , 2040.0 , 2035.0 , 12.145 , 0.0 , 0.0 , 0.0 , 0.0 , 

91.0 , 4134.87179487 , 4133.84615385 , 4132.82051282 , 4137.94871795 , 4132.82051282 , 4129.23076923 , 4128.71794872 , 4134.87179487 , 4138.46153846 , 4137.94871795 , 4191.79487179 , 4911.79487179 , 4135.38461538 , 4138.46153846 , 2041.0 , 2035.0 , 12.153 , 0.0 , 0.0 , 0.0 , 0.0 , 

92.0 , 4131.79487179 , 4133.33333333 , 4132.82051282 , 4134.35897436 , 4134.87179487 , 4129.23076923 , 4129.23076923 , 4134.87179487 , 4135.38461538 , 4137.43589744 , 4193.33333333 , 4910.25641026 , 4134.87179487 , 4140.51282051 , 2041.0 , 2035.0 , 12.161 , 0.0 , 0.0 , 0.0 , 0.0 , 

93.0 , 4136.41025641 , 4132.30769231 , 4138.46153846 , 4132.30769231 , 4133.33333333 , 4129.23076923 , 4128.71794872 , 4136.41025641 , 4133.84615385 , 4138.46153846 , 4195.8974359 , 4914.35897436 , 4136.92307692 , 4141.53846154 , 2041.0 , 2036.0 , 12.17 , 0.0 , 0.0 , 0.0 , 0.0 , 

94.0 , 4133.33333333 , 4131.79487179 , 4133.84615385 , 4134.35897436 , 4131.28205128 , 4130.76923077 , 4126.66666667 , 4135.38461538 , 4134.87179487 , 4138.97435897 , 4193.84615385 , 4912.82051282 , 4136.92307692 , 4138.97435897 , 2040.0 , 2035.0 , 12.177 , 0.0 , 0.0 , 0.0 , 0.0 , 

95.0 , 4130.76923077 , 4133.33333333 , 4128.71794872 , 4134.87179487 , 4130.76923077 , 4130.76923077 , 4126.66666667 , 4133.33333333 , 4135.8974359 , 4136.92307692 , 4190.76923077 , 4911.79487179 , 4134.35897436 , 4140.51282051 , 2041.0 , 2034.0 , 12.186 , 0.0 , 0.0 , 0.0 , 0.0 , 

96.0 , 4132.82051282 , 4134.35897436 , 4130.25641026 , 4135.38461538 , 4132.82051282 , 4129.23076923 , 4133.84615385 , 4134.35897436 , 4137.43589744 , 4136.41025641 , 4189.74358974 , 4911.28205128 , 4134.87179487 , 4138.46153846 , 2041.0 , 2034.0 , 12.193 , 0.0 , 0.0 , 0.0 , 0.0 , 

97.0 , 4134.35897436 , 4134.35897436 , 4136.41025641 , 4137.43589744 , 4131.79487179 , 4129.74358974 , 4137.94871795 , 4135.8974359 , 4134.35897436 , 4137.43589744 , 4191.79487179 , 4911.28205128 , 4136.92307692 , 4137.94871795 , 2042.0 , 2035.0 , 12.201 , 0.0 , 0.0 , 0.0 , 0.0 , 

98.0 , 4131.79487179 , 4131.79487179 , 4133.84615385 , 4135.8974359 , 4132.30769231 , 4132.30769231 , 4130.76923077 , 4133.84615385 , 4132.82051282 , 4138.46153846 , 4192.82051282 , 4911.28205128 , 4135.8974359 , 4138.97435897 , 2041.0 , 2036.0 , 12.213 , 0.0 , 0.0 , 0.0 , 0.0 , 

99.0 , 4133.84615385 , 4131.28205128 , 4130.76923077 , 4134.35897436 , 4133.84615385 , 4132.82051282 , 4126.15384615 , 4129.74358974 , 4136.41025641 , 4137.43589744 , 4191.28205128 , 4911.79487179 , 4134.87179487 , 4138.97435897 , 2042.0 , 2037.0 , 12.217 , 0.0 , 0.0 , 0.0 , 0.0 , 

100.0 , 4134.35897436 , 4133.33333333 , 4133.33333333 , 4132.30769231 , 4133.84615385 , 4130.76923077 , 4135.38461538 , 4132.82051282 , 4136.41025641 , 4137.43589744 , 4190.76923077 , 4911.79487179 , 4134.87179487 , 4138.46153846 , 2042.0 , 2034.0 , 12.224 , 0.0 , 0.0 , 0.0 , 0.0 , 

101.0 , 4131.28205128 , 4134.35897436 , 4132.82051282 , 4130.76923077 , 4133.33333333 , 4128.20512821 , 4139.48717949 , 4137.94871795 , 4132.30769231 , 4137.94871795 , 4190.25641026 , 4910.76923077 , 4134.87179487 , 4138.46153846 , 2041.0 , 2034.0 , 12.232 , 0.0 , 0.0 , 0.0 , 0.0 , 

102.0 , 4132.82051282 , 4133.84615385 , 4132.30769231 , 4133.33333333 , 4134.35897436 , 4128.20512821 , 4131.79487179 , 4137.94871795 , 4132.82051282 , 4137.94871795 , 4190.25641026 , 4912.30769231 , 4134.87179487 , 4138.97435897 , 2040.0 , 2035.0 , 12.24 , 0.0 , 0.0 , 0.0 , 0.0 , 

103.0 , 4132.82051282 , 4133.33333333 , 4132.30769231 , 4136.41025641 , 4136.41025641 , 4130.76923077 , 4127.69230769 , 4135.8974359 , 4137.43589744 , 4137.43589744 , 4192.30769231 , 4912.82051282 , 4134.87179487 , 4140.0 , 2041.0 , 2036.0 , 12.249 , 0.0 , 0.0 , 0.0 , 0.0 , 

104.0 , 4133.84615385 , 4134.35897436 , 4134.87179487 , 4135.38461538 , 4131.28205128 , 4131.79487179 , 4132.30769231 , 4134.87179487 , 4136.92307692 , 4137.43589744 , 4192.82051282 , 4914.35897436 , 4134.87179487 , 4140.51282051 , 2041.0 , 2035.0 , 12.257 , 0.0 , 0.0 , 0.0 , 0.0 , 

105.0 , 4132.82051282 , 4134.87179487 , 4129.74358974 , 4131.79487179 , 4129.23076923 , 4132.30769231 , 4134.35897436 , 4136.41025641 , 4135.8974359 , 4137.43589744 , 4190.25641026 , 4911.79487179 , 4134.87179487 , 4136.92307692 , 2041.0 , 2036.0 , 12.264 , 0.0 , 0.0 , 0.0 , 0.0 , 

106.0 , 4134.35897436 , 4135.38461538 , 4130.76923077 , 4132.82051282 , 4131.79487179 , 4134.35897436 , 4132.30769231 , 4138.46153846 , 4133.84615385 , 4137.94871795 , 4189.74358974 , 4912.82051282 , 4134.87179487 , 4136.41025641 , 2041.0 , 2035.0 , 12.273 , 0.0 , 0.0 , 0.0 , 0.0 , 

107.0 , 4131.79487179 , 4133.33333333 , 4131.28205128 , 4133.84615385 , 4133.33333333 , 4131.28205128 , 4129.23076923 , 4136.41025641 , 4132.30769231 , 4137.94871795 , 4190.76923077 , 4911.28205128 , 4134.87179487 , 4138.46153846 , 2042.0 , 2036.0 , 12.279 , 0.0 , 0.0 , 0.0 , 0.0 , 

108.0 , 4132.82051282 , 4134.35897436 , 4133.84615385 , 4133.33333333 , 4131.28205128 , 4128.71794872 , 4129.74358974 , 4133.33333333 , 4134.35897436 , 4140.0 , 4191.28205128 , 4910.25641026 , 4134.35897436 , 4140.0 , 2041.0 , 2035.0 , 12.287 , 0.0 , 0.0 , 0.0 , 0.0 , 

109.0 , 4130.25641026 , 4133.84615385 , 4131.79487179 , 4132.82051282 , 4131.79487179 , 4129.23076923 , 4134.35897436 , 4135.38461538 , 4138.97435897 , 4140.51282051 , 4190.25641026 , 4908.71794872 , 4135.8974359 , 4136.41025641 , 2042.0 , 2034.0 , 12.296 , 0.0 , 0.0 , 0.0 , 0.0 , 

110.0 , 4131.28205128 , 4135.8974359 , 4134.87179487 , 4133.33333333 , 4133.84615385 , 4132.30769231 , 4131.79487179 , 4137.43589744 , 4135.8974359 , 4136.92307692 , 4192.82051282 , 4914.35897436 , 4136.92307692 , 4137.43589744 , 2041.0 , 2035.0 , 12.304 , 0.0 , 0.0 , 0.0 , 0.0 , 

111.0 , 4130.25641026 , 4133.84615385 , 4132.30769231 , 4132.82051282 , 4133.33333333 , 4130.25641026 , 4128.20512821 , 4137.43589744 , 4131.28205128 , 4136.92307692 , 4193.84615385 , 4910.76923077 , 4136.41025641 , 4137.94871795 , 2041.0 , 2035.0 , 12.315 , 0.0 , 0.0 , 0.0 , 0.0 , 

112.0 , 4135.38461538 , 4132.82051282 , 4133.33333333 , 4132.82051282 , 4130.76923077 , 4129.23076923 , 4130.76923077 , 4135.8974359 , 4131.79487179 , 4138.46153846 , 4192.30769231 , 4910.76923077 , 4136.92307692 , 4139.48717949 , 2043.0 , 2035.0 , 12.319 , 0.0 , 0.0 , 0.0 , 0.0 , 

113.0 , 4135.8974359 , 4132.82051282 , 4135.38461538 , 4133.33333333 , 4132.30769231 , 4129.74358974 , 4131.79487179 , 4136.41025641 , 4133.33333333 , 4136.92307692 , 4191.28205128 , 4914.35897436 , 4136.92307692 , 4138.97435897 , 2041.0 , 2035.0 , 12.327 , 0.0 , 0.0 , 0.0 , 0.0 , 

114.0 , 4133.33333333 , 4132.30769231 , 4136.92307692 , 4133.33333333 , 4133.84615385 , 4131.28205128 , 4127.17948718 , 4138.46153846 , 4131.79487179 , 4136.41025641 , 4194.35897436 , 4915.38461538 , 4135.8974359 , 4140.0 , 2040.0 , 2036.0 , 12.335 , 0.0 , 0.0 , 0.0 , 0.0 , 

115.0 , 4132.82051282 , 4128.71794872 , 4132.82051282 , 4133.84615385 , 4132.82051282 , 4131.79487179 , 4126.66666667 , 4136.92307692 , 4133.84615385 , 4137.43589744 , 4193.84615385 , 4910.76923077 , 4134.87179487 , 4140.0 , 2040.0 , 2035.0 , 12.342 , 0.0 , 0.0 , 0.0 , 0.0 , 

116.0 , 4135.8974359 , 4131.28205128 , 4130.25641026 , 4133.84615385 , 4130.76923077 , 4130.76923077 , 4130.76923077 , 4132.30769231 , 4136.41025641 , 4136.92307692 , 4190.76923077 , 4910.76923077 , 4134.87179487 , 4141.02564103 , 2040.0 , 2035.0 , 12.35 , 0.0 , 0.0 , 0.0 , 0.0 , 

117.0 , 4133.84615385 , 4132.82051282 , 4129.74358974 , 4132.82051282 , 4133.33333333 , 4129.74358974 , 4132.82051282 , 4133.84615385 , 4136.92307692 , 4135.8974359 , 4191.28205128 , 4911.28205128 , 4134.87179487 , 4140.51282051 , 2042.0 , 2035.0 , 12.358 , 0.0 , 0.0 , 0.0 , 0.0 , 

118.0 , 4131.28205128 , 4128.20512821 , 4132.82051282 , 4134.35897436 , 4132.30769231 , 4131.79487179 , 4129.74358974 , 4138.97435897 , 4135.8974359 , 4137.43589744 , 4192.30769231 , 4910.76923077 , 4134.87179487 , 4137.94871795 , 2041.0 , 2036.0 , 12.367 , 0.0 , 0.0 , 0.0 , 0.0 , 

119.0 , 4134.87179487 , 4129.23076923 , 4135.8974359 , 4135.38461538 , 4130.25641026 , 4132.30769231 , 4127.69230769 , 4136.41025641 , 4133.84615385 , 4139.48717949 , 4190.76923077 , 4913.84615385 , 4134.87179487 , 4139.48717949 , 2040.0 , 2035.0 , 12.374 , 0.0 , 0.0 , 0.0 , 0.0 , 

120.0 , 4134.35897436 , 4132.82051282 , 4131.79487179 , 4132.82051282 , 4132.30769231 , 4127.69230769 , 4130.76923077 , 4133.33333333 , 4133.33333333 , 4137.94871795 , 4189.74358974 , 4911.79487179 , 4134.87179487 , 4141.53846154 , 2041.0 , 2036.0 , 12.382 , 0.0 , 0.0 , 0.0 , 0.0 , 

121.0 , 4132.82051282 , 4132.82051282 , 4131.28205128 , 4133.84615385 , 4132.82051282 , 4127.17948718 , 4131.79487179 , 4134.87179487 , 4132.82051282 , 4134.87179487 , 4193.33333333 , 4909.74358974 , 4134.87179487 , 4141.53846154 , 2040.0 , 2035.0 , 12.391 , 0.0 , 0.0 , 0.0 , 0.0 , 

122.0 , 4130.25641026 , 4132.30769231 , 4135.38461538 , 4137.43589744 , 4131.79487179 , 4130.76923077 , 4129.74358974 , 4136.41025641 , 4132.82051282 , 4135.8974359 , 4194.35897436 , 4909.23076923 , 4134.87179487 , 4138.97435897 , 2041.0 , 2035.0 , 12.398 , 0.0 , 0.0 , 0.0 , 0.0 , 

123.0 , 4133.33333333 , 4134.35897436 , 4137.94871795 , 4136.41025641 , 4131.79487179 , 4132.30769231 , 4129.74358974 , 4135.38461538 , 4131.79487179 , 4137.43589744 , 4191.79487179 , 4910.25641026 , 4134.87179487 , 4140.51282051 , 2041.0 , 2035.0 , 12.405 , 0.0 , 0.0 , 0.0 , 0.0 , 

124.0 , 4135.38461538 , 4132.82051282 , 4132.30769231 , 4132.82051282 , 4132.30769231 , 4129.23076923 , 4130.25641026 , 4137.43589744 , 4132.82051282 , 4136.92307692 , 4190.25641026 , 4909.74358974 , 4134.87179487 , 4140.51282051 , 2042.0 , 2035.0 , 12.416 , 0.0 , 0.0 , 0.0 , 0.0 , 

125.0 , 4134.35897436 , 4132.82051282 , 4136.41025641 , 4133.33333333 , 4131.79487179 , 4129.74358974 , 4130.25641026 , 4137.94871795 , 4132.30769231 , 4136.92307692 , 4190.76923077 , 4914.87179487 , 4134.87179487 , 4140.51282051 , 2041.0 , 2034.0 , 12.421 , 0.0 , 0.0 , 0.0 , 0.0 , 

126.0 , 4128.71794872 , 4133.33333333 , 4133.84615385 , 4133.33333333 , 4133.84615385 , 4131.79487179 , 4129.23076923 , 4135.38461538 , 4134.87179487 , 4136.41025641 , 4190.76923077 , 4911.79487179 , 4134.87179487 , 4140.51282051 , 2042.0 , 2036.0 , 12.429 , 0.0 , 0.0 , 0.0 , 0.0 , 

127.0 , 4133.33333333 , 4133.84615385 , 4132.82051282 , 4133.84615385 , 4132.82051282 , 4131.28205128 , 4131.28205128 , 4134.35897436 , 4135.8974359 , 4135.8974359 , 4191.79487179 , 4912.30769231 , 4134.87179487 , 4142.56410256 , 2041.0 , 2036.0 , 12.437 , 0.0 , 0.0 , 0.0 , 0.0 , 

128.0 , 4135.38461538 , 4132.82051282 , 4133.33333333 , 4134.35897436 , 4131.79487179 , 4128.71794872 , 4135.8974359 , 4135.38461538 , 4134.35897436 , 4137.43589744 , 4192.30769231 , 4913.84615385 , 4134.87179487 , 4138.46153846 , 2040.0 , 2035.0 , 12.445 , 0.0 , 0.0 , 0.0 , 0.0 , 

0.0 , 4134.35897436 , 4135.8974359 , 4136.41025641 , 4134.87179487 , 4133.33333333 , 4129.74358974 , 4133.84615385 , 4135.8974359 , 4132.30769231 , 4136.41025641 , 4192.82051282 , 4913.84615385 , 4134.87179487 , 4136.41025641 , 2041.0 , 2035.0 , 12.453 , 0.0 , 0.0 , 0.0 , 0.0 , 

1.0 , 4131.28205128 , 4134.87179487 , 4132.30769231 , 4133.33333333 , 4133.84615385 , 4130.25641026 , 4129.23076923 , 4135.8974359 , 4134.87179487 , 4134.87179487 , 4192.30769231 , 4908.20512821 , 4134.87179487 , 4137.94871795 , 2041.0 , 2035.0 , 12.461 , 0.0 , 0.0 , 0.0 , 0.0 , 

2.0 , 4135.8974359 , 4135.38461538 , 4134.87179487 , 4134.35897436 , 4132.30769231 , 4130.25641026 , 4129.74358974 , 4133.84615385 , 4135.8974359 , 4136.92307692 , 4191.28205128 , 4910.76923077 , 4136.41025641 , 4141.02564103 , 2042.0 , 2035.0 , 12.468 , 0.0 , 0.0 , 0.0 , 0.0 , 

3.0 , 4134.87179487 , 4133.84615385 , 4135.8974359 , 4135.38461538 , 4135.38461538 , 4130.76923077 , 4132.30769231 , 4133.33333333 , 4133.84615385 , 4138.46153846 , 4190.76923077 , 4910.76923077 , 4137.94871795 , 4138.46153846 , 2042.0 , 2037.0 , 12.476 , 0.0 , 0.0 , 0.0 , 0.0 , 

4.0 , 4132.82051282 , 4132.30769231 , 4136.92307692 , 4134.87179487 , 4135.38461538 , 4131.79487179 , 4129.23076923 , 4136.41025641 , 4131.79487179 , 4136.92307692 , 4192.30769231 , 4908.71794872 , 4137.94871795 , 4136.41025641 , 2042.0 , 2035.0 , 12.485 , 0.0 , 0.0 , 0.0 , 0.0 , 

5.0 , 4131.79487179 , 4132.30769231 , 4134.87179487 , 4133.84615385 , 4133.33333333 , 4130.25641026 , 4128.20512821 , 4134.35897436 , 4134.35897436 , 4136.41025641 , 4191.79487179 , 4909.74358974 , 4134.87179487 , 4135.8974359 , 2042.0 , 2035.0 , 12.492 , 0.0 , 0.0 , 0.0 , 0.0 , 

6.0 , 4130.25641026 , 4135.38461538 , 4131.79487179 , 4131.79487179 , 4132.30769231 , 4130.76923077 , 4131.28205128 , 4130.76923077 , 4136.41025641 , 4137.43589744 , 4191.28205128 , 4911.79487179 , 4132.30769231 , 4137.43589744 , 2041.0 , 2037.0 , 12.501 , 0.0 , 0.0 , 0.0 , 0.0 , 

7.0 , 4130.76923077 , 4134.87179487 , 4130.25641026 , 4132.82051282 , 4131.79487179 , 4132.30769231 , 4132.30769231 , 4134.35897436 , 4133.84615385 , 4136.92307692 , 4192.30769231 , 4909.23076923 , 4132.30769231 , 4138.97435897 , 2041.0 , 2037.0 , 12.508 , 0.0 , 0.0 , 0.0 , 0.0 , 

8.0 , 4133.33333333 , 4132.30769231 , 4134.35897436 , 4136.92307692 , 4131.28205128 , 4132.82051282 , 4131.28205128 , 4137.94871795 , 4132.30769231 , 4137.43589744 , 4192.30769231 , 4907.17948718 , 4132.82051282 , 4138.97435897 , 2041.0 , 2035.0 , 12.519 , 0.0 , 0.0 , 0.0 , 0.0 , 

9.0 , 4134.87179487 , 4133.33333333 , 4136.41025641 , 4136.92307692 , 4131.28205128 , 4131.28205128 , 4130.76923077 , 4136.41025641 , 4133.33333333 , 4137.94871795 , 4191.28205128 , 4910.25641026 , 4132.82051282 , 4141.53846154 , 2041.0 , 2035.0 , 12.525 , 0.0 , 0.0 , 0.0 , 0.0 , 

10.0 , 4133.84615385 , 4133.33333333 , 4132.82051282 , 4133.33333333 , 4130.76923077 , 4129.74358974 , 4130.76923077 , 4134.87179487 , 4136.92307692 , 4136.92307692 , 4192.30769231 , 4909.74358974 , 4131.79487179 , 4140.51282051 , 2041.0 , 2034.0 , 12.532 , 0.0 , 0.0 , 0.0 , 0.0 , 

11.0 , 4134.87179487 , 4132.82051282 , 4133.33333333 , 4132.82051282 , 4130.76923077 , 4131.28205128 , 4127.17948718 , 4133.33333333 , 4138.46153846 , 4136.92307692 , 4191.28205128 , 4909.23076923 , 4133.33333333 , 4136.92307692 , 2040.0 , 2036.0 , 12.54 , 0.0 , 0.0 , 0.0 , 0.0 , 

12.0 , 4133.84615385 , 4132.82051282 , 4131.79487179 , 4131.79487179 , 4133.33333333 , 4130.25641026 , 4127.69230769 , 4129.23076923 , 4135.8974359 , 4137.43589744 , 4190.25641026 , 4911.79487179 , 4135.38461538 , 4138.97435897 , 2040.0 , 2036.0 , 12.548 , 0.0 , 0.0 , 0.0 , 0.0 , 

13.0 , 4134.87179487 , 4136.92307692 , 4133.84615385 , 4133.33333333 , 4132.82051282 , 4127.69230769 , 4131.79487179 , 4131.79487179 , 4132.82051282 , 4137.43589744 , 4192.30769231 , 4914.87179487 , 4135.8974359 , 4144.61538462 , 2041.0 , 2035.0 , 12.556 , 0.0 , 0.0 , 0.0 , 0.0 , 

14.0 , 4133.33333333 , 4135.8974359 , 4132.82051282 , 4136.41025641 , 4132.30769231 , 4128.71794872 , 4131.28205128 , 4136.92307692 , 4135.38461538 , 4137.94871795 , 4191.79487179 , 4908.71794872 , 4135.8974359 , 4140.0 , 2042.0 , 2035.0 , 12.564 , 0.0 , 0.0 , 0.0 , 0.0 , 

15.0 , 4133.33333333 , 4132.30769231 , 4134.87179487 , 4135.38461538 , 4131.79487179 , 4132.30769231 , 4129.74358974 , 4135.8974359 , 4135.8974359 , 4138.46153846 , 4189.74358974 , 4908.20512821 , 4135.8974359 , 4135.8974359 , 2041.0 , 2035.0 , 12.572 , 0.0 , 0.0 , 0.0 , 0.0 , 

16.0 , 4132.82051282 , 4131.28205128 , 4130.25641026 , 4131.79487179 , 4132.82051282 , 4131.28205128 , 4134.35897436 , 4136.92307692 , 4134.35897436 , 4138.97435897 , 4190.25641026 , 4908.71794872 , 4135.38461538 , 4136.92307692 , 2040.0 , 2036.0 , 12.579 , 0.0 , 0.0 , 0.0 , 0.0 , 

17.0 , 4136.92307692 , 4136.41025641 , 4134.35897436 , 4132.82051282 , 4132.30769231 , 4130.76923077 , 4134.87179487 , 4137.94871795 , 4133.84615385 , 4138.97435897 , 4191.79487179 , 4911.79487179 , 4134.87179487 , 4141.02564103 , 2041.0 , 2037.0 , 12.587 , 0.0 , 0.0 , 0.0 , 0.0 , 

18.0 , 4133.33333333 , 4133.84615385 , 4132.82051282 , 4132.30769231 , 4133.33333333 , 4131.28205128 , 4128.20512821 , 4135.38461538 , 4134.35897436 , 4138.97435897 , 4190.25641026 , 4909.74358974 , 4134.87179487 , 4140.0 , 2041.0 , 2034.0 , 12.595 , 0.0 , 0.0 , 0.0 , 0.0 , 

19.0 , 4132.30769231 , 4130.76923077 , 4130.25641026 , 4131.28205128 , 4133.84615385 , 4130.76923077 , 4128.71794872 , 4135.8974359 , 4133.33333333 , 4138.46153846 , 4190.25641026 , 4910.76923077 , 4134.35897436 , 4140.0 , 2042.0 , 2035.0 , 12.603 , 0.0 , 0.0 , 0.0 , 0.0 , 

20.0 , 4130.76923077 , 4132.82051282 , 4130.25641026 , 4131.28205128 , 4134.35897436 , 4131.28205128 , 4137.43589744 , 4136.92307692 , 4134.87179487 , 4138.46153846 , 4191.28205128 , 4908.71794872 , 4135.38461538 , 4137.43589744 , 2043.0 , 2036.0 , 12.611 , 0.0 , 0.0 , 0.0 , 0.0 , 

21.0 , 4132.30769231 , 4137.94871795 , 4137.94871795 , 4131.79487179 , 4132.30769231 , 4133.84615385 , 4136.41025641 , 4133.84615385 , 4134.87179487 , 4136.41025641 , 4190.76923077 , 4912.30769231 , 4136.41025641 , 4138.97435897 , 2042.0 , 2036.0 , 12.626 , 0.0 , 0.0 , 0.0 , 0.0 , 

22.0 , 4130.25641026 , 4134.35897436 , 4135.8974359 , 4133.33333333 , 4130.76923077 , 4133.33333333 , 4129.23076923 , 4134.87179487 , 4134.35897436 , 4135.38461538 , 4190.25641026 , 4912.82051282 , 4136.92307692 , 4141.53846154 , 2041.0 , 2036.0 , 12.629 , 0.0 , 0.0 , 0.0 , 0.0 , 

23.0 , 4130.76923077 , 4131.28205128 , 4130.76923077 , 4135.38461538 , 4131.28205128 , 4130.76923077 , 4130.25641026 , 4138.46153846 , 4134.35897436 , 4138.46153846 , 4190.76923077 , 4909.74358974 , 4137.94871795 , 4142.05128205 , 2042.0 , 2036.0 , 12.634 , 0.0 , 0.0 , 0.0 , 0.0 , 

24.0 , 4132.30769231 , 4131.28205128 , 4131.28205128 , 4134.87179487 , 4132.30769231 , 4129.74358974 , 4130.76923077 , 4137.94871795 , 4134.87179487 , 4138.97435897 , 4192.82051282 , 4912.30769231 , 4137.94871795 , 4139.48717949 , 2042.0 , 2034.0 , 12.642 , 0.0 , 0.0 , 0.0 , 0.0 , 

25.0 , 4134.35897436 , 4132.30769231 , 4137.43589744 , 4133.33333333 , 4130.76923077 , 4131.28205128 , 4128.71794872 , 4136.41025641 , 4134.35897436 , 4136.92307692 , 4194.35897436 , 4917.94871795 , 4136.41025641 , 4138.46153846 , 2041.0 , 2036.0 , 12.649 , 0.0 , 0.0 , 0.0 , 0.0 , 

26.0 , 4134.35897436 , 4133.84615385 , 4136.41025641 , 4134.87179487 , 4130.76923077 , 4131.28205128 , 4130.25641026 , 4136.41025641 , 4134.35897436 , 4135.8974359 , 4191.28205128 , 4912.30769231 , 4135.8974359 , 4137.94871795 , 2040.0 , 2034.0 , 12.657 , 0.0 , 0.0 , 0.0 , 0.0 , 

27.0 , 4131.79487179 , 4132.82051282 , 4130.76923077 , 4133.33333333 , 4133.33333333 , 4130.25641026 , 4131.79487179 , 4134.35897436 , 4135.8974359 , 4138.46153846 , 4189.74358974 , 4906.66666667 , 4135.38461538 , 4138.46153846 , 2041.0 , 2035.0 , 12.665 , 0.0 , 0.0 , 0.0 , 0.0 , 

28.0 , 4131.79487179 , 4131.79487179 , 4132.82051282 , 4131.79487179 , 4134.35897436 , 4129.23076923 , 4131.79487179 , 4136.41025641 , 4135.8974359 , 4139.48717949 , 4191.79487179 , 4911.79487179 , 4134.87179487 , 4140.51282051 , 2041.0 , 2035.0 , 12.674 , 0.0 , 0.0 , 0.0 , 0.0 , 

29.0 , 4132.82051282 , 4131.79487179 , 4132.30769231 , 4133.33333333 , 4133.84615385 , 4128.20512821 , 4132.82051282 , 4138.46153846 , 4135.38461538 , 4138.46153846 , 4193.33333333 , 4912.30769231 , 4135.8974359 , 4138.46153846 , 2041.0 , 2037.0 , 12.681 , 0.0 , 0.0 , 0.0 , 0.0 , 

30.0 , 4134.87179487 , 4133.33333333 , 4132.82051282 , 4134.35897436 , 4134.35897436 , 4129.23076923 , 4130.76923077 , 4135.38461538 , 4134.35897436 , 4136.92307692 , 4192.82051282 , 4909.23076923 , 4136.41025641 , 4137.94871795 , 2041.0 , 2035.0 , 12.689 , 0.0 , 0.0 , 0.0 , 0.0 , 

31.0 , 4131.28205128 , 4132.30769231 , 4131.28205128 , 4132.30769231 , 4133.84615385 , 4130.76923077 , 4128.71794872 , 4135.38461538 , 4135.38461538 , 4136.41025641 , 4191.28205128 , 4908.71794872 , 4134.87179487 , 4137.94871795 , 2042.0 , 2035.0 , 12.697 , 0.0 , 0.0 , 0.0 , 0.0 , 

32.0 , 4131.79487179 , 4135.38461538 , 4133.84615385 , 4132.82051282 , 4132.30769231 , 4131.28205128 , 4130.25641026 , 4135.8974359 , 4136.41025641 , 4137.43589744 , 4192.30769231 , 4910.76923077 , 4135.38461538 , 4139.48717949 , 2041.0 , 2034.0 , 12.705 , 0.0 , 0.0 , 0.0 , 0.0 , 

33.0 , 4132.82051282 , 4132.82051282 , 4133.84615385 , 4132.82051282 , 4134.35897436 , 4130.25641026 , 4132.30769231 , 4133.84615385 , 4135.8974359 , 4138.46153846 , 4192.30769231 , 4906.66666667 , 4137.94871795 , 4138.97435897 , 2042.0 , 2035.0 , 12.713 , 0.0 , 0.0 , 0.0 , 0.0 , 

34.0 , 4135.8974359 , 4129.23076923 , 4137.43589744 , 4134.35897436 , 4132.82051282 , 4131.79487179 , 4131.28205128 , 4133.84615385 , 4133.33333333 , 4136.41025641 , 4192.30769231 , 4912.30769231 , 4137.43589744 , 4140.0 , 2040.0 , 2037.0 , 12.724 , 0.0 , 0.0 , 0.0 , 0.0 , 

35.0 , 4133.84615385 , 4129.74358974 , 4132.82051282 , 4134.87179487 , 4131.79487179 , 4131.79487179 , 4130.25641026 , 4135.38461538 , 4134.87179487 , 4135.38461538 , 4192.30769231 , 4913.33333333 , 4135.8974359 , 4138.46153846 , 2041.0 , 2036.0 , 12.729 , 0.0 , 0.0 , 0.0 , 0.0 , 

36.0 , 4133.33333333 , 4133.33333333 , 4134.35897436 , 4135.38461538 , 4132.30769231 , 4130.25641026 , 4130.25641026 , 4135.38461538 , 4135.8974359 , 4136.92307692 , 4191.79487179 , 4912.82051282 , 4136.41025641 , 4138.46153846 , 2042.0 , 2036.0 , 12.736 , 0.0 , 0.0 , 0.0 , 0.0 , 

37.0 , 4132.82051282 , 4130.25641026 , 4134.35897436 , 4133.33333333 , 4133.33333333 , 4130.25641026 , 4131.28205128 , 4134.87179487 , 4134.87179487 , 4138.46153846 , 4191.28205128 , 4909.74358974 , 4136.92307692 , 4137.94871795 , 2042.0 , 2035.0 , 12.744 , 0.0 , 0.0 , 0.0 , 0.0 , 

38.0 , 4136.41025641 , 4131.79487179 , 4131.79487179 , 4133.84615385 , 4130.76923077 , 4132.30769231 , 4131.28205128 , 4134.87179487 , 4134.35897436 , 4136.92307692 , 4192.30769231 , 4912.82051282 , 4136.41025641 , 4138.97435897 , 2041.0 , 2037.0 , 12.752 , 0.0 , 0.0 , 0.0 , 0.0 , 

39.0 , 4133.33333333 , 4132.30769231 , 4130.76923077 , 4136.41025641 , 4131.79487179 , 4131.79487179 , 4131.28205128 , 4135.38461538 , 4136.41025641 , 4136.92307692 , 4192.82051282 , 4912.30769231 , 4135.38461538 , 4139.48717949 , 2042.0 , 2036.0 , 12.76 , 0.0 , 0.0 , 0.0 , 0.0 , 

40.0 , 4130.25641026 , 4132.30769231 , 4137.94871795 , 4135.38461538 , 4131.79487179 , 4131.28205128 , 4130.76923077 , 4137.43589744 , 4135.38461538 , 4137.43589744 , 4190.76923077 , 4913.33333333 , 4135.8974359 , 4142.05128205 , 2042.0 , 2036.0 , 12.768 , 0.0 , 0.0 , 0.0 , 0.0 , 

41.0 , 4130.25641026 , 4133.84615385 , 4132.82051282 , 4133.33333333 , 4131.28205128 , 4131.28205128 , 4134.35897436 , 4137.94871795 , 4135.38461538 , 4135.8974359 , 4189.74358974 , 4910.76923077 , 4136.92307692 , 4141.02564103 , 2041.0 , 2036.0 , 12.776 , 0.0 , 0.0 , 0.0 , 0.0 , 

42.0 , 4133.33333333 , 4134.35897436 , 4128.20512821 , 4134.35897436 , 4131.28205128 , 4128.71794872 , 4133.33333333 , 4135.38461538 , 4134.87179487 , 4136.41025641 , 4192.30769231 , 4908.71794872 , 4137.94871795 , 4139.48717949 , 2041.0 , 2035.0 , 12.783 , 0.0 , 0.0 , 0.0 , 0.0 , 

43.0 , 4133.84615385 , 4129.74358974 , 4132.82051282 , 4132.30769231 , 4131.28205128 , 4128.71794872 , 4127.17948718 , 4133.84615385 , 4134.87179487 , 4138.46153846 , 4193.84615385 , 4909.74358974 , 4136.41025641 , 4138.97435897 , 2041.0 , 2036.0 , 12.791 , 0.0 , 0.0 , 0.0 , 0.0 , 

44.0 , 4133.33333333 , 4130.76923077 , 4136.41025641 , 4130.76923077 , 4131.79487179 , 4131.79487179 , 4127.17948718 , 4136.41025641 , 4135.38461538 , 4138.46153846 , 4191.79487179 , 4910.76923077 , 4135.8974359 , 4138.97435897 , 2041.0 , 2035.0 , 12.799 , 0.0 , 0.0 , 0.0 , 0.0 , 

45.0 , 4132.30769231 , 4133.84615385 , 4132.30769231 , 4134.35897436 , 4131.79487179 , 4132.82051282 , 4132.82051282 , 4137.43589744 , 4133.33333333 , 4135.8974359 , 4189.23076923 , 4910.76923077 , 4135.8974359 , 4138.97435897 , 2041.0 , 2035.0 , 12.808 , 0.0 , 0.0 , 0.0 , 0.0 , 

46.0 , 4132.30769231 , 4130.25641026 , 4131.79487179 , 4134.87179487 , 4131.79487179 , 4131.28205128 , 4131.79487179 , 4135.38461538 , 4130.76923077 , 4137.43589744 , 4189.23076923 , 4910.25641026 , 4135.38461538 , 4138.97435897 , 2041.0 , 2035.0 , 12.815 , 0.0 , 0.0 , 0.0 , 0.0 , 

47.0 , 4136.92307692 , 4129.23076923 , 4140.0 , 4132.82051282 , 4133.33333333 , 4130.25641026 , 4131.79487179 , 4136.41025641 , 4132.30769231 , 4140.0 , 4190.25641026 , 4913.33333333 , 4136.92307692 , 4139.48717949 , 2040.0 , 2036.0 , 12.827 , 0.0 , 0.0 , 0.0 , 0.0 , 

48.0 , 4133.84615385 , 4133.84615385 , 4137.94871795 , 4134.35897436 , 4135.8974359 , 4129.74358974 , 4134.87179487 , 4138.46153846 , 4136.41025641 , 4138.97435897 , 4189.74358974 , 4913.33333333 , 4137.94871795 , 4137.43589744 , 2041.0 , 2035.0 , 12.831 , 0.0 , 0.0 , 0.0 , 0.0 , 

49.0 , 4130.25641026 , 4135.38461538 , 4134.35897436 , 4136.41025641 , 4133.84615385 , 4129.74358974 , 4131.28205128 , 4136.92307692 , 4135.8974359 , 4137.43589744 , 4189.74358974 , 4914.87179487 , 4136.41025641 , 4139.48717949 , 2041.0 , 2036.0 , 12.839 , 0.0 , 0.0 , 0.0 , 0.0 , 

50.0 , 4131.28205128 , 4130.76923077 , 4133.33333333 , 4132.82051282 , 4132.82051282 , 4128.71794872 , 4129.74358974 , 4136.92307692 , 4135.38461538 , 4136.41025641 , 4190.25641026 , 4913.84615385 , 4135.38461538 , 4140.0 , 2040.0 , 2036.0 , 12.847 , 0.0 , 0.0 , 0.0 , 0.0 , 

51.0 , 4135.38461538 , 4131.28205128 , 4137.94871795 , 4130.76923077 , 4133.33333333 , 4130.25641026 , 4130.76923077 , 4137.94871795 , 4134.35897436 , 4136.41025641 , 4192.30769231 , 4913.33333333 , 4136.92307692 , 4138.46153846 , 2040.0 , 2037.0 , 12.855 , 0.0 , 0.0 , 0.0 , 0.0 , 

52.0 , 4131.79487179 , 4132.82051282 , 4133.33333333 , 4131.28205128 , 4134.35897436 , 4132.82051282 , 4126.15384615 , 4135.8974359 , 4134.35897436 , 4137.94871795 , 4192.30769231 , 4911.28205128 , 4137.43589744 , 4136.92307692 , 2041.0 , 2036.0 , 12.862 , 0.0 , 0.0 , 0.0 , 0.0 , 

53.0 , 4133.33333333 , 4134.87179487 , 4134.35897436 , 4133.33333333 , 4133.33333333 , 4132.30769231 , 4129.74358974 , 4135.8974359 , 4134.87179487 , 4137.43589744 , 4190.25641026 , 4914.87179487 , 4135.8974359 , 4140.51282051 , 2041.0 , 2035.0 , 12.87 , 0.0 , 0.0 , 0.0 , 0.0 , 

54.0 , 4133.84615385 , 4130.76923077 , 4133.84615385 , 4134.87179487 , 4133.33333333 , 4130.76923077 , 4135.8974359 , 4137.94871795 , 4135.38461538 , 4136.92307692 , 4190.25641026 , 4913.33333333 , 4135.8974359 , 4139.48717949 , 2041.0 , 2036.0 , 12.878 , 0.0 , 0.0 , 0.0 , 0.0 , 

55.0 , 4133.84615385 , 4129.74358974 , 4134.35897436 , 4135.38461538 , 4132.30769231 , 4131.79487179 , 4133.33333333 , 4136.41025641 , 4134.87179487 , 4137.43589744 , 4193.33333333 , 4914.35897436 , 4136.41025641 , 4139.48717949 , 2041.0 , 2036.0 , 12.886 , 0.0 , 0.0 , 0.0 , 0.0 , 

56.0 , 4130.25641026 , 4130.25641026 , 4133.33333333 , 4133.33333333 , 4132.82051282 , 4132.82051282 , 4133.33333333 , 4134.87179487 , 4138.46153846 , 4137.43589744 , 4193.33333333 , 4911.28205128 , 4135.8974359 , 4137.94871795 , 2040.0 , 2035.0 , 12.894 , 0.0 , 0.0 , 0.0 , 0.0 , 

57.0 , 4133.33333333 , 4134.87179487 , 4136.41025641 , 4131.79487179 , 4130.76923077 , 4131.79487179 , 4134.87179487 , 4136.41025641 , 4138.97435897 , 4137.43589744 , 4192.30769231 , 4912.82051282 , 4134.87179487 , 4138.97435897 , 2041.0 , 2035.0 , 12.902 , 0.0 , 0.0 , 0.0 , 0.0 , 

58.0 , 4134.87179487 , 4134.87179487 , 4134.87179487 , 4133.84615385 , 4131.79487179 , 4130.25641026 , 4129.74358974 , 4136.92307692 , 4136.41025641 , 4137.94871795 , 4191.79487179 , 4914.35897436 , 4135.8974359 , 4140.0 , 2040.0 , 2037.0 , 12.91 , 0.0 , 0.0 , 0.0 , 0.0 , 

59.0 , 4133.84615385 , 4133.33333333 , 4134.87179487 , 4136.92307692 , 4134.35897436 , 4130.76923077 , 4127.69230769 , 4135.8974359 , 4135.38461538 , 4137.43589744 , 4192.82051282 , 4914.35897436 , 4135.8974359 , 4140.0 , 2042.0 , 2034.0 , 12.918 , 0.0 , 0.0 , 0.0 , 0.0 , 

60.0 , 4129.74358974 , 4131.79487179 , 4134.35897436 , 4136.41025641 , 4134.35897436 , 4133.33333333 , 4130.76923077 , 4136.92307692 , 4138.46153846 , 4137.43589744 , 4191.79487179 , 4910.76923077 , 4135.8974359 , 4137.43589744 , 2042.0 , 2035.0 , 12.929 , 0.0 , 0.0 , 0.0 , 0.0 , 

61.0 , 4130.25641026 , 4132.82051282 , 4134.87179487 , 4134.35897436 , 4131.28205128 , 4134.35897436 , 4129.23076923 , 4135.8974359 , 4137.43589744 , 4138.97435897 , 4190.25641026 , 4913.84615385 , 4135.8974359 , 4140.0 , 2042.0 , 2036.0 , 12.933 , 0.0 , 0.0 , 0.0 , 0.0 , 

62.0 , 4133.84615385 , 4131.28205128 , 4133.33333333 , 4132.30769231 , 4133.84615385 , 4132.30769231 , 4132.30769231 , 4133.84615385 , 4132.82051282 , 4137.94871795 , 4190.76923077 , 4915.8974359 , 4136.41025641 , 4141.53846154 , 2041.0 , 2035.0 , 12.942 , 0.0 , 0.0 , 0.0 , 0.0 , 

63.0 , 4132.30769231 , 4130.25641026 , 4132.30769231 , 4132.30769231 , 4134.35897436 , 4130.76923077 , 4135.8974359 , 4137.43589744 , 4133.84615385 , 4136.41025641 , 4191.79487179 , 4909.74358974 , 4135.8974359 , 4138.46153846 , 2040.0 , 2035.0 , 12.95 , 0.0 , 0.0 , 0.0 , 0.0 , 

64.0 , 4131.28205128 , 4133.33333333 , 4134.87179487 , 4132.30769231 , 4131.28205128 , 4132.30769231 , 4129.23076923 , 4135.8974359 , 4135.8974359 , 4137.94871795 , 4190.76923077 , 4908.20512821 , 4135.8974359 , 4137.43589744 , 2041.0 , 2036.0 , 12.957 , 0.0 , 0.0 , 0.0 , 0.0 , 

65.0 , 4131.79487179 , 4134.87179487 , 4133.33333333 , 4133.33333333 , 4132.30769231 , 4132.82051282 , 4126.66666667 , 4130.25641026 , 4134.87179487 , 4138.46153846 , 4190.25641026 , 4911.28205128 , 4136.41025641 , 4138.46153846 , 2042.0 , 2035.0 , 12.965 , 0.0 , 0.0 , 0.0 , 0.0 , 

66.0 , 4133.33333333 , 4135.38461538 , 4132.82051282 , 4135.38461538 , 4133.33333333 , 4130.76923077 , 4131.28205128 , 4130.25641026 , 4133.33333333 , 4136.92307692 , 4191.79487179 , 4910.76923077 , 4135.38461538 , 4138.97435897 , 2042.0 , 2037.0 , 12.973 , 0.0 , 0.0 , 0.0 , 0.0 , 

67.0 , 4133.33333333 , 4133.84615385 , 4134.35897436 , 4134.35897436 , 4133.33333333 , 4129.74358974 , 4133.33333333 , 4136.41025641 , 4134.87179487 , 4137.43589744 , 4190.76923077 , 4905.12820513 , 4135.38461538 , 4137.43589744 , 2041.0 , 2036.0 , 12.981 , 0.0 , 0.0 , 0.0 , 0.0 , 

68.0 , 4135.38461538 , 4132.82051282 , 4136.41025641 , 4132.30769231 , 4132.82051282 , 4130.25641026 , 4131.79487179 , 4135.8974359 , 4133.84615385 , 4137.94871795 , 4189.74358974 , 4908.20512821 , 4135.38461538 , 4138.46153846 , 2042.0 , 2036.0 , 12.989 , 0.0 , 0.0 , 0.0 , 0.0 , 

69.0 , 4132.30769231 , 4131.28205128 , 4130.25641026 , 4130.76923077 , 4133.84615385 , 4132.82051282 , 4131.79487179 , 4130.25641026 , 4135.8974359 , 4137.43589744 , 4191.79487179 , 4911.79487179 , 4134.87179487 , 4139.48717949 , 2041.0 , 2037.0 , 12.996 , 0.0 , 0.0 , 0.0 , 0.0 , 

70.0 , 4133.33333333 , 4133.33333333 , 4132.82051282 , 4133.84615385 , 4131.79487179 , 4134.35897436 , 4129.74358974 , 4131.79487179 , 4137.43589744 , 4136.92307692 , 4193.33333333 , 4913.33333333 , 4134.87179487 , 4141.02564103 , 2042.0 , 2036.0 , 13.004 , 0.0 , 0.0 , 0.0 , 0.0 , 

71.0 , 4131.28205128 , 4134.35897436 , 4133.33333333 , 4134.35897436 , 4131.28205128 , 4131.79487179 , 4127.17948718 , 4137.94871795 , 4136.41025641 , 4137.43589744 , 4191.79487179 , 4909.74358974 , 4136.41025641 , 4137.43589744 , 2042.0 , 2036.0 , 13.012 , 0.0 , 0.0 , 0.0 , 0.0 , 

72.0 , 4132.82051282 , 4135.38461538 , 4134.87179487 , 4135.38461538 , 4131.28205128 , 4130.25641026 , 4131.79487179 , 4139.48717949 , 4134.87179487 , 4139.48717949 , 4192.30769231 , 4913.33333333 , 4137.43589744 , 4138.46153846 , 2044.0 , 2037.0 , 13.02 , 0.0 , 0.0 , 0.0 , 0.0 , 

73.0 , 4133.84615385 , 4131.28205128 , 4133.33333333 , 4133.84615385 , 4133.33333333 , 4132.30769231 , 4134.35897436 , 4134.87179487 , 4135.38461538 , 4139.48717949 , 4192.30769231 , 4915.8974359 , 4136.41025641 , 4138.97435897 , 2042.0 , 2036.0 , 13.032 , 0.0 , 0.0 , 0.0 , 0.0 , 

74.0 , 4134.87179487 , 4130.25641026 , 4137.43589744 , 4132.30769231 , 4133.33333333 , 4132.82051282 , 4131.79487179 , 4132.82051282 , 4135.38461538 , 4136.41025641 , 4192.30769231 , 4917.43589744 , 4136.41025641 , 4140.0 , 2041.0 , 2035.0 , 13.037 , 0.0 , 0.0 , 0.0 , 0.0 , 

75.0 , 4130.76923077 , 4131.28205128 , 4133.84615385 , 4133.33333333 , 4133.33333333 , 4130.25641026 , 4135.8974359 , 4136.41025641 , 4135.8974359 , 4135.8974359 , 4192.30769231 , 4910.25641026 , 4137.43589744 , 4138.97435897 , 2040.0 , 2035.0 , 13.045 , 0.0 , 0.0 , 0.0 , 0.0 , 

76.0 , 4132.82051282 , 4133.84615385 , 4133.33333333 , 4134.87179487 , 4132.82051282 , 4130.76923077 , 4137.94871795 , 4136.92307692 , 4133.33333333 , 4137.43589744 , 4192.30769231 , 4909.23076923 , 4136.92307692 , 4136.92307692 , 2040.0 , 2036.0 , 13.052 , 0.0 , 0.0 , 0.0 , 0.0 , 

77.0 , 4131.28205128 , 4131.79487179 , 4132.30769231 , 4133.84615385 , 4134.35897436 , 4131.79487179 , 4130.25641026 , 4136.92307692 , 4134.35897436 , 4136.92307692 , 4191.28205128 , 4909.74358974 , 4136.92307692 , 4134.87179487 , 2041.0 , 2037.0 , 13.059 , 0.0 , 0.0 , 0.0 , 0.0 , 

78.0 , 4129.23076923 , 4132.30769231 , 4131.28205128 , 4133.33333333 , 4132.30769231 , 4131.79487179 , 4128.20512821 , 4137.94871795 , 4136.92307692 , 4136.41025641 , 4192.30769231 , 4910.25641026 , 4136.92307692 , 4139.48717949 , 2042.0 , 2034.0 , 13.067 , 0.0 , 0.0 , 0.0 , 0.0 , 

79.0 , 4130.76923077 , 4133.84615385 , 4130.25641026 , 4132.82051282 , 4131.28205128 , 4131.79487179 , 4133.33333333 , 4137.43589744 , 4137.43589744 , 4137.43589744 , 4190.25641026 , 4910.25641026 , 4136.41025641 , 4141.53846154 , 2040.0 , 2034.0 , 13.075 , 0.0 , 0.0 , 0.0 , 0.0 , 

80.0 , 4134.35897436 , 4133.84615385 , 4132.30769231 , 4131.28205128 , 4131.79487179 , 4132.82051282 , 4129.23076923 , 4134.35897436 , 4136.92307692 , 4137.43589744 , 4189.23076923 , 4911.79487179 , 4136.41025641 , 4139.48717949 , 2040.0 , 2036.0 , 13.098 , 0.0 , 0.0 , 0.0 , 0.0 , 

81.0 , 4134.35897436 , 4133.84615385 , 4133.84615385 , 4133.84615385 , 4132.30769231 , 4133.84615385 , 4126.15384615 , 4133.33333333 , 4137.43589744 , 4137.43589744 , 4191.28205128 , 4911.28205128 , 4137.94871795 , 4138.97435897 , 2041.0 , 2037.0 , 13.1 , 0.0 , 0.0 , 0.0 , 0.0 , 

82.0 , 4133.33333333 , 4132.82051282 , 4132.82051282 , 4134.35897436 , 4132.30769231 , 4132.82051282 , 4132.30769231 , 4134.35897436 , 4137.43589744 , 4137.94871795 , 4191.79487179 , 4909.23076923 , 4136.41025641 , 4140.0 , 2042.0 , 2035.0 , 13.1 , 0.0 , 0.0 , 0.0 , 0.0 , 

83.0 , 4133.84615385 , 4133.33333333 , 4134.87179487 , 4130.25641026 , 4132.30769231 , 4133.33333333 , 4132.30769231 , 4134.87179487 , 4136.41025641 , 4137.43589744 , 4189.23076923 , 4906.66666667 , 4134.87179487 , 4139.48717949 , 2042.0 , 2035.0 , 13.107 , 0.0 , 0.0 , 0.0 , 0.0 , 

84.0 , 4135.38461538 , 4135.38461538 , 4135.38461538 , 4131.79487179 , 4131.28205128 , 4134.35897436 , 4126.15384615 , 4135.8974359 , 4136.92307692 , 4135.8974359 , 4188.71794872 , 4906.15384615 , 4135.8974359 , 4141.02564103 , 2039.0 , 2035.0 , 13.115 , 0.0 , 0.0 , 0.0 , 0.0 , 

85.0 , 4136.92307692 , 4136.92307692 , 4135.8974359 , 4135.38461538 , 4131.79487179 , 4132.30769231 , 4129.74358974 , 4133.33333333 , 4133.84615385 , 4135.8974359 , 4191.28205128 , 4910.76923077 , 4136.92307692 , 4142.05128205 , 2042.0 , 2036.0 , 13.123 , 0.0 , 0.0 , 0.0 , 0.0 , 

86.0 , 4132.82051282 , 4132.82051282 , 4133.84615385 , 4131.79487179 , 4134.35897436 , 4131.79487179 , 4138.46153846 , 4131.28205128 , 4131.79487179 , 4137.43589744 , 4190.76923077 , 4910.76923077 , 4136.92307692 , 4138.46153846 , 2043.0 , 2036.0 , 13.134 , 0.0 , 0.0 , 0.0 , 0.0 , 

87.0 , 4131.79487179 , 4131.79487179 , 4137.43589744 , 4131.28205128 , 4132.82051282 , 4132.82051282 , 4134.35897436 , 4134.87179487 , 4132.30769231 , 4138.97435897 , 4189.74358974 , 4912.82051282 , 4136.41025641 , 4137.94871795 , 2042.0 , 2035.0 , 13.138 , 0.0 , 0.0 , 0.0 , 0.0 , 

88.0 , 4131.79487179 , 4131.28205128 , 4133.33333333 , 4136.41025641 , 4131.79487179 , 4130.76923077 , 4126.15384615 , 4136.41025641 , 4135.38461538 , 4137.94871795 , 4190.76923077 , 4909.23076923 , 4136.92307692 , 4139.48717949 , 2041.0 , 2036.0 , 13.146 , 0.0 , 0.0 , 0.0 , 0.0 , 

89.0 , 4135.38461538 , 4132.82051282 , 4133.84615385 , 4137.94871795 , 4132.30769231 , 4130.76923077 , 4131.28205128 , 4133.84615385 , 4132.82051282 , 4136.92307692 , 4191.79487179 , 4908.20512821 , 4136.92307692 , 4140.51282051 , 2040.0 , 2035.0 , 13.154 , 0.0 , 0.0 , 0.0 , 0.0 , 

90.0 , 4135.8974359 , 4131.28205128 , 4133.33333333 , 4133.33333333 , 4134.87179487 , 4130.76923077 , 4137.94871795 , 4135.8974359 , 4131.79487179 , 4138.46153846 , 4190.25641026 , 4907.17948718 , 4136.41025641 , 4136.92307692 , 2041.0 , 2036.0 , 13.162 , 0.0 , 0.0 , 0.0 , 0.0 , 

91.0 , 4136.41025641 , 4130.76923077 , 4134.87179487 , 4132.82051282 , 4133.84615385 , 4129.74358974 , 4135.8974359 , 4138.97435897 , 4133.84615385 , 4138.46153846 , 4189.23076923 , 4911.79487179 , 4134.87179487 , 4140.51282051 , 2040.0 , 2035.0 , 13.171 , 0.0 , 0.0 , 0.0 , 0.0 , 

92.0 , 4131.79487179 , 4129.23076923 , 4130.76923077 , 4135.8974359 , 4133.33333333 , 4129.23076923 , 4132.82051282 , 4135.8974359 , 4135.38461538 , 4137.43589744 , 4191.28205128 , 4909.23076923 , 4136.41025641 , 4143.07692308 , 2043.0 , 2036.0 , 13.178 , 0.0 , 0.0 , 0.0 , 0.0 , 

93.0 , 4133.84615385 , 4132.30769231 , 4134.87179487 , 4136.92307692 , 4132.30769231 , 4130.76923077 , 4133.33333333 , 4134.35897436 , 4133.84615385 , 4137.94871795 , 4195.38461538 , 4910.25641026 , 4137.94871795 , 4142.05128205 , 2043.0 , 2036.0 , 13.186 , 0.0 , 0.0 , 0.0 , 0.0 , 

94.0 , 4135.38461538 , 4133.84615385 , 4134.35897436 , 4134.87179487 , 4132.30769231 , 4130.25641026 , 4135.38461538 , 4138.46153846 , 4133.33333333 , 4137.94871795 , 4194.35897436 , 4911.28205128 , 4135.38461538 , 4139.48717949 , 2041.0 , 2035.0 , 13.193 , 0.0 , 0.0 , 0.0 , 0.0 , 

95.0 , 4134.35897436 , 4133.84615385 , 4133.33333333 , 4135.38461538 , 4132.30769231 , 4130.76923077 , 4133.84615385 , 4137.94871795 , 4132.82051282 , 4136.92307692 , 4191.79487179 , 4911.79487179 , 4132.30769231 , 4139.48717949 , 2041.0 , 2034.0 , 13.201 , 0.0 , 0.0 , 0.0 , 0.0 , 

96.0 , 4132.82051282 , 4132.82051282 , 4132.30769231 , 4135.8974359 , 4133.33333333 , 4131.79487179 , 4130.25641026 , 4135.38461538 , 4134.87179487 , 4135.8974359 , 4192.30769231 , 4908.20512821 , 4131.79487179 , 4138.46153846 , 2041.0 , 2036.0 , 13.209 , 0.0 , 0.0 , 0.0 , 0.0 , 

97.0 , 4135.8974359 , 4133.84615385 , 4134.87179487 , 4134.35897436 , 4132.30769231 , 4131.79487179 , 4129.74358974 , 4133.33333333 , 4135.38461538 , 4135.8974359 , 4191.79487179 , 4908.20512821 , 4133.33333333 , 4139.48717949 , 2040.0 , 2035.0 , 13.217 , 0.0 , 0.0 , 0.0 , 0.0 , 

98.0 , 4135.8974359 , 4132.82051282 , 4132.82051282 , 4132.82051282 , 4131.28205128 , 4130.76923077 , 4135.38461538 , 4135.38461538 , 4134.87179487 , 4136.92307692 , 4191.28205128 , 4910.25641026 , 4132.30769231 , 4140.0 , 2042.0 , 2034.0 , 13.225 , 0.0 , 0.0 , 0.0 , 0.0 , 

99.0 , 4133.33333333 , 4133.33333333 , 4131.79487179 , 4133.33333333 , 4131.79487179 , 4131.79487179 , 4135.8974359 , 4137.43589744 , 4134.87179487 , 4137.43589744 , 4191.28205128 , 4911.79487179 , 4131.79487179 , 4137.43589744 , 2042.0 , 2035.0 , 13.236 , 0.0 , 0.0 , 0.0 , 0.0 , 

100.0 , 4132.30769231 , 4133.84615385 , 4133.33333333 , 4131.79487179 , 4134.35897436 , 4133.33333333 , 4130.25641026 , 4136.41025641 , 4135.8974359 , 4135.8974359 , 4191.79487179 , 4910.76923077 , 4133.84615385 , 4136.41025641 , 2042.0 , 2034.0 , 13.241 , 0.0 , 0.0 , 0.0 , 0.0 , 

101.0 , 4132.82051282 , 4131.79487179 , 4134.87179487 , 4128.71794872 , 4133.33333333 , 4132.30769231 , 4130.25641026 , 4135.8974359 , 4136.41025641 , 4136.41025641 , 4191.79487179 , 4911.79487179 , 4135.8974359 , 4139.48717949 , 2042.0 , 2035.0 , 13.249 , 0.0 , 0.0 , 0.0 , 0.0 , 

102.0 , 4134.87179487 , 4131.79487179 , 4135.8974359 , 4130.76923077 , 4130.76923077 , 4131.79487179 , 4130.25641026 , 4137.43589744 , 4135.38461538 , 4137.94871795 , 4190.76923077 , 4912.82051282 , 4135.8974359 , 4142.05128205 , 2042.0 , 2035.0 , 13.258 , 0.0 , 0.0 , 0.0 , 0.0 , 

103.0 , 4134.87179487 , 4132.82051282 , 4133.33333333 , 4132.82051282 , 4131.79487179 , 4133.33333333 , 4129.23076923 , 4138.46153846 , 4135.8974359 , 4136.92307692 , 4190.76923077 , 4908.71794872 , 4135.8974359 , 4141.53846154 , 2042.0 , 2035.0 , 13.264 , 0.0 , 0.0 , 0.0 , 0.0 , 

104.0 , 4134.35897436 , 4130.25641026 , 4133.84615385 , 4132.82051282 , 4133.84615385 , 4133.33333333 , 4129.23076923 , 4136.92307692 , 4135.8974359 , 4136.92307692 , 4193.84615385 , 4910.25641026 , 4136.41025641 , 4141.02564103 , 2041.0 , 2035.0 , 13.272 , 0.0 , 0.0 , 0.0 , 0.0 , 

105.0 , 4132.82051282 , 4128.71794872 , 4131.79487179 , 4134.87179487 , 4135.38461538 , 4132.30769231 , 4129.23076923 , 4134.35897436 , 4136.41025641 , 4137.43589744 , 4191.79487179 , 4910.76923077 , 4135.38461538 , 4140.51282051 , 2041.0 , 2036.0 , 13.28 , 0.0 , 0.0 , 0.0 , 0.0 , 

106.0 , 4136.41025641 , 4135.8974359 , 4135.38461538 , 4136.41025641 , 4132.82051282 , 4133.84615385 , 4128.71794872 , 4132.82051282 , 4135.8974359 , 4136.41025641 , 4188.71794872 , 4911.79487179 , 4135.38461538 , 4142.56410256 , 2042.0 , 2034.0 , 13.288 , 0.0 , 0.0 , 0.0 , 0.0 , 

107.0 , 4135.38461538 , 4136.41025641 , 4133.84615385 , 4135.38461538 , 4131.79487179 , 4132.30769231 , 4130.76923077 , 4136.41025641 , 4136.92307692 , 4136.41025641 , 4190.25641026 , 4908.20512821 , 4136.41025641 , 4139.48717949 , 2041.0 , 2035.0 , 13.296 , 0.0 , 0.0 , 0.0 , 0.0 , 

108.0 , 4133.33333333 , 4132.30769231 , 4132.30769231 , 4137.43589744 , 4134.35897436 , 4131.79487179 , 4130.76923077 , 4137.94871795 , 4135.8974359 , 4137.94871795 , 4191.28205128 , 4907.17948718 , 4134.35897436 , 4135.38461538 , 2041.0 , 2034.0 , 13.305 , 0.0 , 0.0 , 0.0 , 0.0 , 

109.0 , 4135.38461538 , 4133.84615385 , 4132.82051282 , 4134.87179487 , 4134.35897436 , 4131.79487179 , 4126.66666667 , 4133.84615385 , 4134.87179487 , 4137.43589744 , 4190.25641026 , 4909.74358974 , 4136.92307692 , 4136.41025641 , 2041.0 , 2035.0 , 13.312 , 0.0 , 0.0 , 0.0 , 0.0 , 

110.0 , 4135.38461538 , 4135.38461538 , 4136.92307692 , 4131.28205128 , 4130.25641026 , 4130.76923077 , 4130.25641026 , 4134.35897436 , 4134.87179487 , 4138.46153846 , 4192.82051282 , 4912.30769231 , 4137.94871795 , 4141.53846154 , 2041.0 , 2036.0 , 13.32 , 0.0 , 0.0 , 0.0 , 0.0 , 

111.0 , 4118.46153846 , 4123.58974359 , 4125.12820513 , 4135.38461538 , 4138.46153846 , 4131.79487179 , 4141.53846154 , 4137.43589744 , 4137.94871795 , 4138.97435897 , 4191.79487179 , 4899.48717949 , 4125.64102564 , 4131.28205128 , 2042.0 , 2036.0 , 13.327 , 0.0 , 0.0 , 0.0 , 0.0 , 

112.0 , 4116.41025641 , 4122.56410256 , 4122.56410256 , 4138.46153846 , 4140.51282051 , 4135.38461538 , 4138.97435897 , 4135.8974359 , 4137.43589744 , 4136.92307692 , 4189.74358974 , 4899.48717949 , 4122.56410256 , 4129.23076923 , 2042.0 , 2035.0 , 13.339 , 0.0 , 0.0 , 0.0 , 0.0 , 

113.0 , 4129.23076923 , 4130.25641026 , 4130.76923077 , 4133.33333333 , 4131.79487179 , 4133.33333333 , 4125.12820513 , 4133.84615385 , 4135.8974359 , 4135.8974359 , 4191.79487179 , 4911.79487179 , 4136.41025641 , 4138.97435897 , 2041.0 , 2035.0 , 13.343 , 0.0 , 0.0 , 0.0 , 0.0 , 

114.0 , 4135.38461538 , 4132.30769231 , 4137.43589744 , 4132.82051282 , 4129.74358974 , 4130.25641026 , 4125.12820513 , 4135.8974359 , 4136.41025641 , 4136.41025641 , 4194.35897436 , 4917.94871795 , 4140.51282051 , 4142.05128205 , 2042.0 , 2034.0 , 13.351 , 0.0 , 0.0 , 0.0 , 0.0 , 

115.0 , 4130.25641026 , 4129.23076923 , 4130.76923077 , 4136.92307692 , 4133.84615385 , 4131.79487179 , 4135.8974359 , 4137.43589744 , 4138.46153846 , 4136.92307692 , 4192.30769231 , 4910.76923077 , 4133.84615385 , 4135.38461538 , 2042.0 , 2036.0 , 13.359 , 0.0 , 0.0 , 0.0 , 0.0 , 

116.0 , 4134.35897436 , 4132.82051282 , 4131.28205128 , 4135.38461538 , 4130.25641026 , 4132.82051282 , 4135.38461538 , 4136.92307692 , 4136.41025641 , 4138.97435897 , 4191.79487179 , 4912.82051282 , 4135.38461538 , 4138.46153846 , 2043.0 , 2036.0 , 13.367 , 0.0 , 0.0 , 0.0 , 0.0 , 

117.0 , 4137.43589744 , 4132.30769231 , 4133.84615385 , 4134.35897436 , 4132.30769231 , 4131.79487179 , 4133.84615385 , 4137.43589744 , 4136.41025641 , 4140.0 , 4192.82051282 , 4911.79487179 , 4137.43589744 , 4139.48717949 , 2041.0 , 2036.0 , 13.375 , 0.0 , 0.0 , 0.0 , 0.0 , 

118.0 , 4135.38461538 , 4130.25641026 , 4133.84615385 , 4135.38461538 , 4136.92307692 , 4130.76923077 , 4134.87179487 , 4136.41025641 , 4136.41025641 , 4137.94871795 , 4192.82051282 , 4908.71794872 , 4134.35897436 , 4136.41025641 , 2042.0 , 2034.0 , 13.383 , 0.0 , 0.0 , 0.0 , 0.0 , 

119.0 , 4131.28205128 , 4132.30769231 , 4133.84615385 , 4134.35897436 , 4133.84615385 , 4131.79487179 , 4134.87179487 , 4134.87179487 , 4134.87179487 , 4135.8974359 , 4193.33333333 , 4911.28205128 , 4134.87179487 , 4138.46153846 , 2040.0 , 2035.0 , 13.391 , 0.0 , 0.0 , 0.0 , 0.0 , 

120.0 , 4129.74358974 , 4132.30769231 , 4132.82051282 , 4133.33333333 , 4131.79487179 , 4133.33333333 , 4133.84615385 , 4137.43589744 , 4135.8974359 , 4136.41025641 , 4193.33333333 , 4913.33333333 , 4135.38461538 , 4140.51282051 , 2041.0 , 2036.0 , 13.398 , 0.0 , 0.0 , 0.0 , 0.0 , 

121.0 , 4134.35897436 , 4130.76923077 , 4134.35897436 , 4135.38461538 , 4134.87179487 , 4133.33333333 , 4129.23076923 , 4135.38461538 , 4138.46153846 , 4137.43589744 , 4192.30769231 , 4910.76923077 , 4135.8974359 , 4139.48717949 , 2041.0 , 2035.0 , 13.406 , 0.0 , 0.0 , 0.0 , 0.0 , 

122.0 , 4133.84615385 , 4130.76923077 , 4134.87179487 , 4134.87179487 , 4134.87179487 , 4129.74358974 , 4124.61538462 , 4129.74358974 , 4137.94871795 , 4137.43589744 , 4190.76923077 , 4907.17948718 , 4135.8974359 , 4137.94871795 , 2041.0 , 2034.0 , 13.414 , 0.0 , 0.0 , 0.0 , 0.0 , 

123.0 , 4131.28205128 , 4133.84615385 , 4137.94871795 , 4134.35897436 , 4132.30769231 , 4130.25641026 , 4131.28205128 , 4130.25641026 , 4137.94871795 , 4137.43589744 , 4192.30769231 , 4912.30769231 , 4135.8974359 , 4140.51282051 , 2040.0 , 2035.0 , 13.422 , 0.0 , 0.0 , 0.0 , 0.0 , 

124.0 , 4132.82051282 , 4133.84615385 , 4134.87179487 , 4134.87179487 , 4132.82051282 , 4132.82051282 , 4137.43589744 , 4135.38461538 , 4137.94871795 , 4137.94871795 , 4192.82051282 , 4914.87179487 , 4135.8974359 , 4140.51282051 , 2041.0 , 2033.0 , 13.43 , 0.0 , 0.0 , 0.0 , 0.0 , 

125.0 , 4137.94871795 , 4133.84615385 , 4134.87179487 , 4134.87179487 , 4132.82051282 , 4131.28205128 , 4127.69230769 , 4134.87179487 , 4134.35897436 , 4138.97435897 , 4191.79487179 , 4914.35897436 , 4135.8974359 , 4139.48717949 , 2040.0 , 2034.0 , 13.441 , 0.0 , 0.0 , 0.0 , 0.0 , 

126.0 , 4131.28205128 , 4131.79487179 , 4131.79487179 , 4133.84615385 , 4136.41025641 , 4128.71794872 , 4126.15384615 , 4133.84615385 , 4136.41025641 , 4137.94871795 , 4190.25641026 , 4908.20512821 , 4135.8974359 , 4139.48717949 , 2042.0 , 2037.0 , 13.446 , 0.0 , 0.0 , 0.0 , 0.0 , 

127.0 , 4133.33333333 , 4134.35897436 , 4137.43589744 , 4133.33333333 , 4133.33333333 , 4129.23076923 , 4130.25641026 , 4135.38461538 , 4138.97435897 , 4137.43589744 , 4192.82051282 , 4914.87179487 , 4136.41025641 , 4146.15384615 , 2043.0 , 2037.0 , 13.453 , 0.0 , 0.0 , 0.0 , 0.0 , 

128.0 , 4138.46153846 , 4134.35897436 , 4137.43589744 , 4131.79487179 , 4128.71794872 , 4129.23076923 , 4126.66666667 , 4138.97435897 , 4136.92307692 , 4138.97435897 , 4194.87179487 , 4918.97435897 , 4137.43589744 , 4144.61538462 , 2043.0 , 2036.0 , 13.461 , 0.0 , 0.0 , 0.0 , 0.0 , 

0.0 , 4136.92307692 , 4133.84615385 , 4137.43589744 , 4132.30769231 , 4130.25641026 , 4129.74358974 , 4124.61538462 , 4136.92307692 , 4134.35897436 , 4137.43589744 , 4192.82051282 , 4913.84615385 , 4137.43589744 , 4138.46153846 , 2042.0 , 2035.0 , 13.47 , 0.0 , 0.0 , 0.0 , 0.0 , 

1.0 , 4131.28205128 , 4132.30769231 , 4134.35897436 , 4133.84615385 , 4134.87179487 , 4131.28205128 , 4127.69230769 , 4129.23076923 , 4135.8974359 , 4136.41025641 , 4191.28205128 , 4907.17948718 , 4136.92307692 , 4135.8974359 , 2042.0 , 2036.0 , 13.478 , 0.0 , 0.0 , 0.0 , 0.0 , 

2.0 , 4134.87179487 , 4135.38461538 , 4136.41025641 , 4134.87179487 , 4130.25641026 , 4131.79487179 , 4127.69230769 , 4129.23076923 , 4135.38461538 , 4137.94871795 , 4192.82051282 , 4912.30769231 , 4136.41025641 , 4140.0 , 2042.0 , 2036.0 , 13.487 , 0.0 , 0.0 , 0.0 , 0.0 , 

3.0 , 4136.92307692 , 4134.35897436 , 4134.87179487 , 4131.79487179 , 4127.69230769 , 4131.28205128 , 4127.17948718 , 4133.84615385 , 4136.92307692 , 4138.97435897 , 4194.87179487 , 4912.82051282 , 4135.8974359 , 4140.0 , 2041.0 , 2035.0 , 13.494 , 0.0 , 0.0 , 0.0 , 0.0 , 

4.0 , 4136.41025641 , 4132.82051282 , 4134.35897436 , 4130.25641026 , 4131.79487179 , 4131.79487179 , 4130.76923077 , 4132.82051282 , 4140.0 , 4137.94871795 , 4194.35897436 , 4910.76923077 , 4135.8974359 , 4140.0 , 2041.0 , 2037.0 , 13.501 , 0.0 , 0.0 , 0.0 , 0.0 , 

5.0 , 4135.8974359 , 4134.87179487 , 4134.35897436 , 4133.84615385 , 4132.30769231 , 4129.23076923 , 4128.71794872 , 4134.87179487 , 4140.0 , 4137.43589744 , 4193.33333333 , 4912.30769231 , 4135.8974359 , 4142.56410256 , 2041.0 , 2035.0 , 13.509 , 0.0 , 0.0 , 0.0 , 0.0 , 

6.0 , 4136.41025641 , 4135.8974359 , 4134.35897436 , 4136.41025641 , 4129.74358974 , 4128.71794872 , 4127.69230769 , 4138.97435897 , 4136.41025641 , 4137.94871795 , 4192.82051282 , 4913.33333333 , 4135.8974359 , 4143.07692308 , 2041.0 , 2037.0 , 13.517 , 0.0 , 0.0 , 0.0 , 0.0 , 

7.0 , 4134.87179487 , 4132.82051282 , 4135.38461538 , 4135.38461538 , 4130.76923077 , 4129.74358974 , 4128.20512821 , 4134.87179487 , 4133.33333333 , 4137.94871795 , 4193.84615385 , 4911.79487179 , 4136.41025641 , 4141.02564103 , 2042.0 , 2037.0 , 13.525 , 0.0 , 0.0 , 0.0 , 0.0 , 

8.0 , 4133.33333333 , 4131.79487179 , 4136.41025641 , 4133.33333333 , 4131.79487179 , 4130.76923077 , 4125.64102564 , 4132.30769231 , 4133.84615385 , 4137.94871795 , 4193.33333333 , 4912.82051282 , 4135.8974359 , 4138.46153846 , 2041.0 , 2037.0 , 13.532 , 0.0 , 0.0 , 0.0 , 0.0 , 

9.0 , 4135.38461538 , 4135.38461538 , 4137.94871795 , 4133.33333333 , 4132.30769231 , 4130.25641026 , 4125.12820513 , 4135.8974359 , 4133.33333333 , 4136.41025641 , 4192.30769231 , 4915.8974359 , 4136.41025641 , 4138.46153846 , 2040.0 , 2036.0 , 13.544 , 0.0 , 0.0 , 0.0 , 0.0 , 

10.0 , 4134.87179487 , 4135.38461538 , 4135.38461538 , 4133.33333333 , 4132.82051282 , 4129.74358974 , 4129.23076923 , 4134.87179487 , 4132.82051282 , 4136.41025641 , 4194.35897436 , 4913.84615385 , 4136.92307692 , 4138.97435897 , 2040.0 , 2035.0 , 13.548 , 0.0 , 0.0 , 0.0 , 0.0 , 

11.0 , 4133.84615385 , 4132.82051282 , 4134.35897436 , 4133.84615385 , 4132.82051282 , 4132.30769231 , 4134.35897436 , 4134.35897436 , 4133.84615385 , 4138.97435897 , 4194.35897436 , 4911.79487179 , 4135.8974359 , 4140.51282051 , 2041.0 , 2036.0 , 13.557 , 0.0 , 0.0 , 0.0 , 0.0 , 

12.0 , 4133.33333333 , 4130.76923077 , 4133.84615385 , 4132.30769231 , 4132.82051282 , 4132.30769231 , 4133.33333333 , 4137.43589744 , 4135.38461538 , 4138.46153846 , 4191.79487179 , 4911.28205128 , 4136.41025641 , 4138.46153846 , 2042.0 , 2035.0 , 13.565 , 0.0 , 0.0 , 0.0 , 0.0 , 

13.0 , 4134.35897436 , 4132.30769231 , 4136.41025641 , 4133.33333333 , 4132.82051282 , 4130.76923077 , 4134.35897436 , 4136.92307692 , 4135.8974359 , 4136.92307692 , 4191.79487179 , 4913.84615385 , 4136.41025641 , 4139.48717949 , 2043.0 , 2035.0 , 13.573 , 0.0 , 0.0 , 0.0 , 0.0 , 

14.0 , 4133.33333333 , 4131.28205128 , 4133.84615385 , 4133.84615385 , 4132.82051282 , 4131.79487179 , 4135.8974359 , 4135.8974359 , 4138.97435897 , 4137.43589744 , 4193.33333333 , 4910.76923077 , 4132.82051282 , 4140.0 , 2042.0 , 2036.0 , 13.58 , 0.0 , 0.0 , 0.0 , 0.0 , 

15.0 , 4137.43589744 , 4132.82051282 , 4132.82051282 , 4133.33333333 , 4130.25641026 , 4133.33333333 , 4135.8974359 , 4136.41025641 , 4138.97435897 , 4139.48717949 , 4192.30769231 , 4912.30769231 , 4133.84615385 , 4140.51282051 , 2040.0 , 2035.0 , 13.587 , 0.0 , 0.0 , 0.0 , 0.0 , 

16.0 , 4134.35897436 , 4133.33333333 , 4129.74358974 , 4133.33333333 , 4131.28205128 , 4131.28205128 , 4134.87179487 , 4135.8974359 , 4138.97435897 , 4138.97435897 , 4191.28205128 , 4911.28205128 , 4137.94871795 , 4138.97435897 , 2041.0 , 2035.0 , 13.595 , 0.0 , 0.0 , 0.0 , 0.0 , 

17.0 , 4132.82051282 , 4134.35897436 , 4135.38461538 , 4136.41025641 , 4133.33333333 , 4130.25641026 , 4132.82051282 , 4136.41025641 , 4139.48717949 , 4136.41025641 , 4193.33333333 , 4913.33333333 , 4137.43589744 , 4140.51282051 , 2041.0 , 2034.0 , 13.603 , 0.0 , 0.0 , 0.0 , 0.0 , 

18.0 , 4133.84615385 , 4131.79487179 , 4134.35897436 , 4136.92307692 , 4134.35897436 , 4131.79487179 , 4131.28205128 , 4137.43589744 , 4138.97435897 , 4135.8974359 , 4192.82051282 , 4912.30769231 , 4135.38461538 , 4139.48717949 , 2041.0 , 2035.0 , 13.611 , 0.0 , 0.0 , 0.0 , 0.0 , 

19.0 , 4135.8974359 , 4131.28205128 , 4132.30769231 , 4136.41025641 , 4132.30769231 , 4133.33333333 , 4128.71794872 , 4135.8974359 , 4137.43589744 , 4137.43589744 , 4193.84615385 , 4913.84615385 , 4135.38461538 , 4140.0 , 2041.0 , 2035.0 , 13.619 , 0.0 , 0.0 , 0.0 , 0.0 , 

20.0 , 4132.30769231 , 4129.74358974 , 4130.76923077 , 4135.38461538 , 4133.84615385 , 4131.79487179 , 4127.69230769 , 4134.87179487 , 4137.94871795 , 4137.43589744 , 4193.84615385 , 4910.76923077 , 4135.38461538 , 4140.0 , 2042.0 , 2037.0 , 13.628 , 0.0 , 0.0 , 0.0 , 0.0 , 

21.0 , 4134.35897436 , 4133.84615385 , 4135.8974359 , 4133.33333333 , 4133.84615385 , 4130.76923077 , 4130.76923077 , 4136.92307692 , 4136.92307692 , 4135.8974359 , 4191.79487179 , 4912.30769231 , 4135.38461538 , 4140.51282051 , 2042.0 , 2036.0 , 13.635 , 0.0 , 0.0 , 0.0 , 0.0 , 

22.0 , 4135.38461538 , 4133.33333333 , 4134.87179487 , 4132.82051282 , 4131.28205128 , 4132.30769231 , 4131.79487179 , 4135.38461538 , 4135.8974359 , 4136.92307692 , 4191.28205128 , 4911.79487179 , 4135.8974359 , 4139.48717949 , 2042.0 , 2035.0 , 13.646 , 0.0 , 0.0 , 0.0 , 0.0 , 

23.0 , 4134.35897436 , 4132.82051282 , 4134.87179487 , 4133.33333333 , 4130.76923077 , 4133.84615385 , 4129.74358974 , 4134.35897436 , 4136.41025641 , 4137.94871795 , 4192.82051282 , 4910.76923077 , 4135.8974359 , 4138.46153846 , 2042.0 , 2036.0 , 13.651 , 0.0 , 0.0 , 0.0 , 0.0 , 

24.0 , 4131.79487179 , 4132.82051282 , 4133.84615385 , 4132.30769231 , 4133.33333333 , 4132.82051282 , 4132.30769231 , 4133.84615385 , 4138.46153846 , 4137.43589744 , 4192.82051282 , 4911.28205128 , 4136.92307692 , 4135.38461538 , 2042.0 , 2034.0 , 13.658 , 0.0 , 0.0 , 0.0 , 0.0 , 

25.0 , 4133.84615385 , 4132.30769231 , 4130.76923077 , 4132.82051282 , 4132.30769231 , 4131.79487179 , 4136.41025641 , 4134.35897436 , 4138.97435897 , 4136.92307692 , 4193.84615385 , 4913.84615385 , 4136.92307692 , 4138.46153846 , 2042.0 , 2035.0 , 13.666 , 0.0 , 0.0 , 0.0 , 0.0 , 

26.0 , 4135.38461538 , 4132.30769231 , 4132.30769231 , 4134.87179487 , 4131.79487179 , 4131.79487179 , 4130.76923077 , 4135.38461538 , 4138.46153846 , 4136.41025641 , 4193.84615385 , 4913.33333333 , 4135.38461538 , 4143.58974359 , 2043.0 , 2035.0 , 13.674 , 0.0 , 0.0 , 0.0 , 0.0 , 

27.0 , 4134.35897436 , 4132.82051282 , 4134.35897436 , 4133.84615385 , 4134.87179487 , 4131.28205128 , 4126.66666667 , 4135.38461538 , 4138.97435897 , 4137.43589744 , 4192.30769231 , 4909.23076923 , 4135.8974359 , 4140.51282051 , 2042.0 , 2036.0 , 13.682 , 0.0 , 0.0 , 0.0 , 0.0 , 

28.0 , 4134.35897436 , 4132.82051282 , 4133.33333333 , 4132.82051282 , 4134.35897436 , 4130.25641026 , 4134.87179487 , 4134.87179487 , 4138.46153846 , 4137.43589744 , 4192.82051282 , 4907.69230769 , 4136.92307692 , 4137.43589744 , 2042.0 , 2037.0 , 13.69 , 0.0 , 0.0 , 0.0 , 0.0 , 

29.0 , 4135.38461538 , 4133.33333333 , 4133.33333333 , 4135.8974359 , 4131.79487179 , 4130.25641026 , 4136.92307692 , 4133.84615385 , 4137.94871795 , 4137.43589744 , 4193.33333333 , 4909.23076923 , 4137.43589744 , 4140.51282051 , 2041.0 , 2036.0 , 13.698 , 0.0 , 0.0 , 0.0 , 0.0 , 

30.0 , 4135.38461538 , 4135.8974359 , 4137.94871795 , 4136.92307692 , 4131.79487179 , 4132.82051282 , 4132.82051282 , 4135.8974359 , 4137.43589744 , 4137.94871795 , 4192.30769231 , 4914.35897436 , 4136.41025641 , 4141.53846154 , 2041.0 , 2036.0 , 13.706 , 0.0 , 0.0 , 0.0 , 0.0 , 

31.0 , 4132.82051282 , 4131.79487179 , 4133.84615385 , 4132.82051282 , 4133.33333333 , 4132.82051282 , 4133.84615385 , 4137.94871795 , 4135.8974359 , 4137.43589744 , 4193.84615385 , 4911.28205128 , 4134.35897436 , 4137.94871795 , 2040.0 , 2036.0 , 13.714 , 0.0 , 0.0 , 0.0 , 0.0 , 

32.0 , 4133.33333333 , 4129.74358974 , 4130.76923077 , 4131.28205128 , 4132.82051282 , 4131.28205128 , 4135.8974359 , 4135.38461538 , 4134.87179487 , 4138.46153846 , 4194.87179487 , 4908.71794872 , 4134.87179487 , 4139.48717949 , 2042.0 , 2035.0 , 13.722 , 0.0 , 0.0 , 0.0 , 0.0 , 

33.0 , 4132.82051282 , 4131.79487179 , 4130.25641026 , 4132.82051282 , 4133.33333333 , 4129.74358974 , 4134.35897436 , 4133.33333333 , 4140.0 , 4138.46153846 , 4190.76923077 , 4909.74358974 , 4135.8974359 , 4138.97435897 , 2041.0 , 2035.0 , 13.73 , 0.0 , 0.0 , 0.0 , 0.0 , 

34.0 , 4133.84615385 , 4134.35897436 , 4135.38461538 , 4133.33333333 , 4132.30769231 , 4130.76923077 , 4130.76923077 , 4135.38461538 , 4138.97435897 , 4137.43589744 , 4189.74358974 , 4912.82051282 , 4134.87179487 , 4140.0 , 2041.0 , 2035.0 , 13.737 , 0.0 , 0.0 , 0.0 , 0.0 , 

35.0 , 4130.76923077 , 4130.76923077 , 4131.28205128 , 4129.23076923 , 4131.79487179 , 4129.74358974 , 4129.23076923 , 4136.41025641 , 4135.8974359 , 4137.43589744 , 4192.30769231 , 4908.71794872 , 4135.8974359 , 4139.48717949 , 2040.0 , 2036.0 , 13.749 , 0.0 , 0.0 , 0.0 , 0.0 , 

36.0 , 4134.35897436 , 4128.71794872 , 4131.79487179 , 4129.74358974 , 4132.30769231 , 4130.25641026 , 4131.79487179 , 4135.38461538 , 4135.8974359 , 4137.94871795 , 4194.87179487 , 4912.30769231 , 4138.46153846 , 4139.48717949 , 2042.0 , 2037.0 , 13.753 , 0.0 , 0.0 , 0.0 , 0.0 , 

37.0 , 4135.8974359 , 4128.20512821 , 4132.30769231 , 4132.82051282 , 4133.84615385 , 4131.79487179 , 4132.82051282 , 4136.41025641 , 4134.87179487 , 4138.46153846 , 4192.82051282 , 4913.33333333 , 4139.48717949 , 4137.94871795 , 2042.0 , 2034.0 , 13.761 , 0.0 , 0.0 , 0.0 , 0.0 , 

38.0 , 4135.38461538 , 4131.79487179 , 4136.92307692 , 4132.30769231 , 4130.25641026 , 4132.30769231 , 4130.76923077 , 4137.43589744 , 4131.79487179 , 4137.43589744 , 4192.30769231 , 4912.82051282 , 4138.97435897 , 4141.02564103 , 2041.0 , 2036.0 , 13.769 , 0.0 , 0.0 , 0.0 , 0.0 , 

39.0 , 4132.30769231 , 4132.82051282 , 4132.82051282 , 4130.76923077 , 4130.76923077 , 4130.25641026 , 4133.33333333 , 4137.94871795 , 4135.8974359 , 4136.92307692 , 4192.30769231 , 4909.23076923 , 4138.97435897 , 4141.02564103 , 2043.0 , 2035.0 , 13.777 , 0.0 , 0.0 , 0.0 , 0.0 , 

40.0 , 4135.38461538 , 4133.84615385 , 4134.35897436 , 4133.84615385 , 4132.82051282 , 4130.25641026 , 4134.87179487 , 4136.92307692 , 4136.92307692 , 4138.46153846 , 4190.76923077 , 4910.76923077 , 4139.48717949 , 4138.46153846 , 2042.0 , 2035.0 , 13.784 , 0.0 , 0.0 , 0.0 , 0.0 , 

41.0 , 4135.38461538 , 4132.82051282 , 4137.43589744 , 4134.87179487 , 4130.76923077 , 4131.79487179 , 4135.8974359 , 4136.92307692 , 4133.33333333 , 4138.46153846 , 4190.25641026 , 4909.23076923 , 4138.97435897 , 4136.41025641 , 2041.0 , 2037.0 , 13.792 , 0.0 , 0.0 , 0.0 , 0.0 , 

42.0 , 4135.8974359 , 4134.87179487 , 4137.94871795 , 4132.30769231 , 4128.71794872 , 4133.84615385 , 4137.94871795 , 4137.94871795 , 4134.35897436 , 4135.8974359 , 4193.33333333 , 4909.74358974 , 4138.97435897 , 4139.48717949 , 2041.0 , 2036.0 , 13.8 , 0.0 , 0.0 , 0.0 , 0.0 , 

43.0 , 4134.35897436 , 4133.84615385 , 4135.38461538 , 4133.33333333 , 4129.74358974 , 4131.79487179 , 4131.79487179 , 4136.92307692 , 4135.8974359 , 4137.43589744 , 4194.87179487 , 4911.28205128 , 4138.97435897 , 4141.02564103 , 2041.0 , 2037.0 , 13.809 , 0.0 , 0.0 , 0.0 , 0.0 , 

44.0 , 4134.87179487 , 4131.28205128 , 4134.87179487 , 4137.43589744 , 4129.74358974 , 4128.20512821 , 4126.66666667 , 4135.38461538 , 4133.84615385 , 4138.46153846 , 4191.79487179 , 4912.82051282 , 4138.97435897 , 4139.48717949 , 2041.0 , 2036.0 , 13.816 , 0.0 , 0.0 , 0.0 , 0.0 , 

45.0 , 4135.38461538 , 4130.25641026 , 4134.35897436 , 4136.41025641 , 4130.76923077 , 4130.76923077 , 4133.33333333 , 4136.92307692 , 4133.84615385 , 4136.41025641 , 4191.79487179 , 4912.82051282 , 4138.97435897 , 4138.46153846 , 2041.0 , 2035.0 , 13.825 , 0.0 , 0.0 , 0.0 , 0.0 , 

46.0 , 4131.79487179 , 4131.28205128 , 4132.82051282 , 4131.28205128 , 4132.30769231 , 4132.82051282 , 4134.87179487 , 4138.46153846 , 4137.43589744 , 4135.38461538 , 4194.87179487 , 4913.33333333 , 4138.97435897 , 4137.94871795 , 2041.0 , 2035.0 , 13.833 , 0.0 , 0.0 , 0.0 , 0.0 , 

47.0 , 4129.74358974 , 4132.82051282 , 4132.82051282 , 4132.82051282 , 4131.79487179 , 4131.79487179 , 4131.28205128 , 4132.30769231 , 4137.43589744 , 4136.92307692 , 4192.30769231 , 4913.84615385 , 4138.97435897 , 4139.48717949 , 2041.0 , 2037.0 , 13.84 , 0.0 , 0.0 , 0.0 , 0.0 , 

48.0 , 4131.79487179 , 4130.76923077 , 4132.82051282 , 4136.92307692 , 4131.28205128 , 4132.30769231 , 4132.82051282 , 4128.20512821 , 4135.8974359 , 4137.94871795 , 4189.74358974 , 4910.76923077 , 4138.97435897 , 4140.51282051 , 2040.0 , 2035.0 , 13.851 , 0.0 , 0.0 , 0.0 , 0.0 , 

49.0 , 4134.35897436 , 4132.30769231 , 4136.41025641 , 4132.82051282 , 4131.28205128 , 4134.35897436 , 4134.87179487 , 4132.82051282 , 4134.87179487 , 4137.94871795 , 4193.84615385 , 4911.28205128 , 4138.97435897 , 4140.51282051 , 2041.0 , 2035.0 , 13.855 , 0.0 , 0.0 , 0.0 , 0.0 , 

50.0 , 4132.30769231 , 4134.35897436 , 4132.30769231 , 4128.71794872 , 4132.82051282 , 4131.28205128 , 4133.84615385 , 4136.41025641 , 4135.38461538 , 4137.43589744 , 4194.87179487 , 4912.30769231 , 4138.97435897 , 4138.97435897 , 2042.0 , 2036.0 , 13.863 , 0.0 , 0.0 , 0.0 , 0.0 , 

51.0 , 4132.30769231 , 4133.33333333 , 4133.84615385 , 4133.33333333 , 4131.28205128 , 4130.25641026 , 4134.87179487 , 4134.35897436 , 4136.92307692 , 4137.43589744 , 4191.79487179 , 4913.33333333 , 4138.97435897 , 4140.0 , 2041.0 , 2036.0 , 13.871 , 0.0 , 0.0 , 0.0 , 0.0 , 

52.0 , 4129.23076923 , 4128.71794872 , 4134.87179487 , 4136.41025641 , 4130.25641026 , 4133.33333333 , 4134.35897436 , 4135.38461538 , 4139.48717949 , 4137.94871795 , 4191.28205128 , 4910.76923077 , 4138.97435897 , 4137.94871795 , 2041.0 , 2035.0 , 13.88 , 0.0 , 0.0 , 0.0 , 0.0 , 

53.0 , 4132.82051282 , 4131.28205128 , 4135.38461538 , 4135.8974359 , 4129.74358974 , 4133.33333333 , 4131.79487179 , 4137.43589744 , 4136.41025641 , 4137.43589744 , 4191.28205128 , 4913.84615385 , 4140.0 , 4139.48717949 , 2043.0 , 2035.0 , 13.887 , 0.0 , 0.0 , 0.0 , 0.0 , 

54.0 , 4132.82051282 , 4132.30769231 , 4130.76923077 , 4133.84615385 , 4133.33333333 , 4130.76923077 , 4131.79487179 , 4134.35897436 , 4134.35897436 , 4137.94871795 , 4190.76923077 , 4910.76923077 , 4138.97435897 , 4141.02564103 , 2043.0 , 2034.0 , 13.895 , 0.0 , 0.0 , 0.0 , 0.0 , 

55.0 , 4129.74358974 , 4131.79487179 , 4132.82051282 , 4133.84615385 , 4133.84615385 , 4131.79487179 , 4134.87179487 , 4134.35897436 , 4134.35897436 , 4138.46153846 , 4193.33333333 , 4908.71794872 , 4138.46153846 , 4140.51282051 , 2041.0 , 2035.0 , 13.904 , 0.0 , 0.0 , 0.0 , 0.0 , 

56.0 , 4129.74358974 , 4132.82051282 , 4134.35897436 , 4133.84615385 , 4130.76923077 , 4132.82051282 , 4136.41025641 , 4137.43589744 , 4135.8974359 , 4138.46153846 , 4194.87179487 , 4910.76923077 , 4141.02564103 , 4141.02564103 , 2041.0 , 2035.0 , 13.911 , 0.0 , 0.0 , 0.0 , 0.0 , 

57.0 , 4129.23076923 , 4133.33333333 , 4133.84615385 , 4135.8974359 , 4132.30769231 , 4133.84615385 , 4135.8974359 , 4136.92307692 , 4136.41025641 , 4138.46153846 , 4192.30769231 , 4911.79487179 , 4136.41025641 , 4136.92307692 , 2043.0 , 2035.0 , 13.918 , 0.0 , 0.0 , 0.0 , 0.0 , 

58.0 , 4120.0 , 4125.64102564 , 4126.15384615 , 4138.46153846 , 4138.46153846 , 4134.35897436 , 4136.41025641 , 4137.43589744 , 4136.92307692 , 4138.97435897 , 4188.20512821 , 4903.07692308 , 4128.20512821 , 4126.66666667 , 2042.0 , 2035.0 , 13.926 , 0.0 , 0.0 , 0.0 , 0.0 , 

59.0 , 4129.74358974 , 4127.17948718 , 4131.28205128 , 4137.94871795 , 4132.82051282 , 4133.84615385 , 4134.87179487 , 4135.8974359 , 4133.84615385 , 4137.43589744 , 4189.74358974 , 4908.71794872 , 4131.79487179 , 4134.87179487 , 2041.0 , 2036.0 , 13.934 , 0.0 , 0.0 , 0.0 , 0.0 , 

60.0 , 4139.48717949 , 4132.82051282 , 4136.92307692 , 4133.33333333 , 4128.20512821 , 4130.25641026 , 4134.87179487 , 4133.84615385 , 4134.35897436 , 4136.41025641 , 4193.84615385 , 4915.38461538 , 4138.46153846 , 4144.61538462 , 2042.0 , 2036.0 , 13.942 , 0.0 , 0.0 , 0.0 , 0.0 , 

61.0 , 4134.87179487 , 4133.84615385 , 4134.35897436 , 4130.76923077 , 4132.82051282 , 4128.71794872 , 4134.87179487 , 4134.35897436 , 4137.43589744 , 4137.94871795 , 4195.38461538 , 4913.84615385 , 4137.43589744 , 4140.0 , 2041.0 , 2036.0 , 13.955 , 0.0 , 0.0 , 0.0 , 0.0 , 

62.0 , 4129.74358974 , 4130.25641026 , 4131.79487179 , 4133.33333333 , 4135.38461538 , 4130.76923077 , 4132.30769231 , 4134.87179487 , 4136.92307692 , 4137.43589744 , 4193.33333333 , 4910.25641026 , 4135.8974359 , 4136.41025641 , 2042.0 , 2035.0 , 13.959 , 0.0 , 0.0 , 0.0 , 0.0 , 

63.0 , 4134.87179487 , 4130.25641026 , 4136.92307692 , 4133.84615385 , 4130.25641026 , 4131.79487179 , 4128.71794872 , 4134.35897436 , 4135.8974359 , 4135.8974359 , 4192.30769231 , 4913.33333333 , 4137.43589744 , 4143.58974359 , 2042.0 , 2035.0 , 13.967 , 0.0 , 0.0 , 0.0 , 0.0 , 

64.0 , 4132.30769231 , 4131.79487179 , 4134.35897436 , 4134.87179487 , 4129.74358974 , 4131.79487179 , 4131.79487179 , 4134.87179487 , 4136.92307692 , 4137.43589744 , 4192.82051282 , 4911.28205128 , 4135.8974359 , 4141.53846154 , 2040.0 , 2034.0 , 13.974 , 0.0 , 0.0 , 0.0 , 0.0 , 

65.0 , 4130.25641026 , 4132.30769231 , 4131.28205128 , 4136.41025641 , 4129.74358974 , 4130.76923077 , 4134.87179487 , 4135.8974359 , 4136.41025641 , 4138.97435897 , 4192.82051282 , 4910.76923077 , 4136.41025641 , 4137.43589744 , 2042.0 , 2036.0 , 13.981 , 0.0 , 0.0 , 0.0 , 0.0 , 

66.0 , 4132.82051282 , 4131.28205128 , 4134.87179487 , 4132.82051282 , 4130.76923077 , 4131.79487179 , 4131.79487179 , 4134.87179487 , 4134.35897436 , 4136.92307692 , 4192.30769231 , 4914.35897436 , 4137.43589744 , 4139.48717949 , 2041.0 , 2037.0 , 13.989 , 0.0 , 0.0 , 0.0 , 0.0 , 

67.0 , 4132.30769231 , 4130.25641026 , 4134.35897436 , 4129.74358974 , 4133.84615385 , 4131.79487179 , 4129.74358974 , 4136.41025641 , 4134.87179487 , 4137.94871795 , 4192.30769231 , 4913.84615385 , 4135.8974359 , 4140.0 , 2041.0 , 2035.0 , 13.998 , 0.0 , 0.0 , 0.0 , 0.0 , 

68.0 , 4135.8974359 , 4133.33333333 , 4135.8974359 , 4134.35897436 , 4133.33333333 , 4131.79487179 , 4133.84615385 , 4137.43589744 , 4132.82051282 , 4138.97435897 , 4192.82051282 , 4912.30769231 , 4135.38461538 , 4141.53846154 , 2042.0 , 2035.0 , 14.005 , 0.0 , 0.0 , 0.0 , 0.0 , 

69.0 , 4134.87179487 , 4133.84615385 , 4132.82051282 , 4136.92307692 , 4133.33333333 , 4132.30769231 , 4135.8974359 , 4135.38461538 , 4132.82051282 , 4135.8974359 , 4191.79487179 , 4908.20512821 , 4136.41025641 , 4139.48717949 , 2041.0 , 2033.0 , 14.013 , 0.0 , 0.0 , 0.0 , 0.0 , 

70.0 , 4132.82051282 , 4132.82051282 , 4135.38461538 , 4134.87179487 , 4135.38461538 , 4131.79487179 , 4134.35897436 , 4133.84615385 , 4134.35897436 , 4135.8974359 , 4191.28205128 , 4911.79487179 , 4137.43589744 , 4137.43589744 , 2042.0 , 2035.0 , 14.021 , 0.0 , 0.0 , 0.0 , 0.0 , 

71.0 , 4130.25641026 , 4129.74358974 , 4137.94871795 , 4132.82051282 , 4135.38461538 , 4131.79487179 , 4134.35897436 , 4133.33333333 , 4136.41025641 , 4138.97435897 , 4191.79487179 , 4912.82051282 , 4135.8974359 , 4138.97435897 , 2042.0 , 2035.0 , 14.029 , 0.0 , 0.0 , 0.0 , 0.0 , 

72.0 , 4134.87179487 , 4130.25641026 , 4140.0 , 4133.33333333 , 4132.30769231 , 4133.33333333 , 4135.8974359 , 4135.38461538 , 4137.43589744 , 4137.43589744 , 4191.79487179 , 4913.33333333 , 4135.8974359 , 4143.07692308 , 2042.0 , 2036.0 , 14.037 , 0.0 , 0.0 , 0.0 , 0.0 , 

73.0 , 4134.87179487 , 4130.76923077 , 4131.79487179 , 4134.35897436 , 4133.33333333 , 4130.76923077 , 4135.38461538 , 4138.97435897 , 4137.43589744 , 4135.8974359 , 4190.76923077 , 4910.76923077 , 4136.41025641 , 4139.48717949 , 2042.0 , 2036.0 , 14.045 , 0.0 , 0.0 , 0.0 , 0.0 , 

74.0 , 4134.87179487 , 4132.30769231 , 4134.35897436 , 4136.92307692 , 4132.30769231 , 4129.23076923 , 4136.41025641 , 4137.94871795 , 4134.35897436 , 4140.0 , 4191.28205128 , 4910.76923077 , 4135.38461538 , 4138.97435897 , 2041.0 , 2035.0 , 14.056 , 0.0 , 0.0 , 0.0 , 0.0 , 

75.0 , 4133.33333333 , 4131.28205128 , 4137.43589744 , 4136.41025641 , 4132.82051282 , 4130.76923077 , 4136.41025641 , 4133.84615385 , 4134.87179487 , 4140.0 , 4191.79487179 , 4908.71794872 , 4135.38461538 , 4138.46153846 , 2042.0 , 2036.0 , 14.06 , 0.0 , 0.0 , 0.0 , 0.0 , 

76.0 , 4134.35897436 , 4132.30769231 , 4138.97435897 , 4133.33333333 , 4132.82051282 , 4131.28205128 , 4134.87179487 , 4134.35897436 , 4136.41025641 , 4137.43589744 , 4191.79487179 , 4912.30769231 , 4136.92307692 , 4137.94871795 , 2041.0 , 2034.0 , 14.068 , 0.0 , 0.0 , 0.0 , 0.0 , 

77.0 , 4133.84615385 , 4132.82051282 , 4134.35897436 , 4133.33333333 , 4132.82051282 , 4131.79487179 , 4137.94871795 , 4137.43589744 , 4136.41025641 , 4138.97435897 , 4191.28205128 , 4913.33333333 , 4136.92307692 , 4138.97435897 , 2041.0 , 2034.0 , 14.076 , 0.0 , 0.0 , 0.0 , 0.0 , 

78.0 , 4134.87179487 , 4136.41025641 , 4133.33333333 , 4135.38461538 , 4131.79487179 , 4131.28205128 , 4135.8974359 , 4135.8974359 , 4136.41025641 , 4140.0 , 4191.28205128 , 4911.28205128 , 4135.8974359 , 4142.56410256 , 2041.0 , 2035.0 , 14.084 , 0.0 , 0.0 , 0.0 , 0.0 , 

79.0 , 4133.84615385 , 4136.92307692 , 4132.82051282 , 4133.33333333 , 4132.30769231 , 4130.25641026 , 4127.17948718 , 4134.35897436 , 4138.97435897 , 4136.41025641 , 4191.79487179 , 4907.69230769 , 4136.41025641 , 4142.05128205 , 2040.0 , 2035.0 , 14.093 , 0.0 , 0.0 , 0.0 , 0.0 , 

80.0 , 4136.41025641 , 4133.33333333 , 4136.41025641 , 4132.30769231 , 4132.82051282 , 4132.30769231 , 4127.69230769 , 4136.92307692 , 4136.92307692 , 4134.87179487 , 4193.33333333 , 4909.23076923 , 4136.41025641 , 4142.56410256 , 2040.0 , 2035.0 , 14.1 , 0.0 , 0.0 , 0.0 , 0.0 , 

81.0 , 4137.43589744 , 4131.79487179 , 4135.38461538 , 4133.84615385 , 4133.33333333 , 4131.79487179 , 4137.43589744 , 4134.35897436 , 4134.87179487 , 4136.92307692 , 4192.30769231 , 4911.28205128 , 4136.92307692 , 4143.07692308 , 2041.0 , 2036.0 , 14.108 , 0.0 , 0.0 , 0.0 , 0.0 , 

82.0 , 4133.84615385 , 4133.33333333 , 4131.28205128 , 4132.30769231 , 4132.82051282 , 4129.23076923 , 4136.41025641 , 4129.74358974 , 4135.38461538 , 4136.92307692 , 4190.76923077 , 4911.28205128 , 4136.92307692 , 4140.51282051 , 2042.0 , 2036.0 , 14.115 , 0.0 , 0.0 , 0.0 , 0.0 , 

83.0 , 4130.76923077 , 4134.35897436 , 4133.33333333 , 4130.25641026 , 4132.82051282 , 4131.28205128 , 4129.74358974 , 4133.33333333 , 4135.38461538 , 4136.41025641 , 4192.30769231 , 4913.33333333 , 4135.8974359 , 4138.46153846 , 2041.0 , 2035.0 , 14.123 , 0.0 , 0.0 , 0.0 , 0.0 , 

84.0 , 4132.82051282 , 4131.79487179 , 4134.87179487 , 4130.76923077 , 4133.84615385 , 4132.30769231 , 4131.79487179 , 4138.46153846 , 4136.92307692 , 4137.43589744 , 4192.30769231 , 4913.33333333 , 4135.38461538 , 4140.51282051 , 2040.0 , 2034.0 , 14.131 , 0.0 , 0.0 , 0.0 , 0.0 , 

85.0 , 4135.8974359 , 4132.30769231 , 4135.38461538 , 4132.30769231 , 4132.82051282 , 4130.25641026 , 4135.38461538 , 4136.41025641 , 4136.41025641 , 4138.46153846 , 4191.28205128 , 4912.30769231 , 4135.8974359 , 4143.58974359 , 2040.0 , 2035.0 , 14.139 , 0.0 , 0.0 , 0.0 , 0.0 , 

86.0 , 4133.33333333 , 4133.84615385 , 4133.84615385 , 4134.87179487 , 4132.82051282 , 4131.79487179 , 4135.8974359 , 4134.35897436 , 4136.41025641 , 4136.92307692 , 4192.82051282 , 4910.25641026 , 4136.92307692 , 4142.56410256 , 2041.0 , 2036.0 , 14.147 , 0.0 , 0.0 , 0.0 , 0.0 , 

87.0 , 4132.82051282 , 4135.8974359 , 4137.94871795 , 4133.33333333 , 4133.33333333 , 4134.35897436 , 4133.84615385 , 4135.38461538 , 4136.41025641 , 4135.38461538 , 4192.30769231 , 4912.82051282 , 4137.43589744 , 4141.53846154 , 2042.0 , 2036.0 , 14.158 , 0.0 , 0.0 , 0.0 , 0.0 , 

88.0 , 4134.35897436 , 4135.38461538 , 4136.92307692 , 4129.23076923 , 4135.38461538 , 4132.30769231 , 4131.79487179 , 4138.46153846 , 4139.48717949 , 4136.92307692 , 4188.71794872 , 4912.30769231 , 4135.8974359 , 4140.51282051 , 2042.0 , 2037.0 , 14.163 , 0.0 , 0.0 , 0.0 , 0.0 , 

89.0 , 4138.97435897 , 4136.41025641 , 4136.92307692 , 4131.79487179 , 4134.87179487 , 4131.28205128 , 4133.33333333 , 4137.43589744 , 4138.46153846 , 4136.92307692 , 4190.76923077 , 4912.82051282 , 4134.87179487 , 4142.05128205 , 2043.0 , 2036.0 , 14.171 , 0.0 , 0.0 , 0.0 , 0.0 , 

90.0 , 4135.38461538 , 4132.82051282 , 4133.33333333 , 4134.87179487 , 4132.82051282 , 4131.28205128 , 4135.8974359 , 4131.28205128 , 4135.8974359 , 4136.92307692 , 4194.35897436 , 4910.25641026 , 4136.41025641 , 4141.02564103 , 2041.0 , 2036.0 , 14.178 , 0.0 , 0.0 , 0.0 , 0.0 , 

91.0 , 4133.84615385 , 4132.30769231 , 4136.41025641 , 4133.84615385 , 4131.79487179 , 4130.76923077 , 4133.84615385 , 4131.79487179 , 4132.82051282 , 4139.48717949 , 4192.30769231 , 4911.28205128 , 4137.43589744 , 4141.02564103 , 2041.0 , 2034.0 , 14.186 , 0.0 , 0.0 , 0.0 , 0.0 , 

92.0 , 4132.30769231 , 4132.82051282 , 4135.8974359 , 4131.28205128 , 4133.84615385 , 4129.74358974 , 4132.82051282 , 4136.92307692 , 4134.35897436 , 4138.97435897 , 4189.23076923 , 4910.25641026 , 4136.92307692 , 4138.97435897 , 2040.0 , 2034.0 , 14.194 , 0.0 , 0.0 , 0.0 , 0.0 , 

93.0 , 4135.8974359 , 4133.84615385 , 4137.94871795 , 4131.28205128 , 4132.82051282 , 4131.28205128 , 4130.25641026 , 4135.38461538 , 4136.92307692 , 4135.8974359 , 4189.74358974 , 4913.84615385 , 4136.92307692 , 4138.46153846 , 2041.0 , 2035.0 , 14.202 , 0.0 , 0.0 , 0.0 , 0.0 , 

94.0 , 4136.41025641 , 4132.30769231 , 4135.38461538 , 4130.76923077 , 4133.33333333 , 4132.82051282 , 4125.12820513 , 4134.87179487 , 4138.97435897 , 4136.92307692 , 4192.30769231 , 4914.35897436 , 4136.92307692 , 4139.48717949 , 2041.0 , 2036.0 , 14.21 , 0.0 , 0.0 , 0.0 , 0.0 , 

95.0 , 4137.43589744 , 4135.8974359 , 4134.87179487 , 4131.79487179 , 4132.82051282 , 4132.30769231 , 4129.23076923 , 4137.94871795 , 4135.38461538 , 4138.46153846 , 4193.84615385 , 4912.82051282 , 4134.87179487 , 4143.07692308 , 2041.0 , 2037.0 , 14.218 , 0.0 , 0.0 , 0.0 , 0.0 , 

96.0 , 4134.35897436 , 4136.41025641 , 4133.84615385 , 4131.79487179 , 4130.76923077 , 4130.25641026 , 4135.8974359 , 4136.92307692 , 4134.87179487 , 4136.41025641 , 4189.74358974 , 4910.76923077 , 4134.35897436 , 4140.0 , 2042.0 , 2035.0 , 14.227 , 0.0 , 0.0 , 0.0 , 0.0 , 

97.0 , 4133.84615385 , 4133.33333333 , 4134.87179487 , 4129.74358974 , 4131.28205128 , 4129.74358974 , 4134.87179487 , 4135.38461538 , 4137.94871795 , 4135.38461538 , 4187.69230769 , 4915.38461538 , 4136.41025641 , 4138.97435897 , 2042.0 , 2037.0 , 14.235 , 0.0 , 0.0 , 0.0 , 0.0 , 

98.0 , 4134.87179487 , 4131.79487179 , 4133.33333333 , 4129.23076923 , 4134.35897436 , 4129.74358974 , 4133.84615385 , 4137.43589744 , 4139.48717949 , 4136.92307692 , 4190.76923077 , 4915.38461538 , 4136.92307692 , 4140.0 , 2041.0 , 2034.0 , 14.243 , 0.0 , 0.0 , 0.0 , 0.0 , 

99.0 , 4134.87179487 , 4132.30769231 , 4133.84615385 , 4131.79487179 , 4132.82051282 , 4130.25641026 , 4136.92307692 , 4136.41025641 , 4136.92307692 , 4138.46153846 , 4192.30769231 , 4910.76923077 , 4136.92307692 , 4140.0 , 2042.0 , 2035.0 , 14.25 , 0.0 , 0.0 , 0.0 , 0.0 , 

100.0 , 4133.84615385 , 4131.79487179 , 4135.38461538 , 4135.38461538 , 4132.30769231 , 4130.76923077 , 4135.38461538 , 4134.35897436 , 4135.38461538 , 4138.46153846 , 4190.76923077 , 4910.25641026 , 4136.92307692 , 4138.97435897 , 2042.0 , 2036.0 , 14.262 , 0.0 , 0.0 , 0.0 , 0.0 , 

101.0 , 4135.8974359 , 4131.28205128 , 4134.87179487 , 4135.8974359 , 4131.28205128 , 4129.23076923 , 4133.84615385 , 4134.35897436 , 4135.8974359 , 4137.43589744 , 4191.28205128 , 4911.79487179 , 4136.41025641 , 4138.97435897 , 2041.0 , 2035.0 , 14.265 , 0.0 , 0.0 , 0.0 , 0.0 , 

102.0 , 4138.97435897 , 4132.30769231 , 4135.38461538 , 4135.38461538 , 4129.23076923 , 4129.23076923 , 4135.8974359 , 4135.8974359 , 4136.41025641 , 4137.94871795 , 4192.82051282 , 4910.76923077 , 4135.8974359 , 4138.97435897 , 2041.0 , 2036.0 , 14.273 , 0.0 , 0.0 , 0.0 , 0.0 , 

103.0 , 4136.92307692 , 4133.33333333 , 4132.82051282 , 4134.87179487 , 4130.76923077 , 4132.30769231 , 4136.41025641 , 4138.46153846 , 4135.38461538 , 4138.46153846 , 4194.35897436 , 4910.76923077 , 4136.92307692 , 4139.48717949 , 2040.0 , 2036.0 , 14.281 , 0.0 , 0.0 , 0.0 , 0.0 , 

104.0 , 4134.87179487 , 4134.87179487 , 4134.35897436 , 4133.33333333 , 4133.33333333 , 4132.82051282 , 4134.35897436 , 4138.46153846 , 4135.8974359 , 4136.92307692 , 4194.35897436 , 4914.35897436 , 4134.87179487 , 4140.51282051 , 2041.0 , 2034.0 , 14.289 , 0.0 , 0.0 , 0.0 , 0.0 , 

105.0 , 4134.35897436 , 4133.33333333 , 4135.38461538 , 4130.76923077 , 4132.30769231 , 4128.20512821 , 4131.28205128 , 4136.41025641 , 4139.48717949 , 4137.43589744 , 4191.79487179 , 4911.79487179 , 4135.8974359 , 4138.46153846 , 2041.0 , 2035.0 , 14.297 , 0.0 , 0.0 , 0.0 , 0.0 , 

106.0 , 4136.92307692 , 4134.35897436 , 4135.8974359 , 4132.82051282 , 4130.76923077 , 4129.23076923 , 4132.82051282 , 4137.43589744 , 4138.97435897 , 4140.0 , 4190.25641026 , 4912.82051282 , 4136.41025641 , 4138.97435897 , 2042.0 , 2036.0 , 14.305 , 0.0 , 0.0 , 0.0 , 0.0 , 

107.0 , 4134.35897436 , 4133.33333333 , 4132.30769231 , 4133.84615385 , 4133.84615385 , 4132.82051282 , 4135.38461538 , 4138.97435897 , 4136.92307692 , 4138.97435897 , 4189.23076923 , 4911.79487179 , 4132.82051282 , 4141.02564103 , 2042.0 , 2035.0 , 14.312 , 0.0 , 0.0 , 0.0 , 0.0 , 

108.0 , 4135.8974359 , 4132.30769231 , 4136.41025641 , 4131.79487179 , 4132.82051282 , 4131.79487179 , 4132.82051282 , 4136.92307692 , 4136.41025641 , 4136.41025641 , 4190.25641026 , 4911.28205128 , 4132.30769231 , 4141.53846154 , 2042.0 , 2036.0 , 14.32 , 0.0 , 0.0 , 0.0 , 0.0 , 

109.0 , 4135.8974359 , 4131.28205128 , 4134.87179487 , 4129.23076923 , 4130.76923077 , 4130.76923077 , 4130.25641026 , 4135.38461538 , 4138.97435897 , 4136.41025641 , 4189.74358974 , 4910.25641026 , 4136.92307692 , 4139.48717949 , 2041.0 , 2036.0 , 14.328 , 0.0 , 0.0 , 0.0 , 0.0 , 

110.0 , 4136.92307692 , 4133.84615385 , 4134.87179487 , 4132.30769231 , 4131.28205128 , 4132.82051282 , 4126.66666667 , 4136.92307692 , 4138.46153846 , 4138.46153846 , 4189.74358974 , 4913.84615385 , 4138.46153846 , 4140.0 , 2041.0 , 2036.0 , 14.336 , 0.0 , 0.0 , 0.0 , 0.0 , 

111.0 , 4132.82051282 , 4131.28205128 , 4133.33333333 , 4134.87179487 , 4134.35897436 , 4130.76923077 , 4125.64102564 , 4137.43589744 , 4136.92307692 , 4138.97435897 , 4193.33333333 , 4910.25641026 , 4136.92307692 , 4138.97435897 , 2041.0 , 2034.0 , 14.344 , 0.0 , 0.0 , 0.0 , 0.0 , 

112.0 , 4133.33333333 , 4130.76923077 , 4136.41025641 , 4134.35897436 , 4130.76923077 , 4128.71794872 , 4131.28205128 , 4135.8974359 , 4135.8974359 , 4137.43589744 , 4195.8974359 , 4910.76923077 , 4137.43589744 , 4140.51282051 , 2041.0 , 2035.0 , 14.352 , 0.0 , 0.0 , 0.0 , 0.0 , 

113.0 , 4133.84615385 , 4131.28205128 , 4132.82051282 , 4132.82051282 , 4128.20512821 , 4130.76923077 , 4136.92307692 , 4134.87179487 , 4137.43589744 , 4136.92307692 , 4192.82051282 , 4911.28205128 , 4136.92307692 , 4139.48717949 , 2040.0 , 2035.0 , 14.363 , 0.0 , 0.0 , 0.0 , 0.0 , 

114.0 , 4135.8974359 , 4133.84615385 , 4133.33333333 , 4134.35897436 , 4129.74358974 , 4131.79487179 , 4134.87179487 , 4136.92307692 , 4137.94871795 , 4136.92307692 , 4192.30769231 , 4911.28205128 , 4137.94871795 , 4138.97435897 , 2041.0 , 2034.0 , 14.368 , 0.0 , 0.0 , 0.0 , 0.0 , 

115.0 , 4135.38461538 , 4133.84615385 , 4134.35897436 , 4134.87179487 , 4132.30769231 , 4130.76923077 , 4134.35897436 , 4138.97435897 , 4137.94871795 , 4135.8974359 , 4192.82051282 , 4909.74358974 , 4136.92307692 , 4140.0 , 2041.0 , 2036.0 , 14.376 , 0.0 , 0.0 , 0.0 , 0.0 , 

116.0 , 4135.38461538 , 4133.84615385 , 4136.41025641 , 4130.76923077 , 4131.79487179 , 4131.28205128 , 4137.43589744 , 4136.92307692 , 4137.43589744 , 4136.41025641 , 4191.28205128 , 4910.76923077 , 4132.82051282 , 4141.02564103 , 2041.0 , 2036.0 , 14.384 , 0.0 , 0.0 , 0.0 , 0.0 , 

117.0 , 4133.84615385 , 4133.84615385 , 4134.87179487 , 4130.25641026 , 4131.28205128 , 4130.76923077 , 4134.35897436 , 4134.87179487 , 4139.48717949 , 4138.97435897 , 4189.74358974 , 4909.74358974 , 4132.82051282 , 4140.0 , 2040.0 , 2036.0 , 14.391 , 0.0 , 0.0 , 0.0 , 0.0 , 

118.0 , 4133.33333333 , 4134.35897436 , 4134.87179487 , 4135.8974359 , 4131.79487179 , 4132.30769231 , 4130.25641026 , 4136.92307692 , 4140.51282051 , 4138.46153846 , 4189.74358974 , 4910.25641026 , 4134.87179487 , 4141.02564103 , 2041.0 , 2036.0 , 14.4 , 0.0 , 0.0 , 0.0 , 0.0 , 

119.0 , 4135.38461538 , 4133.84615385 , 4136.41025641 , 4136.41025641 , 4133.33333333 , 4134.35897436 , 4133.33333333 , 4137.94871795 , 4137.94871795 , 4136.92307692 , 4190.25641026 , 4913.33333333 , 4135.38461538 , 4140.0 , 2042.0 , 2037.0 , 14.407 , 0.0 , 0.0 , 0.0 , 0.0 , 

120.0 , 4134.87179487 , 4132.30769231 , 4133.33333333 , 4132.82051282 , 4132.82051282 , 4132.82051282 , 4135.38461538 , 4136.41025641 , 4135.38461538 , 4136.41025641 , 4190.25641026 , 4911.79487179 , 4135.38461538 , 4137.94871795 , 2043.0 , 2036.0 , 14.415 , 0.0 , 0.0 , 0.0 , 0.0 , 

121.0 , 4134.87179487 , 4132.30769231 , 4133.84615385 , 4132.30769231 , 4131.79487179 , 4130.76923077 , 4134.35897436 , 4134.87179487 , 4136.92307692 , 4138.46153846 , 4190.25641026 , 4910.25641026 , 4135.8974359 , 4140.51282051 , 2041.0 , 2036.0 , 14.423 , 0.0 , 0.0 , 0.0 , 0.0 , 

122.0 , 4135.8974359 , 4131.79487179 , 4134.87179487 , 4133.33333333 , 4132.82051282 , 4132.30769231 , 4134.35897436 , 4135.38461538 , 4137.94871795 , 4138.97435897 , 4190.76923077 , 4912.82051282 , 4136.92307692 , 4140.51282051 , 2041.0 , 2035.0 , 14.431 , 0.0 , 0.0 , 0.0 , 0.0 , 

123.0 , 4137.43589744 , 4134.35897436 , 4135.8974359 , 4134.35897436 , 4133.84615385 , 4132.82051282 , 4134.35897436 , 4137.43589744 , 4135.38461538 , 4135.8974359 , 4192.30769231 , 4914.87179487 , 4135.38461538 , 4138.97435897 , 2041.0 , 2036.0 , 14.482 , 0.0 , 0.0 , 0.0 , 0.0 , 

124.0 , 4134.35897436 , 4135.38461538 , 4131.79487179 , 4133.84615385 , 4135.38461538 , 4131.79487179 , 4132.82051282 , 4137.43589744 , 4137.43589744 , 4135.38461538 , 4192.30769231 , 4910.25641026 , 4133.33333333 , 4139.48717949 , 2042.0 , 2035.0 , 14.483 , 0.0 , 0.0 , 0.0 , 0.0 , 

125.0 , 4134.35897436 , 4134.35897436 , 4132.82051282 , 4131.28205128 , 4133.33333333 , 4130.76923077 , 4133.84615385 , 4136.41025641 , 4138.46153846 , 4138.46153846 , 4191.79487179 , 4910.25641026 , 4133.84615385 , 4141.53846154 , 2042.0 , 2035.0 , 14.483 , 0.0 , 0.0 , 0.0 , 0.0 , 

126.0 , 4134.35897436 , 4132.30769231 , 4131.28205128 , 4130.76923077 , 4130.76923077 , 4128.20512821 , 4134.35897436 , 4136.92307692 , 4135.8974359 , 4138.46153846 , 4191.28205128 , 4910.25641026 , 4134.87179487 , 4140.0 , 2042.0 , 2036.0 , 14.483 , 0.0 , 0.0 , 0.0 , 0.0 , 

127.0 , 4135.8974359 , 4135.8974359 , 4133.84615385 , 4135.8974359 , 4130.76923077 , 4129.74358974 , 4133.84615385 , 4135.8974359 , 4134.35897436 , 4137.43589744 , 4190.25641026 , 4911.79487179 , 4134.87179487 , 4140.0 , 2042.0 , 2036.0 , 14.483 , 0.0 , 0.0 , 0.0 , 0.0 , 

128.0 , 4131.79487179 , 4136.41025641 , 4131.79487179 , 4135.8974359 , 4132.82051282 , 4132.30769231 , 4134.87179487 , 4134.87179487 , 4136.92307692 , 4137.94871795 , 4189.74358974 , 4908.20512821 , 4135.8974359 , 4138.97435897 , 2041.0 , 2036.0 , 14.483 , 0.0 , 0.0 , 0.0 , 0.0 , 

0.0 , 4134.87179487 , 4133.33333333 , 4135.8974359 , 4133.84615385 , 4132.82051282 , 4130.76923077 , 4135.38461538 , 4136.41025641 , 4136.92307692 , 4137.94871795 , 4192.30769231 , 4910.25641026 , 4136.41025641 , 4141.02564103 , 2042.0 , 2035.0 , 14.487 , 0.0 , 0.0 , 0.0 , 0.0 , 

1.0 , 4136.92307692 , 4131.28205128 , 4136.41025641 , 4133.84615385 , 4133.33333333 , 4127.69230769 , 4134.35897436 , 4136.92307692 , 4138.46153846 , 4137.94871795 , 4193.84615385 , 4909.74358974 , 4135.38461538 , 4139.48717949 , 2042.0 , 2035.0 , 14.494 , 0.0 , 0.0 , 0.0 , 0.0 , 

2.0 , 4135.8974359 , 4135.8974359 , 4134.35897436 , 4135.38461538 , 4131.79487179 , 4130.25641026 , 4135.38461538 , 4135.8974359 , 4138.97435897 , 4137.94871795 , 4191.79487179 , 4909.23076923 , 4135.38461538 , 4141.02564103 , 2042.0 , 2034.0 , 14.502 , 0.0 , 0.0 , 0.0 , 0.0 , 

3.0 , 4132.30769231 , 4135.8974359 , 4129.74358974 , 4134.35897436 , 4132.82051282 , 4131.79487179 , 4133.84615385 , 4136.92307692 , 4135.8974359 , 4137.94871795 , 4190.76923077 , 4907.17948718 , 4135.8974359 , 4142.56410256 , 2042.0 , 2035.0 , 14.51 , 0.0 , 0.0 , 0.0 , 0.0 , 

4.0 , 4135.38461538 , 4133.84615385 , 4133.33333333 , 4136.41025641 , 4133.84615385 , 4129.74358974 , 4128.71794872 , 4137.43589744 , 4134.35897436 , 4137.43589744 , 4191.28205128 , 4910.76923077 , 4136.41025641 , 4143.07692308 , 2041.0 , 2036.0 , 14.517 , 0.0 , 0.0 , 0.0 , 0.0 , 

5.0 , 4132.30769231 , 4131.28205128 , 4131.79487179 , 4139.48717949 , 4133.33333333 , 4129.74358974 , 4129.23076923 , 4135.38461538 , 4136.41025641 , 4137.94871795 , 4188.71794872 , 4911.28205128 , 4135.8974359 , 4138.97435897 , 2042.0 , 2035.0 , 14.525 , 0.0 , 0.0 , 0.0 , 0.0 , 

6.0 , 4130.76923077 , 4132.30769231 , 4132.30769231 , 4137.43589744 , 4132.30769231 , 4133.84615385 , 4132.82051282 , 4135.38461538 , 4136.41025641 , 4137.43589744 , 4188.20512821 , 4909.74358974 , 4135.8974359 , 4138.46153846 , 2042.0 , 2035.0 , 14.533 , 0.0 , 0.0 , 0.0 , 0.0 , 

7.0 , 4132.82051282 , 4135.38461538 , 4134.35897436 , 4131.79487179 , 4133.33333333 , 4132.82051282 , 4132.30769231 , 4136.92307692 , 4136.92307692 , 4135.8974359 , 4191.79487179 , 4909.74358974 , 4136.92307692 , 4140.51282051 , 2041.0 , 2035.0 , 14.542 , 0.0 , 0.0 , 0.0 , 0.0 , 

8.0 , 4132.82051282 , 4134.87179487 , 4131.79487179 , 4130.76923077 , 4132.30769231 , 4131.28205128 , 4132.82051282 , 4137.43589744 , 4137.94871795 , 4135.8974359 , 4193.84615385 , 4910.76923077 , 4136.92307692 , 4140.51282051 , 2041.0 , 2034.0 , 14.549 , 0.0 , 0.0 , 0.0 , 0.0 , 

9.0 , 4132.30769231 , 4131.28205128 , 4130.25641026 , 4135.38461538 , 4131.28205128 , 4132.82051282 , 4133.33333333 , 4137.43589744 , 4138.46153846 , 4137.94871795 , 4192.30769231 , 4908.71794872 , 4135.8974359 , 4138.97435897 , 2040.0 , 2035.0 , 14.558 , 0.0 , 0.0 , 0.0 , 0.0 , 

10.0 , 4134.87179487 , 4130.76923077 , 4132.30769231 , 4137.43589744 , 4132.30769231 , 4130.76923077 , 4129.74358974 , 4137.43589744 , 4138.46153846 , 4138.97435897 , 4191.79487179 , 4907.69230769 , 4135.8974359 , 4137.94871795 , 2041.0 , 2036.0 , 14.568 , 0.0 , 0.0 , 0.0 , 0.0 , 

11.0 , 4136.41025641 , 4132.30769231 , 4135.38461538 , 4134.87179487 , 4132.82051282 , 4130.25641026 , 4129.23076923 , 4134.87179487 , 4136.41025641 , 4137.94871795 , 4192.82051282 , 4911.28205128 , 4136.92307692 , 4140.0 , 2040.0 , 2035.0 , 14.573 , 0.0 , 0.0 , 0.0 , 0.0 , 

12.0 , 4134.35897436 , 4132.82051282 , 4134.35897436 , 4133.84615385 , 4132.82051282 , 4133.33333333 , 4132.82051282 , 4133.84615385 , 4135.8974359 , 4138.46153846 , 4193.33333333 , 4911.79487179 , 4137.43589744 , 4140.0 , 2042.0 , 2036.0 , 14.58 , 0.0 , 0.0 , 0.0 , 0.0 , 

13.0 , 4133.84615385 , 4135.8974359 , 4134.35897436 , 4136.92307692 , 4131.79487179 , 4132.82051282 , 4135.8974359 , 4136.41025641 , 4138.46153846 , 4139.48717949 , 4194.35897436 , 4911.79487179 , 4137.43589744 , 4138.97435897 , 2042.0 , 2034.0 , 14.588 , 0.0 , 0.0 , 0.0 , 0.0 , 

14.0 , 4129.23076923 , 4134.87179487 , 4130.76923077 , 4137.94871795 , 4133.84615385 , 4129.74358974 , 4135.8974359 , 4136.92307692 , 4141.02564103 , 4138.97435897 , 4195.38461538 , 4910.76923077 , 4136.41025641 , 4136.92307692 , 2041.0 , 2035.0 , 14.596 , 0.0 , 0.0 , 0.0 , 0.0 , 

15.0 , 4130.76923077 , 4132.82051282 , 4135.38461538 , 4135.38461538 , 4133.84615385 , 4130.76923077 , 4133.84615385 , 4135.8974359 , 4138.46153846 , 4137.94871795 , 4192.30769231 , 4911.28205128 , 4135.8974359 , 4138.97435897 , 2040.0 , 2034.0 , 14.604 , 0.0 , 0.0 , 0.0 , 0.0 , 

16.0 , 4134.35897436 , 4132.30769231 , 4133.84615385 , 4135.38461538 , 4133.84615385 , 4132.30769231 , 4132.82051282 , 4136.92307692 , 4136.92307692 , 4138.97435897 , 4188.71794872 , 4907.17948718 , 4135.8974359 , 4140.51282051 , 2042.0 , 2035.0 , 14.612 , 0.0 , 0.0 , 0.0 , 0.0 , 

17.0 , 4136.92307692 , 4134.87179487 , 4132.30769231 , 4137.94871795 , 4134.35897436 , 4133.33333333 , 4133.84615385 , 4136.41025641 , 4137.94871795 , 4137.94871795 , 4190.76923077 , 4909.74358974 , 4135.8974359 , 4141.02564103 , 2042.0 , 2034.0 , 14.62 , 0.0 , 0.0 , 0.0 , 0.0 , 

18.0 , 4131.79487179 , 4132.30769231 , 4132.30769231 , 4134.87179487 , 4132.82051282 , 4132.30769231 , 4132.82051282 , 4136.92307692 , 4141.53846154 , 4137.43589744 , 4194.87179487 , 4909.74358974 , 4135.8974359 , 4140.51282051 , 2040.0 , 2035.0 , 14.628 , 0.0 , 0.0 , 0.0 , 0.0 , 

19.0 , 4131.79487179 , 4133.84615385 , 4135.8974359 , 4132.82051282 , 4130.25641026 , 4129.74358974 , 4132.30769231 , 4137.94871795 , 4138.97435897 , 4138.46153846 , 4194.35897436 , 4910.25641026 , 4136.41025641 , 4143.58974359 , 2041.0 , 2036.0 , 14.636 , 0.0 , 0.0 , 0.0 , 0.0 , 

20.0 , 4132.30769231 , 4133.84615385 , 4129.74358974 , 4134.35897436 , 4134.35897436 , 4129.23076923 , 4134.87179487 , 4136.41025641 , 4137.43589744 , 4138.97435897 , 4190.25641026 , 4909.74358974 , 4137.43589744 , 4141.02564103 , 2041.0 , 2036.0 , 14.643 , 0.0 , 0.0 , 0.0 , 0.0 , 

21.0 , 4135.38461538 , 4133.33333333 , 4132.30769231 , 4135.8974359 , 4135.38461538 , 4131.28205128 , 4133.84615385 , 4133.84615385 , 4138.97435897 , 4137.43589744 , 4189.74358974 , 4913.33333333 , 4136.41025641 , 4141.02564103 , 2041.0 , 2036.0 , 14.651 , 0.0 , 0.0 , 0.0 , 0.0 , 

22.0 , 4133.84615385 , 4131.79487179 , 4132.82051282 , 4134.87179487 , 4131.28205128 , 4131.79487179 , 4129.23076923 , 4134.87179487 , 4140.0 , 4135.8974359 , 4192.82051282 , 4911.28205128 , 4136.41025641 , 4141.02564103 , 2040.0 , 2035.0 , 14.659 , 0.0 , 0.0 , 0.0 , 0.0 , 

23.0 , 4134.35897436 , 4132.82051282 , 4130.25641026 , 4134.35897436 , 4128.20512821 , 4132.30769231 , 4132.30769231 , 4135.8974359 , 4138.46153846 , 4136.92307692 , 4194.35897436 , 4911.28205128 , 4137.43589744 , 4140.51282051 , 2042.0 , 2035.0 , 14.671 , 0.0 , 0.0 , 0.0 , 0.0 , 

24.0 , 4135.38461538 , 4134.87179487 , 4129.74358974 , 4133.33333333 , 4131.79487179 , 4132.30769231 , 4136.92307692 , 4135.38461538 , 4138.97435897 , 4137.94871795 , 4192.30769231 , 4911.79487179 , 4136.41025641 , 4137.94871795 , 2042.0 , 2034.0 , 14.677 , 0.0 , 0.0 , 0.0 , 0.0 , 

25.0 , 4134.87179487 , 4135.8974359 , 4131.79487179 , 4134.35897436 , 4135.38461538 , 4130.25641026 , 4134.87179487 , 4136.92307692 , 4137.94871795 , 4137.94871795 , 4191.28205128 , 4911.79487179 , 4135.38461538 , 4139.48717949 , 2042.0 , 2035.0 , 14.683 , 0.0 , 0.0 , 0.0 , 0.0 , 

26.0 , 4131.79487179 , 4133.84615385 , 4130.25641026 , 4132.82051282 , 4135.38461538 , 4129.23076923 , 4133.84615385 , 4137.94871795 , 4138.46153846 , 4137.94871795 , 4190.25641026 , 4910.76923077 , 4136.41025641 , 4141.53846154 , 2040.0 , 2034.0 , 14.691 , 0.0 , 0.0 , 0.0 , 0.0 , 

27.0 , 4133.84615385 , 4133.84615385 , 4130.76923077 , 4130.25641026 , 4133.84615385 , 4129.23076923 , 4135.8974359 , 4137.94871795 , 4140.51282051 , 4138.46153846 , 4189.23076923 , 4911.79487179 , 4136.41025641 , 4141.02564103 , 2041.0 , 2035.0 , 14.699 , 0.0 , 0.0 , 0.0 , 0.0 , 

28.0 , 4137.43589744 , 4134.87179487 , 4132.82051282 , 4132.82051282 , 4134.87179487 , 4128.71794872 , 4133.84615385 , 4136.92307692 , 4136.92307692 , 4137.43589744 , 4191.28205128 , 4911.28205128 , 4134.87179487 , 4140.51282051 , 2041.0 , 2036.0 , 14.706 , 0.0 , 0.0 , 0.0 , 0.0 , 

29.0 , 4132.82051282 , 4133.33333333 , 4132.30769231 , 4135.38461538 , 4133.84615385 , 4128.71794872 , 4132.82051282 , 4135.8974359 , 4136.41025641 , 4136.92307692 , 4192.30769231 , 4905.64102564 , 4136.41025641 , 4138.97435897 , 2042.0 , 2035.0 , 14.714 , 0.0 , 0.0 , 0.0 , 0.0 , 

30.0 , 4129.74358974 , 4133.33333333 , 4135.38461538 , 4131.28205128 , 4131.79487179 , 4130.76923077 , 4132.82051282 , 4136.41025641 , 4137.94871795 , 4137.94871795 , 4193.84615385 , 4907.17948718 , 4137.43589744 , 4140.0 , 2041.0 , 2036.0 , 14.722 , 0.0 , 0.0 , 0.0 , 0.0 , 

31.0 , 4132.30769231 , 4133.33333333 , 4132.82051282 , 4128.20512821 , 4132.82051282 , 4130.76923077 , 4132.30769231 , 4138.46153846 , 4137.94871795 , 4137.94871795 , 4194.35897436 , 4911.28205128 , 4136.41025641 , 4141.02564103 , 2042.0 , 2036.0 , 14.73 , 0.0 , 0.0 , 0.0 , 0.0 , 

32.0 , 4136.92307692 , 4132.82051282 , 4130.76923077 , 4132.82051282 , 4131.28205128 , 4129.74358974 , 4135.38461538 , 4135.8974359 , 4136.41025641 , 4136.41025641 , 4193.33333333 , 4914.35897436 , 4135.38461538 , 4141.02564103 , 2041.0 , 2035.0 , 14.738 , 0.0 , 0.0 , 0.0 , 0.0 , 

33.0 , 4132.30769231 , 4131.28205128 , 4130.25641026 , 4133.84615385 , 4130.25641026 , 4129.23076923 , 4135.8974359 , 4129.74358974 , 4137.43589744 , 4136.41025641 , 4192.30769231 , 4909.74358974 , 4135.8974359 , 4137.43589744 , 2041.0 , 2035.0 , 14.746 , 0.0 , 0.0 , 0.0 , 0.0 , 

34.0 , 4130.76923077 , 4132.30769231 , 4137.94871795 , 4131.79487179 , 4129.74358974 , 4129.74358974 , 4133.33333333 , 4130.76923077 , 4135.8974359 , 4137.43589744 , 4192.82051282 , 4909.23076923 , 4135.8974359 , 4139.48717949 , 2042.0 , 2036.0 , 14.754 , 0.0 , 0.0 , 0.0 , 0.0 , 

35.0 , 4130.25641026 , 4129.74358974 , 4136.41025641 , 4131.79487179 , 4129.23076923 , 4128.71794872 , 4134.35897436 , 4136.92307692 , 4135.38461538 , 4137.94871795 , 4193.33333333 , 4909.74358974 , 4136.41025641 , 4142.05128205 , 2041.0 , 2035.0 , 14.762 , 0.0 , 0.0 , 0.0 , 0.0 , 

36.0 , 4133.84615385 , 4130.76923077 , 4133.33333333 , 4133.33333333 , 4129.74358974 , 4130.25641026 , 4134.87179487 , 4135.8974359 , 4136.92307692 , 4138.46153846 , 4192.82051282 , 4912.30769231 , 4136.41025641 , 4142.05128205 , 2040.0 , 2036.0 , 14.773 , 0.0 , 0.0 , 0.0 , 0.0 , 

37.0 , 4133.33333333 , 4135.38461538 , 4131.28205128 , 4130.25641026 , 4134.35897436 , 4131.79487179 , 4130.76923077 , 4134.87179487 , 4139.48717949 , 4138.46153846 , 4191.28205128 , 4911.79487179 , 4135.8974359 , 4139.48717949 , 2042.0 , 2035.0 , 14.777 , 0.0 , 0.0 , 0.0 , 0.0 , 

38.0 , 4133.33333333 , 4136.41025641 , 4137.94871795 , 4130.25641026 , 4134.35897436 , 4130.25641026 , 4132.82051282 , 4137.94871795 , 4136.41025641 , 4140.0 , 4190.76923077 , 4913.33333333 , 4136.92307692 , 4141.53846154 , 2042.0 , 2035.0 , 14.785 , 0.0 , 0.0 , 0.0 , 0.0 , 

39.0 , 4131.28205128 , 4130.25641026 , 4134.35897436 , 4133.84615385 , 4134.35897436 , 4129.23076923 , 4136.92307692 , 4133.33333333 , 4135.38461538 , 4140.0 , 4192.82051282 , 4910.25641026 , 4136.92307692 , 4139.48717949 , 2042.0 , 2035.0 , 14.793 , 0.0 , 0.0 , 0.0 , 0.0 , 

40.0 , 4135.38461538 , 4131.79487179 , 4132.82051282 , 4134.35897436 , 4133.84615385 , 4131.79487179 , 4133.84615385 , 4129.23076923 , 4138.46153846 , 4136.92307692 , 4194.35897436 , 4911.28205128 , 4135.38461538 , 4136.92307692 , 2041.0 , 2036.0 , 14.801 , 0.0 , 0.0 , 0.0 , 0.0 , 

