['COUNTER', 'AF3', 'F7', 'F3', 'FC5', 'T7', 'P7', 'O1', 'O2', 'P8', 'T8', 'FC6', 'F4', 'F8', 'AF4', 'GYROX', 'GYROY', 'TIMESTAMP', 'FUNC_ID', 'FUNC_VALUE', 'MARKER', 'SYNC_SIGNAL']
79.0 , 4121.53846154 , 4127.17948718 , 4125.64102564 , 4125.12820513 , 4125.12820513 , 4124.61538462 , 4120.0 , 4128.71794872 , 4125.64102564 , 4135.8974359 , 4185.64102564 , 4904.61538462 , 4130.25641026 , 4134.87179487 , 2042.0 , 2036.0 , 8.164 , 0.0 , 0.0 , 0.0 , 0.0 , 

80.0 , 4125.64102564 , 4128.20512821 , 4123.58974359 , 4125.64102564 , 4126.15384615 , 4126.15384615 , 4121.53846154 , 4129.23076923 , 4124.1025641 , 4135.8974359 , 4182.05128205 , 4904.61538462 , 4128.20512821 , 4131.28205128 , 2041.0 , 2037.0 , 8.172 , 0.0 , 0.0 , 0.0 , 0.0 , 

81.0 , 4126.15384615 , 4124.1025641 , 4126.66666667 , 4125.64102564 , 4129.23076923 , 4124.61538462 , 4124.1025641 , 4128.20512821 , 4124.61538462 , 4135.8974359 , 4183.07692308 , 4906.66666667 , 4129.74358974 , 4130.76923077 , 2042.0 , 2036.0 , 8.182 , 0.0 , 0.0 , 0.0 , 0.0 , 

82.0 , 4128.20512821 , 4122.56410256 , 4128.20512821 , 4126.66666667 , 4128.20512821 , 4124.1025641 , 4123.58974359 , 4125.12820513 , 4128.20512821 , 4135.8974359 , 4185.64102564 , 4906.66666667 , 4129.23076923 , 4132.82051282 , 2043.0 , 2035.0 , 8.189 , 0.0 , 0.0 , 0.0 , 0.0 , 

83.0 , 4128.71794872 , 4124.61538462 , 4125.64102564 , 4126.66666667 , 4125.12820513 , 4126.15384615 , 4122.56410256 , 4124.1025641 , 4128.71794872 , 4135.8974359 , 4183.58974359 , 4904.61538462 , 4127.17948718 , 4131.79487179 , 2044.0 , 2035.0 , 8.203 , 0.0 , 0.0 , 0.0 , 0.0 , 

84.0 , 4127.17948718 , 4125.12820513 , 4126.66666667 , 4126.66666667 , 4124.61538462 , 4125.12820513 , 4123.58974359 , 4127.17948718 , 4126.66666667 , 4135.8974359 , 4183.07692308 , 4905.12820513 , 4127.17948718 , 4131.28205128 , 2041.0 , 2034.0 , 8.208 , 0.0 , 0.0 , 0.0 , 0.0 , 

85.0 , 4126.66666667 , 4124.1025641 , 4125.12820513 , 4128.20512821 , 4126.66666667 , 4123.58974359 , 4122.56410256 , 4129.74358974 , 4126.15384615 , 4135.8974359 , 4185.12820513 , 4905.64102564 , 4127.17948718 , 4133.84615385 , 2041.0 , 2034.0 , 8.214 , 0.0 , 0.0 , 0.0 , 0.0 , 

86.0 , 4126.66666667 , 4124.61538462 , 4124.61538462 , 4129.23076923 , 4125.64102564 , 4124.61538462 , 4122.56410256 , 4124.61538462 , 4126.66666667 , 4135.8974359 , 4186.66666667 , 4907.17948718 , 4128.20512821 , 4135.8974359 , 2042.0 , 2035.0 , 8.22 , 0.0 , 0.0 , 0.0 , 0.0 , 

87.0 , 4125.64102564 , 4123.58974359 , 4125.12820513 , 4126.66666667 , 4124.1025641 , 4123.58974359 , 4125.12820513 , 4121.53846154 , 4128.71794872 , 4135.8974359 , 4184.1025641 , 4905.64102564 , 4128.71794872 , 4132.82051282 , 2041.0 , 2036.0 , 8.228 , 0.0 , 0.0 , 0.0 , 0.0 , 

88.0 , 4127.69230769 , 4127.69230769 , 4128.20512821 , 4126.66666667 , 4126.15384615 , 4123.07692308 , 4123.58974359 , 4125.12820513 , 4127.69230769 , 4135.8974359 , 4183.58974359 , 4906.15384615 , 4128.20512821 , 4131.79487179 , 2042.0 , 2036.0 , 8.239 , 0.0 , 0.0 , 0.0 , 0.0 , 

89.0 , 4126.15384615 , 4126.66666667 , 4124.61538462 , 4127.17948718 , 4128.20512821 , 4125.12820513 , 4119.48717949 , 4131.28205128 , 4125.64102564 , 4135.8974359 , 4184.1025641 , 4905.12820513 , 4128.20512821 , 4132.82051282 , 2042.0 , 2035.0 , 8.245 , 0.0 , 0.0 , 0.0 , 0.0 , 

90.0 , 4126.15384615 , 4125.12820513 , 4127.17948718 , 4124.61538462 , 4126.15384615 , 4124.61538462 , 4120.0 , 4129.23076923 , 4126.15384615 , 4135.8974359 , 4185.64102564 , 4907.17948718 , 4127.69230769 , 4133.33333333 , 2041.0 , 2034.0 , 8.251 , 0.0 , 0.0 , 0.0 , 0.0 , 

91.0 , 4124.1025641 , 4126.66666667 , 4127.69230769 , 4124.61538462 , 4126.15384615 , 4122.56410256 , 4123.58974359 , 4126.15384615 , 4129.23076923 , 4135.8974359 , 4186.15384615 , 4904.1025641 , 4126.66666667 , 4131.79487179 , 2042.0 , 2036.0 , 8.26 , 0.0 , 0.0 , 0.0 , 0.0 , 

92.0 , 4123.58974359 , 4129.23076923 , 4128.20512821 , 4126.15384615 , 4126.15384615 , 4123.07692308 , 4124.61538462 , 4127.69230769 , 4127.69230769 , 4135.8974359 , 4184.1025641 , 4906.66666667 , 4130.25641026 , 4132.82051282 , 2042.0 , 2036.0 , 8.268 , 0.0 , 0.0 , 0.0 , 0.0 , 

93.0 , 4125.12820513 , 4126.15384615 , 4122.05128205 , 4127.17948718 , 4126.66666667 , 4124.61538462 , 4123.58974359 , 4130.76923077 , 4128.71794872 , 4135.8974359 , 4182.56410256 , 4907.17948718 , 4130.76923077 , 4132.82051282 , 2043.0 , 2036.0 , 8.277 , 0.0 , 0.0 , 0.0 , 0.0 , 

94.0 , 4127.17948718 , 4126.66666667 , 4124.1025641 , 4129.23076923 , 4128.20512821 , 4124.61538462 , 4122.05128205 , 4126.66666667 , 4130.76923077 , 4135.8974359 , 4184.1025641 , 4907.17948718 , 4127.69230769 , 4134.87179487 , 2042.0 , 2034.0 , 8.283 , 0.0 , 0.0 , 0.0 , 0.0 , 

95.0 , 4126.66666667 , 4127.69230769 , 4126.15384615 , 4128.20512821 , 4126.66666667 , 4125.12820513 , 4120.51282051 , 4125.64102564 , 4129.74358974 , 4135.8974359 , 4184.61538462 , 4904.61538462 , 4127.17948718 , 4134.35897436 , 2042.0 , 2036.0 , 8.292 , 0.0 , 0.0 , 0.0 , 0.0 , 

96.0 , 4128.20512821 , 4127.69230769 , 4126.66666667 , 4125.12820513 , 4125.64102564 , 4126.15384615 , 4121.02564103 , 4127.69230769 , 4127.17948718 , 4135.8974359 , 4184.1025641 , 4907.17948718 , 4130.76923077 , 4133.33333333 , 2041.0 , 2035.0 , 8.299 , 0.0 , 0.0 , 0.0 , 0.0 , 

97.0 , 4125.12820513 , 4125.64102564 , 4124.61538462 , 4127.17948718 , 4127.69230769 , 4126.66666667 , 4123.07692308 , 4127.69230769 , 4126.66666667 , 4135.8974359 , 4182.56410256 , 4904.61538462 , 4130.76923077 , 4131.79487179 , 2042.0 , 2034.0 , 8.307 , 0.0 , 0.0 , 0.0 , 0.0 , 

98.0 , 4122.56410256 , 4124.61538462 , 4126.15384615 , 4130.25641026 , 4128.20512821 , 4124.61538462 , 4124.1025641 , 4124.1025641 , 4125.12820513 , 4135.8974359 , 4184.61538462 , 4905.12820513 , 4130.25641026 , 4134.35897436 , 2041.0 , 2036.0 , 8.316 , 0.0 , 0.0 , 0.0 , 0.0 , 

99.0 , 4128.20512821 , 4125.64102564 , 4127.69230769 , 4128.20512821 , 4127.69230769 , 4121.02564103 , 4123.58974359 , 4125.12820513 , 4123.58974359 , 4135.8974359 , 4186.66666667 , 4907.17948718 , 4131.79487179 , 4133.84615385 , 2041.0 , 2037.0 , 8.324 , 0.0 , 0.0 , 0.0 , 0.0 , 

100.0 , 4131.28205128 , 4126.15384615 , 4126.66666667 , 4127.17948718 , 4126.66666667 , 4122.56410256 , 4122.56410256 , 4128.71794872 , 4128.20512821 , 4135.8974359 , 4186.15384615 , 4904.61538462 , 4131.79487179 , 4130.76923077 , 2042.0 , 2035.0 , 8.33 , 0.0 , 0.0 , 0.0 , 0.0 , 

101.0 , 4124.61538462 , 4125.64102564 , 4128.71794872 , 4127.17948718 , 4123.07692308 , 4126.66666667 , 4123.07692308 , 4128.71794872 , 4131.79487179 , 4135.8974359 , 4184.1025641 , 4903.07692308 , 4133.33333333 , 4133.33333333 , 2042.0 , 2034.0 , 8.338 , 0.0 , 0.0 , 0.0 , 0.0 , 

102.0 , 4121.53846154 , 4128.71794872 , 4128.71794872 , 4126.15384615 , 4122.56410256 , 4123.07692308 , 4125.12820513 , 4129.23076923 , 4127.17948718 , 4135.8974359 , 4184.61538462 , 4905.12820513 , 4133.84615385 , 4136.92307692 , 2042.0 , 2034.0 , 8.355 , 0.0 , 0.0 , 0.0 , 0.0 , 

103.0 , 4127.17948718 , 4129.74358974 , 4127.17948718 , 4125.64102564 , 4125.64102564 , 4118.97435897 , 4123.07692308 , 4128.20512821 , 4123.07692308 , 4135.8974359 , 4185.64102564 , 4907.69230769 , 4129.74358974 , 4135.8974359 , 2042.0 , 2036.0 , 8.442 , 0.0 , 0.0 , 0.0 , 0.0 , 

104.0 , 4126.66666667 , 4125.64102564 , 4124.1025641 , 4125.64102564 , 4125.12820513 , 4123.07692308 , 4120.0 , 4124.61538462 , 4126.66666667 , 4135.8974359 , 4184.1025641 , 4906.15384615 , 4128.20512821 , 4131.28205128 , 2042.0 , 2037.0 , 8.443 , 0.0 , 0.0 , 0.0 , 0.0 , 

105.0 , 4126.66666667 , 4125.64102564 , 4127.17948718 , 4127.17948718 , 4124.1025641 , 4127.69230769 , 4121.53846154 , 4123.58974359 , 4129.23076923 , 4135.8974359 , 4184.61538462 , 4907.69230769 , 4131.28205128 , 4132.30769231 , 2042.0 , 2035.0 , 8.443 , 0.0 , 0.0 , 0.0 , 0.0 , 

106.0 , 4128.20512821 , 4127.17948718 , 4124.61538462 , 4127.17948718 , 4127.17948718 , 4124.61538462 , 4124.1025641 , 4128.71794872 , 4128.20512821 , 4135.8974359 , 4182.56410256 , 4904.61538462 , 4130.25641026 , 4133.33333333 , 2042.0 , 2036.0 , 8.443 , 0.0 , 0.0 , 0.0 , 0.0 , 

107.0 , 4128.20512821 , 4127.69230769 , 4123.58974359 , 4129.23076923 , 4126.66666667 , 4122.56410256 , 4122.56410256 , 4127.17948718 , 4127.17948718 , 4135.8974359 , 4183.07692308 , 4904.1025641 , 4127.17948718 , 4131.28205128 , 2042.0 , 2033.0 , 8.443 , 0.0 , 0.0 , 0.0 , 0.0 , 

108.0 , 4125.64102564 , 4127.17948718 , 4125.12820513 , 4131.28205128 , 4126.15384615 , 4124.1025641 , 4121.53846154 , 4124.1025641 , 4128.20512821 , 4135.8974359 , 4185.12820513 , 4905.12820513 , 4126.15384615 , 4130.76923077 , 2042.0 , 2033.0 , 8.443 , 0.0 , 0.0 , 0.0 , 0.0 , 

109.0 , 4128.20512821 , 4129.23076923 , 4129.23076923 , 4129.23076923 , 4127.69230769 , 4125.64102564 , 4121.53846154 , 4125.64102564 , 4126.15384615 , 4135.8974359 , 4185.64102564 , 4907.17948718 , 4127.17948718 , 4134.35897436 , 2042.0 , 2033.0 , 8.443 , 0.0 , 0.0 , 0.0 , 0.0 , 

110.0 , 4124.1025641 , 4127.17948718 , 4124.61538462 , 4126.15384615 , 4126.15384615 , 4124.61538462 , 4121.53846154 , 4129.74358974 , 4127.17948718 , 4135.8974359 , 4183.07692308 , 4904.1025641 , 4128.71794872 , 4134.87179487 , 2042.0 , 2035.0 , 8.443 , 0.0 , 0.0 , 0.0 , 0.0 , 

111.0 , 4123.07692308 , 4126.66666667 , 4126.66666667 , 4126.66666667 , 4124.61538462 , 4123.58974359 , 4123.07692308 , 4127.69230769 , 4131.28205128 , 4135.8974359 , 4184.61538462 , 4908.71794872 , 4131.79487179 , 4134.87179487 , 2042.0 , 2034.0 , 8.443 , 0.0 , 0.0 , 0.0 , 0.0 , 

112.0 , 4125.64102564 , 4126.66666667 , 4129.23076923 , 4125.12820513 , 4126.66666667 , 4124.61538462 , 4123.58974359 , 4126.15384615 , 4131.28205128 , 4135.8974359 , 4185.12820513 , 4907.69230769 , 4132.82051282 , 4134.35897436 , 2042.0 , 2035.0 , 8.443 , 0.0 , 0.0 , 0.0 , 0.0 , 

113.0 , 4126.15384615 , 4127.69230769 , 4129.74358974 , 4123.07692308 , 4125.12820513 , 4123.58974359 , 4122.05128205 , 4127.17948718 , 4126.15384615 , 4135.8974359 , 4184.61538462 , 4904.61538462 , 4130.76923077 , 4133.33333333 , 2043.0 , 2034.0 , 8.443 , 0.0 , 0.0 , 0.0 , 0.0 , 

114.0 , 4122.56410256 , 4126.66666667 , 4124.61538462 , 4126.66666667 , 4123.58974359 , 4124.61538462 , 4122.56410256 , 4128.20512821 , 4128.71794872 , 4135.8974359 , 4183.58974359 , 4903.58974359 , 4128.20512821 , 4132.30769231 , 2043.0 , 2034.0 , 8.443 , 0.0 , 0.0 , 0.0 , 0.0 , 

115.0 , 4125.12820513 , 4127.69230769 , 4125.12820513 , 4128.20512821 , 4125.64102564 , 4128.71794872 , 4124.1025641 , 4125.64102564 , 4129.74358974 , 4135.8974359 , 4185.12820513 , 4907.17948718 , 4128.20512821 , 4134.35897436 , 2042.0 , 2034.0 , 8.449 , 0.0 , 0.0 , 0.0 , 0.0 , 

116.0 , 4128.71794872 , 4128.20512821 , 4126.15384615 , 4126.15384615 , 4127.17948718 , 4127.17948718 , 4125.12820513 , 4125.12820513 , 4125.64102564 , 4135.8974359 , 4185.12820513 , 4904.61538462 , 4129.23076923 , 4133.84615385 , 2041.0 , 2034.0 , 8.457 , 0.0 , 0.0 , 0.0 , 0.0 , 

117.0 , 4130.76923077 , 4128.20512821 , 4128.20512821 , 4126.15384615 , 4126.66666667 , 4122.05128205 , 4123.07692308 , 4127.17948718 , 4126.66666667 , 4135.8974359 , 4183.07692308 , 4903.58974359 , 4129.74358974 , 4131.79487179 , 2041.0 , 2033.0 , 8.464 , 0.0 , 0.0 , 0.0 , 0.0 , 

118.0 , 4128.71794872 , 4128.20512821 , 4126.66666667 , 4127.69230769 , 4127.69230769 , 4123.07692308 , 4121.02564103 , 4127.17948718 , 4129.23076923 , 4135.8974359 , 4182.05128205 , 4907.17948718 , 4129.74358974 , 4131.79487179 , 2042.0 , 2035.0 , 8.473 , 0.0 , 0.0 , 0.0 , 0.0 , 

119.0 , 4124.1025641 , 4127.69230769 , 4124.1025641 , 4127.69230769 , 4128.71794872 , 4125.12820513 , 4124.1025641 , 4127.69230769 , 4129.23076923 , 4135.8974359 , 4185.64102564 , 4906.15384615 , 4128.20512821 , 4134.87179487 , 2042.0 , 2034.0 , 8.48 , 0.0 , 0.0 , 0.0 , 0.0 , 

120.0 , 4126.15384615 , 4127.17948718 , 4124.61538462 , 4126.66666667 , 4127.69230769 , 4125.12820513 , 4127.17948718 , 4129.74358974 , 4128.71794872 , 4135.8974359 , 4185.64102564 , 4906.66666667 , 4127.17948718 , 4134.35897436 , 2041.0 , 2037.0 , 8.488 , 0.0 , 0.0 , 0.0 , 0.0 , 

121.0 , 4130.25641026 , 4123.58974359 , 4124.1025641 , 4126.66666667 , 4126.15384615 , 4124.61538462 , 4124.1025641 , 4129.23076923 , 4128.20512821 , 4135.8974359 , 4183.07692308 , 4907.69230769 , 4129.23076923 , 4132.82051282 , 2042.0 , 2034.0 , 8.495 , 0.0 , 0.0 , 0.0 , 0.0 , 

122.0 , 4128.71794872 , 4122.56410256 , 4127.69230769 , 4128.20512821 , 4124.61538462 , 4123.58974359 , 4121.53846154 , 4126.66666667 , 4125.12820513 , 4135.8974359 , 4185.12820513 , 4906.66666667 , 4129.74358974 , 4137.43589744 , 2043.0 , 2035.0 , 8.503 , 0.0 , 0.0 , 0.0 , 0.0 , 

123.0 , 4122.05128205 , 4124.61538462 , 4127.69230769 , 4126.66666667 , 4126.15384615 , 4125.64102564 , 4121.53846154 , 4126.66666667 , 4125.64102564 , 4135.8974359 , 4185.64102564 , 4904.1025641 , 4127.17948718 , 4136.92307692 , 2042.0 , 2035.0 , 8.511 , 0.0 , 0.0 , 0.0 , 0.0 , 

124.0 , 4124.1025641 , 4126.66666667 , 4129.74358974 , 4126.66666667 , 4127.69230769 , 4126.66666667 , 4121.02564103 , 4126.15384615 , 4128.20512821 , 4135.8974359 , 4187.17948718 , 4908.71794872 , 4129.23076923 , 4132.30769231 , 2041.0 , 2034.0 , 8.519 , 0.0 , 0.0 , 0.0 , 0.0 , 

125.0 , 4129.74358974 , 4124.1025641 , 4127.69230769 , 4128.71794872 , 4125.64102564 , 4125.12820513 , 4122.56410256 , 4126.66666667 , 4127.69230769 , 4135.8974359 , 4189.23076923 , 4909.23076923 , 4130.76923077 , 4131.28205128 , 2042.0 , 2034.0 , 8.527 , 0.0 , 0.0 , 0.0 , 0.0 , 

126.0 , 4130.25641026 , 4124.61538462 , 4127.69230769 , 4128.20512821 , 4124.61538462 , 4125.12820513 , 4122.05128205 , 4126.66666667 , 4126.15384615 , 4135.8974359 , 4186.15384615 , 4908.20512821 , 4130.76923077 , 4133.84615385 , 2042.0 , 2035.0 , 8.535 , 0.0 , 0.0 , 0.0 , 0.0 , 

127.0 , 4126.15384615 , 4125.64102564 , 4125.64102564 , 4127.69230769 , 4126.15384615 , 4124.61538462 , 4120.0 , 4128.71794872 , 4126.15384615 , 4135.8974359 , 4182.05128205 , 4904.1025641 , 4130.25641026 , 4130.25641026 , 2043.0 , 2036.0 , 8.542 , 0.0 , 0.0 , 0.0 , 0.0 , 

128.0 , 4126.66666667 , 4126.15384615 , 4131.79487179 , 4130.25641026 , 4126.66666667 , 4123.07692308 , 4121.53846154 , 4128.20512821 , 4125.64102564 , 4135.8974359 , 4185.64102564 , 4906.66666667 , 4129.23076923 , 4128.71794872 , 2041.0 , 2036.0 , 8.551 , 0.0 , 0.0 , 0.0 , 0.0 , 

0.0 , 4126.66666667 , 4125.12820513 , 4131.79487179 , 4128.71794872 , 4125.64102564 , 4124.1025641 , 4123.07692308 , 4127.69230769 , 4126.66666667 , 4135.8974359 , 4185.12820513 , 4906.66666667 , 4128.71794872 , 4131.28205128 , 2042.0 , 2034.0 , 8.558 , 0.0 , 0.0 , 0.0 , 0.0 , 

1.0 , 4127.69230769 , 4127.17948718 , 4129.23076923 , 4128.20512821 , 4125.64102564 , 4124.61538462 , 4122.05128205 , 4124.61538462 , 4127.17948718 , 4135.8974359 , 4185.64102564 , 4908.71794872 , 4130.76923077 , 4133.33333333 , 2041.0 , 2034.0 , 8.567 , 0.0 , 0.0 , 0.0 , 0.0 , 

2.0 , 4129.23076923 , 4127.17948718 , 4127.17948718 , 4130.76923077 , 4126.15384615 , 4123.07692308 , 4122.05128205 , 4124.61538462 , 4127.17948718 , 4135.8974359 , 4186.15384615 , 4907.69230769 , 4130.25641026 , 4131.79487179 , 2041.0 , 2036.0 , 8.574 , 0.0 , 0.0 , 0.0 , 0.0 , 

3.0 , 4130.25641026 , 4126.66666667 , 4129.23076923 , 4128.20512821 , 4127.69230769 , 4124.61538462 , 4123.07692308 , 4127.69230769 , 4125.12820513 , 4135.8974359 , 4184.61538462 , 4909.74358974 , 4127.69230769 , 4132.30769231 , 2039.0 , 2035.0 , 8.584 , 0.0 , 0.0 , 0.0 , 0.0 , 

4.0 , 4127.17948718 , 4126.66666667 , 4129.23076923 , 4123.07692308 , 4127.69230769 , 4125.64102564 , 4122.56410256 , 4128.71794872 , 4123.58974359 , 4135.8974359 , 4184.61538462 , 4909.23076923 , 4129.23076923 , 4133.84615385 , 2042.0 , 2037.0 , 8.591 , 0.0 , 0.0 , 0.0 , 0.0 , 

5.0 , 4128.20512821 , 4128.71794872 , 4130.76923077 , 4124.61538462 , 4124.61538462 , 4125.64102564 , 4121.53846154 , 4126.66666667 , 4124.61538462 , 4135.8974359 , 4187.69230769 , 4908.20512821 , 4129.74358974 , 4133.84615385 , 2041.0 , 2036.0 , 8.599 , 0.0 , 0.0 , 0.0 , 0.0 , 

6.0 , 4132.30769231 , 4126.15384615 , 4128.71794872 , 4128.71794872 , 4124.61538462 , 4124.61538462 , 4122.56410256 , 4127.17948718 , 4127.69230769 , 4135.8974359 , 4185.12820513 , 4907.69230769 , 4126.15384615 , 4132.30769231 , 2041.0 , 2037.0 , 8.607 , 0.0 , 0.0 , 0.0 , 0.0 , 

7.0 , 4130.25641026 , 4126.15384615 , 4128.71794872 , 4129.23076923 , 4125.12820513 , 4122.56410256 , 4124.1025641 , 4128.20512821 , 4127.17948718 , 4135.8974359 , 4183.58974359 , 4908.20512821 , 4127.69230769 , 4132.30769231 , 2040.0 , 2036.0 , 8.614 , 0.0 , 0.0 , 0.0 , 0.0 , 

8.0 , 4126.15384615 , 4128.71794872 , 4131.28205128 , 4127.69230769 , 4125.64102564 , 4122.56410256 , 4122.56410256 , 4128.71794872 , 4126.66666667 , 4135.8974359 , 4185.12820513 , 4907.17948718 , 4131.28205128 , 4133.33333333 , 2042.0 , 2035.0 , 8.622 , 0.0 , 0.0 , 0.0 , 0.0 , 

9.0 , 4126.66666667 , 4125.64102564 , 4128.71794872 , 4125.12820513 , 4125.64102564 , 4123.07692308 , 4121.53846154 , 4129.74358974 , 4128.20512821 , 4135.8974359 , 4184.1025641 , 4903.58974359 , 4128.20512821 , 4131.79487179 , 2043.0 , 2036.0 , 8.63 , 0.0 , 0.0 , 0.0 , 0.0 , 

10.0 , 4129.74358974 , 4122.56410256 , 4127.69230769 , 4126.66666667 , 4125.12820513 , 4123.07692308 , 4123.07692308 , 4127.17948718 , 4128.20512821 , 4135.8974359 , 4185.12820513 , 4903.58974359 , 4127.69230769 , 4130.76923077 , 2042.0 , 2036.0 , 8.637 , 0.0 , 0.0 , 0.0 , 0.0 , 

11.0 , 4128.71794872 , 4122.56410256 , 4127.69230769 , 4130.25641026 , 4126.15384615 , 4123.58974359 , 4124.61538462 , 4125.12820513 , 4125.12820513 , 4135.8974359 , 4187.17948718 , 4905.64102564 , 4129.74358974 , 4131.79487179 , 2042.0 , 2035.0 , 8.646 , 0.0 , 0.0 , 0.0 , 0.0 , 

12.0 , 4128.71794872 , 4125.12820513 , 4128.71794872 , 4129.74358974 , 4125.64102564 , 4124.61538462 , 4124.61538462 , 4127.69230769 , 4125.64102564 , 4135.8974359 , 4187.17948718 , 4907.17948718 , 4128.20512821 , 4132.82051282 , 2042.0 , 2035.0 , 8.654 , 0.0 , 0.0 , 0.0 , 0.0 , 

13.0 , 4126.15384615 , 4123.58974359 , 4124.61538462 , 4126.66666667 , 4126.66666667 , 4126.66666667 , 4122.05128205 , 4128.71794872 , 4130.25641026 , 4135.8974359 , 4185.12820513 , 4904.1025641 , 4129.23076923 , 4131.28205128 , 2042.0 , 2034.0 , 8.662 , 0.0 , 0.0 , 0.0 , 0.0 , 

14.0 , 4127.17948718 , 4124.61538462 , 4124.61538462 , 4126.15384615 , 4128.20512821 , 4125.64102564 , 4121.53846154 , 4126.15384615 , 4128.71794872 , 4135.8974359 , 4184.61538462 , 4907.69230769 , 4130.25641026 , 4132.30769231 , 2044.0 , 2035.0 , 8.669 , 0.0 , 0.0 , 0.0 , 0.0 , 

15.0 , 4126.66666667 , 4126.15384615 , 4125.12820513 , 4127.69230769 , 4129.23076923 , 4125.64102564 , 4125.12820513 , 4128.71794872 , 4126.66666667 , 4135.8974359 , 4185.12820513 , 4906.15384615 , 4126.15384615 , 4132.82051282 , 2042.0 , 2035.0 , 8.676 , 0.0 , 0.0 , 0.0 , 0.0 , 

16.0 , 4126.15384615 , 4125.64102564 , 4132.30769231 , 4128.20512821 , 4129.23076923 , 4128.20512821 , 4126.15384615 , 4130.76923077 , 4126.15384615 , 4135.8974359 , 4185.12820513 , 4908.20512821 , 4127.69230769 , 4132.30769231 , 2043.0 , 2035.0 , 8.684 , 0.0 , 0.0 , 0.0 , 0.0 , 

17.0 , 4125.12820513 , 4123.07692308 , 4130.76923077 , 4127.17948718 , 4129.23076923 , 4126.66666667 , 4124.61538462 , 4129.74358974 , 4128.71794872 , 4135.8974359 , 4183.07692308 , 4908.20512821 , 4130.76923077 , 4132.82051282 , 2042.0 , 2035.0 , 8.693 , 0.0 , 0.0 , 0.0 , 0.0 , 

18.0 , 4125.12820513 , 4122.56410256 , 4128.20512821 , 4125.64102564 , 4125.64102564 , 4121.02564103 , 4124.1025641 , 4127.69230769 , 4129.23076923 , 4135.8974359 , 4184.1025641 , 4907.17948718 , 4129.23076923 , 4134.87179487 , 2040.0 , 2035.0 , 8.7 , 0.0 , 0.0 , 0.0 , 0.0 , 

19.0 , 4118.97435897 , 4121.02564103 , 4128.71794872 , 4124.61538462 , 4123.58974359 , 4122.56410256 , 4122.56410256 , 4129.74358974 , 4128.20512821 , 4135.8974359 , 4186.66666667 , 4903.07692308 , 4129.23076923 , 4134.35897436 , 2041.0 , 2035.0 , 8.708 , 0.0 , 0.0 , 0.0 , 0.0 , 

20.0 , 4123.07692308 , 4124.1025641 , 4131.79487179 , 4126.15384615 , 4126.15384615 , 4125.64102564 , 4121.02564103 , 4127.69230769 , 4125.64102564 , 4135.8974359 , 4187.69230769 , 4905.64102564 , 4130.25641026 , 4132.82051282 , 2041.0 , 2035.0 , 8.716 , 0.0 , 0.0 , 0.0 , 0.0 , 

21.0 , 4131.79487179 , 4124.1025641 , 4127.17948718 , 4127.69230769 , 4125.12820513 , 4123.58974359 , 4122.05128205 , 4126.15384615 , 4126.66666667 , 4135.8974359 , 4186.15384615 , 4904.61538462 , 4128.71794872 , 4131.79487179 , 2042.0 , 2036.0 , 8.725 , 0.0 , 0.0 , 0.0 , 0.0 , 

22.0 , 4129.74358974 , 4122.05128205 , 4126.66666667 , 4128.20512821 , 4124.1025641 , 4122.56410256 , 4123.07692308 , 4127.69230769 , 4126.15384615 , 4135.8974359 , 4183.58974359 , 4904.61538462 , 4129.74358974 , 4134.87179487 , 2042.0 , 2034.0 , 8.733 , 0.0 , 0.0 , 0.0 , 0.0 , 

23.0 , 4124.1025641 , 4122.56410256 , 4125.12820513 , 4127.69230769 , 4126.15384615 , 4124.61538462 , 4122.56410256 , 4129.23076923 , 4123.07692308 , 4135.8974359 , 4181.02564103 , 4906.15384615 , 4130.25641026 , 4134.87179487 , 2042.0 , 2035.0 , 8.74 , 0.0 , 0.0 , 0.0 , 0.0 , 

24.0 , 4127.17948718 , 4125.12820513 , 4127.17948718 , 4128.71794872 , 4126.15384615 , 4125.12820513 , 4124.1025641 , 4128.71794872 , 4125.12820513 , 4135.8974359 , 4183.07692308 , 4905.64102564 , 4128.71794872 , 4133.84615385 , 2042.0 , 2035.0 , 8.748 , 0.0 , 0.0 , 0.0 , 0.0 , 

25.0 , 4125.12820513 , 4124.61538462 , 4128.71794872 , 4130.25641026 , 4126.15384615 , 4124.61538462 , 4123.58974359 , 4130.76923077 , 4127.17948718 , 4135.8974359 , 4184.61538462 , 4900.0 , 4127.69230769 , 4133.33333333 , 2041.0 , 2036.0 , 8.756 , 0.0 , 0.0 , 0.0 , 0.0 , 

26.0 , 4121.02564103 , 4125.64102564 , 4128.20512821 , 4130.76923077 , 4127.69230769 , 4124.61538462 , 4121.53846154 , 4132.30769231 , 4123.07692308 , 4135.8974359 , 4184.1025641 , 4901.02564103 , 4128.20512821 , 4132.82051282 , 2040.0 , 2036.0 , 8.764 , 0.0 , 0.0 , 0.0 , 0.0 , 

27.0 , 4126.15384615 , 4126.15384615 , 4128.20512821 , 4130.76923077 , 4126.15384615 , 4124.61538462 , 4122.05128205 , 4129.74358974 , 4123.07692308 , 4135.8974359 , 4183.58974359 , 4905.64102564 , 4129.23076923 , 4132.30769231 , 2043.0 , 2034.0 , 8.772 , 0.0 , 0.0 , 0.0 , 0.0 , 

28.0 , 4129.74358974 , 4123.58974359 , 4127.17948718 , 4127.69230769 , 4123.58974359 , 4124.1025641 , 4124.1025641 , 4128.20512821 , 4127.17948718 , 4135.38461538 , 4182.05128205 , 4903.07692308 , 4126.66666667 , 4131.79487179 , 2041.0 , 2035.0 , 8.78 , 0.0 , 0.0 , 0.0 , 0.0 , 

29.0 , 4127.17948718 , 4123.07692308 , 4127.69230769 , 4126.15384615 , 4125.12820513 , 4125.64102564 , 4124.1025641 , 4127.69230769 , 4127.17948718 , 4134.35897436 , 4183.07692308 , 4902.56410256 , 4124.1025641 , 4132.82051282 , 2042.0 , 2035.0 , 8.788 , 0.0 , 0.0 , 0.0 , 0.0 , 

30.0 , 4121.02564103 , 4123.07692308 , 4126.66666667 , 4128.71794872 , 4127.17948718 , 4126.66666667 , 4120.51282051 , 4128.71794872 , 4126.15384615 , 4134.35897436 , 4185.64102564 , 4905.12820513 , 4128.20512821 , 4132.82051282 , 2042.0 , 2035.0 , 8.795 , 0.0 , 0.0 , 0.0 , 0.0 , 

31.0 , 4122.05128205 , 4123.58974359 , 4128.71794872 , 4129.23076923 , 4127.17948718 , 4125.64102564 , 4121.02564103 , 4129.23076923 , 4125.64102564 , 4134.35897436 , 4187.17948718 , 4906.66666667 , 4131.28205128 , 4134.35897436 , 2042.0 , 2037.0 , 8.803 , 0.0 , 0.0 , 0.0 , 0.0 , 

32.0 , 4126.15384615 , 4122.05128205 , 4126.15384615 , 4125.64102564 , 4125.12820513 , 4123.58974359 , 4123.07692308 , 4128.71794872 , 4126.15384615 , 4134.35897436 , 4185.12820513 , 4903.07692308 , 4127.69230769 , 4132.82051282 , 2041.0 , 2035.0 , 8.811 , 0.0 , 0.0 , 0.0 , 0.0 , 

33.0 , 4128.20512821 , 4124.1025641 , 4129.74358974 , 4126.15384615 , 4122.56410256 , 4122.56410256 , 4123.07692308 , 4127.17948718 , 4124.61538462 , 4134.35897436 , 4186.15384615 , 4907.69230769 , 4127.17948718 , 4134.87179487 , 2042.0 , 2036.0 , 8.819 , 0.0 , 0.0 , 0.0 , 0.0 , 

34.0 , 4127.17948718 , 4125.12820513 , 4127.69230769 , 4129.74358974 , 4123.58974359 , 4124.1025641 , 4123.07692308 , 4130.25641026 , 4125.12820513 , 4134.35897436 , 4184.61538462 , 4908.71794872 , 4128.71794872 , 4133.84615385 , 2042.0 , 2036.0 , 8.826 , 0.0 , 0.0 , 0.0 , 0.0 , 

35.0 , 4131.79487179 , 4126.66666667 , 4127.17948718 , 4129.74358974 , 4124.61538462 , 4125.12820513 , 4125.12820513 , 4128.71794872 , 4128.71794872 , 4134.35897436 , 4182.56410256 , 4908.71794872 , 4127.17948718 , 4128.71794872 , 2041.0 , 2036.0 , 8.834 , 0.0 , 0.0 , 0.0 , 0.0 , 

36.0 , 4127.69230769 , 4124.1025641 , 4125.12820513 , 4127.69230769 , 4125.64102564 , 4123.07692308 , 4122.56410256 , 4123.58974359 , 4133.84615385 , 4134.35897436 , 4183.58974359 , 4905.12820513 , 4126.66666667 , 4130.76923077 , 2042.0 , 2035.0 , 8.842 , 0.0 , 0.0 , 0.0 , 0.0 , 

37.0 , 4120.0 , 4124.1025641 , 4126.66666667 , 4128.20512821 , 4127.17948718 , 4122.05128205 , 4120.51282051 , 4124.61538462 , 4130.76923077 , 4135.38461538 , 4185.64102564 , 4906.15384615 , 4130.76923077 , 4136.41025641 , 2041.0 , 2033.0 , 8.851 , 0.0 , 0.0 , 0.0 , 0.0 , 

38.0 , 4123.07692308 , 4124.1025641 , 4126.15384615 , 4129.23076923 , 4127.69230769 , 4124.1025641 , 4124.1025641 , 4131.79487179 , 4126.66666667 , 4136.41025641 , 4183.07692308 , 4903.58974359 , 4128.71794872 , 4133.33333333 , 2042.0 , 2035.0 , 8.858 , 0.0 , 0.0 , 0.0 , 0.0 , 

39.0 , 4131.79487179 , 4124.1025641 , 4128.20512821 , 4130.25641026 , 4124.61538462 , 4124.1025641 , 4124.61538462 , 4128.71794872 , 4126.66666667 , 4136.41025641 , 4184.1025641 , 4904.61538462 , 4123.58974359 , 4132.30769231 , 2042.0 , 2036.0 , 8.866 , 0.0 , 0.0 , 0.0 , 0.0 , 

40.0 , 4128.71794872 , 4123.58974359 , 4126.66666667 , 4129.74358974 , 4126.15384615 , 4123.58974359 , 4122.05128205 , 4125.64102564 , 4126.66666667 , 4135.8974359 , 4184.61538462 , 4904.61538462 , 4126.15384615 , 4133.33333333 , 2041.0 , 2034.0 , 8.873 , 0.0 , 0.0 , 0.0 , 0.0 , 

41.0 , 4127.69230769 , 4125.64102564 , 4125.64102564 , 4127.69230769 , 4128.20512821 , 4125.12820513 , 4122.05128205 , 4129.23076923 , 4122.56410256 , 4135.38461538 , 4184.1025641 , 4905.12820513 , 4130.76923077 , 4131.79487179 , 2042.0 , 2035.0 , 8.882 , 0.0 , 0.0 , 0.0 , 0.0 , 

42.0 , 4128.20512821 , 4125.12820513 , 4125.12820513 , 4126.15384615 , 4125.64102564 , 4125.64102564 , 4123.07692308 , 4130.25641026 , 4124.61538462 , 4134.35897436 , 4185.12820513 , 4905.12820513 , 4130.76923077 , 4131.28205128 , 2042.0 , 2035.0 , 8.89 , 0.0 , 0.0 , 0.0 , 0.0 , 

43.0 , 4124.61538462 , 4121.53846154 , 4125.64102564 , 4127.69230769 , 4125.12820513 , 4124.61538462 , 4123.07692308 , 4126.66666667 , 4128.71794872 , 4134.35897436 , 4185.12820513 , 4905.64102564 , 4128.20512821 , 4134.87179487 , 2043.0 , 2036.0 , 8.898 , 0.0 , 0.0 , 0.0 , 0.0 , 

44.0 , 4123.07692308 , 4120.51282051 , 4125.12820513 , 4128.71794872 , 4128.20512821 , 4124.1025641 , 4122.05128205 , 4127.69230769 , 4127.69230769 , 4135.38461538 , 4182.56410256 , 4906.66666667 , 4128.71794872 , 4134.87179487 , 2042.0 , 2035.0 , 8.906 , 0.0 , 0.0 , 0.0 , 0.0 , 

45.0 , 4124.61538462 , 4122.05128205 , 4125.12820513 , 4127.69230769 , 4127.69230769 , 4122.05128205 , 4119.48717949 , 4130.25641026 , 4124.1025641 , 4135.8974359 , 4183.07692308 , 4906.15384615 , 4131.28205128 , 4130.76923077 , 2041.0 , 2035.0 , 8.914 , 0.0 , 0.0 , 0.0 , 0.0 , 

46.0 , 4127.69230769 , 4121.53846154 , 4125.12820513 , 4128.20512821 , 4125.64102564 , 4122.56410256 , 4120.0 , 4128.20512821 , 4124.1025641 , 4136.41025641 , 4184.61538462 , 4907.17948718 , 4128.71794872 , 4129.74358974 , 2041.0 , 2036.0 , 8.921 , 0.0 , 0.0 , 0.0 , 0.0 , 

47.0 , 4131.28205128 , 4121.53846154 , 4124.1025641 , 4128.71794872 , 4126.15384615 , 4123.58974359 , 4121.53846154 , 4127.17948718 , 4126.15384615 , 4135.8974359 , 4182.56410256 , 4904.61538462 , 4125.64102564 , 4131.28205128 , 2040.0 , 2034.0 , 8.929 , 0.0 , 0.0 , 0.0 , 0.0 , 

48.0 , 4131.28205128 , 4125.64102564 , 4127.17948718 , 4129.23076923 , 4125.64102564 , 4122.05128205 , 4121.02564103 , 4127.69230769 , 4124.61538462 , 4135.8974359 , 4181.53846154 , 4904.61538462 , 4126.66666667 , 4133.33333333 , 2043.0 , 2035.0 , 8.936 , 0.0 , 0.0 , 0.0 , 0.0 , 

49.0 , 4127.17948718 , 4125.64102564 , 4126.15384615 , 4130.25641026 , 4125.64102564 , 4123.58974359 , 4121.53846154 , 4130.25641026 , 4126.66666667 , 4135.8974359 , 4182.56410256 , 4903.07692308 , 4127.17948718 , 4131.79487179 , 2042.0 , 2034.0 , 8.944 , 0.0 , 0.0 , 0.0 , 0.0 , 

50.0 , 4128.20512821 , 4124.1025641 , 4127.69230769 , 4130.25641026 , 4125.64102564 , 4125.64102564 , 4122.56410256 , 4129.74358974 , 4128.20512821 , 4135.8974359 , 4183.58974359 , 4903.58974359 , 4126.66666667 , 4131.79487179 , 2042.0 , 2034.0 , 8.952 , 0.0 , 0.0 , 0.0 , 0.0 , 

51.0 , 4125.64102564 , 4123.07692308 , 4126.66666667 , 4127.69230769 , 4125.12820513 , 4124.61538462 , 4121.02564103 , 4128.71794872 , 4127.17948718 , 4134.87179487 , 4183.58974359 , 4903.58974359 , 4127.17948718 , 4131.28205128 , 2042.0 , 2034.0 , 8.96 , 0.0 , 0.0 , 0.0 , 0.0 , 

52.0 , 4123.07692308 , 4125.12820513 , 4129.23076923 , 4128.20512821 , 4124.1025641 , 4125.12820513 , 4120.51282051 , 4127.69230769 , 4127.17948718 , 4134.35897436 , 4184.1025641 , 4906.15384615 , 4129.74358974 , 4133.84615385 , 2042.0 , 2034.0 , 8.968 , 0.0 , 0.0 , 0.0 , 0.0 , 

53.0 , 4123.58974359 , 4121.02564103 , 4126.15384615 , 4128.71794872 , 4125.12820513 , 4125.12820513 , 4121.02564103 , 4128.71794872 , 4131.28205128 , 4135.38461538 , 4185.12820513 , 4907.17948718 , 4129.74358974 , 4134.35897436 , 2042.0 , 2036.0 , 8.976 , 0.0 , 0.0 , 0.0 , 0.0 , 

54.0 , 4127.69230769 , 4120.51282051 , 4126.66666667 , 4126.15384615 , 4124.61538462 , 4122.05128205 , 4121.53846154 , 4127.17948718 , 4130.25641026 , 4136.41025641 , 4187.17948718 , 4908.20512821 , 4129.74358974 , 4134.35897436 , 2041.0 , 2035.0 , 8.984 , 0.0 , 0.0 , 0.0 , 0.0 , 

55.0 , 4125.64102564 , 4122.05128205 , 4123.58974359 , 4123.58974359 , 4124.61538462 , 4121.53846154 , 4121.02564103 , 4128.20512821 , 4127.69230769 , 4136.41025641 , 4185.12820513 , 4902.56410256 , 4129.23076923 , 4132.82051282 , 2041.0 , 2035.0 , 8.993 , 0.0 , 0.0 , 0.0 , 0.0 , 

56.0 , 4126.66666667 , 4122.05128205 , 4126.15384615 , 4125.12820513 , 4125.64102564 , 4123.07692308 , 4120.0 , 4129.74358974 , 4126.66666667 , 4135.8974359 , 4182.56410256 , 4906.15384615 , 4131.79487179 , 4135.8974359 , 2042.0 , 2034.0 , 9.0 , 0.0 , 0.0 , 0.0 , 0.0 , 

57.0 , 4127.69230769 , 4121.53846154 , 4127.17948718 , 4127.17948718 , 4126.66666667 , 4123.58974359 , 4121.02564103 , 4126.66666667 , 4125.64102564 , 4135.38461538 , 4183.07692308 , 4907.69230769 , 4131.79487179 , 4134.35897436 , 2042.0 , 2035.0 , 9.007 , 0.0 , 0.0 , 0.0 , 0.0 , 

58.0 , 4127.69230769 , 4125.64102564 , 4127.69230769 , 4127.69230769 , 4125.64102564 , 4123.58974359 , 4123.07692308 , 4125.64102564 , 4124.61538462 , 4134.35897436 , 4185.64102564 , 4905.12820513 , 4127.69230769 , 4130.76923077 , 2042.0 , 2034.0 , 9.016 , 0.0 , 0.0 , 0.0 , 0.0 , 

59.0 , 4124.61538462 , 4124.61538462 , 4124.1025641 , 4127.17948718 , 4126.66666667 , 4123.07692308 , 4122.56410256 , 4128.71794872 , 4126.66666667 , 4133.84615385 , 4183.58974359 , 4901.53846154 , 4129.74358974 , 4129.74358974 , 2040.0 , 2033.0 , 9.023 , 0.0 , 0.0 , 0.0 , 0.0 , 

60.0 , 4126.66666667 , 4124.1025641 , 4124.1025641 , 4126.66666667 , 4127.69230769 , 4122.56410256 , 4120.51282051 , 4127.17948718 , 4126.15384615 , 4134.87179487 , 4181.02564103 , 4905.12820513 , 4132.30769231 , 4133.33333333 , 2041.0 , 2035.0 , 9.032 , 0.0 , 0.0 , 0.0 , 0.0 , 

61.0 , 4130.25641026 , 4125.64102564 , 4126.15384615 , 4126.66666667 , 4126.15384615 , 4122.56410256 , 4120.51282051 , 4127.17948718 , 4126.15384615 , 4136.92307692 , 4182.05128205 , 4906.66666667 , 4126.66666667 , 4133.84615385 , 2041.0 , 2035.0 , 9.04 , 0.0 , 0.0 , 0.0 , 0.0 , 

62.0 , 4127.69230769 , 4125.12820513 , 4124.1025641 , 4127.69230769 , 4124.61538462 , 4121.02564103 , 4121.53846154 , 4129.23076923 , 4127.17948718 , 4136.92307692 , 4184.61538462 , 4905.12820513 , 4124.1025641 , 4131.28205128 , 2042.0 , 2034.0 , 9.048 , 0.0 , 0.0 , 0.0 , 0.0 , 

63.0 , 4124.61538462 , 4123.58974359 , 4123.58974359 , 4127.69230769 , 4125.64102564 , 4122.05128205 , 4121.02564103 , 4129.23076923 , 4125.12820513 , 4135.8974359 , 4184.1025641 , 4905.64102564 , 4128.71794872 , 4133.33333333 , 2042.0 , 2036.0 , 9.056 , 0.0 , 0.0 , 0.0 , 0.0 , 

64.0 , 4126.15384615 , 4123.07692308 , 4128.71794872 , 4126.15384615 , 4126.15384615 , 4124.1025641 , 4120.51282051 , 4128.71794872 , 4125.64102564 , 4135.8974359 , 4182.05128205 , 4907.17948718 , 4129.74358974 , 4134.35897436 , 2042.0 , 2035.0 , 9.064 , 0.0 , 0.0 , 0.0 , 0.0 , 

65.0 , 4128.20512821 , 4122.56410256 , 4132.30769231 , 4125.12820513 , 4124.61538462 , 4123.58974359 , 4122.05128205 , 4127.17948718 , 4127.69230769 , 4136.41025641 , 4182.56410256 , 4908.20512821 , 4127.69230769 , 4133.33333333 , 2041.0 , 2036.0 , 9.07 , 0.0 , 0.0 , 0.0 , 0.0 , 

66.0 , 4127.17948718 , 4123.07692308 , 4126.15384615 , 4123.58974359 , 4126.66666667 , 4124.1025641 , 4121.02564103 , 4127.69230769 , 4128.20512821 , 4135.8974359 , 4183.07692308 , 4905.64102564 , 4128.71794872 , 4133.84615385 , 2040.0 , 2036.0 , 9.079 , 0.0 , 0.0 , 0.0 , 0.0 , 

67.0 , 4127.69230769 , 4125.64102564 , 4125.64102564 , 4122.56410256 , 4127.69230769 , 4125.64102564 , 4116.92307692 , 4131.79487179 , 4127.69230769 , 4135.8974359 , 4182.56410256 , 4906.15384615 , 4130.76923077 , 4134.87179487 , 2041.0 , 2035.0 , 9.087 , 0.0 , 0.0 , 0.0 , 0.0 , 

68.0 , 4127.17948718 , 4123.58974359 , 4125.64102564 , 4122.56410256 , 4125.64102564 , 4123.07692308 , 4117.94871795 , 4131.28205128 , 4127.69230769 , 4135.8974359 , 4183.07692308 , 4904.1025641 , 4130.25641026 , 4132.30769231 , 2041.0 , 2035.0 , 9.095 , 0.0 , 0.0 , 0.0 , 0.0 , 

69.0 , 4126.66666667 , 4125.12820513 , 4127.69230769 , 4125.64102564 , 4125.12820513 , 4121.02564103 , 4123.07692308 , 4126.15384615 , 4124.61538462 , 4135.8974359 , 4185.12820513 , 4906.66666667 , 4130.25641026 , 4132.30769231 , 2042.0 , 2035.0 , 9.103 , 0.0 , 0.0 , 0.0 , 0.0 , 

70.0 , 4123.58974359 , 4125.12820513 , 4127.17948718 , 4128.71794872 , 4128.71794872 , 4123.58974359 , 4122.56410256 , 4129.23076923 , 4125.64102564 , 4136.92307692 , 4184.61538462 , 4906.15384615 , 4131.28205128 , 4133.84615385 , 2042.0 , 2034.0 , 9.11 , 0.0 , 0.0 , 0.0 , 0.0 , 

71.0 , 4124.1025641 , 4124.1025641 , 4128.20512821 , 4128.71794872 , 4128.20512821 , 4124.1025641 , 4120.0 , 4128.20512821 , 4128.20512821 , 4137.43589744 , 4184.1025641 , 4906.66666667 , 4130.76923077 , 4134.35897436 , 2043.0 , 2035.0 , 9.119 , 0.0 , 0.0 , 0.0 , 0.0 , 

72.0 , 4126.15384615 , 4121.02564103 , 4124.61538462 , 4127.17948718 , 4126.66666667 , 4123.07692308 , 4120.51282051 , 4126.15384615 , 4126.15384615 , 4135.38461538 , 4185.12820513 , 4903.58974359 , 4126.66666667 , 4130.76923077 , 2042.0 , 2036.0 , 9.127 , 0.0 , 0.0 , 0.0 , 0.0 , 

73.0 , 4129.74358974 , 4121.53846154 , 4125.64102564 , 4127.69230769 , 4125.64102564 , 4123.58974359 , 4121.02564103 , 4127.17948718 , 4121.02564103 , 4134.35897436 , 4183.58974359 , 4904.61538462 , 4125.12820513 , 4131.79487179 , 2043.0 , 2036.0 , 9.133 , 0.0 , 0.0 , 0.0 , 0.0 , 

74.0 , 4128.20512821 , 4124.1025641 , 4124.1025641 , 4128.71794872 , 4125.64102564 , 4124.1025641 , 4120.51282051 , 4130.25641026 , 4126.15384615 , 4135.38461538 , 4179.48717949 , 4902.56410256 , 4127.17948718 , 4133.84615385 , 2043.0 , 2034.0 , 9.141 , 0.0 , 0.0 , 0.0 , 0.0 , 

75.0 , 4127.17948718 , 4127.17948718 , 4126.66666667 , 4127.17948718 , 4125.12820513 , 4123.58974359 , 4119.48717949 , 4127.69230769 , 4129.74358974 , 4135.38461538 , 4182.05128205 , 4903.58974359 , 4129.23076923 , 4132.82051282 , 2040.0 , 2034.0 , 9.15 , 0.0 , 0.0 , 0.0 , 0.0 , 

76.0 , 4126.15384615 , 4124.61538462 , 4125.12820513 , 4126.15384615 , 4125.12820513 , 4123.07692308 , 4119.48717949 , 4128.20512821 , 4127.17948718 , 4134.87179487 , 4185.12820513 , 4906.66666667 , 4128.71794872 , 4130.76923077 , 2040.0 , 2036.0 , 9.158 , 0.0 , 0.0 , 0.0 , 0.0 , 

77.0 , 4127.17948718 , 4124.61538462 , 4124.61538462 , 4127.69230769 , 4125.64102564 , 4123.07692308 , 4121.02564103 , 4129.23076923 , 4124.1025641 , 4135.8974359 , 4185.64102564 , 4908.71794872 , 4129.23076923 , 4134.87179487 , 2041.0 , 2035.0 , 9.166 , 0.0 , 0.0 , 0.0 , 0.0 , 

78.0 , 4128.20512821 , 4125.64102564 , 4126.15384615 , 4127.69230769 , 4127.69230769 , 4123.07692308 , 4121.53846154 , 4126.66666667 , 4124.61538462 , 4135.38461538 , 4183.58974359 , 4907.17948718 , 4129.74358974 , 4136.41025641 , 2041.0 , 2035.0 , 9.173 , 0.0 , 0.0 , 0.0 , 0.0 , 

79.0 , 4127.17948718 , 4124.1025641 , 4127.69230769 , 4125.64102564 , 4126.15384615 , 4122.05128205 , 4118.97435897 , 4125.64102564 , 4124.61538462 , 4134.87179487 , 4184.1025641 , 4907.69230769 , 4130.25641026 , 4134.35897436 , 2041.0 , 2035.0 , 9.181 , 0.0 , 0.0 , 0.0 , 0.0 , 

80.0 , 4125.64102564 , 4121.02564103 , 4125.12820513 , 4126.15384615 , 4125.12820513 , 4123.58974359 , 4120.0 , 4129.74358974 , 4124.1025641 , 4135.38461538 , 4185.64102564 , 4906.15384615 , 4130.76923077 , 4133.33333333 , 2042.0 , 2035.0 , 9.19 , 0.0 , 0.0 , 0.0 , 0.0 , 

81.0 , 4123.58974359 , 4123.58974359 , 4124.1025641 , 4128.20512821 , 4126.66666667 , 4125.12820513 , 4125.12820513 , 4130.25641026 , 4128.20512821 , 4135.38461538 , 4185.64102564 , 4904.61538462 , 4131.28205128 , 4133.84615385 , 2043.0 , 2035.0 , 9.196 , 0.0 , 0.0 , 0.0 , 0.0 , 

82.0 , 4122.56410256 , 4126.15384615 , 4125.64102564 , 4129.74358974 , 4126.66666667 , 4122.56410256 , 4125.12820513 , 4125.64102564 , 4129.74358974 , 4134.87179487 , 4184.61538462 , 4905.12820513 , 4130.25641026 , 4134.87179487 , 2041.0 , 2036.0 , 9.204 , 0.0 , 0.0 , 0.0 , 0.0 , 

83.0 , 4124.61538462 , 4124.61538462 , 4125.12820513 , 4129.74358974 , 4125.12820513 , 4123.07692308 , 4120.51282051 , 4125.64102564 , 4127.69230769 , 4134.87179487 , 4182.56410256 , 4905.12820513 , 4127.69230769 , 4131.79487179 , 2041.0 , 2035.0 , 9.212 , 0.0 , 0.0 , 0.0 , 0.0 , 

84.0 , 4129.74358974 , 4123.07692308 , 4126.66666667 , 4128.20512821 , 4124.61538462 , 4126.15384615 , 4121.02564103 , 4128.71794872 , 4125.64102564 , 4134.87179487 , 4184.1025641 , 4905.64102564 , 4127.17948718 , 4128.20512821 , 2041.0 , 2035.0 , 9.22 , 0.0 , 0.0 , 0.0 , 0.0 , 

85.0 , 4129.23076923 , 4123.58974359 , 4126.66666667 , 4128.71794872 , 4126.15384615 , 4124.1025641 , 4122.56410256 , 4129.23076923 , 4125.64102564 , 4134.87179487 , 4184.1025641 , 4905.64102564 , 4127.69230769 , 4129.74358974 , 2041.0 , 2035.0 , 9.229 , 0.0 , 0.0 , 0.0 , 0.0 , 

86.0 , 4128.71794872 , 4125.12820513 , 4127.17948718 , 4129.74358974 , 4128.71794872 , 4122.56410256 , 4120.51282051 , 4126.15384615 , 4124.61538462 , 4134.87179487 , 4183.58974359 , 4907.69230769 , 4127.69230769 , 4134.87179487 , 2043.0 , 2033.0 , 9.237 , 0.0 , 0.0 , 0.0 , 0.0 , 

87.0 , 4128.20512821 , 4123.58974359 , 4124.1025641 , 4126.66666667 , 4128.20512821 , 4123.07692308 , 4118.97435897 , 4127.69230769 , 4125.12820513 , 4134.87179487 , 4183.07692308 , 4905.12820513 , 4127.17948718 , 4134.35897436 , 2042.0 , 2035.0 , 9.245 , 0.0 , 0.0 , 0.0 , 0.0 , 

88.0 , 4127.69230769 , 4124.1025641 , 4127.17948718 , 4125.12820513 , 4125.12820513 , 4121.53846154 , 4122.05128205 , 4129.74358974 , 4125.12820513 , 4134.87179487 , 4184.1025641 , 4905.64102564 , 4129.74358974 , 4133.84615385 , 2042.0 , 2036.0 , 9.254 , 0.0 , 0.0 , 0.0 , 0.0 , 

89.0 , 4125.12820513 , 4125.12820513 , 4129.23076923 , 4126.15384615 , 4126.15384615 , 4123.07692308 , 4123.07692308 , 4126.66666667 , 4127.69230769 , 4134.87179487 , 4183.58974359 , 4905.12820513 , 4130.76923077 , 4133.33333333 , 2042.0 , 2034.0 , 9.26 , 0.0 , 0.0 , 0.0 , 0.0 , 

90.0 , 4125.12820513 , 4125.12820513 , 4131.28205128 , 4126.66666667 , 4128.71794872 , 4124.61538462 , 4120.51282051 , 4123.58974359 , 4128.71794872 , 4134.87179487 , 4184.1025641 , 4907.69230769 , 4128.20512821 , 4133.84615385 , 2043.0 , 2035.0 , 9.269 , 0.0 , 0.0 , 0.0 , 0.0 , 

91.0 , 4125.12820513 , 4122.05128205 , 4126.15384615 , 4127.17948718 , 4127.17948718 , 4123.07692308 , 4119.48717949 , 4127.69230769 , 4128.71794872 , 4134.87179487 , 4183.58974359 , 4903.07692308 , 4126.66666667 , 4133.33333333 , 2043.0 , 2034.0 , 9.276 , 0.0 , 0.0 , 0.0 , 0.0 , 

92.0 , 4127.69230769 , 4123.58974359 , 4126.15384615 , 4128.20512821 , 4124.1025641 , 4123.58974359 , 4121.53846154 , 4129.74358974 , 4127.17948718 , 4134.87179487 , 4183.58974359 , 4901.53846154 , 4129.23076923 , 4134.35897436 , 2041.0 , 2034.0 , 9.283 , 0.0 , 0.0 , 0.0 , 0.0 , 

93.0 , 4125.12820513 , 4124.61538462 , 4124.1025641 , 4127.69230769 , 4125.64102564 , 4124.1025641 , 4123.07692308 , 4129.23076923 , 4128.71794872 , 4134.87179487 , 4185.12820513 , 4904.61538462 , 4130.25641026 , 4132.30769231 , 2042.0 , 2034.0 , 9.292 , 0.0 , 0.0 , 0.0 , 0.0 , 

94.0 , 4126.66666667 , 4123.58974359 , 4126.15384615 , 4128.20512821 , 4127.69230769 , 4122.05128205 , 4123.07692308 , 4128.71794872 , 4128.20512821 , 4134.87179487 , 4185.12820513 , 4907.69230769 , 4128.20512821 , 4132.30769231 , 2042.0 , 2035.0 , 9.299 , 0.0 , 0.0 , 0.0 , 0.0 , 

95.0 , 4131.79487179 , 4122.05128205 , 4126.66666667 , 4128.71794872 , 4127.69230769 , 4122.05128205 , 4122.05128205 , 4127.17948718 , 4127.17948718 , 4134.87179487 , 4182.05128205 , 4902.56410256 , 4124.61538462 , 4132.30769231 , 2040.0 , 2034.0 , 9.308 , 0.0 , 0.0 , 0.0 , 0.0 , 

96.0 , 4131.79487179 , 4124.1025641 , 4127.69230769 , 4128.20512821 , 4128.20512821 , 4123.07692308 , 4121.02564103 , 4125.64102564 , 4126.66666667 , 4134.87179487 , 4183.58974359 , 4903.58974359 , 4125.64102564 , 4132.82051282 , 2042.0 , 2036.0 , 9.316 , 0.0 , 0.0 , 0.0 , 0.0 , 

97.0 , 4127.69230769 , 4125.12820513 , 4128.71794872 , 4129.74358974 , 4128.20512821 , 4122.05128205 , 4121.53846154 , 4128.71794872 , 4126.66666667 , 4134.87179487 , 4186.15384615 , 4907.17948718 , 4129.74358974 , 4133.33333333 , 2042.0 , 2036.0 , 9.323 , 0.0 , 0.0 , 0.0 , 0.0 , 

98.0 , 4130.25641026 , 4125.12820513 , 4129.23076923 , 4128.71794872 , 4127.17948718 , 4122.05128205 , 4121.02564103 , 4129.23076923 , 4125.12820513 , 4134.87179487 , 4185.12820513 , 4907.69230769 , 4129.74358974 , 4134.35897436 , 2040.0 , 2036.0 , 9.332 , 0.0 , 0.0 , 0.0 , 0.0 , 

99.0 , 4128.71794872 , 4125.12820513 , 4127.69230769 , 4127.17948718 , 4125.64102564 , 4124.1025641 , 4120.0 , 4129.23076923 , 4124.61538462 , 4134.87179487 , 4184.1025641 , 4906.15384615 , 4127.17948718 , 4133.84615385 , 2041.0 , 2036.0 , 9.338 , 0.0 , 0.0 , 0.0 , 0.0 , 

100.0 , 4124.61538462 , 4124.1025641 , 4128.20512821 , 4127.17948718 , 4126.15384615 , 4125.64102564 , 4121.02564103 , 4130.25641026 , 4124.61538462 , 4134.87179487 , 4184.1025641 , 4907.17948718 , 4130.25641026 , 4133.84615385 , 2041.0 , 2033.0 , 9.347 , 0.0 , 0.0 , 0.0 , 0.0 , 

101.0 , 4127.17948718 , 4125.12820513 , 4131.79487179 , 4126.66666667 , 4127.69230769 , 4125.12820513 , 4121.53846154 , 4129.23076923 , 4126.15384615 , 4134.87179487 , 4185.64102564 , 4909.74358974 , 4133.33333333 , 4135.8974359 , 2043.0 , 2037.0 , 9.354 , 0.0 , 0.0 , 0.0 , 0.0 , 

102.0 , 4125.12820513 , 4126.66666667 , 4128.71794872 , 4126.15384615 , 4127.69230769 , 4125.64102564 , 4121.53846154 , 4129.74358974 , 4129.23076923 , 4134.87179487 , 4186.15384615 , 4907.69230769 , 4131.28205128 , 4133.84615385 , 2043.0 , 2036.0 , 9.363 , 0.0 , 0.0 , 0.0 , 0.0 , 

103.0 , 4123.58974359 , 4126.15384615 , 4128.20512821 , 4128.20512821 , 4127.17948718 , 4125.12820513 , 4123.07692308 , 4128.71794872 , 4127.69230769 , 4134.87179487 , 4184.61538462 , 4906.15384615 , 4130.76923077 , 4132.30769231 , 2042.0 , 2033.0 , 9.371 , 0.0 , 0.0 , 0.0 , 0.0 , 

104.0 , 4129.23076923 , 4124.1025641 , 4127.17948718 , 4129.74358974 , 4129.23076923 , 4124.61538462 , 4122.05128205 , 4124.61538462 , 4126.15384615 , 4134.87179487 , 4184.1025641 , 4902.56410256 , 4129.23076923 , 4132.82051282 , 2043.0 , 2036.0 , 9.378 , 0.0 , 0.0 , 0.0 , 0.0 , 

105.0 , 4132.82051282 , 4127.17948718 , 4127.69230769 , 4128.71794872 , 4127.69230769 , 4125.12820513 , 4121.02564103 , 4123.58974359 , 4126.15384615 , 4134.87179487 , 4185.12820513 , 4903.58974359 , 4128.71794872 , 4132.82051282 , 2041.0 , 2034.0 , 9.387 , 0.0 , 0.0 , 0.0 , 0.0 , 

106.0 , 4128.71794872 , 4125.64102564 , 4126.66666667 , 4127.17948718 , 4124.61538462 , 4125.12820513 , 4121.02564103 , 4128.20512821 , 4126.15384615 , 4134.87179487 , 4182.56410256 , 4903.07692308 , 4126.66666667 , 4131.28205128 , 2043.0 , 2036.0 , 9.394 , 0.0 , 0.0 , 0.0 , 0.0 , 

107.0 , 4129.74358974 , 4123.07692308 , 4127.69230769 , 4127.17948718 , 4126.15384615 , 4122.56410256 , 4121.53846154 , 4127.17948718 , 4125.12820513 , 4134.87179487 , 4182.05128205 , 4905.64102564 , 4127.17948718 , 4134.35897436 , 2043.0 , 2037.0 , 9.401 , 0.0 , 0.0 , 0.0 , 0.0 , 

108.0 , 4130.25641026 , 4124.1025641 , 4123.58974359 , 4126.66666667 , 4127.17948718 , 4121.53846154 , 4121.02564103 , 4125.12820513 , 4128.20512821 , 4134.87179487 , 4183.58974359 , 4904.61538462 , 4130.76923077 , 4133.33333333 , 2041.0 , 2033.0 , 9.409 , 0.0 , 0.0 , 0.0 , 0.0 , 

109.0 , 4129.74358974 , 4128.20512821 , 4129.23076923 , 4125.64102564 , 4126.15384615 , 4123.58974359 , 4120.51282051 , 4126.15384615 , 4130.25641026 , 4134.87179487 , 4184.61538462 , 4906.15384615 , 4131.79487179 , 4133.33333333 , 2042.0 , 2036.0 , 9.418 , 0.0 , 0.0 , 0.0 , 0.0 , 

110.0 , 4123.58974359 , 4125.64102564 , 4127.69230769 , 4125.64102564 , 4125.64102564 , 4123.58974359 , 4122.05128205 , 4129.74358974 , 4126.66666667 , 4134.87179487 , 4183.58974359 , 4903.07692308 , 4131.28205128 , 4134.35897436 , 2040.0 , 2033.0 , 9.425 , 0.0 , 0.0 , 0.0 , 0.0 , 

111.0 , 4123.58974359 , 4123.58974359 , 4127.69230769 , 4127.17948718 , 4125.64102564 , 4122.05128205 , 4122.56410256 , 4128.71794872 , 4126.15384615 , 4134.87179487 , 4184.1025641 , 4904.61538462 , 4132.82051282 , 4134.35897436 , 2041.0 , 2035.0 , 9.433 , 0.0 , 0.0 , 0.0 , 0.0 , 

112.0 , 4126.15384615 , 4124.1025641 , 4130.25641026 , 4124.61538462 , 4126.66666667 , 4122.56410256 , 4118.97435897 , 4127.17948718 , 4128.71794872 , 4134.87179487 , 4184.61538462 , 4907.17948718 , 4133.33333333 , 4133.84615385 , 2042.0 , 2036.0 , 9.442 , 0.0 , 0.0 , 0.0 , 0.0 , 

113.0 , 4127.17948718 , 4125.12820513 , 4132.30769231 , 4124.1025641 , 4128.71794872 , 4124.61538462 , 4120.0 , 4127.17948718 , 4127.17948718 , 4134.87179487 , 4186.15384615 , 4908.20512821 , 4131.79487179 , 4135.38461538 , 2041.0 , 2035.0 , 9.449 , 0.0 , 0.0 , 0.0 , 0.0 , 

114.0 , 4127.69230769 , 4123.58974359 , 4127.17948718 , 4126.15384615 , 4129.23076923 , 4124.61538462 , 4121.02564103 , 4127.17948718 , 4127.69230769 , 4134.87179487 , 4184.61538462 , 4904.1025641 , 4130.76923077 , 4132.82051282 , 2042.0 , 2037.0 , 9.458 , 0.0 , 0.0 , 0.0 , 0.0 , 

115.0 , 4128.20512821 , 4121.02564103 , 4126.66666667 , 4126.66666667 , 4127.17948718 , 4123.58974359 , 4116.41025641 , 4126.15384615 , 4132.30769231 , 4134.35897436 , 4183.58974359 , 4906.66666667 , 4130.76923077 , 4131.28205128 , 2040.0 , 2034.0 , 9.465 , 0.0 , 0.0 , 0.0 , 0.0 , 

116.0 , 4125.12820513 , 4120.0 , 4125.64102564 , 4126.66666667 , 4127.17948718 , 4123.58974359 , 4116.41025641 , 4127.17948718 , 4132.82051282 , 4133.84615385 , 4186.15384615 , 4910.25641026 , 4128.20512821 , 4132.30769231 , 2041.0 , 2034.0 , 9.473 , 0.0 , 0.0 , 0.0 , 0.0 , 

117.0 , 4124.61538462 , 4125.64102564 , 4125.64102564 , 4128.20512821 , 4125.12820513 , 4125.64102564 , 4122.56410256 , 4128.71794872 , 4128.20512821 , 4134.35897436 , 4185.64102564 , 4907.17948718 , 4126.66666667 , 4132.30769231 , 2042.0 , 2034.0 , 9.48 , 0.0 , 0.0 , 0.0 , 0.0 , 

118.0 , 4128.71794872 , 4129.74358974 , 4128.71794872 , 4128.71794872 , 4124.61538462 , 4126.15384615 , 4123.07692308 , 4128.20512821 , 4126.66666667 , 4135.8974359 , 4184.1025641 , 4904.61538462 , 4128.20512821 , 4131.79487179 , 2041.0 , 2033.0 , 9.489 , 0.0 , 0.0 , 0.0 , 0.0 , 

119.0 , 4131.28205128 , 4125.64102564 , 4127.17948718 , 4128.20512821 , 4127.17948718 , 4122.56410256 , 4120.0 , 4127.69230769 , 4125.64102564 , 4137.43589744 , 4184.61538462 , 4907.69230769 , 4130.76923077 , 4132.30769231 , 2041.0 , 2035.0 , 9.497 , 0.0 , 0.0 , 0.0 , 0.0 , 

120.0 , 4131.79487179 , 4123.07692308 , 4125.64102564 , 4127.69230769 , 4129.23076923 , 4121.53846154 , 4121.02564103 , 4127.69230769 , 4125.64102564 , 4136.92307692 , 4185.64102564 , 4909.74358974 , 4130.25641026 , 4131.79487179 , 2041.0 , 2034.0 , 9.504 , 0.0 , 0.0 , 0.0 , 0.0 , 

121.0 , 4128.20512821 , 4125.12820513 , 4126.15384615 , 4125.12820513 , 4128.20512821 , 4124.61538462 , 4123.07692308 , 4129.23076923 , 4128.71794872 , 4135.8974359 , 4184.1025641 , 4905.12820513 , 4129.23076923 , 4133.33333333 , 2041.0 , 2034.0 , 9.514 , 0.0 , 0.0 , 0.0 , 0.0 , 

122.0 , 4125.12820513 , 4126.15384615 , 4127.69230769 , 4127.17948718 , 4127.69230769 , 4125.64102564 , 4122.56410256 , 4128.71794872 , 4129.23076923 , 4136.41025641 , 4182.56410256 , 4905.64102564 , 4129.74358974 , 4138.46153846 , 2042.0 , 2035.0 , 9.522 , 0.0 , 0.0 , 0.0 , 0.0 , 

123.0 , 4122.56410256 , 4123.58974359 , 4124.1025641 , 4129.23076923 , 4126.66666667 , 4124.1025641 , 4121.53846154 , 4128.71794872 , 4128.71794872 , 4136.41025641 , 4182.56410256 , 4905.64102564 , 4131.28205128 , 4136.41025641 , 2043.0 , 2035.0 , 9.528 , 0.0 , 0.0 , 0.0 , 0.0 , 

124.0 , 4124.61538462 , 4124.61538462 , 4125.64102564 , 4127.69230769 , 4124.1025641 , 4123.58974359 , 4120.51282051 , 4126.66666667 , 4128.20512821 , 4135.8974359 , 4185.12820513 , 4906.66666667 , 4131.79487179 , 4130.25641026 , 2042.0 , 2035.0 , 9.535 , 0.0 , 0.0 , 0.0 , 0.0 , 

125.0 , 4129.23076923 , 4124.61538462 , 4125.64102564 , 4127.69230769 , 4125.64102564 , 4123.07692308 , 4121.53846154 , 4127.69230769 , 4128.20512821 , 4135.8974359 , 4184.61538462 , 4905.12820513 , 4128.20512821 , 4126.15384615 , 2041.0 , 2036.0 , 9.544 , 0.0 , 0.0 , 0.0 , 0.0 , 

126.0 , 4131.28205128 , 4126.15384615 , 4126.66666667 , 4130.25641026 , 4127.17948718 , 4124.1025641 , 4123.58974359 , 4127.17948718 , 4127.69230769 , 4135.8974359 , 4184.1025641 , 4907.69230769 , 4125.64102564 , 4129.23076923 , 2041.0 , 2035.0 , 9.551 , 0.0 , 0.0 , 0.0 , 0.0 , 

127.0 , 4123.07692308 , 4126.15384615 , 4123.07692308 , 4129.74358974 , 4127.69230769 , 4126.15384615 , 4123.07692308 , 4128.71794872 , 4129.23076923 , 4135.8974359 , 4185.12820513 , 4905.64102564 , 4128.20512821 , 4131.79487179 , 2042.0 , 2036.0 , 9.559 , 0.0 , 0.0 , 0.0 , 0.0 , 

128.0 , 4122.05128205 , 4125.64102564 , 4126.15384615 , 4127.69230769 , 4127.17948718 , 4124.61538462 , 4119.48717949 , 4129.23076923 , 4129.74358974 , 4135.8974359 , 4186.66666667 , 4905.64102564 , 4129.23076923 , 4133.84615385 , 2043.0 , 2035.0 , 9.568 , 0.0 , 0.0 , 0.0 , 0.0 , 

0.0 , 4126.15384615 , 4122.56410256 , 4126.66666667 , 4128.20512821 , 4127.17948718 , 4122.05128205 , 4121.02564103 , 4129.74358974 , 4129.74358974 , 4135.8974359 , 4184.1025641 , 4904.1025641 , 4127.69230769 , 4132.82051282 , 2042.0 , 2036.0 , 9.576 , 0.0 , 0.0 , 0.0 , 0.0 , 

1.0 , 4129.74358974 , 4122.05128205 , 4127.69230769 , 4129.74358974 , 4126.15384615 , 4124.1025641 , 4125.64102564 , 4127.69230769 , 4127.17948718 , 4135.8974359 , 4185.64102564 , 4908.71794872 , 4129.74358974 , 4132.82051282 , 2042.0 , 2035.0 , 9.584 , 0.0 , 0.0 , 0.0 , 0.0 , 

2.0 , 4127.69230769 , 4122.05128205 , 4126.66666667 , 4128.71794872 , 4124.61538462 , 4126.15384615 , 4123.58974359 , 4126.66666667 , 4126.15384615 , 4135.8974359 , 4187.69230769 , 4909.74358974 , 4131.28205128 , 4134.35897436 , 2041.0 , 2035.0 , 9.592 , 0.0 , 0.0 , 0.0 , 0.0 , 

3.0 , 4125.12820513 , 4124.61538462 , 4128.71794872 , 4126.66666667 , 4124.61538462 , 4124.1025641 , 4120.0 , 4126.66666667 , 4128.20512821 , 4135.8974359 , 4188.20512821 , 4906.66666667 , 4131.79487179 , 4134.87179487 , 2041.0 , 2035.0 , 9.598 , 0.0 , 0.0 , 0.0 , 0.0 , 

4.0 , 4124.1025641 , 4124.61538462 , 4129.23076923 , 4124.1025641 , 4124.61538462 , 4123.07692308 , 4121.02564103 , 4127.69230769 , 4131.28205128 , 4135.8974359 , 4187.69230769 , 4905.64102564 , 4132.30769231 , 4132.82051282 , 2042.0 , 2036.0 , 9.607 , 0.0 , 0.0 , 0.0 , 0.0 , 

5.0 , 4124.1025641 , 4125.64102564 , 4128.71794872 , 4123.58974359 , 4125.12820513 , 4122.56410256 , 4123.07692308 , 4130.25641026 , 4129.23076923 , 4135.8974359 , 4184.1025641 , 4907.17948718 , 4130.76923077 , 4132.82051282 , 2042.0 , 2035.0 , 9.614 , 0.0 , 0.0 , 0.0 , 0.0 , 

6.0 , 4124.61538462 , 4124.61538462 , 4125.12820513 , 4127.17948718 , 4125.64102564 , 4122.05128205 , 4121.53846154 , 4130.76923077 , 4125.64102564 , 4135.8974359 , 4181.02564103 , 4906.66666667 , 4127.69230769 , 4131.79487179 , 2042.0 , 2035.0 , 9.623 , 0.0 , 0.0 , 0.0 , 0.0 , 

7.0 , 4129.23076923 , 4121.02564103 , 4125.12820513 , 4130.76923077 , 4126.66666667 , 4122.56410256 , 4120.51282051 , 4127.69230769 , 4127.69230769 , 4135.8974359 , 4183.58974359 , 4907.69230769 , 4125.64102564 , 4133.84615385 , 2041.0 , 2035.0 , 9.63 , 0.0 , 0.0 , 0.0 , 0.0 , 

8.0 , 4128.71794872 , 4122.56410256 , 4129.23076923 , 4131.28205128 , 4126.66666667 , 4124.1025641 , 4121.02564103 , 4127.17948718 , 4129.23076923 , 4135.8974359 , 4185.64102564 , 4906.66666667 , 4127.69230769 , 4133.84615385 , 2041.0 , 2036.0 , 9.639 , 0.0 , 0.0 , 0.0 , 0.0 , 

9.0 , 4123.07692308 , 4127.17948718 , 4126.66666667 , 4130.25641026 , 4128.20512821 , 4125.12820513 , 4120.51282051 , 4131.28205128 , 4127.69230769 , 4135.8974359 , 4182.56410256 , 4902.56410256 , 4130.76923077 , 4132.82051282 , 2042.0 , 2035.0 , 9.647 , 0.0 , 0.0 , 0.0 , 0.0 , 

10.0 , 4126.66666667 , 4126.15384615 , 4124.1025641 , 4129.74358974 , 4128.20512821 , 4125.64102564 , 4120.0 , 4130.25641026 , 4126.66666667 , 4135.8974359 , 4182.56410256 , 4905.64102564 , 4129.74358974 , 4134.35897436 , 2043.0 , 2035.0 , 9.655 , 0.0 , 0.0 , 0.0 , 0.0 , 

11.0 , 4129.23076923 , 4124.1025641 , 4125.64102564 , 4130.25641026 , 4126.66666667 , 4123.07692308 , 4121.53846154 , 4128.71794872 , 4129.23076923 , 4135.8974359 , 4184.61538462 , 4909.74358974 , 4125.64102564 , 4133.84615385 , 2042.0 , 2037.0 , 9.662 , 0.0 , 0.0 , 0.0 , 0.0 , 

12.0 , 4128.20512821 , 4125.64102564 , 4130.25641026 , 4130.76923077 , 4126.66666667 , 4121.53846154 , 4123.58974359 , 4130.25641026 , 4130.25641026 , 4135.8974359 , 4186.66666667 , 4910.25641026 , 4126.15384615 , 4133.33333333 , 2042.0 , 2038.0 , 9.67 , 0.0 , 0.0 , 0.0 , 0.0 , 

13.0 , 4125.64102564 , 4124.1025641 , 4127.17948718 , 4126.15384615 , 4126.15384615 , 4123.07692308 , 4122.56410256 , 4131.79487179 , 4130.76923077 , 4135.8974359 , 4186.15384615 , 4903.07692308 , 4131.79487179 , 4131.79487179 , 2041.0 , 2036.0 , 9.677 , 0.0 , 0.0 , 0.0 , 0.0 , 

14.0 , 4124.1025641 , 4126.66666667 , 4128.20512821 , 4122.56410256 , 4124.61538462 , 4123.58974359 , 4121.02564103 , 4128.71794872 , 4126.66666667 , 4135.8974359 , 4185.12820513 , 4904.1025641 , 4134.35897436 , 4132.82051282 , 2041.0 , 2035.0 , 9.685 , 0.0 , 0.0 , 0.0 , 0.0 , 

15.0 , 4122.56410256 , 4128.20512821 , 4126.15384615 , 4125.12820513 , 4126.15384615 , 4123.58974359 , 4122.05128205 , 4128.20512821 , 4125.64102564 , 4135.8974359 , 4184.1025641 , 4906.66666667 , 4131.28205128 , 4133.33333333 , 2041.0 , 2036.0 , 9.693 , 0.0 , 0.0 , 0.0 , 0.0 , 

16.0 , 4128.71794872 , 4123.58974359 , 4127.69230769 , 4127.69230769 , 4125.12820513 , 4125.64102564 , 4124.61538462 , 4128.20512821 , 4126.66666667 , 4135.8974359 , 4185.12820513 , 4907.69230769 , 4130.25641026 , 4133.84615385 , 2044.0 , 2036.0 , 9.701 , 0.0 , 0.0 , 0.0 , 0.0 , 

17.0 , 4128.71794872 , 4119.48717949 , 4125.12820513 , 4126.15384615 , 4125.12820513 , 4125.64102564 , 4124.1025641 , 4128.71794872 , 4128.71794872 , 4135.8974359 , 4184.1025641 , 4902.56410256 , 4130.76923077 , 4130.25641026 , 2043.0 , 2037.0 , 9.71 , 0.0 , 0.0 , 0.0 , 0.0 , 

18.0 , 4125.64102564 , 4126.15384615 , 4128.71794872 , 4128.71794872 , 4128.20512821 , 4123.58974359 , 4122.05128205 , 4127.17948718 , 4128.20512821 , 4135.8974359 , 4183.58974359 , 4905.12820513 , 4129.23076923 , 4130.76923077 , 2042.0 , 2034.0 , 9.717 , 0.0 , 0.0 , 0.0 , 0.0 , 

19.0 , 4124.61538462 , 4127.17948718 , 4128.20512821 , 4130.76923077 , 4128.20512821 , 4123.07692308 , 4121.53846154 , 4128.20512821 , 4127.69230769 , 4135.8974359 , 4184.1025641 , 4907.69230769 , 4127.17948718 , 4133.33333333 , 2042.0 , 2035.0 , 9.724 , 0.0 , 0.0 , 0.0 , 0.0 , 

20.0 , 4126.15384615 , 4125.12820513 , 4129.23076923 , 4128.20512821 , 4125.12820513 , 4122.56410256 , 4122.05128205 , 4128.20512821 , 4127.17948718 , 4135.8974359 , 4186.15384615 , 4905.64102564 , 4127.69230769 , 4132.82051282 , 2042.0 , 2037.0 , 9.732 , 0.0 , 0.0 , 0.0 , 0.0 , 

21.0 , 4126.66666667 , 4127.69230769 , 4125.64102564 , 4128.20512821 , 4125.64102564 , 4123.07692308 , 4120.51282051 , 4128.71794872 , 4127.69230769 , 4135.8974359 , 4185.12820513 , 4903.07692308 , 4128.20512821 , 4132.82051282 , 2043.0 , 2036.0 , 9.74 , 0.0 , 0.0 , 0.0 , 0.0 , 

22.0 , 4131.28205128 , 4128.20512821 , 4126.66666667 , 4130.76923077 , 4127.69230769 , 4124.1025641 , 4121.53846154 , 4127.17948718 , 4125.64102564 , 4135.8974359 , 4184.1025641 , 4905.64102564 , 4130.25641026 , 4135.38461538 , 2043.0 , 2033.0 , 9.749 , 0.0 , 0.0 , 0.0 , 0.0 , 

23.0 , 4128.71794872 , 4123.58974359 , 4127.17948718 , 4132.30769231 , 4127.69230769 , 4124.1025641 , 4123.07692308 , 4125.64102564 , 4124.1025641 , 4135.8974359 , 4184.61538462 , 4906.15384615 , 4128.71794872 , 4132.82051282 , 2042.0 , 2035.0 , 9.757 , 0.0 , 0.0 , 0.0 , 0.0 , 

24.0 , 4125.12820513 , 4123.58974359 , 4126.15384615 , 4130.76923077 , 4125.64102564 , 4123.58974359 , 4120.51282051 , 4126.66666667 , 4125.64102564 , 4134.35897436 , 4185.12820513 , 4908.20512821 , 4126.66666667 , 4131.28205128 , 2042.0 , 2036.0 , 9.765 , 0.0 , 0.0 , 0.0 , 0.0 , 

25.0 , 4126.66666667 , 4125.64102564 , 4126.66666667 , 4126.15384615 , 4123.07692308 , 4123.07692308 , 4119.48717949 , 4130.25641026 , 4126.66666667 , 4133.84615385 , 4184.61538462 , 4909.74358974 , 4129.23076923 , 4133.84615385 , 2041.0 , 2035.0 , 9.773 , 0.0 , 0.0 , 0.0 , 0.0 , 

26.0 , 4127.17948718 , 4125.12820513 , 4125.64102564 , 4123.58974359 , 4124.61538462 , 4122.05128205 , 4123.07692308 , 4130.76923077 , 4126.15384615 , 4135.38461538 , 4185.12820513 , 4908.20512821 , 4131.79487179 , 4134.35897436 , 2040.0 , 2036.0 , 9.781 , 0.0 , 0.0 , 0.0 , 0.0 , 

27.0 , 4126.15384615 , 4124.61538462 , 4125.64102564 , 4125.64102564 , 4129.23076923 , 4122.56410256 , 4123.07692308 , 4127.17948718 , 4127.17948718 , 4136.41025641 , 4186.66666667 , 4907.17948718 , 4130.25641026 , 4132.30769231 , 2041.0 , 2035.0 , 9.789 , 0.0 , 0.0 , 0.0 , 0.0 , 

28.0 , 4127.17948718 , 4125.12820513 , 4126.66666667 , 4126.66666667 , 4129.23076923 , 4122.56410256 , 4120.51282051 , 4127.69230769 , 4129.23076923 , 4136.41025641 , 4185.12820513 , 4906.15384615 , 4129.23076923 , 4131.79487179 , 2042.0 , 2035.0 , 9.796 , 0.0 , 0.0 , 0.0 , 0.0 , 

29.0 , 4130.25641026 , 4126.66666667 , 4126.15384615 , 4127.17948718 , 4126.66666667 , 4122.05128205 , 4121.02564103 , 4129.74358974 , 4127.69230769 , 4134.87179487 , 4185.64102564 , 4907.69230769 , 4130.76923077 , 4133.84615385 , 2041.0 , 2036.0 , 9.803 , 0.0 , 0.0 , 0.0 , 0.0 , 

30.0 , 4126.66666667 , 4127.69230769 , 4122.56410256 , 4130.25641026 , 4126.15384615 , 4124.1025641 , 4121.53846154 , 4128.20512821 , 4127.17948718 , 4134.35897436 , 4185.64102564 , 4906.66666667 , 4126.66666667 , 4133.33333333 , 2043.0 , 2035.0 , 9.812 , 0.0 , 0.0 , 0.0 , 0.0 , 

31.0 , 4125.12820513 , 4126.66666667 , 4127.69230769 , 4131.79487179 , 4126.66666667 , 4126.15384615 , 4122.05128205 , 4126.66666667 , 4127.17948718 , 4135.8974359 , 4184.61538462 , 4905.64102564 , 4124.1025641 , 4133.84615385 , 2042.0 , 2034.0 , 9.82 , 0.0 , 0.0 , 0.0 , 0.0 , 

32.0 , 4126.66666667 , 4124.1025641 , 4126.66666667 , 4130.76923077 , 4128.20512821 , 4124.61538462 , 4121.53846154 , 4129.23076923 , 4128.71794872 , 4137.43589744 , 4185.12820513 , 4903.07692308 , 4126.15384615 , 4132.82051282 , 2043.0 , 2035.0 , 9.828 , 0.0 , 0.0 , 0.0 , 0.0 , 

33.0 , 4130.25641026 , 4125.64102564 , 4125.64102564 , 4131.28205128 , 4127.69230769 , 4122.05128205 , 4121.02564103 , 4128.71794872 , 4126.66666667 , 4136.41025641 , 4186.15384615 , 4907.17948718 , 4128.20512821 , 4132.30769231 , 2041.0 , 2035.0 , 9.836 , 0.0 , 0.0 , 0.0 , 0.0 , 

34.0 , 4129.23076923 , 4125.12820513 , 4127.69230769 , 4129.74358974 , 4124.61538462 , 4122.05128205 , 4124.61538462 , 4127.69230769 , 4126.15384615 , 4135.8974359 , 4183.07692308 , 4906.66666667 , 4127.17948718 , 4130.76923077 , 2042.0 , 2036.0 , 9.843 , 0.0 , 0.0 , 0.0 , 0.0 , 

35.0 , 4129.23076923 , 4125.12820513 , 4131.79487179 , 4128.71794872 , 4123.58974359 , 4123.07692308 , 4127.69230769 , 4127.17948718 , 4126.66666667 , 4135.8974359 , 4182.56410256 , 4907.69230769 , 4128.71794872 , 4132.82051282 , 2042.0 , 2034.0 , 9.852 , 0.0 , 0.0 , 0.0 , 0.0 , 

36.0 , 4128.20512821 , 4124.1025641 , 4126.15384615 , 4127.69230769 , 4127.17948718 , 4124.61538462 , 4124.1025641 , 4127.17948718 , 4128.71794872 , 4135.8974359 , 4184.1025641 , 4907.17948718 , 4131.28205128 , 4134.87179487 , 2041.0 , 2034.0 , 9.859 , 0.0 , 0.0 , 0.0 , 0.0 , 

37.0 , 4126.15384615 , 4125.12820513 , 4128.71794872 , 4126.15384615 , 4126.66666667 , 4123.07692308 , 4121.53846154 , 4126.66666667 , 4128.71794872 , 4134.35897436 , 4185.64102564 , 4908.20512821 , 4131.79487179 , 4135.8974359 , 2041.0 , 2036.0 , 9.866 , 0.0 , 0.0 , 0.0 , 0.0 , 

38.0 , 4121.53846154 , 4123.58974359 , 4128.71794872 , 4124.1025641 , 4125.64102564 , 4120.51282051 , 4124.61538462 , 4128.71794872 , 4127.69230769 , 4134.87179487 , 4186.15384615 , 4906.66666667 , 4132.82051282 , 4133.84615385 , 2042.0 , 2035.0 , 9.875 , 0.0 , 0.0 , 0.0 , 0.0 , 

39.0 , 4124.1025641 , 4124.1025641 , 4128.20512821 , 4124.61538462 , 4125.64102564 , 4122.56410256 , 4122.56410256 , 4129.23076923 , 4129.23076923 , 4136.41025641 , 4187.69230769 , 4908.71794872 , 4132.30769231 , 4135.38461538 , 2041.0 , 2036.0 , 9.882 , 0.0 , 0.0 , 0.0 , 0.0 , 

40.0 , 4126.15384615 , 4127.69230769 , 4127.17948718 , 4125.64102564 , 4126.66666667 , 4125.12820513 , 4120.51282051 , 4127.69230769 , 4131.28205128 , 4136.41025641 , 4186.66666667 , 4906.66666667 , 4129.23076923 , 4135.38461538 , 2041.0 , 2036.0 , 9.891 , 0.0 , 0.0 , 0.0 , 0.0 , 

41.0 , 4126.15384615 , 4125.64102564 , 4128.71794872 , 4127.17948718 , 4127.69230769 , 4123.58974359 , 4123.58974359 , 4126.15384615 , 4131.28205128 , 4134.35897436 , 4185.64102564 , 4905.12820513 , 4128.71794872 , 4132.30769231 , 2041.0 , 2035.0 , 9.899 , 0.0 , 0.0 , 0.0 , 0.0 , 

42.0 , 4127.17948718 , 4121.53846154 , 4126.66666667 , 4129.23076923 , 4128.20512821 , 4122.56410256 , 4124.61538462 , 4127.17948718 , 4131.79487179 , 4133.84615385 , 4186.15384615 , 4905.64102564 , 4128.71794872 , 4130.25641026 , 2041.0 , 2035.0 , 9.907 , 0.0 , 0.0 , 0.0 , 0.0 , 

43.0 , 4128.71794872 , 4124.1025641 , 4122.56410256 , 4130.25641026 , 4127.69230769 , 4124.1025641 , 4122.05128205 , 4128.20512821 , 4131.79487179 , 4134.35897436 , 4186.66666667 , 4905.64102564 , 4129.23076923 , 4129.74358974 , 2041.0 , 2034.0 , 9.915 , 0.0 , 0.0 , 0.0 , 0.0 , 

44.0 , 4128.71794872 , 4127.69230769 , 4125.64102564 , 4129.74358974 , 4127.69230769 , 4124.1025641 , 4122.56410256 , 4127.69230769 , 4129.23076923 , 4133.84615385 , 4185.12820513 , 4905.64102564 , 4128.71794872 , 4130.25641026 , 2042.0 , 2034.0 , 9.923 , 0.0 , 0.0 , 0.0 , 0.0 , 

45.0 , 4127.69230769 , 4127.17948718 , 4128.20512821 , 4128.20512821 , 4127.17948718 , 4123.07692308 , 4125.64102564 , 4128.71794872 , 4127.69230769 , 4135.38461538 , 4183.07692308 , 4906.15384615 , 4126.66666667 , 4129.74358974 , 2042.0 , 2035.0 , 9.931 , 0.0 , 0.0 , 0.0 , 0.0 , 

46.0 , 4129.74358974 , 4125.64102564 , 4126.66666667 , 4126.66666667 , 4125.64102564 , 4123.58974359 , 4126.66666667 , 4130.25641026 , 4129.23076923 , 4137.43589744 , 4185.12820513 , 4908.20512821 , 4127.69230769 , 4131.28205128 , 2042.0 , 2035.0 , 9.937 , 0.0 , 0.0 , 0.0 , 0.0 , 

47.0 , 4130.25641026 , 4123.58974359 , 4123.58974359 , 4127.69230769 , 4125.64102564 , 4123.58974359 , 4125.64102564 , 4127.69230769 , 4129.23076923 , 4135.8974359 , 4185.64102564 , 4905.12820513 , 4130.25641026 , 4133.33333333 , 2042.0 , 2035.0 , 9.946 , 0.0 , 0.0 , 0.0 , 0.0 , 

48.0 , 4126.15384615 , 4123.58974359 , 4128.20512821 , 4126.66666667 , 4125.12820513 , 4122.05128205 , 4125.64102564 , 4124.1025641 , 4126.15384615 , 4134.87179487 , 4183.58974359 , 4906.66666667 , 4130.76923077 , 4133.33333333 , 2043.0 , 2035.0 , 9.953 , 0.0 , 0.0 , 0.0 , 0.0 , 

49.0 , 4121.02564103 , 4124.61538462 , 4127.17948718 , 4124.1025641 , 4124.61538462 , 4123.58974359 , 4124.1025641 , 4128.20512821 , 4128.20512821 , 4136.92307692 , 4181.53846154 , 4907.17948718 , 4130.76923077 , 4132.82051282 , 2042.0 , 2036.0 , 9.962 , 0.0 , 0.0 , 0.0 , 0.0 , 

50.0 , 4123.07692308 , 4126.15384615 , 4126.66666667 , 4125.12820513 , 4126.15384615 , 4124.61538462 , 4122.56410256 , 4131.79487179 , 4131.28205128 , 4137.43589744 , 4184.61538462 , 4908.71794872 , 4131.28205128 , 4136.41025641 , 2042.0 , 2036.0 , 9.971 , 0.0 , 0.0 , 0.0 , 0.0 , 

51.0 , 4122.56410256 , 4123.58974359 , 4126.15384615 , 4126.15384615 , 4126.66666667 , 4124.1025641 , 4125.64102564 , 4131.79487179 , 4130.25641026 , 4135.8974359 , 4186.15384615 , 4906.15384615 , 4129.23076923 , 4135.38461538 , 2042.0 , 2036.0 , 9.977 , 0.0 , 0.0 , 0.0 , 0.0 , 

52.0 , 4124.61538462 , 4123.58974359 , 4129.23076923 , 4127.17948718 , 4126.66666667 , 4123.07692308 , 4127.69230769 , 4128.71794872 , 4128.71794872 , 4135.8974359 , 4184.61538462 , 4907.17948718 , 4128.71794872 , 4133.84615385 , 2041.0 , 2033.0 , 9.985 , 0.0 , 0.0 , 0.0 , 0.0 , 

53.0 , 4128.20512821 , 4123.07692308 , 4126.15384615 , 4128.71794872 , 4128.71794872 , 4124.1025641 , 4121.53846154 , 4126.66666667 , 4131.79487179 , 4136.41025641 , 4183.58974359 , 4904.61538462 , 4129.23076923 , 4133.33333333 , 2042.0 , 2035.0 , 9.992 , 0.0 , 0.0 , 0.0 , 0.0 , 

54.0 , 4126.66666667 , 4126.15384615 , 4126.15384615 , 4128.71794872 , 4127.69230769 , 4123.58974359 , 4117.94871795 , 4124.61538462 , 4130.76923077 , 4135.8974359 , 4185.64102564 , 4907.69230769 , 4128.20512821 , 4133.84615385 , 2042.0 , 2035.0 , 10.0 , 0.0 , 0.0 , 0.0 , 0.0 , 

55.0 , 4124.61538462 , 4126.15384615 , 4124.1025641 , 4126.66666667 , 4126.66666667 , 4123.07692308 , 4121.53846154 , 4128.71794872 , 4127.69230769 , 4135.8974359 , 4184.61538462 , 4907.69230769 , 4125.64102564 , 4131.79487179 , 2043.0 , 2034.0 , 10.008 , 0.0 , 0.0 , 0.0 , 0.0 , 

56.0 , 4128.20512821 , 4125.64102564 , 4125.12820513 , 4127.69230769 , 4127.69230769 , 4123.07692308 , 4122.56410256 , 4130.25641026 , 4126.15384615 , 4135.8974359 , 4184.61538462 , 4907.69230769 , 4125.12820513 , 4131.79487179 , 2043.0 , 2033.0 , 10.017 , 0.0 , 0.0 , 0.0 , 0.0 , 

57.0 , 4126.66666667 , 4124.1025641 , 4125.64102564 , 4130.76923077 , 4128.20512821 , 4124.61538462 , 4120.51282051 , 4129.74358974 , 4125.64102564 , 4135.8974359 , 4185.64102564 , 4905.12820513 , 4129.23076923 , 4132.30769231 , 2042.0 , 2036.0 , 10.024 , 0.0 , 0.0 , 0.0 , 0.0 , 

58.0 , 4127.69230769 , 4125.64102564 , 4128.71794872 , 4130.76923077 , 4130.25641026 , 4128.20512821 , 4123.58974359 , 4129.74358974 , 4125.64102564 , 4135.8974359 , 4186.15384615 , 4905.12820513 , 4131.79487179 , 4134.35897436 , 2042.0 , 2036.0 , 10.033 , 0.0 , 0.0 , 0.0 , 0.0 , 

59.0 , 4129.23076923 , 4126.66666667 , 4127.17948718 , 4126.15384615 , 4130.76923077 , 4127.69230769 , 4124.61538462 , 4129.23076923 , 4127.69230769 , 4135.8974359 , 4186.66666667 , 4905.12820513 , 4130.76923077 , 4133.33333333 , 2042.0 , 2035.0 , 10.04 , 0.0 , 0.0 , 0.0 , 0.0 , 

60.0 , 4124.61538462 , 4126.15384615 , 4126.15384615 , 4124.1025641 , 4128.20512821 , 4123.07692308 , 4122.56410256 , 4127.69230769 , 4128.20512821 , 4135.8974359 , 4187.69230769 , 4907.17948718 , 4130.76923077 , 4130.76923077 , 2043.0 , 2035.0 , 10.049 , 0.0 , 0.0 , 0.0 , 0.0 , 

61.0 , 4123.07692308 , 4123.58974359 , 4127.69230769 , 4125.64102564 , 4128.20512821 , 4122.05128205 , 4122.56410256 , 4128.71794872 , 4127.69230769 , 4135.8974359 , 4185.12820513 , 4908.20512821 , 4128.71794872 , 4132.82051282 , 2041.0 , 2037.0 , 10.056 , 0.0 , 0.0 , 0.0 , 0.0 , 

62.0 , 4125.12820513 , 4123.07692308 , 4128.20512821 , 4126.15384615 , 4129.23076923 , 4125.64102564 , 4122.56410256 , 4128.71794872 , 4126.66666667 , 4135.8974359 , 4183.07692308 , 4906.15384615 , 4127.69230769 , 4135.8974359 , 2042.0 , 2036.0 , 10.064 , 0.0 , 0.0 , 0.0 , 0.0 , 

63.0 , 4127.17948718 , 4125.12820513 , 4127.17948718 , 4125.64102564 , 4126.15384615 , 4125.12820513 , 4121.53846154 , 4127.69230769 , 4126.15384615 , 4135.8974359 , 4186.15384615 , 4907.69230769 , 4130.25641026 , 4133.33333333 , 2043.0 , 2035.0 , 10.071 , 0.0 , 0.0 , 0.0 , 0.0 , 

64.0 , 4128.20512821 , 4124.61538462 , 4125.64102564 , 4126.15384615 , 4125.64102564 , 4123.58974359 , 4121.53846154 , 4128.71794872 , 4127.17948718 , 4135.8974359 , 4188.71794872 , 4908.71794872 , 4130.76923077 , 4130.76923077 , 2041.0 , 2035.0 , 10.08 , 0.0 , 0.0 , 0.0 , 0.0 , 

65.0 , 4128.20512821 , 4124.61538462 , 4128.71794872 , 4125.64102564 , 4128.20512821 , 4124.1025641 , 4121.02564103 , 4127.69230769 , 4126.66666667 , 4135.8974359 , 4187.17948718 , 4908.20512821 , 4127.69230769 , 4132.82051282 , 2041.0 , 2036.0 , 10.087 , 0.0 , 0.0 , 0.0 , 0.0 , 

66.0 , 4126.66666667 , 4126.66666667 , 4127.69230769 , 4125.64102564 , 4127.69230769 , 4122.05128205 , 4124.1025641 , 4127.69230769 , 4127.17948718 , 4135.8974359 , 4184.1025641 , 4904.1025641 , 4126.66666667 , 4133.33333333 , 2042.0 , 2035.0 , 10.096 , 0.0 , 0.0 , 0.0 , 0.0 , 

67.0 , 4128.71794872 , 4126.66666667 , 4127.69230769 , 4128.71794872 , 4125.12820513 , 4122.56410256 , 4126.66666667 , 4129.23076923 , 4128.20512821 , 4135.8974359 , 4185.64102564 , 4904.61538462 , 4128.71794872 , 4132.30769231 , 2042.0 , 2036.0 , 10.104 , 0.0 , 0.0 , 0.0 , 0.0 , 

68.0 , 4127.69230769 , 4124.61538462 , 4125.64102564 , 4127.69230769 , 4127.17948718 , 4123.58974359 , 4123.58974359 , 4129.74358974 , 4129.74358974 , 4135.8974359 , 4187.69230769 , 4902.56410256 , 4128.71794872 , 4132.82051282 , 2041.0 , 2035.0 , 10.112 , 0.0 , 0.0 , 0.0 , 0.0 , 

69.0 , 4128.20512821 , 4127.17948718 , 4127.69230769 , 4126.66666667 , 4127.69230769 , 4122.05128205 , 4120.51282051 , 4125.12820513 , 4127.69230769 , 4135.8974359 , 4186.15384615 , 4906.15384615 , 4129.23076923 , 4135.38461538 , 2042.0 , 2034.0 , 10.12 , 0.0 , 0.0 , 0.0 , 0.0 , 

70.0 , 4125.64102564 , 4128.20512821 , 4125.12820513 , 4128.71794872 , 4125.12820513 , 4121.53846154 , 4122.05128205 , 4124.1025641 , 4128.20512821 , 4135.8974359 , 4183.58974359 , 4907.17948718 , 4129.74358974 , 4132.30769231 , 2041.0 , 2035.0 , 10.127 , 0.0 , 0.0 , 0.0 , 0.0 , 

71.0 , 4124.1025641 , 4127.17948718 , 4127.69230769 , 4129.23076923 , 4124.61538462 , 4124.1025641 , 4123.58974359 , 4128.20512821 , 4129.23076923 , 4135.8974359 , 4185.12820513 , 4909.23076923 , 4129.23076923 , 4132.30769231 , 2042.0 , 2035.0 , 10.135 , 0.0 , 0.0 , 0.0 , 0.0 , 

72.0 , 4124.61538462 , 4125.12820513 , 4124.1025641 , 4127.17948718 , 4128.20512821 , 4125.12820513 , 4122.56410256 , 4131.79487179 , 4128.71794872 , 4135.8974359 , 4184.61538462 , 4905.64102564 , 4128.20512821 , 4133.84615385 , 2042.0 , 2036.0 , 10.142 , 0.0 , 0.0 , 0.0 , 0.0 , 

73.0 , 4127.69230769 , 4126.66666667 , 4123.07692308 , 4127.17948718 , 4127.17948718 , 4123.58974359 , 4120.0 , 4129.23076923 , 4125.12820513 , 4135.8974359 , 4182.05128205 , 4905.64102564 , 4127.17948718 , 4131.79487179 , 2041.0 , 2035.0 , 10.15 , 0.0 , 0.0 , 0.0 , 0.0 , 

74.0 , 4128.20512821 , 4125.12820513 , 4125.64102564 , 4128.71794872 , 4125.64102564 , 4122.56410256 , 4123.07692308 , 4128.71794872 , 4125.64102564 , 4135.8974359 , 4182.05128205 , 4907.17948718 , 4126.15384615 , 4127.69230769 , 2042.0 , 2035.0 , 10.159 , 0.0 , 0.0 , 0.0 , 0.0 , 

75.0 , 4128.71794872 , 4123.07692308 , 4129.74358974 , 4128.20512821 , 4127.17948718 , 4122.05128205 , 4125.64102564 , 4127.69230769 , 4129.23076923 , 4135.8974359 , 4186.66666667 , 4910.76923077 , 4127.69230769 , 4132.30769231 , 2041.0 , 2035.0 , 10.168 , 0.0 , 0.0 , 0.0 , 0.0 , 

76.0 , 4126.15384615 , 4122.56410256 , 4126.66666667 , 4126.15384615 , 4127.17948718 , 4123.58974359 , 4121.02564103 , 4126.66666667 , 4128.71794872 , 4135.8974359 , 4187.69230769 , 4908.71794872 , 4128.71794872 , 4135.38461538 , 2041.0 , 2035.0 , 10.174 , 0.0 , 0.0 , 0.0 , 0.0 , 

77.0 , 4124.1025641 , 4126.66666667 , 4127.17948718 , 4127.17948718 , 4126.15384615 , 4125.12820513 , 4119.48717949 , 4127.17948718 , 4124.1025641 , 4135.8974359 , 4185.64102564 , 4904.61538462 , 4127.17948718 , 4132.82051282 , 2042.0 , 2035.0 , 10.182 , 0.0 , 0.0 , 0.0 , 0.0 , 

78.0 , 4125.64102564 , 4127.17948718 , 4127.69230769 , 4127.17948718 , 4126.66666667 , 4124.1025641 , 4122.56410256 , 4128.71794872 , 4125.12820513 , 4135.8974359 , 4185.64102564 , 4903.07692308 , 4127.69230769 , 4132.30769231 , 2042.0 , 2036.0 , 10.189 , 0.0 , 0.0 , 0.0 , 0.0 , 

79.0 , 4128.71794872 , 4124.1025641 , 4128.71794872 , 4127.17948718 , 4124.1025641 , 4121.53846154 , 4121.53846154 , 4127.69230769 , 4127.69230769 , 4135.8974359 , 4186.15384615 , 4905.64102564 , 4129.74358974 , 4133.84615385 , 2043.0 , 2035.0 , 10.198 , 0.0 , 0.0 , 0.0 , 0.0 , 

80.0 , 4127.69230769 , 4124.1025641 , 4128.20512821 , 4128.20512821 , 4123.07692308 , 4121.53846154 , 4121.02564103 , 4126.66666667 , 4126.15384615 , 4135.8974359 , 4184.61538462 , 4905.64102564 , 4128.71794872 , 4131.79487179 , 2043.0 , 2035.0 , 10.205 , 0.0 , 0.0 , 0.0 , 0.0 , 

81.0 , 4123.07692308 , 4124.61538462 , 4125.64102564 , 4126.66666667 , 4127.69230769 , 4123.07692308 , 4122.05128205 , 4128.20512821 , 4127.17948718 , 4135.8974359 , 4183.07692308 , 4903.58974359 , 4128.20512821 , 4129.74358974 , 2042.0 , 2035.0 , 10.213 , 0.0 , 0.0 , 0.0 , 0.0 , 

82.0 , 4125.12820513 , 4125.12820513 , 4126.66666667 , 4125.64102564 , 4127.69230769 , 4123.58974359 , 4121.53846154 , 4128.71794872 , 4129.74358974 , 4135.8974359 , 4184.1025641 , 4906.15384615 , 4130.25641026 , 4132.30769231 , 2042.0 , 2036.0 , 10.221 , 0.0 , 0.0 , 0.0 , 0.0 , 

83.0 , 4130.25641026 , 4125.12820513 , 4128.20512821 , 4127.69230769 , 4124.1025641 , 4123.58974359 , 4121.02564103 , 4128.20512821 , 4128.71794872 , 4135.8974359 , 4184.1025641 , 4907.17948718 , 4129.74358974 , 4134.87179487 , 2043.0 , 2035.0 , 10.229 , 0.0 , 0.0 , 0.0 , 0.0 , 

84.0 , 4129.23076923 , 4124.1025641 , 4129.23076923 , 4128.71794872 , 4125.12820513 , 4123.58974359 , 4121.02564103 , 4127.17948718 , 4125.12820513 , 4135.8974359 , 4184.1025641 , 4908.20512821 , 4128.71794872 , 4134.35897436 , 2043.0 , 2036.0 , 10.236 , 0.0 , 0.0 , 0.0 , 0.0 , 

85.0 , 4124.61538462 , 4123.58974359 , 4123.58974359 , 4124.61538462 , 4127.69230769 , 4122.56410256 , 4121.02564103 , 4130.25641026 , 4126.15384615 , 4135.8974359 , 4185.64102564 , 4906.66666667 , 4127.69230769 , 4131.28205128 , 2042.0 , 2035.0 , 10.244 , 0.0 , 0.0 , 0.0 , 0.0 , 

86.0 , 4129.23076923 , 4127.17948718 , 4122.56410256 , 4124.1025641 , 4124.61538462 , 4122.56410256 , 4121.53846154 , 4127.69230769 , 4127.17948718 , 4135.8974359 , 4184.1025641 , 4906.66666667 , 4128.71794872 , 4131.79487179 , 2041.0 , 2034.0 , 10.252 , 0.0 , 0.0 , 0.0 , 0.0 , 

87.0 , 4128.20512821 , 4126.66666667 , 4123.07692308 , 4125.64102564 , 4122.56410256 , 4123.58974359 , 4122.05128205 , 4125.64102564 , 4129.74358974 , 4135.8974359 , 4180.0 , 4904.61538462 , 4131.28205128 , 4133.33333333 , 2042.0 , 2034.0 , 10.261 , 0.0 , 0.0 , 0.0 , 0.0 , 

88.0 , 4126.66666667 , 4125.64102564 , 4130.25641026 , 4125.12820513 , 4124.61538462 , 4123.58974359 , 4122.56410256 , 4128.71794872 , 4130.25641026 , 4135.8974359 , 4182.56410256 , 4906.15384615 , 4131.28205128 , 4132.82051282 , 2042.0 , 2035.0 , 10.269 , 0.0 , 0.0 , 0.0 , 0.0 , 

89.0 , 4126.66666667 , 4125.64102564 , 4129.74358974 , 4125.64102564 , 4127.69230769 , 4123.58974359 , 4121.53846154 , 4131.79487179 , 4127.17948718 , 4135.8974359 , 4185.64102564 , 4905.12820513 , 4127.17948718 , 4131.79487179 , 2041.0 , 2036.0 , 10.277 , 0.0 , 0.0 , 0.0 , 0.0 , 

90.0 , 4128.20512821 , 4127.69230769 , 4127.17948718 , 4128.20512821 , 4128.71794872 , 4123.07692308 , 4120.51282051 , 4126.15384615 , 4124.1025641 , 4135.8974359 , 4185.64102564 , 4909.23076923 , 4127.69230769 , 4133.84615385 , 2041.0 , 2034.0 , 10.284 , 0.0 , 0.0 , 0.0 , 0.0 , 

91.0 , 4127.17948718 , 4124.61538462 , 4125.12820513 , 4126.15384615 , 4127.69230769 , 4124.61538462 , 4123.58974359 , 4125.12820513 , 4126.66666667 , 4135.8974359 , 4185.12820513 , 4908.20512821 , 4131.28205128 , 4131.79487179 , 2042.0 , 2036.0 , 10.292 , 0.0 , 0.0 , 0.0 , 0.0 , 

92.0 , 4128.71794872 , 4124.1025641 , 4130.76923077 , 4121.53846154 , 4126.15384615 , 4126.15384615 , 4126.15384615 , 4127.17948718 , 4127.69230769 , 4135.8974359 , 4185.64102564 , 4904.61538462 , 4129.74358974 , 4130.76923077 , 2042.0 , 2035.0 , 10.301 , 0.0 , 0.0 , 0.0 , 0.0 , 

93.0 , 4126.66666667 , 4124.1025641 , 4129.23076923 , 4123.07692308 , 4127.17948718 , 4124.61538462 , 4123.07692308 , 4127.17948718 , 4126.66666667 , 4135.8974359 , 4183.58974359 , 4901.02564103 , 4126.15384615 , 4132.30769231 , 2041.0 , 2035.0 , 10.308 , 0.0 , 0.0 , 0.0 , 0.0 , 

94.0 , 4125.12820513 , 4124.61538462 , 4128.20512821 , 4127.69230769 , 4128.71794872 , 4123.07692308 , 4121.02564103 , 4126.66666667 , 4127.17948718 , 4135.8974359 , 4185.12820513 , 4905.12820513 , 4127.69230769 , 4132.82051282 , 2041.0 , 2036.0 , 10.315 , 0.0 , 0.0 , 0.0 , 0.0 , 

95.0 , 4126.15384615 , 4123.58974359 , 4127.69230769 , 4127.69230769 , 4128.71794872 , 4123.58974359 , 4123.07692308 , 4126.66666667 , 4128.71794872 , 4135.8974359 , 4186.15384615 , 4905.12820513 , 4127.17948718 , 4130.25641026 , 2043.0 , 2034.0 , 10.324 , 0.0 , 0.0 , 0.0 , 0.0 , 

96.0 , 4129.23076923 , 4124.1025641 , 4127.17948718 , 4126.66666667 , 4126.15384615 , 4122.56410256 , 4123.58974359 , 4125.64102564 , 4126.66666667 , 4135.8974359 , 4184.61538462 , 4905.64102564 , 4126.15384615 , 4132.30769231 , 2043.0 , 2034.0 , 10.332 , 0.0 , 0.0 , 0.0 , 0.0 , 

97.0 , 4129.23076923 , 4125.64102564 , 4125.12820513 , 4128.71794872 , 4124.61538462 , 4122.56410256 , 4121.53846154 , 4127.17948718 , 4126.15384615 , 4135.8974359 , 4183.58974359 , 4905.12820513 , 4127.17948718 , 4134.35897436 , 2042.0 , 2036.0 , 10.339 , 0.0 , 0.0 , 0.0 , 0.0 , 

98.0 , 4126.66666667 , 4125.64102564 , 4126.66666667 , 4129.74358974 , 4124.1025641 , 4125.64102564 , 4121.53846154 , 4127.69230769 , 4126.66666667 , 4135.8974359 , 4184.61538462 , 4903.07692308 , 4128.20512821 , 4133.84615385 , 2041.0 , 2034.0 , 10.348 , 0.0 , 0.0 , 0.0 , 0.0 , 

99.0 , 4126.66666667 , 4124.61538462 , 4130.76923077 , 4128.71794872 , 4125.64102564 , 4125.12820513 , 4123.07692308 , 4125.64102564 , 4126.15384615 , 4135.8974359 , 4186.15384615 , 4905.64102564 , 4129.74358974 , 4132.82051282 , 2043.0 , 2037.0 , 10.356 , 0.0 , 0.0 , 0.0 , 0.0 , 

100.0 , 4128.71794872 , 4125.64102564 , 4129.74358974 , 4127.17948718 , 4126.15384615 , 4122.05128205 , 4121.02564103 , 4126.66666667 , 4125.64102564 , 4135.8974359 , 4185.12820513 , 4905.64102564 , 4130.76923077 , 4132.30769231 , 2042.0 , 2036.0 , 10.363 , 0.0 , 0.0 , 0.0 , 0.0 , 

101.0 , 4128.20512821 , 4127.17948718 , 4129.23076923 , 4126.66666667 , 4126.15384615 , 4123.58974359 , 4118.97435897 , 4128.71794872 , 4125.12820513 , 4135.8974359 , 4183.07692308 , 4905.12820513 , 4129.74358974 , 4133.84615385 , 2041.0 , 2034.0 , 10.37 , 0.0 , 0.0 , 0.0 , 0.0 , 

102.0 , 4126.66666667 , 4124.61538462 , 4125.64102564 , 4126.66666667 , 4127.69230769 , 4124.1025641 , 4120.51282051 , 4129.23076923 , 4126.66666667 , 4135.8974359 , 4183.07692308 , 4905.12820513 , 4130.76923077 , 4133.84615385 , 2043.0 , 2034.0 , 10.38 , 0.0 , 0.0 , 0.0 , 0.0 , 

103.0 , 4129.74358974 , 4126.15384615 , 4125.64102564 , 4127.17948718 , 4126.66666667 , 4122.56410256 , 4123.07692308 , 4127.69230769 , 4126.66666667 , 4135.8974359 , 4186.15384615 , 4908.71794872 , 4130.25641026 , 4134.35897436 , 2041.0 , 2036.0 , 10.386 , 0.0 , 0.0 , 0.0 , 0.0 , 

104.0 , 4128.71794872 , 4125.64102564 , 4124.61538462 , 4126.15384615 , 4124.61538462 , 4123.07692308 , 4123.58974359 , 4127.17948718 , 4126.66666667 , 4135.8974359 , 4185.12820513 , 4905.12820513 , 4125.12820513 , 4133.33333333 , 2042.0 , 2035.0 , 10.395 , 0.0 , 0.0 , 0.0 , 0.0 , 

105.0 , 4126.15384615 , 4124.1025641 , 4127.17948718 , 4124.61538462 , 4126.15384615 , 4124.61538462 , 4123.58974359 , 4126.15384615 , 4127.17948718 , 4135.8974359 , 4183.58974359 , 4907.69230769 , 4126.66666667 , 4130.76923077 , 2041.0 , 2034.0 , 10.402 , 0.0 , 0.0 , 0.0 , 0.0 , 

106.0 , 4125.64102564 , 4122.56410256 , 4126.66666667 , 4125.64102564 , 4129.23076923 , 4123.58974359 , 4123.07692308 , 4126.15384615 , 4128.71794872 , 4135.8974359 , 4185.12820513 , 4908.71794872 , 4130.25641026 , 4129.23076923 , 2042.0 , 2035.0 , 10.411 , 0.0 , 0.0 , 0.0 , 0.0 , 

107.0 , 4129.74358974 , 4125.12820513 , 4130.76923077 , 4127.69230769 , 4127.69230769 , 4123.58974359 , 4123.07692308 , 4125.12820513 , 4126.66666667 , 4135.8974359 , 4188.20512821 , 4906.15384615 , 4127.69230769 , 4134.35897436 , 2041.0 , 2034.0 , 10.418 , 0.0 , 0.0 , 0.0 , 0.0 , 

108.0 , 4130.76923077 , 4124.61538462 , 4129.23076923 , 4126.66666667 , 4125.12820513 , 4124.1025641 , 4121.02564103 , 4126.66666667 , 4125.12820513 , 4135.8974359 , 4185.12820513 , 4901.53846154 , 4127.69230769 , 4133.84615385 , 2042.0 , 2034.0 , 10.426 , 0.0 , 0.0 , 0.0 , 0.0 , 

109.0 , 4128.71794872 , 4124.61538462 , 4129.23076923 , 4125.64102564 , 4125.64102564 , 4124.1025641 , 4120.0 , 4126.15384615 , 4126.15384615 , 4135.8974359 , 4184.61538462 , 4908.20512821 , 4131.28205128 , 4130.25641026 , 2043.0 , 2035.0 , 10.434 , 0.0 , 0.0 , 0.0 , 0.0 , 

110.0 , 4123.58974359 , 4123.58974359 , 4128.71794872 , 4126.66666667 , 4126.15384615 , 4123.58974359 , 4121.53846154 , 4127.69230769 , 4129.23076923 , 4135.8974359 , 4185.64102564 , 4910.76923077 , 4130.25641026 , 4131.28205128 , 2043.0 , 2034.0 , 10.442 , 0.0 , 0.0 , 0.0 , 0.0 , 

111.0 , 4126.66666667 , 4124.1025641 , 4130.25641026 , 4127.17948718 , 4125.64102564 , 4123.07692308 , 4121.02564103 , 4129.23076923 , 4126.66666667 , 4135.8974359 , 4183.58974359 , 4910.25641026 , 4130.76923077 , 4135.38461538 , 2042.0 , 2036.0 , 10.449 , 0.0 , 0.0 , 0.0 , 0.0 , 

112.0 , 4128.20512821 , 4126.66666667 , 4128.71794872 , 4126.15384615 , 4126.15384615 , 4122.56410256 , 4120.51282051 , 4128.71794872 , 4123.07692308 , 4135.8974359 , 4181.02564103 , 4904.61538462 , 4131.28205128 , 4133.84615385 , 2042.0 , 2035.0 , 10.457 , 0.0 , 0.0 , 0.0 , 0.0 , 

113.0 , 4127.69230769 , 4127.17948718 , 4128.71794872 , 4126.15384615 , 4126.15384615 , 4123.07692308 , 4121.53846154 , 4125.64102564 , 4125.64102564 , 4135.8974359 , 4183.07692308 , 4904.61538462 , 4127.69230769 , 4131.28205128 , 2042.0 , 2035.0 , 10.465 , 0.0 , 0.0 , 0.0 , 0.0 , 

114.0 , 4127.17948718 , 4124.1025641 , 4127.17948718 , 4125.12820513 , 4127.17948718 , 4123.58974359 , 4122.56410256 , 4126.15384615 , 4129.23076923 , 4135.8974359 , 4185.12820513 , 4906.66666667 , 4126.15384615 , 4130.25641026 , 2041.0 , 2035.0 , 10.473 , 0.0 , 0.0 , 0.0 , 0.0 , 

115.0 , 4128.20512821 , 4126.66666667 , 4125.64102564 , 4125.12820513 , 4128.20512821 , 4123.07692308 , 4121.02564103 , 4127.17948718 , 4129.74358974 , 4135.8974359 , 4184.1025641 , 4906.15384615 , 4129.23076923 , 4132.30769231 , 2042.0 , 2036.0 , 10.481 , 0.0 , 0.0 , 0.0 , 0.0 , 

116.0 , 4128.71794872 , 4128.20512821 , 4126.66666667 , 4126.15384615 , 4127.69230769 , 4123.07692308 , 4120.0 , 4126.66666667 , 4129.74358974 , 4135.8974359 , 4184.1025641 , 4904.61538462 , 4130.76923077 , 4134.35897436 , 2041.0 , 2037.0 , 10.49 , 0.0 , 0.0 , 0.0 , 0.0 , 

117.0 , 4128.20512821 , 4125.12820513 , 4130.25641026 , 4125.64102564 , 4126.66666667 , 4124.61538462 , 4120.51282051 , 4126.66666667 , 4129.23076923 , 4135.8974359 , 4185.12820513 , 4904.61538462 , 4130.25641026 , 4132.30769231 , 2042.0 , 2036.0 , 10.497 , 0.0 , 0.0 , 0.0 , 0.0 , 

118.0 , 4124.61538462 , 4124.1025641 , 4129.74358974 , 4128.20512821 , 4125.64102564 , 4125.64102564 , 4121.53846154 , 4128.71794872 , 4127.17948718 , 4135.8974359 , 4185.64102564 , 4906.66666667 , 4130.25641026 , 4130.25641026 , 2042.0 , 2035.0 , 10.505 , 0.0 , 0.0 , 0.0 , 0.0 , 

119.0 , 4123.58974359 , 4125.64102564 , 4126.15384615 , 4130.76923077 , 4126.15384615 , 4125.12820513 , 4123.58974359 , 4130.25641026 , 4127.17948718 , 4135.8974359 , 4184.1025641 , 4907.69230769 , 4130.25641026 , 4131.28205128 , 2041.0 , 2035.0 , 10.514 , 0.0 , 0.0 , 0.0 , 0.0 , 

120.0 , 4128.20512821 , 4125.64102564 , 4130.25641026 , 4129.74358974 , 4126.66666667 , 4124.1025641 , 4122.56410256 , 4128.71794872 , 4129.23076923 , 4135.8974359 , 4185.12820513 , 4906.15384615 , 4129.23076923 , 4134.35897436 , 2043.0 , 2036.0 , 10.521 , 0.0 , 0.0 , 0.0 , 0.0 , 

121.0 , 4128.71794872 , 4123.07692308 , 4130.25641026 , 4128.20512821 , 4126.66666667 , 4122.56410256 , 4119.48717949 , 4128.71794872 , 4128.71794872 , 4135.8974359 , 4186.66666667 , 4904.61538462 , 4127.17948718 , 4133.33333333 , 2043.0 , 2036.0 , 10.529 , 0.0 , 0.0 , 0.0 , 0.0 , 

122.0 , 4127.69230769 , 4125.12820513 , 4128.71794872 , 4128.71794872 , 4125.64102564 , 4122.56410256 , 4118.97435897 , 4126.66666667 , 4126.15384615 , 4135.8974359 , 4186.15384615 , 4909.23076923 , 4128.71794872 , 4131.79487179 , 2041.0 , 2035.0 , 10.536 , 0.0 , 0.0 , 0.0 , 0.0 , 

123.0 , 4125.12820513 , 4127.17948718 , 4126.66666667 , 4127.69230769 , 4125.64102564 , 4123.07692308 , 4121.53846154 , 4127.69230769 , 4125.64102564 , 4135.8974359 , 4183.58974359 , 4905.64102564 , 4129.74358974 , 4129.74358974 , 2041.0 , 2034.0 , 10.545 , 0.0 , 0.0 , 0.0 , 0.0 , 

124.0 , 4126.66666667 , 4128.20512821 , 4129.23076923 , 4126.15384615 , 4126.15384615 , 4122.56410256 , 4121.02564103 , 4128.20512821 , 4125.64102564 , 4135.8974359 , 4183.58974359 , 4903.07692308 , 4129.23076923 , 4130.76923077 , 2040.0 , 2036.0 , 10.552 , 0.0 , 0.0 , 0.0 , 0.0 , 

125.0 , 4128.20512821 , 4125.64102564 , 4127.69230769 , 4126.66666667 , 4126.66666667 , 4122.56410256 , 4120.0 , 4127.69230769 , 4127.17948718 , 4135.8974359 , 4183.07692308 , 4904.61538462 , 4128.71794872 , 4132.30769231 , 2042.0 , 2036.0 , 10.56 , 0.0 , 0.0 , 0.0 , 0.0 , 

126.0 , 4128.20512821 , 4124.61538462 , 4132.30769231 , 4127.17948718 , 4124.1025641 , 4123.58974359 , 4122.05128205 , 4125.64102564 , 4125.12820513 , 4135.8974359 , 4185.12820513 , 4908.71794872 , 4130.25641026 , 4133.84615385 , 2042.0 , 2036.0 , 10.568 , 0.0 , 0.0 , 0.0 , 0.0 , 

127.0 , 4128.71794872 , 4123.58974359 , 4130.76923077 , 4126.15384615 , 4122.05128205 , 4122.56410256 , 4121.53846154 , 4127.69230769 , 4125.12820513 , 4135.8974359 , 4185.64102564 , 4903.58974359 , 4130.25641026 , 4133.33333333 , 2042.0 , 2036.0 , 10.576 , 0.0 , 0.0 , 0.0 , 0.0 , 

128.0 , 4132.30769231 , 4125.12820513 , 4129.23076923 , 4125.64102564 , 4124.61538462 , 4122.05128205 , 4118.97435897 , 4126.15384615 , 4126.66666667 , 4135.8974359 , 4185.64102564 , 4906.66666667 , 4128.71794872 , 4132.30769231 , 2042.0 , 2037.0 , 10.583 , 0.0 , 0.0 , 0.0 , 0.0 , 

0.0 , 4128.71794872 , 4124.1025641 , 4126.15384615 , 4126.66666667 , 4127.69230769 , 4124.1025641 , 4121.53846154 , 4128.20512821 , 4129.74358974 , 4135.8974359 , 4185.64102564 , 4907.17948718 , 4127.69230769 , 4131.79487179 , 2041.0 , 2034.0 , 10.591 , 0.0 , 0.0 , 0.0 , 0.0 , 

1.0 , 4127.17948718 , 4123.07692308 , 4127.69230769 , 4127.69230769 , 4125.64102564 , 4124.61538462 , 4124.1025641 , 4132.30769231 , 4129.23076923 , 4135.8974359 , 4185.64102564 , 4905.64102564 , 4127.69230769 , 4134.87179487 , 2042.0 , 2035.0 , 10.599 , 0.0 , 0.0 , 0.0 , 0.0 , 

2.0 , 4129.74358974 , 4124.61538462 , 4127.69230769 , 4127.17948718 , 4126.66666667 , 4123.58974359 , 4122.56410256 , 4131.79487179 , 4127.69230769 , 4135.8974359 , 4183.58974359 , 4905.64102564 , 4128.71794872 , 4133.84615385 , 2042.0 , 2035.0 , 10.607 , 0.0 , 0.0 , 0.0 , 0.0 , 

3.0 , 4130.25641026 , 4127.69230769 , 4129.23076923 , 4126.66666667 , 4129.23076923 , 4122.05128205 , 4121.02564103 , 4128.20512821 , 4127.17948718 , 4135.8974359 , 4182.56410256 , 4908.20512821 , 4128.71794872 , 4130.25641026 , 2041.0 , 2034.0 , 10.616 , 0.0 , 0.0 , 0.0 , 0.0 , 

4.0 , 4128.20512821 , 4125.12820513 , 4127.69230769 , 4127.17948718 , 4126.66666667 , 4122.56410256 , 4120.51282051 , 4128.71794872 , 4127.17948718 , 4135.8974359 , 4184.61538462 , 4906.66666667 , 4129.23076923 , 4130.25641026 , 2041.0 , 2035.0 , 10.624 , 0.0 , 0.0 , 0.0 , 0.0 , 

5.0 , 4126.66666667 , 4122.56410256 , 4127.17948718 , 4127.69230769 , 4124.1025641 , 4124.61538462 , 4120.0 , 4129.74358974 , 4127.17948718 , 4135.8974359 , 4185.12820513 , 4904.1025641 , 4130.25641026 , 4133.33333333 , 2042.0 , 2036.0 , 10.631 , 0.0 , 0.0 , 0.0 , 0.0 , 

6.0 , 4125.12820513 , 4124.1025641 , 4127.69230769 , 4129.23076923 , 4127.17948718 , 4125.64102564 , 4121.02564103 , 4127.69230769 , 4129.23076923 , 4135.8974359 , 4184.1025641 , 4904.61538462 , 4129.23076923 , 4133.84615385 , 2043.0 , 2037.0 , 10.639 , 0.0 , 0.0 , 0.0 , 0.0 , 

7.0 , 4124.61538462 , 4124.1025641 , 4127.69230769 , 4126.15384615 , 4127.69230769 , 4122.56410256 , 4121.02564103 , 4127.69230769 , 4132.82051282 , 4135.8974359 , 4185.64102564 , 4907.17948718 , 4129.74358974 , 4135.38461538 , 2043.0 , 2036.0 , 10.646 , 0.0 , 0.0 , 0.0 , 0.0 , 

8.0 , 4125.64102564 , 4124.61538462 , 4130.76923077 , 4123.07692308 , 4126.15384615 , 4121.02564103 , 4120.51282051 , 4127.17948718 , 4129.74358974 , 4135.8974359 , 4188.71794872 , 4906.15384615 , 4129.74358974 , 4137.43589744 , 2042.0 , 2036.0 , 10.655 , 0.0 , 0.0 , 0.0 , 0.0 , 

9.0 , 4127.69230769 , 4126.66666667 , 4128.71794872 , 4125.64102564 , 4127.69230769 , 4124.61538462 , 4123.07692308 , 4127.69230769 , 4128.20512821 , 4135.8974359 , 4186.15384615 , 4902.56410256 , 4127.69230769 , 4134.87179487 , 2041.0 , 2035.0 , 10.662 , 0.0 , 0.0 , 0.0 , 0.0 , 

10.0 , 4128.71794872 , 4127.17948718 , 4128.20512821 , 4128.71794872 , 4126.15384615 , 4125.64102564 , 4124.61538462 , 4127.69230769 , 4130.76923077 , 4135.8974359 , 4184.61538462 , 4905.12820513 , 4130.25641026 , 4133.33333333 , 2042.0 , 2037.0 , 10.671 , 0.0 , 0.0 , 0.0 , 0.0 , 

11.0 , 4126.15384615 , 4123.07692308 , 4128.20512821 , 4126.15384615 , 4124.61538462 , 4124.1025641 , 4122.05128205 , 4127.69230769 , 4131.28205128 , 4135.8974359 , 4186.66666667 , 4904.61538462 , 4133.33333333 , 4134.35897436 , 2041.0 , 2035.0 , 10.678 , 0.0 , 0.0 , 0.0 , 0.0 , 

12.0 , 4128.71794872 , 4123.07692308 , 4130.76923077 , 4126.15384615 , 4127.17948718 , 4125.64102564 , 4120.51282051 , 4126.66666667 , 4129.74358974 , 4135.8974359 , 4187.69230769 , 4906.15384615 , 4130.76923077 , 4135.8974359 , 2042.0 , 2035.0 , 10.686 , 0.0 , 0.0 , 0.0 , 0.0 , 

13.0 , 4128.20512821 , 4125.64102564 , 4126.15384615 , 4127.69230769 , 4127.17948718 , 4125.12820513 , 4121.53846154 , 4128.71794872 , 4129.23076923 , 4135.8974359 , 4184.1025641 , 4906.15384615 , 4128.20512821 , 4132.30769231 , 2042.0 , 2037.0 , 10.695 , 0.0 , 0.0 , 0.0 , 0.0 , 

14.0 , 4127.17948718 , 4125.64102564 , 4126.66666667 , 4127.69230769 , 4124.1025641 , 4120.51282051 , 4120.51282051 , 4128.20512821 , 4126.66666667 , 4135.8974359 , 4183.07692308 , 4907.17948718 , 4129.23076923 , 4132.30769231 , 2041.0 , 2035.0 , 10.703 , 0.0 , 0.0 , 0.0 , 0.0 , 

15.0 , 4128.71794872 , 4124.1025641 , 4125.64102564 , 4127.17948718 , 4125.12820513 , 4121.02564103 , 4119.48717949 , 4125.64102564 , 4127.69230769 , 4135.8974359 , 4183.07692308 , 4904.61538462 , 4128.20512821 , 4133.33333333 , 2042.0 , 2035.0 , 10.711 , 0.0 , 0.0 , 0.0 , 0.0 , 

16.0 , 4130.76923077 , 4127.17948718 , 4127.17948718 , 4128.20512821 , 4127.17948718 , 4125.64102564 , 4122.05128205 , 4127.17948718 , 4127.69230769 , 4135.8974359 , 4185.12820513 , 4905.64102564 , 4129.74358974 , 4134.87179487 , 2041.0 , 2034.0 , 10.718 , 0.0 , 0.0 , 0.0 , 0.0 , 

17.0 , 4125.64102564 , 4127.69230769 , 4127.17948718 , 4129.23076923 , 4126.66666667 , 4124.61538462 , 4122.05128205 , 4132.30769231 , 4126.15384615 , 4136.41025641 , 4184.61538462 , 4904.61538462 , 4131.28205128 , 4131.79487179 , 2042.0 , 2036.0 , 10.725 , 0.0 , 0.0 , 0.0 , 0.0 , 

18.0 , 4125.64102564 , 4126.15384615 , 4130.76923077 , 4127.69230769 , 4125.12820513 , 4122.05128205 , 4122.05128205 , 4129.23076923 , 4127.69230769 , 4135.8974359 , 4182.05128205 , 4909.74358974 , 4130.25641026 , 4131.79487179 , 2041.0 , 2036.0 , 10.733 , 0.0 , 0.0 , 0.0 , 0.0 , 

19.0 , 4128.20512821 , 4124.61538462 , 4127.17948718 , 4123.58974359 , 4124.61538462 , 4122.56410256 , 4123.07692308 , 4125.12820513 , 4130.76923077 , 4135.38461538 , 4182.56410256 , 4908.71794872 , 4128.20512821 , 4133.33333333 , 2042.0 , 2035.0 , 10.742 , 0.0 , 0.0 , 0.0 , 0.0 , 

20.0 , 4127.69230769 , 4125.64102564 , 4127.17948718 , 4122.56410256 , 4127.17948718 , 4122.56410256 , 4122.05128205 , 4127.17948718 , 4128.71794872 , 4135.38461538 , 4187.17948718 , 4904.1025641 , 4129.23076923 , 4132.82051282 , 2042.0 , 2035.0 , 10.749 , 0.0 , 0.0 , 0.0 , 0.0 , 

21.0 , 4124.61538462 , 4124.61538462 , 4129.23076923 , 4123.07692308 , 4128.20512821 , 4123.07692308 , 4120.51282051 , 4129.74358974 , 4128.20512821 , 4134.87179487 , 4187.69230769 , 4905.64102564 , 4130.76923077 , 4131.28205128 , 2042.0 , 2035.0 , 10.757 , 0.0 , 0.0 , 0.0 , 0.0 , 

22.0 , 4124.61538462 , 4124.61538462 , 4130.76923077 , 4124.1025641 , 4126.15384615 , 4125.64102564 , 4121.02564103 , 4128.20512821 , 4126.66666667 , 4135.38461538 , 4185.64102564 , 4909.23076923 , 4131.28205128 , 4134.35897436 , 2042.0 , 2035.0 , 10.765 , 0.0 , 0.0 , 0.0 , 0.0 , 

23.0 , 4127.17948718 , 4125.64102564 , 4127.69230769 , 4127.69230769 , 4127.17948718 , 4125.64102564 , 4121.02564103 , 4130.25641026 , 4126.66666667 , 4136.92307692 , 4184.61538462 , 4903.58974359 , 4129.74358974 , 4135.38461538 , 2041.0 , 2035.0 , 10.774 , 0.0 , 0.0 , 0.0 , 0.0 , 

24.0 , 4128.20512821 , 4126.15384615 , 4125.12820513 , 4130.25641026 , 4128.20512821 , 4123.58974359 , 4120.51282051 , 4130.76923077 , 4129.74358974 , 4136.92307692 , 4185.64102564 , 4901.02564103 , 4128.71794872 , 4133.84615385 , 2042.0 , 2035.0 , 10.781 , 0.0 , 0.0 , 0.0 , 0.0 , 

25.0 , 4129.74358974 , 4127.69230769 , 4127.69230769 , 4128.20512821 , 4125.12820513 , 4124.61538462 , 4121.53846154 , 4127.17948718 , 4129.74358974 , 4135.8974359 , 4185.64102564 , 4906.15384615 , 4129.23076923 , 4133.84615385 , 2043.0 , 2035.0 , 10.789 , 0.0 , 0.0 , 0.0 , 0.0 , 

26.0 , 4131.79487179 , 4126.66666667 , 4128.71794872 , 4126.15384615 , 4126.15384615 , 4125.12820513 , 4120.51282051 , 4126.66666667 , 4129.23076923 , 4135.38461538 , 4184.61538462 , 4906.66666667 , 4129.23076923 , 4134.87179487 , 2041.0 , 2036.0 , 10.796 , 0.0 , 0.0 , 0.0 , 0.0 , 

27.0 , 4129.23076923 , 4124.61538462 , 4130.25641026 , 4128.71794872 , 4129.74358974 , 4123.07692308 , 4119.48717949 , 4129.74358974 , 4130.25641026 , 4135.38461538 , 4186.15384615 , 4906.15384615 , 4130.25641026 , 4134.87179487 , 2041.0 , 2035.0 , 10.804 , 0.0 , 0.0 , 0.0 , 0.0 , 

28.0 , 4123.07692308 , 4125.12820513 , 4129.23076923 , 4129.74358974 , 4127.17948718 , 4123.58974359 , 4122.05128205 , 4131.28205128 , 4129.74358974 , 4134.87179487 , 4186.66666667 , 4905.12820513 , 4130.76923077 , 4133.84615385 , 2042.0 , 2037.0 , 10.812 , 0.0 , 0.0 , 0.0 , 0.0 , 

29.0 , 4125.12820513 , 4127.69230769 , 4131.28205128 , 4127.17948718 , 4124.1025641 , 4123.07692308 , 4122.56410256 , 4128.71794872 , 4128.71794872 , 4134.35897436 , 4185.64102564 , 4906.66666667 , 4128.20512821 , 4134.35897436 , 2040.0 , 2035.0 , 10.82 , 0.0 , 0.0 , 0.0 , 0.0 , 

30.0 , 4128.20512821 , 4124.1025641 , 4127.17948718 , 4124.1025641 , 4125.64102564 , 4124.61538462 , 4121.02564103 , 4127.69230769 , 4130.25641026 , 4134.87179487 , 4185.12820513 , 4906.15384615 , 4128.20512821 , 4133.84615385 , 2042.0 , 2038.0 , 10.828 , 0.0 , 0.0 , 0.0 , 0.0 , 

31.0 , 4127.17948718 , 4123.07692308 , 4127.69230769 , 4124.61538462 , 4126.15384615 , 4128.71794872 , 4120.51282051 , 4126.66666667 , 4127.69230769 , 4135.8974359 , 4187.17948718 , 4910.25641026 , 4131.28205128 , 4133.33333333 , 2042.0 , 2036.0 , 10.836 , 0.0 , 0.0 , 0.0 , 0.0 , 

32.0 , 4124.1025641 , 4126.66666667 , 4126.66666667 , 4126.66666667 , 4127.17948718 , 4125.64102564 , 4122.05128205 , 4125.64102564 , 4127.17948718 , 4135.8974359 , 4185.12820513 , 4908.20512821 , 4130.76923077 , 4133.33333333 , 2041.0 , 2035.0 , 10.843 , 0.0 , 0.0 , 0.0 , 0.0 , 

33.0 , 4128.71794872 , 4129.23076923 , 4127.17948718 , 4127.17948718 , 4127.17948718 , 4120.0 , 4121.53846154 , 4124.1025641 , 4130.25641026 , 4135.8974359 , 4184.1025641 , 4905.12820513 , 4128.71794872 , 4132.82051282 , 2041.0 , 2036.0 , 10.851 , 0.0 , 0.0 , 0.0 , 0.0 , 

34.0 , 4128.71794872 , 4126.66666667 , 4124.1025641 , 4124.61538462 , 4125.64102564 , 4125.64102564 , 4121.53846154 , 4125.64102564 , 4131.79487179 , 4135.8974359 , 4183.58974359 , 4902.56410256 , 4128.20512821 , 4130.25641026 , 2042.0 , 2034.0 , 10.86 , 0.0 , 0.0 , 0.0 , 0.0 , 

35.0 , 4129.23076923 , 4127.69230769 , 4128.71794872 , 4125.12820513 , 4123.58974359 , 4128.71794872 , 4122.05128205 , 4127.17948718 , 4129.74358974 , 4135.8974359 , 4184.61538462 , 4905.12820513 , 4128.71794872 , 4132.30769231 , 2042.0 , 2034.0 , 10.869 , 0.0 , 0.0 , 0.0 , 0.0 , 

36.0 , 4130.76923077 , 4126.15384615 , 4128.20512821 , 4127.17948718 , 4125.64102564 , 4123.58974359 , 4123.07692308 , 4130.25641026 , 4127.69230769 , 4135.8974359 , 4183.07692308 , 4905.12820513 , 4128.20512821 , 4134.87179487 , 2042.0 , 2035.0 , 10.877 , 0.0 , 0.0 , 0.0 , 0.0 , 

37.0 , 4131.79487179 , 4123.58974359 , 4129.23076923 , 4127.69230769 , 4127.17948718 , 4123.58974359 , 4124.1025641 , 4128.71794872 , 4126.66666667 , 4135.8974359 , 4184.61538462 , 4910.25641026 , 4129.74358974 , 4134.35897436 , 2041.0 , 2035.0 , 10.883 , 0.0 , 0.0 , 0.0 , 0.0 , 

38.0 , 4125.64102564 , 4124.1025641 , 4127.17948718 , 4126.66666667 , 4129.23076923 , 4127.17948718 , 4122.56410256 , 4126.66666667 , 4131.28205128 , 4135.8974359 , 4186.15384615 , 4908.71794872 , 4130.76923077 , 4132.82051282 , 2042.0 , 2035.0 , 10.891 , 0.0 , 0.0 , 0.0 , 0.0 , 

39.0 , 4124.1025641 , 4125.12820513 , 4129.23076923 , 4128.20512821 , 4127.69230769 , 4126.66666667 , 4120.0 , 4127.17948718 , 4131.79487179 , 4135.8974359 , 4186.15384615 , 4906.15384615 , 4130.25641026 , 4135.38461538 , 2041.0 , 2036.0 , 10.9 , 0.0 , 0.0 , 0.0 , 0.0 , 

40.0 , 4126.66666667 , 4124.1025641 , 4129.23076923 , 4128.71794872 , 4124.1025641 , 4125.12820513 , 4119.48717949 , 4126.15384615 , 4125.64102564 , 4135.8974359 , 4184.61538462 , 4906.15384615 , 4129.74358974 , 4134.87179487 , 2041.0 , 2035.0 , 10.907 , 0.0 , 0.0 , 0.0 , 0.0 , 

41.0 , 4128.20512821 , 4124.1025641 , 4126.66666667 , 4125.64102564 , 4124.1025641 , 4123.58974359 , 4120.51282051 , 4125.64102564 , 4125.64102564 , 4135.8974359 , 4183.58974359 , 4906.15384615 , 4129.23076923 , 4132.82051282 , 2042.0 , 2036.0 , 10.915 , 0.0 , 0.0 , 0.0 , 0.0 , 

42.0 , 4125.64102564 , 4125.64102564 , 4125.64102564 , 4126.15384615 , 4126.15384615 , 4123.07692308 , 4120.0 , 4129.74358974 , 4131.79487179 , 4135.8974359 , 4184.1025641 , 4904.61538462 , 4130.76923077 , 4131.28205128 , 2042.0 , 2037.0 , 10.922 , 0.0 , 0.0 , 0.0 , 0.0 , 

43.0 , 4124.1025641 , 4126.15384615 , 4129.23076923 , 4127.69230769 , 4127.17948718 , 4125.12820513 , 4120.0 , 4131.79487179 , 4129.23076923 , 4136.41025641 , 4185.64102564 , 4904.61538462 , 4131.79487179 , 4133.33333333 , 2041.0 , 2036.0 , 10.931 , 0.0 , 0.0 , 0.0 , 0.0 , 

44.0 , 4127.17948718 , 4124.1025641 , 4130.76923077 , 4127.17948718 , 4125.64102564 , 4125.64102564 , 4121.02564103 , 4128.71794872 , 4125.64102564 , 4135.8974359 , 4185.12820513 , 4907.69230769 , 4129.23076923 , 4134.87179487 , 2041.0 , 2036.0 , 10.939 , 0.0 , 0.0 , 0.0 , 0.0 , 

45.0 , 4128.20512821 , 4123.58974359 , 4126.15384615 , 4125.12820513 , 4125.12820513 , 4125.12820513 , 4118.97435897 , 4128.71794872 , 4128.20512821 , 4135.8974359 , 4183.58974359 , 4908.20512821 , 4128.20512821 , 4131.28205128 , 2041.0 , 2035.0 , 10.947 , 0.0 , 0.0 , 0.0 , 0.0 , 

46.0 , 4129.23076923 , 4126.15384615 , 4129.23076923 , 4126.15384615 , 4126.15384615 , 4125.64102564 , 4120.0 , 4128.71794872 , 4128.20512821 , 4136.41025641 , 4185.12820513 , 4909.74358974 , 4129.74358974 , 4130.25641026 , 2043.0 , 2034.0 , 10.955 , 0.0 , 0.0 , 0.0 , 0.0 , 

47.0 , 4130.76923077 , 4127.17948718 , 4128.71794872 , 4128.71794872 , 4127.69230769 , 4123.58974359 , 4123.07692308 , 4127.17948718 , 4127.17948718 , 4135.38461538 , 4185.64102564 , 4906.15384615 , 4128.20512821 , 4130.76923077 , 2042.0 , 2035.0 , 10.963 , 0.0 , 0.0 , 0.0 , 0.0 , 

48.0 , 4130.25641026 , 4126.66666667 , 4126.66666667 , 4128.71794872 , 4129.23076923 , 4122.05128205 , 4122.56410256 , 4127.69230769 , 4126.66666667 , 4134.35897436 , 4184.1025641 , 4905.64102564 , 4127.17948718 , 4135.38461538 , 2042.0 , 2035.0 , 10.97 , 0.0 , 0.0 , 0.0 , 0.0 , 

49.0 , 4123.07692308 , 4126.15384615 , 4124.1025641 , 4127.17948718 , 4130.25641026 , 4124.61538462 , 4120.51282051 , 4130.25641026 , 4127.69230769 , 4135.38461538 , 4183.07692308 , 4906.15384615 , 4128.71794872 , 4137.43589744 , 2041.0 , 2035.0 , 10.978 , 0.0 , 0.0 , 0.0 , 0.0 , 

50.0 , 4124.1025641 , 4128.20512821 , 4127.17948718 , 4127.69230769 , 4126.66666667 , 4124.61538462 , 4121.53846154 , 4127.69230769 , 4129.23076923 , 4136.41025641 , 4184.1025641 , 4907.69230769 , 4130.25641026 , 4135.38461538 , 2041.0 , 2035.0 , 10.985 , 0.0 , 0.0 , 0.0 , 0.0 , 

51.0 , 4126.15384615 , 4126.15384615 , 4126.15384615 , 4127.17948718 , 4123.58974359 , 4123.07692308 , 4122.56410256 , 4126.15384615 , 4130.76923077 , 4135.8974359 , 4184.1025641 , 4902.56410256 , 4129.74358974 , 4131.79487179 , 2041.0 , 2035.0 , 10.993 , 0.0 , 0.0 , 0.0 , 0.0 , 

52.0 , 4125.64102564 , 4123.58974359 , 4126.15384615 , 4127.17948718 , 4126.15384615 , 4124.61538462 , 4120.51282051 , 4126.66666667 , 4127.17948718 , 4135.8974359 , 4186.15384615 , 4904.1025641 , 4129.74358974 , 4133.33333333 , 2041.0 , 2036.0 , 11.001 , 0.0 , 0.0 , 0.0 , 0.0 , 

53.0 , 4125.12820513 , 4122.05128205 , 4124.61538462 , 4128.71794872 , 4126.15384615 , 4125.12820513 , 4119.48717949 , 4129.23076923 , 4127.17948718 , 4135.8974359 , 4186.15384615 , 4906.15384615 , 4129.74358974 , 4134.35897436 , 2041.0 , 2036.0 , 11.009 , 0.0 , 0.0 , 0.0 , 0.0 , 

54.0 , 4126.66666667 , 4125.64102564 , 4128.71794872 , 4129.23076923 , 4124.1025641 , 4124.1025641 , 4120.51282051 , 4129.23076923 , 4130.25641026 , 4135.8974359 , 4185.64102564 , 4908.20512821 , 4131.28205128 , 4133.33333333 , 2042.0 , 2034.0 , 11.017 , 0.0 , 0.0 , 0.0 , 0.0 , 

55.0 , 4123.07692308 , 4126.15384615 , 4127.17948718 , 4128.71794872 , 4125.12820513 , 4126.15384615 , 4121.02564103 , 4130.25641026 , 4130.76923077 , 4135.8974359 , 4185.12820513 , 4905.64102564 , 4128.71794872 , 4131.79487179 , 2043.0 , 2035.0 , 11.025 , 0.0 , 0.0 , 0.0 , 0.0 , 

56.0 , 4126.15384615 , 4126.15384615 , 4127.17948718 , 4129.23076923 , 4125.64102564 , 4126.15384615 , 4120.51282051 , 4129.74358974 , 4128.20512821 , 4135.8974359 , 4184.61538462 , 4908.20512821 , 4124.61538462 , 4132.82051282 , 2043.0 , 2036.0 , 11.033 , 0.0 , 0.0 , 0.0 , 0.0 , 

57.0 , 4130.25641026 , 4124.61538462 , 4124.61538462 , 4129.23076923 , 4126.66666667 , 4123.58974359 , 4120.51282051 , 4129.23076923 , 4127.17948718 , 4135.8974359 , 4183.58974359 , 4909.23076923 , 4125.64102564 , 4133.33333333 , 2042.0 , 2036.0 , 11.042 , 0.0 , 0.0 , 0.0 , 0.0 , 

58.0 , 4127.69230769 , 4125.12820513 , 4124.61538462 , 4130.25641026 , 4127.17948718 , 4127.17948718 , 4120.0 , 4129.23076923 , 4127.69230769 , 4135.8974359 , 4183.58974359 , 4907.69230769 , 4129.74358974 , 4132.82051282 , 2042.0 , 2036.0 , 11.048 , 0.0 , 0.0 , 0.0 , 0.0 , 

59.0 , 4126.15384615 , 4126.66666667 , 4126.15384615 , 4130.25641026 , 4126.66666667 , 4132.82051282 , 4120.51282051 , 4128.20512821 , 4126.15384615 , 4135.8974359 , 4184.61538462 , 4906.15384615 , 4128.20512821 , 4131.79487179 , 2042.0 , 2034.0 , 11.057 , 0.0 , 0.0 , 0.0 , 0.0 , 

60.0 , 4128.71794872 , 4127.17948718 , 4129.23076923 , 4128.20512821 , 4126.66666667 , 4129.23076923 , 4122.56410256 , 4127.17948718 , 4124.1025641 , 4135.8974359 , 4186.15384615 , 4906.15384615 , 4126.15384615 , 4132.30769231 , 2040.0 , 2034.0 , 11.065 , 0.0 , 0.0 , 0.0 , 0.0 , 

61.0 , 4127.17948718 , 4124.61538462 , 4128.20512821 , 4127.17948718 , 4126.15384615 , 4124.1025641 , 4121.53846154 , 4126.66666667 , 4124.1025641 , 4135.8974359 , 4185.12820513 , 4907.17948718 , 4129.74358974 , 4133.84615385 , 2042.0 , 2034.0 , 11.074 , 0.0 , 0.0 , 0.0 , 0.0 , 

62.0 , 4127.17948718 , 4122.56410256 , 4126.66666667 , 4128.20512821 , 4125.64102564 , 4127.69230769 , 4119.48717949 , 4128.71794872 , 4126.66666667 , 4135.8974359 , 4184.1025641 , 4908.71794872 , 4132.82051282 , 4137.43589744 , 2041.0 , 2035.0 , 11.081 , 0.0 , 0.0 , 0.0 , 0.0 , 

63.0 , 4127.17948718 , 4123.58974359 , 4126.15384615 , 4127.69230769 , 4126.66666667 , 4130.76923077 , 4120.0 , 4130.76923077 , 4127.17948718 , 4135.8974359 , 4184.61538462 , 4909.23076923 , 4129.74358974 , 4136.41025641 , 2041.0 , 2035.0 , 11.088 , 0.0 , 0.0 , 0.0 , 0.0 , 

64.0 , 4122.05128205 , 4124.61538462 , 4122.56410256 , 4126.66666667 , 4126.15384615 , 4128.71794872 , 4121.53846154 , 4130.76923077 , 4128.71794872 , 4135.8974359 , 4184.61538462 , 4904.1025641 , 4128.20512821 , 4132.82051282 , 2042.0 , 2034.0 , 11.096 , 0.0 , 0.0 , 0.0 , 0.0 , 

65.0 , 4124.1025641 , 4126.15384615 , 4128.20512821 , 4126.66666667 , 4124.61538462 , 4127.69230769 , 4121.53846154 , 4127.69230769 , 4128.20512821 , 4135.8974359 , 4184.61538462 , 4906.66666667 , 4130.25641026 , 4134.35897436 , 2042.0 , 2035.0 , 11.105 , 0.0 , 0.0 , 0.0 , 0.0 , 

66.0 , 4128.71794872 , 4124.61538462 , 4130.76923077 , 4126.66666667 , 4127.17948718 , 4125.64102564 , 4121.02564103 , 4127.69230769 , 4129.23076923 , 4135.8974359 , 4183.58974359 , 4908.20512821 , 4127.69230769 , 4133.84615385 , 2043.0 , 2036.0 , 11.112 , 0.0 , 0.0 , 0.0 , 0.0 , 

67.0 , 4127.69230769 , 4124.61538462 , 4129.74358974 , 4127.69230769 , 4126.66666667 , 4124.1025641 , 4121.53846154 , 4128.20512821 , 4128.71794872 , 4135.8974359 , 4184.61538462 , 4908.71794872 , 4127.17948718 , 4132.30769231 , 2041.0 , 2036.0 , 11.12 , 0.0 , 0.0 , 0.0 , 0.0 , 

68.0 , 4126.66666667 , 4125.64102564 , 4126.66666667 , 4129.23076923 , 4124.1025641 , 4123.58974359 , 4124.1025641 , 4128.71794872 , 4127.17948718 , 4135.8974359 , 4185.64102564 , 4906.66666667 , 4129.23076923 , 4132.30769231 , 2042.0 , 2035.0 , 11.128 , 0.0 , 0.0 , 0.0 , 0.0 , 

69.0 , 4130.76923077 , 4127.17948718 , 4130.25641026 , 4129.23076923 , 4125.64102564 , 4124.61538462 , 4124.1025641 , 4127.17948718 , 4127.17948718 , 4135.8974359 , 4185.64102564 , 4909.23076923 , 4128.20512821 , 4133.84615385 , 2040.0 , 2035.0 , 11.136 , 0.0 , 0.0 , 0.0 , 0.0 , 

70.0 , 4129.74358974 , 4125.64102564 , 4128.71794872 , 4127.17948718 , 4129.23076923 , 4123.58974359 , 4121.02564103 , 4129.23076923 , 4129.74358974 , 4135.8974359 , 4184.61538462 , 4907.69230769 , 4126.66666667 , 4131.28205128 , 2042.0 , 2035.0 , 11.144 , 0.0 , 0.0 , 0.0 , 0.0 , 

71.0 , 4126.66666667 , 4126.66666667 , 4127.17948718 , 4127.69230769 , 4129.23076923 , 4123.58974359 , 4120.51282051 , 4129.23076923 , 4127.17948718 , 4135.8974359 , 4185.12820513 , 4908.20512821 , 4130.25641026 , 4132.30769231 , 2043.0 , 2037.0 , 11.152 , 0.0 , 0.0 , 0.0 , 0.0 , 

72.0 , 4125.64102564 , 4124.1025641 , 4124.1025641 , 4129.23076923 , 4128.20512821 , 4124.1025641 , 4124.1025641 , 4125.64102564 , 4126.66666667 , 4135.8974359 , 4184.61538462 , 4904.61538462 , 4129.74358974 , 4132.82051282 , 2043.0 , 2034.0 , 11.16 , 0.0 , 0.0 , 0.0 , 0.0 , 

73.0 , 4128.71794872 , 4122.56410256 , 4127.17948718 , 4129.23076923 , 4127.17948718 , 4123.58974359 , 4124.61538462 , 4124.61538462 , 4127.69230769 , 4135.8974359 , 4184.1025641 , 4905.64102564 , 4127.69230769 , 4130.76923077 , 2042.0 , 2034.0 , 11.168 , 0.0 , 0.0 , 0.0 , 0.0 , 

74.0 , 4122.56410256 , 4125.12820513 , 4128.20512821 , 4127.17948718 , 4126.15384615 , 4122.56410256 , 4122.56410256 , 4129.74358974 , 4127.17948718 , 4135.8974359 , 4185.64102564 , 4908.71794872 , 4127.69230769 , 4132.30769231 , 2041.0 , 2035.0 , 11.174 , 0.0 , 0.0 , 0.0 , 0.0 , 

75.0 , 4122.05128205 , 4126.15384615 , 4128.20512821 , 4127.69230769 , 4126.15384615 , 4125.12820513 , 4122.56410256 , 4129.23076923 , 4127.17948718 , 4135.8974359 , 4186.15384615 , 4908.71794872 , 4128.71794872 , 4134.87179487 , 2041.0 , 2035.0 , 11.183 , 0.0 , 0.0 , 0.0 , 0.0 , 

76.0 , 4128.71794872 , 4123.07692308 , 4125.64102564 , 4128.71794872 , 4126.15384615 , 4126.66666667 , 4123.58974359 , 4124.61538462 , 4128.71794872 , 4135.8974359 , 4184.61538462 , 4905.12820513 , 4128.20512821 , 4132.82051282 , 2043.0 , 2035.0 , 11.19 , 0.0 , 0.0 , 0.0 , 0.0 , 

77.0 , 4130.76923077 , 4122.56410256 , 4129.23076923 , 4128.71794872 , 4125.64102564 , 4122.05128205 , 4122.56410256 , 4123.58974359 , 4126.15384615 , 4135.8974359 , 4184.61538462 , 4906.15384615 , 4128.71794872 , 4130.25641026 , 2041.0 , 2034.0 , 11.199 , 0.0 , 0.0 , 0.0 , 0.0 , 

78.0 , 4129.23076923 , 4124.1025641 , 4130.76923077 , 4128.71794872 , 4123.58974359 , 4121.02564103 , 4122.05128205 , 4126.15384615 , 4125.12820513 , 4135.8974359 , 4183.58974359 , 4906.15384615 , 4127.69230769 , 4132.30769231 , 2042.0 , 2035.0 , 11.207 , 0.0 , 0.0 , 0.0 , 0.0 , 

79.0 , 4128.20512821 , 4123.07692308 , 4127.69230769 , 4128.71794872 , 4122.05128205 , 4126.15384615 , 4123.07692308 , 4128.20512821 , 4130.76923077 , 4135.8974359 , 4185.12820513 , 4905.12820513 , 4126.66666667 , 4135.38461538 , 2041.0 , 2036.0 , 11.214 , 0.0 , 0.0 , 0.0 , 0.0 , 

80.0 , 4124.1025641 , 4123.07692308 , 4128.20512821 , 4128.71794872 , 4124.1025641 , 4127.17948718 , 4123.07692308 , 4128.71794872 , 4133.33333333 , 4135.8974359 , 4186.15384615 , 4906.66666667 , 4131.79487179 , 4134.35897436 , 2040.0 , 2035.0 , 11.222 , 0.0 , 0.0 , 0.0 , 0.0 , 

81.0 , 4125.12820513 , 4124.1025641 , 4128.20512821 , 4128.20512821 , 4126.15384615 , 4123.07692308 , 4121.53846154 , 4130.25641026 , 4129.74358974 , 4135.8974359 , 4183.58974359 , 4906.66666667 , 4133.33333333 , 4131.79487179 , 2042.0 , 2034.0 , 11.231 , 0.0 , 0.0 , 0.0 , 0.0 , 

82.0 , 4130.76923077 , 4124.1025641 , 4127.69230769 , 4128.71794872 , 4127.17948718 , 4122.05128205 , 4121.53846154 , 4128.71794872 , 4127.17948718 , 4135.8974359 , 4185.12820513 , 4908.71794872 , 4127.17948718 , 4131.79487179 , 2041.0 , 2034.0 , 11.237 , 0.0 , 0.0 , 0.0 , 0.0 , 

83.0 , 4126.66666667 , 4123.58974359 , 4125.64102564 , 4130.76923077 , 4128.71794872 , 4124.61538462 , 4122.05128205 , 4126.66666667 , 4129.74358974 , 4135.8974359 , 4186.15384615 , 4905.64102564 , 4126.15384615 , 4133.33333333 , 2042.0 , 2035.0 , 11.245 , 0.0 , 0.0 , 0.0 , 0.0 , 

84.0 , 4125.64102564 , 4124.1025641 , 4127.17948718 , 4131.79487179 , 4128.20512821 , 4127.17948718 , 4123.07692308 , 4127.17948718 , 4130.25641026 , 4135.8974359 , 4182.56410256 , 4903.07692308 , 4129.74358974 , 4133.84615385 , 2042.0 , 2034.0 , 11.253 , 0.0 , 0.0 , 0.0 , 0.0 , 

85.0 , 4126.66666667 , 4125.12820513 , 4124.61538462 , 4129.74358974 , 4126.66666667 , 4126.66666667 , 4125.64102564 , 4129.74358974 , 4129.23076923 , 4135.8974359 , 4181.02564103 , 4902.56410256 , 4129.74358974 , 4131.79487179 , 2041.0 , 2034.0 , 11.261 , 0.0 , 0.0 , 0.0 , 0.0 , 

86.0 , 4127.17948718 , 4127.17948718 , 4128.71794872 , 4127.17948718 , 4126.15384615 , 4124.61538462 , 4127.17948718 , 4127.17948718 , 4129.74358974 , 4135.8974359 , 4184.61538462 , 4908.20512821 , 4127.69230769 , 4133.33333333 , 2040.0 , 2035.0 , 11.269 , 0.0 , 0.0 , 0.0 , 0.0 , 

87.0 , 4126.66666667 , 4126.15384615 , 4128.20512821 , 4126.66666667 , 4127.17948718 , 4125.12820513 , 4122.05128205 , 4127.17948718 , 4128.71794872 , 4135.8974359 , 4183.07692308 , 4908.20512821 , 4127.17948718 , 4134.87179487 , 2041.0 , 2035.0 , 11.277 , 0.0 , 0.0 , 0.0 , 0.0 , 

88.0 , 4128.71794872 , 4128.20512821 , 4128.20512821 , 4127.17948718 , 4126.66666667 , 4125.12820513 , 4119.48717949 , 4128.71794872 , 4126.15384615 , 4135.8974359 , 4182.56410256 , 4908.20512821 , 4127.69230769 , 4135.38461538 , 2041.0 , 2035.0 , 11.286 , 0.0 , 0.0 , 0.0 , 0.0 , 

89.0 , 4128.20512821 , 4127.17948718 , 4128.71794872 , 4128.20512821 , 4126.66666667 , 4122.56410256 , 4124.1025641 , 4128.20512821 , 4129.23076923 , 4135.8974359 , 4184.1025641 , 4904.61538462 , 4128.71794872 , 4133.33333333 , 2042.0 , 2035.0 , 11.294 , 0.0 , 0.0 , 0.0 , 0.0 , 

90.0 , 4127.69230769 , 4124.61538462 , 4130.25641026 , 4127.69230769 , 4126.66666667 , 4122.56410256 , 4125.12820513 , 4126.66666667 , 4129.74358974 , 4135.8974359 , 4184.1025641 , 4906.66666667 , 4129.23076923 , 4134.35897436 , 2040.0 , 2035.0 , 11.301 , 0.0 , 0.0 , 0.0 , 0.0 , 

91.0 , 4124.61538462 , 4122.56410256 , 4125.64102564 , 4125.12820513 , 4127.69230769 , 4126.15384615 , 4122.56410256 , 4127.17948718 , 4125.12820513 , 4135.8974359 , 4182.05128205 , 4907.17948718 , 4126.15384615 , 4134.35897436 , 2041.0 , 2034.0 , 11.308 , 0.0 , 0.0 , 0.0 , 0.0 , 

92.0 , 4127.17948718 , 4125.64102564 , 4127.17948718 , 4124.61538462 , 4127.17948718 , 4124.1025641 , 4122.05128205 , 4125.64102564 , 4126.15384615 , 4135.8974359 , 4183.58974359 , 4906.66666667 , 4126.66666667 , 4132.82051282 , 2041.0 , 2034.0 , 11.318 , 0.0 , 0.0 , 0.0 , 0.0 , 

93.0 , 4128.20512821 , 4126.15384615 , 4127.17948718 , 4126.66666667 , 4125.64102564 , 4121.53846154 , 4123.07692308 , 4127.69230769 , 4131.79487179 , 4135.8974359 , 4185.64102564 , 4904.1025641 , 4130.25641026 , 4131.79487179 , 2042.0 , 2035.0 , 11.326 , 0.0 , 0.0 , 0.0 , 0.0 , 

94.0 , 4125.64102564 , 4127.17948718 , 4127.17948718 , 4127.69230769 , 4126.66666667 , 4124.61538462 , 4124.1025641 , 4130.76923077 , 4130.25641026 , 4134.35897436 , 4185.64102564 , 4908.20512821 , 4131.79487179 , 4134.87179487 , 2042.0 , 2035.0 , 11.333 , 0.0 , 0.0 , 0.0 , 0.0 , 

95.0 , 4127.69230769 , 4128.20512821 , 4128.71794872 , 4126.15384615 , 4128.20512821 , 4125.64102564 , 4123.58974359 , 4128.71794872 , 4127.69230769 , 4133.84615385 , 4184.1025641 , 4908.20512821 , 4128.20512821 , 4135.8974359 , 2043.0 , 2035.0 , 11.341 , 0.0 , 0.0 , 0.0 , 0.0 , 

96.0 , 4128.20512821 , 4126.15384615 , 4130.76923077 , 4128.20512821 , 4127.69230769 , 4123.07692308 , 4120.0 , 4126.66666667 , 4127.17948718 , 4135.38461538 , 4182.56410256 , 4905.12820513 , 4127.17948718 , 4133.84615385 , 2041.0 , 2034.0 , 11.348 , 0.0 , 0.0 , 0.0 , 0.0 , 

97.0 , 4125.12820513 , 4125.12820513 , 4129.23076923 , 4129.23076923 , 4125.12820513 , 4123.07692308 , 4120.0 , 4129.23076923 , 4129.23076923 , 4136.41025641 , 4180.51282051 , 4904.61538462 , 4129.74358974 , 4131.79487179 , 2041.0 , 2035.0 , 11.357 , 0.0 , 0.0 , 0.0 , 0.0 , 

98.0 , 4129.74358974 , 4127.17948718 , 4127.69230769 , 4126.66666667 , 4124.1025641 , 4124.61538462 , 4123.58974359 , 4130.25641026 , 4129.23076923 , 4135.8974359 , 4181.02564103 , 4903.58974359 , 4126.66666667 , 4133.33333333 , 2041.0 , 2035.0 , 11.365 , 0.0 , 0.0 , 0.0 , 0.0 , 

99.0 , 4130.25641026 , 4128.71794872 , 4126.15384615 , 4127.17948718 , 4126.66666667 , 4124.1025641 , 4124.1025641 , 4128.20512821 , 4126.15384615 , 4135.8974359 , 4184.1025641 , 4905.12820513 , 4125.12820513 , 4136.92307692 , 2042.0 , 2035.0 , 11.371 , 0.0 , 0.0 , 0.0 , 0.0 , 

100.0 , 4122.56410256 , 4125.64102564 , 4124.61538462 , 4127.69230769 , 4128.20512821 , 4122.05128205 , 4122.56410256 , 4128.20512821 , 4125.12820513 , 4135.8974359 , 4185.12820513 , 4907.17948718 , 4129.74358974 , 4134.35897436 , 2041.0 , 2034.0 , 11.379 , 0.0 , 0.0 , 0.0 , 0.0 , 

101.0 , 4127.17948718 , 4125.12820513 , 4129.23076923 , 4127.17948718 , 4126.15384615 , 4122.56410256 , 4122.56410256 , 4128.20512821 , 4126.66666667 , 4135.8974359 , 4185.12820513 , 4907.69230769 , 4128.20512821 , 4131.79487179 , 2041.0 , 2034.0 , 11.388 , 0.0 , 0.0 , 0.0 , 0.0 , 

102.0 , 4131.79487179 , 4124.61538462 , 4126.66666667 , 4127.69230769 , 4125.12820513 , 4124.1025641 , 4124.1025641 , 4128.20512821 , 4127.69230769 , 4135.8974359 , 4186.15384615 , 4903.58974359 , 4125.12820513 , 4134.35897436 , 2041.0 , 2034.0 , 11.396 , 0.0 , 0.0 , 0.0 , 0.0 , 

103.0 , 4128.71794872 , 4125.12820513 , 4125.12820513 , 4127.17948718 , 4126.66666667 , 4123.58974359 , 4124.1025641 , 4127.69230769 , 4128.71794872 , 4135.8974359 , 4186.66666667 , 4907.17948718 , 4130.25641026 , 4136.41025641 , 2041.0 , 2036.0 , 11.404 , 0.0 , 0.0 , 0.0 , 0.0 , 

104.0 , 4127.69230769 , 4125.12820513 , 4127.17948718 , 4126.15384615 , 4127.17948718 , 4123.58974359 , 4123.58974359 , 4129.23076923 , 4130.76923077 , 4135.8974359 , 4184.61538462 , 4907.17948718 , 4133.84615385 , 4133.33333333 , 2042.0 , 2035.0 , 11.412 , 0.0 , 0.0 , 0.0 , 0.0 , 

105.0 , 4131.28205128 , 4127.69230769 , 4132.30769231 , 4126.66666667 , 4125.12820513 , 4124.61538462 , 4122.56410256 , 4128.20512821 , 4128.20512821 , 4135.8974359 , 4185.12820513 , 4906.15384615 , 4128.71794872 , 4134.87179487 , 2042.0 , 2037.0 , 11.42 , 0.0 , 0.0 , 0.0 , 0.0 , 

106.0 , 4127.69230769 , 4125.12820513 , 4125.64102564 , 4126.15384615 , 4125.64102564 , 4125.64102564 , 4120.51282051 , 4128.20512821 , 4126.66666667 , 4135.8974359 , 4184.61538462 , 4903.07692308 , 4127.17948718 , 4134.35897436 , 2043.0 , 2035.0 , 11.427 , 0.0 , 0.0 , 0.0 , 0.0 , 

107.0 , 4128.20512821 , 4123.58974359 , 4127.69230769 , 4125.64102564 , 4127.17948718 , 4126.15384615 , 4120.51282051 , 4127.17948718 , 4126.66666667 , 4135.8974359 , 4184.1025641 , 4905.64102564 , 4129.74358974 , 4132.82051282 , 2043.0 , 2035.0 , 11.434 , 0.0 , 0.0 , 0.0 , 0.0 , 

108.0 , 4130.25641026 , 4124.1025641 , 4131.28205128 , 4127.69230769 , 4128.71794872 , 4125.64102564 , 4123.58974359 , 4127.17948718 , 4128.20512821 , 4135.8974359 , 4183.58974359 , 4904.61538462 , 4126.66666667 , 4132.30769231 , 2042.0 , 2035.0 , 11.442 , 0.0 , 0.0 , 0.0 , 0.0 , 

109.0 , 4131.79487179 , 4124.1025641 , 4129.23076923 , 4130.25641026 , 4129.74358974 , 4124.1025641 , 4124.1025641 , 4126.66666667 , 4127.69230769 , 4135.8974359 , 4185.64102564 , 4907.17948718 , 4126.15384615 , 4132.82051282 , 2041.0 , 2035.0 , 11.451 , 0.0 , 0.0 , 0.0 , 0.0 , 

110.0 , 4126.66666667 , 4124.1025641 , 4120.0 , 4130.25641026 , 4129.23076923 , 4124.1025641 , 4124.61538462 , 4129.23076923 , 4128.20512821 , 4135.8974359 , 4184.1025641 , 4905.12820513 , 4127.17948718 , 4132.30769231 , 2041.0 , 2035.0 , 11.458 , 0.0 , 0.0 , 0.0 , 0.0 , 

111.0 , 4124.1025641 , 4128.20512821 , 4124.61538462 , 4128.20512821 , 4126.15384615 , 4125.12820513 , 4126.15384615 , 4130.76923077 , 4127.69230769 , 4135.8974359 , 4182.05128205 , 4904.61538462 , 4127.17948718 , 4133.33333333 , 2042.0 , 2035.0 , 11.467 , 0.0 , 0.0 , 0.0 , 0.0 , 

112.0 , 4129.74358974 , 4127.17948718 , 4131.28205128 , 4126.15384615 , 4127.69230769 , 4125.64102564 , 4123.58974359 , 4128.71794872 , 4127.17948718 , 4135.8974359 , 4183.07692308 , 4905.12820513 , 4129.23076923 , 4132.82051282 , 2042.0 , 2036.0 , 11.474 , 0.0 , 0.0 , 0.0 , 0.0 , 

113.0 , 4130.76923077 , 4125.12820513 , 4129.23076923 , 4126.66666667 , 4130.25641026 , 4124.61538462 , 4123.07692308 , 4125.12820513 , 4126.66666667 , 4135.8974359 , 4185.12820513 , 4908.20512821 , 4131.28205128 , 4133.84615385 , 2042.0 , 2036.0 , 11.483 , 0.0 , 0.0 , 0.0 , 0.0 , 

114.0 , 4126.15384615 , 4125.12820513 , 4124.61538462 , 4126.66666667 , 4126.15384615 , 4123.58974359 , 4123.07692308 , 4126.15384615 , 4128.20512821 , 4135.8974359 , 4185.12820513 , 4908.20512821 , 4130.76923077 , 4135.38461538 , 2042.0 , 2035.0 , 11.491 , 0.0 , 0.0 , 0.0 , 0.0 , 

115.0 , 4128.71794872 , 4126.66666667 , 4128.20512821 , 4125.64102564 , 4125.64102564 , 4123.07692308 , 4120.51282051 , 4128.20512821 , 4128.20512821 , 4135.8974359 , 4184.61538462 , 4904.61538462 , 4130.25641026 , 4134.35897436 , 2041.0 , 2036.0 , 11.498 , 0.0 , 0.0 , 0.0 , 0.0 , 

116.0 , 4126.66666667 , 4126.15384615 , 4129.74358974 , 4126.66666667 , 4130.25641026 , 4126.66666667 , 4121.02564103 , 4128.71794872 , 4125.64102564 , 4135.8974359 , 4185.12820513 , 4905.12820513 , 4129.23076923 , 4134.87179487 , 2041.0 , 2036.0 , 11.505 , 0.0 , 0.0 , 0.0 , 0.0 , 

