['COUNTER', 'AF3', 'F7', 'F3', 'FC5', 'T7', 'P7', 'O1', 'O2', 'P8', 'T8', 'FC6', 'F4', 'F8', 'AF4', 'GYROX', 'GYROY', 'TIMESTAMP', 'FUNC_ID', 'FUNC_VALUE', 'MARKER', 'SYNC_SIGNAL']
5.0 , 4301.53846154 , 4300.0 , 4268.20512821 , 4288.71794872 , 4278.46153846 , 4297.94871795 , 4290.25641026 , 4297.43589744 , 4240.0 , 4297.94871795 , 4300.51282051 , 4297.94871795 , 4249.23076923 , 4281.02564103 , 2063.0 , 1966.0 , 15.255 , 0.0 , 0.0 , 0.0 , 0.0 , 

6.0 , 4421.02564103 , 4423.07692308 , 4398.46153846 , 4421.02564103 , 4435.38461538 , 4427.69230769 , 4425.12820513 , 4428.20512821 , 4428.20512821 , 4428.20512821 , 4424.1025641 , 4428.20512821 , 4436.92307692 , 4444.61538462 , 2067.0 , 1969.0 , 15.263 , 0.0 , 0.0 , 0.0 , 0.0 , 

7.0 , 3122.05128205 , 3131.79487179 , 3331.79487179 , 3177.43589744 , 3202.56410256 , 3133.33333333 , 3175.8974359 , 3135.38461538 , 3381.02564103 , 3133.33333333 , 3125.64102564 , 3132.82051282 , 3306.15384615 , 3170.76923077 , 2066.0 , 1973.0 , 15.271 , 0.0 , 0.0 , 0.0 , 0.0 , 

8.0 , 1084.1025641 , 1106.15384615 , 1878.46153846 , 1096.41025641 , 1157.94871795 , 1044.61538462 , 1098.97435897 , 1046.66666667 , 1556.92307692 , 1044.61538462 , 1105.64102564 , 1044.61538462 , 1443.58974359 , 1221.53846154 , 2063.0 , 1973.0 , 15.279 , 0.0 , 0.0 , 0.0 , 0.0 , 

9.0 , 412.820512821 , 434.871794872 , 1635.38461538 , 346.666666667 , 487.179487179 , 320.512820513 , 369.743589744 , 325.128205128 , 1036.92307692 , 320.512820513 , 454.358974359 , 320.512820513 , 967.179487179 , 707.179487179 , 2064.0 , 1973.0 , 15.286 , 0.0 , 0.0 , 0.0 , 0.0 , 

10.0 , 743.076923077 , 765.128205128 , 1990.25641026 , 718.974358974 , 855.897435897 , 643.58974359 , 712.820512821 , 652.307692308 , 1460.51282051 , 643.58974359 , 799.487179487 , 643.076923077 , 1429.74358974 , 1095.38461538 , 2065.0 , 1972.0 , 15.294 , 0.0 , 0.0 , 0.0 , 0.0 , 

11.0 , 688.717948718 , 723.58974359 , 1844.1025641 , 746.666666667 , 811.794871795 , 596.41025641 , 677.435897436 , 604.615384615 , 1388.20512821 , 596.41025641 , 738.461538462 , 595.897435897 , 1343.58974359 , 953.846153846 , 2063.0 , 1971.0 , 15.306 , 0.0 , 0.0 , 0.0 , 0.0 , 

12.0 , 629.743589744 , 630.769230769 , 1778.46153846 , 623.58974359 , 677.948717949 , 472.820512821 , 528.205128205 , 478.974358974 , 1221.02564103 , 472.820512821 , 608.205128205 , 473.846153846 , 1167.17948718 , 786.666666667 , 2063.0 , 1971.0 , 15.309 , 0.0 , 0.0 , 0.0 , 0.0 , 

13.0 , 809.230769231 , 801.025641026 , 1915.38461538 , 748.717948718 , 846.666666667 , 613.846153846 , 672.820512821 , 620.0 , 1393.33333333 , 613.333333333 , 726.666666667 , 614.358974359 , 1327.69230769 , 881.025641026 , 2062.0 , 1972.0 , 15.318 , 0.0 , 0.0 , 0.0 , 0.0 , 

14.0 , 844.615384615 , 916.923076923 , 1942.56410256 , 808.717948718 , 883.58974359 , 652.307692308 , 726.153846154 , 657.435897436 , 1407.17948718 , 652.307692308 , 754.871794872 , 652.307692308 , 1317.43589744 , 735.897435897 , 2063.0 , 1972.0 , 15.326 , 0.0 , 0.0 , 0.0 , 0.0 , 

15.0 , 1025.64102564 , 970.769230769 , 1978.97435897 , 818.974358974 , 870.256410256 , 648.205128205 , 694.871794872 , 652.307692308 , 1376.41025641 , 647.692307692 , 754.358974359 , 648.717948718 , 1138.97435897 , 632.307692308 , 2061.0 , 1973.0 , 15.334 , 0.0 , 0.0 , 0.0 , 0.0 , 

16.0 , 1400.0 , 881.025641026 , 1978.97435897 , 765.128205128 , 854.358974359 , 645.641025641 , 659.487179487 , 652.820512821 , 1400.0 , 647.179487179 , 740.512820513 , 648.205128205 , 885.641025641 , 740.0 , 2061.0 , 1973.0 , 15.342 , 0.0 , 0.0 , 0.0 , 0.0 , 

17.0 , 1426.66666667 , 711.282051282 , 1852.30769231 , 662.051282051 , 786.153846154 , 634.358974359 , 629.743589744 , 641.025641026 , 1393.84615385 , 640.512820513 , 711.794871795 , 646.153846154 , 756.923076923 , 843.076923077 , 2061.0 , 1972.0 , 15.349 , 0.0 , 0.0 , 0.0 , 0.0 , 

18.0 , 990.256410256 , 665.128205128 , 1670.25641026 , 654.358974359 , 730.256410256 , 644.615384615 , 647.692307692 , 626.666666667 , 1375.8974359 , 628.205128205 , 735.384615385 , 646.153846154 , 964.615384615 , 875.897435897 , 2063.0 , 1974.0 , 15.357 , 0.0 , 0.0 , 0.0 , 0.0 , 

19.0 , 604.102564103 , 704.615384615 , 1545.12820513 , 651.794871795 , 696.923076923 , 653.333333333 , 641.025641026 , 653.333333333 , 1346.15384615 , 639.487179487 , 757.435897436 , 645.128205128 , 1225.12820513 , 945.128205128 , 2063.0 , 1974.0 , 15.365 , 0.0 , 0.0 , 0.0 , 0.0 , 

20.0 , 571.794871795 , 731.282051282 , 1598.97435897 , 656.923076923 , 754.871794872 , 620.512820513 , 594.871794872 , 645.641025641 , 1381.02564103 , 649.743589744 , 765.641025641 , 647.692307692 , 1453.33333333 , 1107.17948718 , 2063.0 , 1972.0 , 15.373 , 0.0 , 0.0 , 0.0 , 0.0 , 

21.0 , 936.41025641 , 1007.69230769 , 1867.17948718 , 1056.41025641 , 1094.35897436 , 711.282051282 , 817.435897436 , 629.743589744 , 1504.61538462 , 651.282051282 , 1025.12820513 , 658.461538462 , 1788.71794872 , 1390.76923077 , 2062.0 , 1973.0 , 15.381 , 0.0 , 0.0 , 0.0 , 0.0 , 

22.0 , 1402.05128205 , 1433.33333333 , 2146.15384615 , 1611.79487179 , 1508.71794872 , 906.153846154 , 1220.51282051 , 817.435897436 , 1675.8974359 , 805.641025641 , 1306.66666667 , 662.564102564 , 1884.1025641 , 1554.35897436 , 2061.0 , 1973.0 , 15.389 , 0.0 , 0.0 , 0.0 , 0.0 , 

23.0 , 1570.25641026 , 1545.12820513 , 2203.07692308 , 1717.43589744 , 1593.33333333 , 963.58974359 , 1355.38461538 , 1114.87179487 , 1768.71794872 , 1091.28205128 , 1196.41025641 , 659.487179487 , 1544.61538462 , 1371.79487179 , 2059.0 , 1973.0 , 15.397 , 0.0 , 0.0 , 0.0 , 0.0 , 

24.0 , 1517.94871795 , 1427.17948718 , 2187.17948718 , 1567.17948718 , 1476.41025641 , 896.923076923 , 1255.8974359 , 1174.87179487 , 1723.58974359 , 1197.94871795 , 1029.23076923 , 659.487179487 , 1350.25641026 , 1243.07692308 , 2058.0 , 1972.0 , 15.405 , 0.0 , 0.0 , 0.0 , 0.0 , 

25.0 , 1509.23076923 , 1402.05128205 , 2236.41025641 , 1569.74358974 , 1466.66666667 , 878.461538462 , 1251.79487179 , 1055.38461538 , 1654.87179487 , 1096.41025641 , 1121.53846154 , 661.025641026 , 1540.51282051 , 1376.41025641 , 2059.0 , 1974.0 , 15.413 , 0.0 , 0.0 , 0.0 , 0.0 , 

26.0 , 1474.35897436 , 1403.07692308 , 2255.8974359 , 1561.02564103 , 1456.92307692 , 872.820512821 , 1263.58974359 , 1032.82051282 , 1642.56410256 , 1036.92307692 , 1184.61538462 , 660.512820513 , 1682.05128205 , 1426.66666667 , 2059.0 , 1973.0 , 15.42 , 0.0 , 0.0 , 0.0 , 0.0 , 

27.0 , 1374.87179487 , 1331.79487179 , 2208.71794872 , 1457.43589744 , 1384.1025641 , 825.641025641 , 1193.33333333 , 1054.87179487 , 1638.97435897 , 1035.38461538 , 1114.87179487 , 660.512820513 , 1670.25641026 , 1369.74358974 , 2055.0 , 1976.0 , 15.428 , 0.0 , 0.0 , 0.0 , 0.0 , 

28.0 , 1328.20512821 , 1298.97435897 , 2200.51282051 , 1411.28205128 , 1346.66666667 , 802.564102564 , 1160.0 , 1025.64102564 , 1620.51282051 , 992.307692308 , 1115.38461538 , 660.512820513 , 1694.35897436 , 1392.30769231 , 2055.0 , 1977.0 , 15.436 , 0.0 , 0.0 , 0.0 , 0.0 , 

29.0 , 1288.71794872 , 1270.76923077 , 2198.97435897 , 1373.84615385 , 1317.43589744 , 783.58974359 , 1136.41025641 , 989.230769231 , 1616.92307692 , 950.256410256 , 1105.12820513 , 660.512820513 , 1721.53846154 , 1389.23076923 , 2053.0 , 1978.0 , 15.444 , 0.0 , 0.0 , 0.0 , 0.0 , 

30.0 , 1248.20512821 , 1233.84615385 , 2200.51282051 , 1329.74358974 , 1280.51282051 , 760.0 , 1107.69230769 , 955.897435897 , 1620.0 , 926.153846154 , 1061.53846154 , 660.512820513 , 1728.20512821 , 1347.69230769 , 2053.0 , 1977.0 , 15.452 , 0.0 , 0.0 , 0.0 , 0.0 , 

31.0 , 1226.15384615 , 1209.23076923 , 2209.23076923 , 1296.92307692 , 1251.28205128 , 735.897435897 , 1090.25641026 , 922.051282051 , 1614.35897436 , 897.948717949 , 1027.17948718 , 660.512820513 , 1702.05128205 , 1334.35897436 , 2049.0 , 1983.0 , 15.46 , 0.0 , 0.0 , 0.0 , 0.0 , 

32.0 , 1206.15384615 , 1174.35897436 , 2205.12820513 , 1259.48717949 , 1221.02564103 , 700.512820513 , 1062.56410256 , 906.666666667 , 1608.20512821 , 875.384615385 , 988.205128205 , 660.512820513 , 1647.69230769 , 1321.53846154 , 2047.0 , 1983.0 , 15.468 , 0.0 , 0.0 , 0.0 , 0.0 , 

33.0 , 1185.12820513 , 1152.30769231 , 2194.35897436 , 1231.28205128 , 1194.35897436 , 684.102564103 , 1033.84615385 , 902.051282051 , 1604.61538462 , 855.897435897 , 965.641025641 , 660.512820513 , 1612.82051282 , 1309.74358974 , 2046.0 , 1986.0 , 15.475 , 0.0 , 0.0 , 0.0 , 0.0 , 

34.0 , 1152.82051282 , 1131.28205128 , 2189.74358974 , 1204.1025641 , 1173.84615385 , 669.230769231 , 1005.64102564 , 886.153846154 , 1606.66666667 , 836.41025641 , 941.538461538 , 660.512820513 , 1611.28205128 , 1311.79487179 , 2042.0 , 1990.0 , 15.483 , 0.0 , 0.0 , 0.0 , 0.0 , 

35.0 , 1119.48717949 , 1125.12820513 , 2189.23076923 , 1187.69230769 , 1156.41025641 , 658.461538462 , 990.256410256 , 857.435897436 , 1606.15384615 , 812.307692308 , 928.205128205 , 660.512820513 , 1630.76923077 , 1337.94871795 , 2038.0 , 1987.0 , 15.491 , 0.0 , 0.0 , 0.0 , 0.0 , 

36.0 , 1070.76923077 , 1113.84615385 , 2175.38461538 , 1176.92307692 , 1146.66666667 , 656.41025641 , 973.333333333 , 824.615384615 , 1600.51282051 , 786.153846154 , 919.487179487 , 660.512820513 , 1647.69230769 , 1355.8974359 , 2032.0 , 1988.0 , 15.499 , 0.0 , 0.0 , 0.0 , 0.0 , 

37.0 , 1053.84615385 , 1104.1025641 , 2168.71794872 , 1172.82051282 , 1144.61538462 , 661.538461538 , 952.307692308 , 793.333333333 , 1596.41025641 , 761.538461538 , 914.871794872 , 660.512820513 , 1645.64102564 , 1352.30769231 , 2031.0 , 1993.0 , 15.507 , 0.0 , 0.0 , 0.0 , 0.0 , 

38.0 , 1072.30769231 , 1096.92307692 , 2164.1025641 , 1171.79487179 , 1146.66666667 , 659.487179487 , 936.923076923 , 778.461538462 , 1598.46153846 , 736.923076923 , 904.102564103 , 660.512820513 , 1610.76923077 , 1344.1025641 , 2034.0 , 2001.0 , 15.515 , 0.0 , 0.0 , 0.0 , 0.0 , 

39.0 , 1082.56410256 , 1090.76923077 , 2160.0 , 1174.87179487 , 1149.74358974 , 658.974358974 , 921.025641026 , 776.923076923 , 1592.30769231 , 715.897435897 , 905.128205128 , 660.512820513 , 1578.46153846 , 1338.46153846 , 2034.0 , 2006.0 , 15.523 , 0.0 , 0.0 , 0.0 , 0.0 , 

40.0 , 1053.84615385 , 1094.35897436 , 2151.28205128 , 1179.48717949 , 1153.84615385 , 661.538461538 , 903.076923077 , 761.538461538 , 1587.17948718 , 693.846153846 , 913.333333333 , 660.512820513 , 1587.69230769 , 1341.02564103 , 2034.0 , 2013.0 , 15.531 , 0.0 , 0.0 , 0.0 , 0.0 , 

41.0 , 1027.69230769 , 1101.02564103 , 2147.17948718 , 1177.94871795 , 1154.35897436 , 660.0 , 895.384615385 , 734.871794872 , 1588.20512821 , 669.743589744 , 917.435897436 , 660.512820513 , 1608.71794872 , 1354.87179487 , 2043.0 , 2031.0 , 15.539 , 0.0 , 0.0 , 0.0 , 0.0 , 

42.0 , 1017.94871795 , 1104.1025641 , 2136.92307692 , 1177.43589744 , 1155.8974359 , 661.538461538 , 899.487179487 , 720.512820513 , 1589.23076923 , 657.948717949 , 929.743589744 , 660.512820513 , 1616.92307692 , 1362.05128205 , 2042.0 , 2031.0 , 15.546 , 0.0 , 0.0 , 0.0 , 0.0 , 

43.0 , 1000.51282051 , 1101.53846154 , 2135.8974359 , 1174.35897436 , 1163.58974359 , 661.538461538 , 903.076923077 , 714.871794872 , 1587.17948718 , 657.948717949 , 937.435897436 , 660.512820513 , 1628.71794872 , 1361.02564103 , 2045.0 , 2033.0 , 15.554 , 0.0 , 0.0 , 0.0 , 0.0 , 

44.0 , 1005.12820513 , 1104.1025641 , 2132.82051282 , 1168.71794872 , 1162.56410256 , 661.025641026 , 903.076923077 , 710.256410256 , 1586.15384615 , 658.461538462 , 941.538461538 , 660.512820513 , 1627.17948718 , 1355.8974359 , 2045.0 , 2036.0 , 15.562 , 0.0 , 0.0 , 0.0 , 0.0 , 

45.0 , 1031.28205128 , 1102.05128205 , 2126.15384615 , 1157.94871795 , 1154.87179487 , 660.512820513 , 896.923076923 , 715.384615385 , 1581.53846154 , 656.923076923 , 942.051282051 , 660.512820513 , 1601.02564103 , 1349.23076923 , 2044.0 , 2037.0 , 15.57 , 0.0 , 0.0 , 0.0 , 0.0 , 

46.0 , 1049.74358974 , 1101.02564103 , 2119.48717949 , 1153.84615385 , 1154.87179487 , 661.025641026 , 895.384615385 , 722.564102564 , 1578.97435897 , 659.487179487 , 946.153846154 , 660.512820513 , 1589.23076923 , 1346.15384615 , 2042.0 , 2035.0 , 15.578 , 0.0 , 0.0 , 0.0 , 0.0 , 

47.0 , 1023.58974359 , 1104.61538462 , 2120.51282051 , 1156.41025641 , 1160.0 , 661.025641026 , 905.641025641 , 711.794871795 , 1581.53846154 , 660.512820513 , 954.871794872 , 660.512820513 , 1609.23076923 , 1351.28205128 , 2041.0 , 2034.0 , 15.586 , 0.0 , 0.0 , 0.0 , 0.0 , 

48.0 , 990.769230769 , 1103.07692308 , 2114.87179487 , 1157.43589744 , 1161.53846154 , 661.025641026 , 915.384615385 , 702.564102564 , 1582.05128205 , 660.512820513 , 964.102564103 , 660.512820513 , 1631.79487179 , 1356.92307692 , 2041.0 , 2037.0 , 15.594 , 0.0 , 0.0 , 0.0 , 0.0 , 

49.0 , 998.974358974 , 1102.56410256 , 2106.15384615 , 1157.43589744 , 1160.51282051 , 661.025641026 , 916.41025641 , 713.846153846 , 1578.46153846 , 660.512820513 , 967.179487179 , 660.512820513 , 1622.05128205 , 1353.84615385 , 2042.0 , 2036.0 , 15.602 , 0.0 , 0.0 , 0.0 , 0.0 , 

50.0 , 1035.8974359 , 1105.64102564 , 2101.53846154 , 1158.97435897 , 1161.53846154 , 661.025641026 , 920.512820513 , 727.179487179 , 1576.41025641 , 660.512820513 , 963.076923077 , 660.512820513 , 1591.79487179 , 1345.12820513 , 2043.0 , 2034.0 , 15.609 , 0.0 , 0.0 , 0.0 , 0.0 , 

51.0 , 1048.71794872 , 1103.58974359 , 2097.43589744 , 1165.12820513 , 1163.07692308 , 661.025641026 , 921.025641026 , 728.205128205 , 1573.84615385 , 661.025641026 , 962.564102564 , 660.512820513 , 1576.92307692 , 1337.94871795 , 2044.0 , 2035.0 , 15.617 , 0.0 , 0.0 , 0.0 , 0.0 , 

52.0 , 1031.79487179 , 1104.1025641 , 2092.30769231 , 1170.76923077 , 1164.61538462 , 661.025641026 , 920.512820513 , 728.205128205 , 1575.38461538 , 660.512820513 , 971.794871795 , 660.512820513 , 1586.15384615 , 1338.46153846 , 2044.0 , 2034.0 , 15.625 , 0.0 , 0.0 , 0.0 , 0.0 , 

53.0 , 1025.12820513 , 1108.20512821 , 2083.58974359 , 1173.84615385 , 1166.15384615 , 661.025641026 , 928.205128205 , 727.692307692 , 1581.02564103 , 660.512820513 , 977.948717949 , 660.512820513 , 1588.71794872 , 1339.48717949 , 2043.0 , 2034.0 , 15.633 , 0.0 , 0.0 , 0.0 , 0.0 , 

54.0 , 1036.92307692 , 1111.28205128 , 2082.56410256 , 1178.46153846 , 1164.61538462 , 661.025641026 , 939.487179487 , 717.948717949 , 1577.43589744 , 660.512820513 , 980.0 , 661.025641026 , 1578.46153846 , 1342.56410256 , 2043.0 , 2033.0 , 15.641 , 0.0 , 0.0 , 0.0 , 0.0 , 

55.0 , 1041.02564103 , 1108.71794872 , 2077.43589744 , 1179.48717949 , 1164.1025641 , 661.025641026 , 939.487179487 , 724.615384615 , 1570.25641026 , 660.512820513 , 984.102564103 , 663.58974359 , 1572.82051282 , 1341.02564103 , 2045.0 , 2034.0 , 15.649 , 0.0 , 0.0 , 0.0 , 0.0 , 

56.0 , 1039.48717949 , 1107.17948718 , 2071.28205128 , 1173.84615385 , 1167.17948718 , 661.025641026 , 932.307692308 , 741.025641026 , 1570.25641026 , 660.512820513 , 991.282051282 , 665.641025641 , 1574.87179487 , 1340.51282051 , 2044.0 , 2034.0 , 15.657 , 0.0 , 0.0 , 0.0 , 0.0 , 

57.0 , 1044.61538462 , 1107.17948718 , 2063.07692308 , 1168.71794872 , 1168.71794872 , 661.025641026 , 930.769230769 , 744.615384615 , 1572.30769231 , 660.512820513 , 991.282051282 , 665.128205128 , 1573.33333333 , 1342.56410256 , 2044.0 , 2033.0 , 15.665 , 0.0 , 0.0 , 0.0 , 0.0 , 

58.0 , 1048.71794872 , 1112.30769231 , 2066.15384615 , 1168.71794872 , 1164.61538462 , 661.025641026 , 936.923076923 , 740.0 , 1570.76923077 , 660.512820513 , 996.41025641 , 666.153846154 , 1576.41025641 , 1345.64102564 , 2042.0 , 2033.0 , 15.672 , 0.0 , 0.0 , 0.0 , 0.0 , 

59.0 , 1034.87179487 , 1115.8974359 , 2064.61538462 , 1165.12820513 , 1165.12820513 , 661.025641026 , 939.487179487 , 742.564102564 , 1574.35897436 , 660.512820513 , 1005.64102564 , 663.58974359 , 1587.69230769 , 1345.12820513 , 2042.0 , 2034.0 , 15.68 , 0.0 , 0.0 , 0.0 , 0.0 , 

60.0 , 1029.74358974 , 1113.84615385 , 2060.51282051 , 1163.58974359 , 1168.20512821 , 661.025641026 , 935.384615385 , 745.641025641 , 1573.84615385 , 660.512820513 , 1009.74358974 , 665.128205128 , 1589.74358974 , 1346.66666667 , 2042.0 , 2034.0 , 15.688 , 0.0 , 0.0 , 0.0 , 0.0 , 

61.0 , 1042.05128205 , 1109.23076923 , 2052.82051282 , 1165.64102564 , 1168.71794872 , 661.025641026 , 938.974358974 , 749.230769231 , 1568.71794872 , 660.512820513 , 1008.20512821 , 669.743589744 , 1577.43589744 , 1347.17948718 , 2042.0 , 2036.0 , 15.696 , 0.0 , 0.0 , 0.0 , 0.0 , 

62.0 , 1052.30769231 , 1111.79487179 , 2052.82051282 , 1164.1025641 , 1168.20512821 , 660.512820513 , 946.153846154 , 757.948717949 , 1567.69230769 , 660.512820513 , 1012.82051282 , 675.897435897 , 1567.17948718 , 1345.64102564 , 2043.0 , 2035.0 , 15.704 , 0.0 , 0.0 , 0.0 , 0.0 , 

63.0 , 1045.12820513 , 1117.94871795 , 2046.15384615 , 1165.64102564 , 1169.74358974 , 661.025641026 , 947.692307692 , 762.051282051 , 1570.76923077 , 661.025641026 , 1019.48717949 , 682.564102564 , 1569.74358974 , 1344.1025641 , 2042.0 , 2037.0 , 15.712 , 0.0 , 0.0 , 0.0 , 0.0 , 

64.0 , 1036.92307692 , 1120.51282051 , 2040.0 , 1172.30769231 , 1169.74358974 , 661.025641026 , 950.769230769 , 756.923076923 , 1567.17948718 , 660.0 , 1024.61538462 , 691.282051282 , 1573.84615385 , 1343.07692308 , 2043.0 , 2035.0 , 15.72 , 0.0 , 0.0 , 0.0 , 0.0 , 

65.0 , 1040.0 , 1118.46153846 , 2037.43589744 , 1172.82051282 , 1169.74358974 , 660.512820513 , 953.846153846 , 752.820512821 , 1564.1025641 , 661.025641026 , 1027.69230769 , 703.076923077 , 1572.30769231 , 1344.61538462 , 2042.0 , 2034.0 , 15.728 , 0.0 , 0.0 , 0.0 , 0.0 , 

66.0 , 1048.20512821 , 1120.0 , 2034.35897436 , 1173.84615385 , 1171.79487179 , 661.538461538 , 954.358974359 , 761.538461538 , 1566.66666667 , 664.615384615 , 1030.76923077 , 706.666666667 , 1568.71794872 , 1342.56410256 , 2045.0 , 2035.0 , 15.736 , 0.0 , 0.0 , 0.0 , 0.0 , 

67.0 , 1053.33333333 , 1123.07692308 , 2026.15384615 , 1178.46153846 , 1174.35897436 , 664.102564103 , 955.384615385 , 770.769230769 , 1567.17948718 , 666.153846154 , 1033.84615385 , 719.487179487 , 1564.61538462 , 1336.92307692 , 2045.0 , 2035.0 , 15.743 , 0.0 , 0.0 , 0.0 , 0.0 , 

68.0 , 1055.8974359 , 1124.1025641 , 2021.53846154 , 1180.51282051 , 1176.41025641 , 665.128205128 , 953.846153846 , 774.871794872 , 1563.07692308 , 664.102564103 , 1036.41025641 , 725.641025641 , 1559.48717949 , 1337.43589744 , 2045.0 , 2034.0 , 15.751 , 0.0 , 0.0 , 0.0 , 0.0 , 

69.0 , 1061.53846154 , 1125.12820513 , 2021.02564103 , 1180.0 , 1178.46153846 , 663.58974359 , 954.358974359 , 776.923076923 , 1563.58974359 , 663.58974359 , 1037.94871795 , 739.487179487 , 1558.46153846 , 1344.61538462 , 2044.0 , 2034.0 , 15.759 , 0.0 , 0.0 , 0.0 , 0.0 , 

70.0 , 1058.97435897 , 1129.74358974 , 2018.46153846 , 1181.02564103 , 1178.46153846 , 663.076923077 , 964.615384615 , 778.461538462 , 1567.17948718 , 664.615384615 , 1041.02564103 , 745.641025641 , 1562.05128205 , 1346.15384615 , 2043.0 , 2035.0 , 15.767 , 0.0 , 0.0 , 0.0 , 0.0 , 

71.0 , 1053.84615385 , 1132.82051282 , 2019.48717949 , 1180.51282051 , 1178.97435897 , 663.076923077 , 971.794871795 , 775.384615385 , 1565.64102564 , 663.58974359 , 1048.71794872 , 764.102564103 , 1568.71794872 , 1346.15384615 , 2043.0 , 2036.0 , 15.775 , 0.0 , 0.0 , 0.0 , 0.0 , 

72.0 , 1056.92307692 , 1127.69230769 , 2012.82051282 , 1178.97435897 , 1180.0 , 663.076923077 , 967.692307692 , 785.128205128 , 1564.61538462 , 663.076923077 , 1053.33333333 , 772.820512821 , 1568.20512821 , 1348.71794872 , 2043.0 , 2035.0 , 15.783 , 0.0 , 0.0 , 0.0 , 0.0 , 

73.0 , 1067.69230769 , 1126.15384615 , 2008.71794872 , 1177.94871795 , 1179.48717949 , 663.58974359 , 967.692307692 , 796.41025641 , 1564.61538462 , 670.256410256 , 1054.87179487 , 788.717948718 , 1558.46153846 , 1348.71794872 , 2042.0 , 2036.0 , 15.791 , 0.0 , 0.0 , 0.0 , 0.0 , 

74.0 , 1068.71794872 , 1131.28205128 , 2004.61538462 , 1176.41025641 , 1179.48717949 , 663.58974359 , 969.743589744 , 796.923076923 , 1564.61538462 , 677.435897436 , 1058.46153846 , 801.538461538 , 1553.84615385 , 1347.17948718 , 2044.0 , 2036.0 , 15.799 , 0.0 , 0.0 , 0.0 , 0.0 , 

75.0 , 1063.58974359 , 1136.92307692 , 2002.56410256 , 1177.43589744 , 1178.97435897 , 663.58974359 , 968.717948718 , 795.384615385 , 1564.1025641 , 678.461538462 , 1066.66666667 , 814.358974359 , 1563.58974359 , 1351.79487179 , 2043.0 , 2033.0 , 15.806 , 0.0 , 0.0 , 0.0 , 0.0 , 

76.0 , 1059.48717949 , 1133.84615385 , 1994.87179487 , 1181.02564103 , 1181.02564103 , 663.58974359 , 973.333333333 , 798.461538462 , 1565.64102564 , 683.58974359 , 1070.76923077 , 823.076923077 , 1565.12820513 , 1351.28205128 , 2043.0 , 2034.0 , 15.815 , 0.0 , 0.0 , 0.0 , 0.0 , 

77.0 , 1066.15384615 , 1133.84615385 , 1995.38461538 , 1185.64102564 , 1184.1025641 , 663.58974359 , 981.025641026 , 796.923076923 , 1564.1025641 , 691.282051282 , 1072.82051282 , 834.358974359 , 1556.92307692 , 1348.20512821 , 2043.0 , 2035.0 , 15.822 , 0.0 , 0.0 , 0.0 , 0.0 , 

78.0 , 1072.82051282 , 1136.41025641 , 1990.76923077 , 1187.17948718 , 1186.15384615 , 663.58974359 , 983.58974359 , 800.0 , 1564.61538462 , 694.358974359 , 1073.33333333 , 849.230769231 , 1551.79487179 , 1346.15384615 , 2044.0 , 2034.0 , 15.83 , 0.0 , 0.0 , 0.0 , 0.0 , 

79.0 , 1076.41025641 , 1138.97435897 , 1987.69230769 , 1191.28205128 , 1186.66666667 , 663.58974359 , 983.58974359 , 811.794871795 , 1565.12820513 , 699.487179487 , 1077.94871795 , 862.051282051 , 1551.79487179 , 1346.15384615 , 2045.0 , 2034.0 , 15.838 , 0.0 , 0.0 , 0.0 , 0.0 , 

80.0 , 1075.38461538 , 1140.51282051 , 1983.07692308 , 1195.8974359 , 1189.74358974 , 663.58974359 , 983.076923077 , 817.948717949 , 1565.12820513 , 707.692307692 , 1083.07692308 , 877.435897436 , 1552.30769231 , 1345.64102564 , 2044.0 , 2033.0 , 15.846 , 0.0 , 0.0 , 0.0 , 0.0 , 

81.0 , 1076.92307692 , 1144.1025641 , 1981.02564103 , 1195.38461538 , 1192.82051282 , 663.58974359 , 984.102564103 , 814.358974359 , 1563.07692308 , 709.230769231 , 1086.66666667 , 886.666666667 , 1550.76923077 , 1347.69230769 , 2045.0 , 2034.0 , 15.854 , 0.0 , 0.0 , 0.0 , 0.0 , 

82.0 , 1076.41025641 , 1146.15384615 , 1976.92307692 , 1194.35897436 , 1191.79487179 , 663.58974359 , 987.179487179 , 812.820512821 , 1563.07692308 , 714.358974359 , 1088.71794872 , 902.564102564 , 1550.76923077 , 1349.23076923 , 2044.0 , 2035.0 , 15.862 , 0.0 , 0.0 , 0.0 , 0.0 , 

83.0 , 1075.38461538 , 1147.69230769 , 1975.38461538 , 1194.87179487 , 1191.79487179 , 663.58974359 , 988.205128205 , 821.025641026 , 1564.1025641 , 722.564102564 , 1094.87179487 , 914.358974359 , 1551.79487179 , 1351.79487179 , 2043.0 , 2036.0 , 15.869 , 0.0 , 0.0 , 0.0 , 0.0 , 

84.0 , 1080.51282051 , 1147.17948718 , 1971.79487179 , 1193.33333333 , 1193.33333333 , 663.58974359 , 986.153846154 , 832.820512821 , 1563.58974359 , 724.102564103 , 1098.97435897 , 930.256410256 , 1551.79487179 , 1354.35897436 , 2044.0 , 2034.0 , 15.877 , 0.0 , 0.0 , 0.0 , 0.0 , 

85.0 , 1089.23076923 , 1147.17948718 , 1971.28205128 , 1193.84615385 , 1192.30769231 , 663.58974359 , 990.256410256 , 839.487179487 , 1562.56410256 , 729.230769231 , 1102.05128205 , 942.564102564 , 1549.74358974 , 1354.35897436 , 2044.0 , 2035.0 , 15.885 , 0.0 , 0.0 , 0.0 , 0.0 , 

86.0 , 1088.71794872 , 1149.74358974 , 1970.25641026 , 1194.35897436 , 1193.33333333 , 663.58974359 , 996.923076923 , 840.0 , 1564.61538462 , 737.435897436 , 1107.69230769 , 962.564102564 , 1550.25641026 , 1353.33333333 , 2043.0 , 2036.0 , 15.893 , 0.0 , 0.0 , 0.0 , 0.0 , 

87.0 , 1083.07692308 , 1148.71794872 , 1966.15384615 , 1192.30769231 , 1196.92307692 , 663.58974359 , 998.461538462 , 839.487179487 , 1565.64102564 , 739.487179487 , 1110.76923077 , 975.384615385 , 1552.82051282 , 1355.38461538 , 2042.0 , 2036.0 , 15.901 , 0.0 , 0.0 , 0.0 , 0.0 , 

88.0 , 1083.58974359 , 1150.25641026 , 1964.1025641 , 1192.30769231 , 1199.48717949 , 663.58974359 , 999.487179487 , 839.487179487 , 1564.1025641 , 746.153846154 , 1112.30769231 , 993.846153846 , 1552.82051282 , 1356.41025641 , 2043.0 , 2036.0 , 15.909 , 0.0 , 0.0 , 0.0 , 0.0 , 

89.0 , 1087.17948718 , 1154.87179487 , 1958.97435897 , 1195.38461538 , 1199.48717949 , 663.58974359 , 1001.53846154 , 845.128205128 , 1565.12820513 , 753.333333333 , 1114.87179487 , 1010.76923077 , 1545.64102564 , 1354.35897436 , 2042.0 , 2034.0 , 15.919 , 0.0 , 0.0 , 0.0 , 0.0 , 

90.0 , 1093.84615385 , 1156.92307692 , 1956.92307692 , 1197.43589744 , 1200.51282051 , 663.58974359 , 1001.02564103 , 852.820512821 , 1563.58974359 , 756.923076923 , 1119.48717949 , 1030.76923077 , 1538.97435897 , 1354.35897436 , 2043.0 , 2033.0 , 15.925 , 0.0 , 0.0 , 0.0 , 0.0 , 

91.0 , 1094.87179487 , 1156.41025641 , 1952.30769231 , 1203.58974359 , 1204.61538462 , 663.58974359 , 1005.12820513 , 860.512820513 , 1560.51282051 , 765.128205128 , 1123.58974359 , 1045.12820513 , 1538.97435897 , 1353.84615385 , 2044.0 , 2034.0 , 15.933 , 0.0 , 0.0 , 0.0 , 0.0 , 

92.0 , 1092.30769231 , 1161.02564103 , 1950.76923077 , 1209.74358974 , 1205.12820513 , 663.58974359 , 1012.82051282 , 863.58974359 , 1561.02564103 , 772.820512821 , 1129.23076923 , 1061.02564103 , 1540.51282051 , 1355.8974359 , 2044.0 , 2033.0 , 15.94 , 0.0 , 0.0 , 0.0 , 0.0 , 

93.0 , 1090.25641026 , 1159.48717949 , 1944.61538462 , 1210.25641026 , 1205.12820513 , 663.58974359 , 1015.38461538 , 865.641025641 , 1564.61538462 , 771.282051282 , 1131.79487179 , 1078.46153846 , 1538.97435897 , 1354.35897436 , 2043.0 , 2032.0 , 15.948 , 0.0 , 0.0 , 0.0 , 0.0 , 

94.0 , 1097.94871795 , 1158.97435897 , 1944.61538462 , 1209.74358974 , 1205.12820513 , 663.58974359 , 1015.38461538 , 866.153846154 , 1563.07692308 , 769.230769231 , 1134.87179487 , 1098.97435897 , 1537.94871795 , 1354.87179487 , 2044.0 , 2034.0 , 15.956 , 0.0 , 0.0 , 0.0 , 0.0 , 

95.0 , 1101.53846154 , 1162.05128205 , 1940.51282051 , 1208.71794872 , 1206.66666667 , 663.58974359 , 1015.8974359 , 872.820512821 , 1564.1025641 , 775.384615385 , 1138.46153846 , 1115.38461538 , 1537.43589744 , 1356.92307692 , 2044.0 , 2034.0 , 15.963 , 0.0 , 0.0 , 0.0 , 0.0 , 

96.0 , 1102.56410256 , 1165.64102564 , 1941.02564103 , 1209.23076923 , 1206.15384615 , 664.102564103 , 1017.43589744 , 879.487179487 , 1564.1025641 , 784.615384615 , 1143.07692308 , 1132.30769231 , 1538.46153846 , 1358.97435897 , 2043.0 , 2034.0 , 15.972 , 0.0 , 0.0 , 0.0 , 0.0 , 

97.0 , 1104.61538462 , 1164.61538462 , 1938.97435897 , 1208.20512821 , 1206.15384615 , 665.128205128 , 1017.43589744 , 886.153846154 , 1563.07692308 , 789.230769231 , 1146.66666667 , 1152.30769231 , 1537.94871795 , 1360.0 , 2041.0 , 2033.0 , 15.979 , 0.0 , 0.0 , 0.0 , 0.0 , 

98.0 , 1106.66666667 , 1167.17948718 , 1939.48717949 , 1207.17948718 , 1206.66666667 , 665.641025641 , 1016.92307692 , 889.230769231 , 1564.61538462 , 785.641025641 , 1154.35897436 , 1175.38461538 , 1538.97435897 , 1365.12820513 , 2043.0 , 2035.0 , 15.988 , 0.0 , 0.0 , 0.0 , 0.0 , 

99.0 , 1103.07692308 , 1169.74358974 , 1933.84615385 , 1207.17948718 , 1211.28205128 , 665.128205128 , 1020.51282051 , 888.205128205 , 1565.64102564 , 787.692307692 , 1156.92307692 , 1195.8974359 , 1540.51282051 , 1365.12820513 , 2043.0 , 2034.0 , 15.995 , 0.0 , 0.0 , 0.0 , 0.0 , 

100.0 , 1105.64102564 , 1171.28205128 , 1930.25641026 , 1208.20512821 , 1213.33333333 , 665.128205128 , 1028.20512821 , 890.256410256 , 1564.1025641 , 799.487179487 , 1156.92307692 , 1218.46153846 , 1540.51282051 , 1361.02564103 , 2042.0 , 2034.0 , 16.002 , 0.0 , 0.0 , 0.0 , 0.0 , 

101.0 , 1110.76923077 , 1169.23076923 , 1926.15384615 , 1209.23076923 , 1213.33333333 , 665.641025641 , 1032.30769231 , 900.512820513 , 1566.66666667 , 805.641025641 , 1161.53846154 , 1236.41025641 , 1537.43589744 , 1361.02564103 , 2042.0 , 2035.0 , 16.011 , 0.0 , 0.0 , 0.0 , 0.0 , 

102.0 , 1111.79487179 , 1172.30769231 , 1922.56410256 , 1211.79487179 , 1216.41025641 , 665.128205128 , 1031.79487179 , 905.641025641 , 1567.69230769 , 801.538461538 , 1167.69230769 , 1253.84615385 , 1536.92307692 , 1362.56410256 , 2043.0 , 2034.0 , 16.02 , 0.0 , 0.0 , 0.0 , 0.0 , 

103.0 , 1112.30769231 , 1178.46153846 , 1918.97435897 , 1215.8974359 , 1220.51282051 , 665.128205128 , 1034.87179487 , 905.128205128 , 1564.61538462 , 805.641025641 , 1167.17948718 , 1271.79487179 , 1533.84615385 , 1361.53846154 , 2044.0 , 2035.0 , 16.027 , 0.0 , 0.0 , 0.0 , 0.0 , 

104.0 , 1114.35897436 , 1179.48717949 , 1917.43589744 , 1217.94871795 , 1218.97435897 , 668.205128205 , 1033.84615385 , 906.666666667 , 1564.61538462 , 817.948717949 , 1168.71794872 , 1290.76923077 , 1529.23076923 , 1361.53846154 , 2042.0 , 2034.0 , 16.035 , 0.0 , 0.0 , 0.0 , 0.0 , 

105.0 , 1116.92307692 , 1179.48717949 , 1918.46153846 , 1218.46153846 , 1216.92307692 , 669.230769231 , 1033.33333333 , 914.871794872 , 1564.61538462 , 818.974358974 , 1175.8974359 , 1309.23076923 , 1530.76923077 , 1361.02564103 , 2045.0 , 2034.0 , 16.043 , 0.0 , 0.0 , 0.0 , 0.0 , 

106.0 , 1119.48717949 , 1182.56410256 , 1916.41025641 , 1221.02564103 , 1220.0 , 667.179487179 , 1043.07692308 , 920.512820513 , 1563.58974359 , 817.435897436 , 1182.05128205 , 1325.64102564 , 1533.84615385 , 1360.0 , 2045.0 , 2033.0 , 16.051 , 0.0 , 0.0 , 0.0 , 0.0 , 

107.0 , 1124.61538462 , 1185.12820513 , 1913.33333333 , 1225.12820513 , 1222.56410256 , 666.153846154 , 1048.20512821 , 920.0 , 1562.05128205 , 831.282051282 , 1186.15384615 , 1343.58974359 , 1531.79487179 , 1363.58974359 , 2044.0 , 2033.0 , 16.058 , 0.0 , 0.0 , 0.0 , 0.0 , 

108.0 , 1125.64102564 , 1184.61538462 , 1909.74358974 , 1225.64102564 , 1223.07692308 , 667.179487179 , 1044.1025641 , 925.128205128 , 1566.15384615 , 838.461538462 , 1186.66666667 , 1357.94871795 , 1530.76923077 , 1366.15384615 , 2044.0 , 2032.0 , 16.067 , 0.0 , 0.0 , 0.0 , 0.0 , 

109.0 , 1128.20512821 , 1185.12820513 , 1914.87179487 , 1226.15384615 , 1226.66666667 , 666.666666667 , 1046.15384615 , 932.307692308 , 1571.28205128 , 832.307692308 , 1189.23076923 , 1368.71794872 , 1537.94871795 , 1368.20512821 , 2044.0 , 2033.0 , 16.074 , 0.0 , 0.0 , 0.0 , 0.0 , 

110.0 , 1133.84615385 , 1188.71794872 , 1914.87179487 , 1230.25641026 , 1234.87179487 , 666.666666667 , 1054.35897436 , 937.948717949 , 1574.35897436 , 840.0 , 1196.41025641 , 1371.79487179 , 1541.53846154 , 1372.30769231 , 2041.0 , 2035.0 , 16.082 , 0.0 , 0.0 , 0.0 , 0.0 , 

111.0 , 1141.02564103 , 1197.94871795 , 1915.8974359 , 1234.87179487 , 1238.97435897 , 666.666666667 , 1058.46153846 , 941.538461538 , 1572.82051282 , 852.307692308 , 1203.07692308 , 1382.56410256 , 1541.02564103 , 1378.97435897 , 2042.0 , 2034.0 , 16.09 , 0.0 , 0.0 , 0.0 , 0.0 , 

112.0 , 1141.02564103 , 1201.02564103 , 1913.84615385 , 1238.46153846 , 1240.0 , 666.666666667 , 1061.02564103 , 951.282051282 , 1573.84615385 , 852.820512821 , 1204.61538462 , 1391.79487179 , 1545.12820513 , 1381.02564103 , 2043.0 , 2034.0 , 16.098 , 0.0 , 0.0 , 0.0 , 0.0 , 

113.0 , 1144.61538462 , 1202.56410256 , 1918.46153846 , 1242.56410256 , 1244.61538462 , 666.153846154 , 1064.61538462 , 957.435897436 , 1577.94871795 , 857.948717949 , 1208.20512821 , 1402.56410256 , 1552.30769231 , 1383.58974359 , 2042.0 , 2034.0 , 16.106 , 0.0 , 0.0 , 0.0 , 0.0 , 

114.0 , 1147.69230769 , 1207.69230769 , 1917.94871795 , 1248.71794872 , 1249.74358974 , 667.179487179 , 1067.17948718 , 961.025641026 , 1581.02564103 , 868.205128205 , 1211.28205128 , 1409.74358974 , 1551.28205128 , 1384.1025641 , 2042.0 , 2034.0 , 16.114 , 0.0 , 0.0 , 0.0 , 0.0 , 

115.0 , 1151.79487179 , 1214.35897436 , 1917.94871795 , 1255.8974359 , 1249.23076923 , 668.205128205 , 1073.33333333 , 962.051282051 , 1578.97435897 , 870.769230769 , 1216.41025641 , 1422.56410256 , 1548.20512821 , 1384.1025641 , 2044.0 , 2033.0 , 16.122 , 0.0 , 0.0 , 0.0 , 0.0 , 

116.0 , 1156.41025641 , 1216.92307692 , 1914.87179487 , 1259.48717949 , 1252.30769231 , 668.717948718 , 1078.97435897 , 965.641025641 , 1580.0 , 874.871794872 , 1218.97435897 , 1429.23076923 , 1549.23076923 , 1386.66666667 , 2043.0 , 2033.0 , 16.13 , 0.0 , 0.0 , 0.0 , 0.0 , 

117.0 , 1166.15384615 , 1221.02564103 , 1919.48717949 , 1262.56410256 , 1258.97435897 , 671.794871795 , 1079.48717949 , 972.820512821 , 1584.61538462 , 884.102564103 , 1221.02564103 , 1438.46153846 , 1553.84615385 , 1394.35897436 , 2044.0 , 2034.0 , 16.137 , 0.0 , 0.0 , 0.0 , 0.0 , 

118.0 , 1171.28205128 , 1223.58974359 , 1919.48717949 , 1265.64102564 , 1265.64102564 , 675.897435897 , 1083.07692308 , 980.512820513 , 1585.12820513 , 886.666666667 , 1227.69230769 , 1446.15384615 , 1554.87179487 , 1395.38461538 , 2043.0 , 2034.0 , 16.145 , 0.0 , 0.0 , 0.0 , 0.0 , 

119.0 , 1174.35897436 , 1230.25641026 , 1918.97435897 , 1270.25641026 , 1267.69230769 , 675.897435897 , 1091.79487179 , 987.179487179 , 1584.1025641 , 892.820512821 , 1235.38461538 , 1456.92307692 , 1554.87179487 , 1393.84615385 , 2043.0 , 2033.0 , 16.153 , 0.0 , 0.0 , 0.0 , 0.0 , 

120.0 , 1178.46153846 , 1234.87179487 , 1919.48717949 , 1274.87179487 , 1268.20512821 , 675.384615385 , 1096.92307692 , 992.820512821 , 1588.71794872 , 902.564102564 , 1236.41025641 , 1467.17948718 , 1557.94871795 , 1397.94871795 , 2043.0 , 2033.0 , 16.161 , 0.0 , 0.0 , 0.0 , 0.0 , 

121.0 , 1181.53846154 , 1232.82051282 , 1920.0 , 1277.43589744 , 1272.82051282 , 676.923076923 , 1100.0 , 995.897435897 , 1590.76923077 , 906.153846154 , 1236.92307692 , 1475.8974359 , 1562.05128205 , 1406.15384615 , 2043.0 , 2035.0 , 16.173 , 0.0 , 0.0 , 0.0 , 0.0 , 

122.0 , 1184.61538462 , 1236.92307692 , 1919.48717949 , 1280.51282051 , 1277.94871795 , 677.435897436 , 1107.69230769 , 1001.53846154 , 1591.79487179 , 914.358974359 , 1243.58974359 , 1483.07692308 , 1565.12820513 , 1410.25641026 , 2043.0 , 2034.0 , 16.177 , 0.0 , 0.0 , 0.0 , 0.0 , 

123.0 , 1189.23076923 , 1244.1025641 , 1921.02564103 , 1282.56410256 , 1278.97435897 , 676.41025641 , 1110.25641026 , 1010.25641026 , 1595.38461538 , 922.051282051 , 1248.71794872 , 1492.30769231 , 1567.69230769 , 1412.30769231 , 2043.0 , 2034.0 , 16.184 , 0.0 , 0.0 , 0.0 , 0.0 , 

124.0 , 1193.84615385 , 1244.1025641 , 1924.1025641 , 1283.07692308 , 1280.51282051 , 676.923076923 , 1106.66666667 , 1015.38461538 , 1595.38461538 , 921.025641026 , 1251.28205128 , 1502.05128205 , 1569.74358974 , 1415.38461538 , 2043.0 , 2035.0 , 16.193 , 0.0 , 0.0 , 0.0 , 0.0 , 

125.0 , 1196.41025641 , 1246.15384615 , 1925.12820513 , 1286.15384615 , 1285.64102564 , 676.923076923 , 1111.28205128 , 1018.46153846 , 1594.87179487 , 926.153846154 , 1254.35897436 , 1509.74358974 , 1569.74358974 , 1419.48717949 , 2043.0 , 2036.0 , 16.2 , 0.0 , 0.0 , 0.0 , 0.0 , 

126.0 , 1199.48717949 , 1254.35897436 , 1929.23076923 , 1294.35897436 , 1289.74358974 , 676.923076923 , 1123.07692308 , 1021.02564103 , 1597.43589744 , 935.897435897 , 1258.97435897 , 1522.05128205 , 1571.28205128 , 1423.07692308 , 2043.0 , 2034.0 , 16.207 , 0.0 , 0.0 , 0.0 , 0.0 , 

127.0 , 1201.02564103 , 1256.41025641 , 1924.1025641 , 1297.94871795 , 1291.79487179 , 676.923076923 , 1125.64102564 , 1026.66666667 , 1601.53846154 , 938.461538462 , 1262.05128205 , 1529.23076923 , 1571.79487179 , 1422.56410256 , 2043.0 , 2035.0 , 16.216 , 0.0 , 0.0 , 0.0 , 0.0 , 

128.0 , 1207.17948718 , 1260.51282051 , 1920.51282051 , 1300.0 , 1295.8974359 , 676.923076923 , 1123.58974359 , 1030.76923077 , 1602.05128205 , 945.128205128 , 1264.61538462 , 1537.43589744 , 1572.82051282 , 1424.1025641 , 2042.0 , 2034.0 , 16.225 , 0.0 , 0.0 , 0.0 , 0.0 , 

0.0 , 1212.82051282 , 1269.74358974 , 1921.02564103 , 1303.07692308 , 1300.0 , 676.923076923 , 1131.28205128 , 1037.43589744 , 1604.61538462 , 953.333333333 , 1268.20512821 , 1545.12820513 , 1576.41025641 , 1424.61538462 , 2043.0 , 2034.0 , 16.232 , 0.0 , 0.0 , 0.0 , 0.0 , 

1.0 , 1220.0 , 1273.33333333 , 1925.64102564 , 1308.71794872 , 1304.1025641 , 676.923076923 , 1139.48717949 , 1044.61538462 , 1607.69230769 , 954.358974359 , 1274.35897436 , 1556.92307692 , 1583.07692308 , 1428.71794872 , 2042.0 , 2034.0 , 16.24 , 0.0 , 0.0 , 0.0 , 0.0 , 

2.0 , 1223.58974359 , 1272.82051282 , 1923.07692308 , 1314.35897436 , 1309.23076923 , 676.923076923 , 1140.51282051 , 1051.79487179 , 1611.79487179 , 964.102564103 , 1277.43589744 , 1563.07692308 , 1586.15384615 , 1433.33333333 , 2044.0 , 2035.0 , 16.247 , 0.0 , 0.0 , 0.0 , 0.0 , 

3.0 , 1226.15384615 , 1277.94871795 , 1927.17948718 , 1316.92307692 , 1311.79487179 , 676.923076923 , 1144.61538462 , 1053.84615385 , 1612.30769231 , 972.307692308 , 1280.51282051 , 1570.76923077 , 1585.64102564 , 1436.92307692 , 2043.0 , 2036.0 , 16.256 , 0.0 , 0.0 , 0.0 , 0.0 , 

4.0 , 1227.17948718 , 1278.97435897 , 1928.71794872 , 1318.46153846 , 1313.33333333 , 676.923076923 , 1150.76923077 , 1055.8974359 , 1614.35897436 , 969.230769231 , 1284.61538462 , 1574.35897436 , 1586.15384615 , 1437.43589744 , 2043.0 , 2033.0 , 16.263 , 0.0 , 0.0 , 0.0 , 0.0 , 

5.0 , 1234.87179487 , 1282.05128205 , 1931.28205128 , 1323.58974359 , 1316.92307692 , 676.923076923 , 1153.84615385 , 1060.0 , 1613.84615385 , 975.384615385 , 1290.25641026 , 1585.64102564 , 1589.74358974 , 1444.1025641 , 2042.0 , 2034.0 , 16.271 , 0.0 , 0.0 , 0.0 , 0.0 , 

6.0 , 1236.92307692 , 1287.17948718 , 1929.74358974 , 1328.71794872 , 1322.05128205 , 676.923076923 , 1156.41025641 , 1067.69230769 , 1612.30769231 , 986.666666667 , 1290.76923077 , 1598.46153846 , 1588.71794872 , 1448.20512821 , 2045.0 , 2034.0 , 16.279 , 0.0 , 0.0 , 0.0 , 0.0 , 

7.0 , 1239.48717949 , 1290.25641026 , 1929.74358974 , 1329.74358974 , 1323.07692308 , 676.923076923 , 1156.41025641 , 1073.84615385 , 1616.92307692 , 987.692307692 , 1291.79487179 , 1609.23076923 , 1589.23076923 , 1447.69230769 , 2042.0 , 2034.0 , 16.287 , 0.0 , 0.0 , 0.0 , 0.0 , 

8.0 , 1246.15384615 , 1291.28205128 , 1927.17948718 , 1330.25641026 , 1325.64102564 , 676.923076923 , 1156.41025641 , 1078.46153846 , 1622.56410256 , 989.743589744 , 1295.38461538 , 1613.84615385 , 1594.87179487 , 1450.76923077 , 2043.0 , 2034.0 , 16.295 , 0.0 , 0.0 , 0.0 , 0.0 , 

9.0 , 1252.30769231 , 1299.48717949 , 1929.74358974 , 1334.87179487 , 1329.23076923 , 676.923076923 , 1164.1025641 , 1081.02564103 , 1622.05128205 , 1001.53846154 , 1302.05128205 , 1622.56410256 , 1600.51282051 , 1454.35897436 , 2043.0 , 2033.0 , 16.303 , 0.0 , 0.0 , 0.0 , 0.0 , 

10.0 , 1249.74358974 , 1304.61538462 , 1931.28205128 , 1342.05128205 , 1331.79487179 , 676.923076923 , 1174.87179487 , 1085.12820513 , 1623.58974359 , 1011.79487179 , 1307.69230769 , 1631.28205128 , 1600.51282051 , 1453.84615385 , 2044.0 , 2034.0 , 16.311 , 0.0 , 0.0 , 0.0 , 0.0 , 

11.0 , 1253.33333333 , 1304.61538462 , 1931.28205128 , 1346.66666667 , 1336.92307692 , 676.923076923 , 1178.46153846 , 1092.30769231 , 1627.17948718 , 1013.33333333 , 1310.25641026 , 1639.48717949 , 1601.02564103 , 1456.92307692 , 2044.0 , 2034.0 , 16.319 , 0.0 , 0.0 , 0.0 , 0.0 , 

12.0 , 1264.1025641 , 1307.17948718 , 1930.76923077 , 1347.17948718 , 1343.07692308 , 676.923076923 , 1178.46153846 , 1097.94871795 , 1628.20512821 , 1012.82051282 , 1312.30769231 , 1648.20512821 , 1602.05128205 , 1460.51282051 , 2043.0 , 2034.0 , 16.327 , 0.0 , 0.0 , 0.0 , 0.0 , 

13.0 , 1265.64102564 , 1312.30769231 , 1931.79487179 , 1349.74358974 , 1344.61538462 , 676.923076923 , 1182.56410256 , 1100.0 , 1629.23076923 , 1019.48717949 , 1317.43589744 , 1655.8974359 , 1603.07692308 , 1462.56410256 , 2043.0 , 2035.0 , 16.334 , 0.0 , 0.0 , 0.0 , 0.0 , 

14.0 , 1264.1025641 , 1316.41025641 , 1935.8974359 , 1357.43589744 , 1343.58974359 , 676.923076923 , 1187.17948718 , 1103.07692308 , 1629.23076923 , 1027.17948718 , 1321.53846154 , 1665.64102564 , 1607.17948718 , 1466.15384615 , 2043.0 , 2035.0 , 16.342 , 0.0 , 0.0 , 0.0 , 0.0 , 

15.0 , 1270.76923077 , 1316.41025641 , 1934.35897436 , 1363.58974359 , 1349.23076923 , 676.923076923 , 1189.74358974 , 1108.71794872 , 1629.74358974 , 1028.71794872 , 1323.07692308 , 1673.84615385 , 1609.74358974 , 1470.25641026 , 2043.0 , 2035.0 , 16.35 , 0.0 , 0.0 , 0.0 , 0.0 , 

16.0 , 1280.0 , 1320.0 , 1934.87179487 , 1365.64102564 , 1355.8974359 , 676.923076923 , 1194.35897436 , 1111.79487179 , 1632.82051282 , 1033.84615385 , 1329.23076923 , 1684.1025641 , 1611.79487179 , 1473.84615385 , 2045.0 , 2034.0 , 16.358 , 0.0 , 0.0 , 0.0 , 0.0 , 

17.0 , 1280.0 , 1326.15384615 , 1935.8974359 , 1364.1025641 , 1358.46153846 , 676.41025641 , 1200.0 , 1120.0 , 1637.43589744 , 1043.58974359 , 1333.84615385 , 1691.79487179 , 1616.92307692 , 1477.94871795 , 2043.0 , 2035.0 , 16.366 , 0.0 , 0.0 , 0.0 , 0.0 , 

18.0 , 1284.1025641 , 1330.76923077 , 1938.46153846 , 1368.20512821 , 1360.51282051 , 676.923076923 , 1202.05128205 , 1128.20512821 , 1639.48717949 , 1045.64102564 , 1338.46153846 , 1699.48717949 , 1616.92307692 , 1483.07692308 , 2042.0 , 2034.0 , 16.374 , 0.0 , 0.0 , 0.0 , 0.0 , 

19.0 , 1291.79487179 , 1332.30769231 , 1935.8974359 , 1376.41025641 , 1365.12820513 , 677.435897436 , 1204.61538462 , 1131.28205128 , 1642.05128205 , 1047.17948718 , 1343.07692308 , 1704.61538462 , 1614.87179487 , 1482.05128205 , 2044.0 , 2035.0 , 16.381 , 0.0 , 0.0 , 0.0 , 0.0 , 

20.0 , 1295.8974359 , 1335.38461538 , 1941.02564103 , 1380.0 , 1369.23076923 , 677.435897436 , 1210.76923077 , 1133.84615385 , 1641.53846154 , 1056.92307692 , 1344.61538462 , 1716.92307692 , 1620.51282051 , 1484.1025641 , 2043.0 , 2036.0 , 16.392 , 0.0 , 0.0 , 0.0 , 0.0 , 

21.0 , 1294.35897436 , 1336.92307692 , 1936.92307692 , 1382.05128205 , 1372.30769231 , 677.435897436 , 1215.38461538 , 1140.51282051 , 1643.07692308 , 1061.02564103 , 1345.64102564 , 1721.53846154 , 1621.53846154 , 1485.64102564 , 2042.0 , 2034.0 , 16.398 , 0.0 , 0.0 , 0.0 , 0.0 , 

22.0 , 1297.43589744 , 1342.56410256 , 1934.35897436 , 1391.28205128 , 1374.87179487 , 677.435897436 , 1221.02564103 , 1145.12820513 , 1646.15384615 , 1062.56410256 , 1350.25641026 , 1726.66666667 , 1616.92307692 , 1487.69230769 , 2043.0 , 2034.0 , 16.405 , 0.0 , 0.0 , 0.0 , 0.0 , 

23.0 , 1299.48717949 , 1347.69230769 , 1937.43589744 , 1396.92307692 , 1376.41025641 , 677.435897436 , 1225.64102564 , 1148.20512821 , 1646.15384615 , 1072.82051282 , 1353.84615385 , 1735.38461538 , 1621.02564103 , 1490.76923077 , 2043.0 , 2033.0 , 16.413 , 0.0 , 0.0 , 0.0 , 0.0 , 

24.0 , 1306.15384615 , 1349.74358974 , 1945.12820513 , 1395.38461538 , 1378.97435897 , 677.435897436 , 1224.61538462 , 1150.76923077 , 1648.20512821 , 1077.94871795 , 1357.94871795 , 1747.69230769 , 1628.71794872 , 1495.8974359 , 2044.0 , 2035.0 , 16.421 , 0.0 , 0.0 , 0.0 , 0.0 , 

25.0 , 1311.79487179 , 1352.30769231 , 1941.53846154 , 1394.35897436 , 1385.12820513 , 677.435897436 , 1229.23076923 , 1156.92307692 , 1655.8974359 , 1077.43589744 , 1361.02564103 , 1750.76923077 , 1626.66666667 , 1496.41025641 , 2043.0 , 2035.0 , 16.429 , 0.0 , 0.0 , 0.0 , 0.0 , 

26.0 , 1316.92307692 , 1360.0 , 1944.61538462 , 1398.97435897 , 1390.76923077 , 677.435897436 , 1237.43589744 , 1163.07692308 , 1656.92307692 , 1086.66666667 , 1365.64102564 , 1760.51282051 , 1629.74358974 , 1498.46153846 , 2043.0 , 2035.0 , 16.437 , 0.0 , 0.0 , 0.0 , 0.0 , 

27.0 , 1317.94871795 , 1361.02564103 , 1945.12820513 , 1404.1025641 , 1391.79487179 , 677.435897436 , 1237.43589744 , 1168.20512821 , 1655.38461538 , 1094.87179487 , 1371.28205128 , 1770.25641026 , 1636.41025641 , 1500.51282051 , 2044.0 , 2034.0 , 16.445 , 0.0 , 0.0 , 0.0 , 0.0 , 

28.0 , 1320.51282051 , 1361.02564103 , 1944.61538462 , 1409.74358974 , 1392.30769231 , 677.435897436 , 1236.41025641 , 1171.79487179 , 1657.94871795 , 1094.35897436 , 1374.87179487 , 1775.8974359 , 1637.43589744 , 1502.56410256 , 2043.0 , 2034.0 , 16.453 , 0.0 , 0.0 , 0.0 , 0.0 , 

29.0 , 1325.64102564 , 1364.61538462 , 1945.12820513 , 1410.25641026 , 1395.8974359 , 677.435897436 , 1245.12820513 , 1177.43589744 , 1660.0 , 1100.51282051 , 1373.33333333 , 1780.51282051 , 1635.8974359 , 1508.71794872 , 2043.0 , 2035.0 , 16.46 , 0.0 , 0.0 , 0.0 , 0.0 , 

30.0 , 1332.82051282 , 1368.71794872 , 1946.15384615 , 1412.30769231 , 1398.97435897 , 677.435897436 , 1249.23076923 , 1181.53846154 , 1660.51282051 , 1108.71794872 , 1377.43589744 , 1791.79487179 , 1638.46153846 , 1515.8974359 , 2044.0 , 2034.0 , 16.468 , 0.0 , 0.0 , 0.0 , 0.0 , 

31.0 , 1337.94871795 , 1373.84615385 , 1946.15384615 , 1420.0 , 1402.05128205 , 676.41025641 , 1249.74358974 , 1184.61538462 , 1663.58974359 , 1107.69230769 , 1387.17948718 , 1801.02564103 , 1641.02564103 , 1514.87179487 , 2043.0 , 2033.0 , 16.476 , 0.0 , 0.0 , 0.0 , 0.0 , 

32.0 , 1338.46153846 , 1377.94871795 , 1945.64102564 , 1423.58974359 , 1405.64102564 , 678.974358974 , 1254.87179487 , 1191.79487179 , 1667.17948718 , 1112.30769231 , 1389.74358974 , 1806.66666667 , 1645.64102564 , 1513.84615385 , 2043.0 , 2036.0 , 16.484 , 0.0 , 0.0 , 0.0 , 0.0 , 

33.0 , 1342.05128205 , 1380.51282051 , 1947.69230769 , 1423.07692308 , 1407.69230769 , 680.512820513 , 1259.48717949 , 1195.8974359 , 1669.74358974 , 1123.58974359 , 1388.20512821 , 1816.41025641 , 1650.76923077 , 1518.46153846 , 2044.0 , 2035.0 , 16.492 , 0.0 , 0.0 , 0.0 , 0.0 , 

34.0 , 1347.17948718 , 1382.56410256 , 1947.17948718 , 1427.69230769 , 1409.74358974 , 679.487179487 , 1264.61538462 , 1196.41025641 , 1671.79487179 , 1125.12820513 , 1392.82051282 , 1825.64102564 , 1651.79487179 , 1521.53846154 , 2042.0 , 2034.0 , 16.5 , 0.0 , 0.0 , 0.0 , 0.0 , 

35.0 , 1349.23076923 , 1387.17948718 , 1947.69230769 , 1434.35897436 , 1414.87179487 , 683.58974359 , 1272.30769231 , 1201.02564103 , 1671.79487179 , 1127.69230769 , 1399.48717949 , 1833.33333333 , 1650.76923077 , 1525.12820513 , 2043.0 , 2034.0 , 16.508 , 0.0 , 0.0 , 0.0 , 0.0 , 

36.0 , 1348.20512821 , 1388.71794872 , 1946.66666667 , 1435.38461538 , 1421.02564103 , 690.769230769 , 1273.33333333 , 1208.71794872 , 1673.84615385 , 1140.0 , 1400.0 , 1835.38461538 , 1650.25641026 , 1526.66666667 , 2044.0 , 2034.0 , 16.516 , 0.0 , 0.0 , 0.0 , 0.0 , 

37.0 , 1356.92307692 , 1392.82051282 , 1953.33333333 , 1439.48717949 , 1425.64102564 , 688.717948718 , 1273.84615385 , 1209.74358974 , 1673.84615385 , 1142.56410256 , 1402.05128205 , 1843.58974359 , 1651.28205128 , 1529.23076923 , 2043.0 , 2035.0 , 16.523 , 0.0 , 0.0 , 0.0 , 0.0 , 

38.0 , 1362.56410256 , 1396.41025641 , 1952.82051282 , 1444.61538462 , 1429.23076923 , 689.743589744 , 1282.05128205 , 1213.84615385 , 1675.8974359 , 1140.0 , 1407.69230769 , 1852.30769231 , 1652.82051282 , 1531.28205128 , 2043.0 , 2035.0 , 16.531 , 0.0 , 0.0 , 0.0 , 0.0 , 

39.0 , 1362.56410256 , 1398.46153846 , 1953.33333333 , 1444.1025641 , 1428.71794872 , 701.538461538 , 1288.20512821 , 1220.0 , 1677.43589744 , 1151.28205128 , 1411.79487179 , 1862.05128205 , 1656.41025641 , 1533.84615385 , 2042.0 , 2033.0 , 16.54 , 0.0 , 0.0 , 0.0 , 0.0 , 

40.0 , 1361.53846154 , 1401.02564103 , 1954.35897436 , 1445.12820513 , 1429.74358974 , 708.717948718 , 1286.66666667 , 1224.61538462 , 1679.48717949 , 1160.0 , 1413.33333333 , 1866.66666667 , 1660.0 , 1534.87179487 , 2042.0 , 2033.0 , 16.547 , 0.0 , 0.0 , 0.0 , 0.0 , 

41.0 , 1371.28205128 , 1408.20512821 , 1960.0 , 1449.74358974 , 1435.8974359 , 707.692307692 , 1288.20512821 , 1228.20512821 , 1682.56410256 , 1155.8974359 , 1417.94871795 , 1876.92307692 , 1663.58974359 , 1542.05128205 , 2043.0 , 2033.0 , 16.555 , 0.0 , 0.0 , 0.0 , 0.0 , 

42.0 , 1376.41025641 , 1409.23076923 , 1957.43589744 , 1453.84615385 , 1439.48717949 , 714.358974359 , 1292.82051282 , 1234.87179487 , 1687.69230769 , 1160.51282051 , 1423.07692308 , 1883.07692308 , 1665.64102564 , 1545.12820513 , 2043.0 , 2036.0 , 16.563 , 0.0 , 0.0 , 0.0 , 0.0 , 

43.0 , 1377.94871795 , 1412.82051282 , 1960.51282051 , 1455.8974359 , 1438.97435897 , 729.230769231 , 1295.38461538 , 1237.43589744 , 1687.69230769 , 1171.79487179 , 1426.15384615 , 1889.23076923 , 1666.66666667 , 1545.64102564 , 2043.0 , 2034.0 , 16.571 , 0.0 , 0.0 , 0.0 , 0.0 , 

44.0 , 1381.02564103 , 1418.46153846 , 1960.51282051 , 1458.46153846 , 1443.58974359 , 738.974358974 , 1297.94871795 , 1240.51282051 , 1686.66666667 , 1173.33333333 , 1425.64102564 , 1896.92307692 , 1667.17948718 , 1549.74358974 , 2042.0 , 2035.0 , 16.579 , 0.0 , 0.0 , 0.0 , 0.0 , 

45.0 , 1387.17948718 , 1424.1025641 , 1958.97435897 , 1463.58974359 , 1451.79487179 , 740.0 , 1302.56410256 , 1245.64102564 , 1688.71794872 , 1173.33333333 , 1428.20512821 , 1907.69230769 , 1668.20512821 , 1554.35897436 , 2043.0 , 2037.0 , 16.586 , 0.0 , 0.0 , 0.0 , 0.0 , 

46.0 , 1390.76923077 , 1424.61538462 , 1959.48717949 , 1467.17948718 , 1453.33333333 , 746.153846154 , 1309.23076923 , 1252.30769231 , 1691.28205128 , 1181.53846154 , 1433.84615385 , 1913.84615385 , 1672.30769231 , 1551.28205128 , 2043.0 , 2035.0 , 16.594 , 0.0 , 0.0 , 0.0 , 0.0 , 

47.0 , 1392.30769231 , 1425.64102564 , 1962.05128205 , 1469.74358974 , 1451.79487179 , 757.948717949 , 1316.92307692 , 1258.46153846 , 1691.28205128 , 1187.69230769 , 1441.02564103 , 1920.0 , 1673.84615385 , 1552.82051282 , 2044.0 , 2034.0 , 16.602 , 0.0 , 0.0 , 0.0 , 0.0 , 

48.0 , 1393.33333333 , 1427.17948718 , 1960.51282051 , 1475.8974359 , 1456.92307692 , 763.58974359 , 1321.02564103 , 1262.05128205 , 1691.28205128 , 1189.23076923 , 1445.12820513 , 1925.12820513 , 1673.84615385 , 1558.46153846 , 2043.0 , 2034.0 , 16.61 , 0.0 , 0.0 , 0.0 , 0.0 , 

49.0 , 1396.92307692 , 1432.30769231 , 1959.48717949 , 1480.0 , 1461.02564103 , 767.692307692 , 1321.02564103 , 1265.64102564 , 1696.41025641 , 1196.41025641 , 1445.12820513 , 1933.84615385 , 1678.46153846 , 1557.43589744 , 2043.0 , 2034.0 , 16.619 , 0.0 , 0.0 , 0.0 , 0.0 , 

50.0 , 1403.07692308 , 1438.97435897 , 1963.07692308 , 1482.05128205 , 1462.05128205 , 777.948717949 , 1323.07692308 , 1267.17948718 , 1703.07692308 , 1205.12820513 , 1449.74358974 , 1943.07692308 , 1682.56410256 , 1560.0 , 2043.0 , 2034.0 , 16.626 , 0.0 , 0.0 , 0.0 , 0.0 , 

51.0 , 1406.66666667 , 1441.02564103 , 1965.12820513 , 1485.12820513 , 1467.17948718 , 784.615384615 , 1330.76923077 , 1270.25641026 , 1705.12820513 , 1204.61538462 , 1454.35897436 , 1946.15384615 , 1681.02564103 , 1570.25641026 , 2044.0 , 2035.0 , 16.633 , 0.0 , 0.0 , 0.0 , 0.0 , 

52.0 , 1408.71794872 , 1443.07692308 , 1965.64102564 , 1487.69230769 , 1472.30769231 , 786.666666667 , 1336.41025641 , 1276.92307692 , 1703.58974359 , 1204.61538462 , 1454.87179487 , 1953.33333333 , 1680.51282051 , 1572.30769231 , 2044.0 , 2035.0 , 16.642 , 0.0 , 0.0 , 0.0 , 0.0 , 

53.0 , 1412.30769231 , 1446.15384615 , 1963.58974359 , 1488.71794872 , 1472.82051282 , 793.846153846 , 1336.92307692 , 1283.58974359 , 1704.1025641 , 1213.84615385 , 1458.97435897 , 1960.0 , 1684.61538462 , 1567.69230769 , 2044.0 , 2035.0 , 16.65 , 0.0 , 0.0 , 0.0 , 0.0 , 

54.0 , 1417.43589744 , 1450.25641026 , 1969.23076923 , 1492.82051282 , 1475.38461538 , 803.076923077 , 1336.41025641 , 1284.61538462 , 1705.64102564 , 1223.58974359 , 1466.66666667 , 1967.17948718 , 1688.20512821 , 1573.33333333 , 2043.0 , 2035.0 , 16.657 , 0.0 , 0.0 , 0.0 , 0.0 , 

55.0 , 1421.02564103 , 1451.28205128 , 1971.28205128 , 1496.92307692 , 1482.05128205 , 809.743589744 , 1342.05128205 , 1289.23076923 , 1708.20512821 , 1225.64102564 , 1466.15384615 , 1973.33333333 , 1689.23076923 , 1577.94871795 , 2043.0 , 2033.0 , 16.665 , 0.0 , 0.0 , 0.0 , 0.0 , 

56.0 , 1426.66666667 , 1456.41025641 , 1972.30769231 , 1498.97435897 , 1483.58974359 , 816.923076923 , 1351.28205128 , 1295.8974359 , 1708.71794872 , 1226.66666667 , 1466.66666667 , 1985.64102564 , 1689.23076923 , 1580.51282051 , 2042.0 , 2034.0 , 16.673 , 0.0 , 0.0 , 0.0 , 0.0 , 

57.0 , 1428.20512821 , 1461.53846154 , 1968.20512821 , 1503.58974359 , 1485.12820513 , 824.102564103 , 1354.87179487 , 1298.46153846 , 1712.30769231 , 1233.84615385 , 1472.30769231 , 1991.79487179 , 1692.30769231 , 1583.07692308 , 2043.0 , 2034.0 , 16.681 , 0.0 , 0.0 , 0.0 , 0.0 , 

58.0 , 1431.28205128 , 1464.1025641 , 1971.79487179 , 1509.74358974 , 1489.23076923 , 830.256410256 , 1351.28205128 , 1298.97435897 , 1714.87179487 , 1241.02564103 , 1477.94871795 , 1998.46153846 , 1698.46153846 , 1584.61538462 , 2043.0 , 2035.0 , 16.688 , 0.0 , 0.0 , 0.0 , 0.0 , 

59.0 , 1433.84615385 , 1464.1025641 , 1972.30769231 , 1511.79487179 , 1493.84615385 , 837.435897436 , 1353.33333333 , 1307.17948718 , 1714.35897436 , 1244.1025641 , 1480.0 , 2002.56410256 , 1698.97435897 , 1585.64102564 , 2044.0 , 2034.0 , 16.697 , 0.0 , 0.0 , 0.0 , 0.0 , 

60.0 , 1440.0 , 1468.71794872 , 1973.84615385 , 1513.84615385 , 1495.8974359 , 845.128205128 , 1365.12820513 , 1313.33333333 , 1715.38461538 , 1245.64102564 , 1484.1025641 , 2009.74358974 , 1697.43589744 , 1592.30769231 , 2042.0 , 2035.0 , 16.705 , 0.0 , 0.0 , 0.0 , 0.0 , 

61.0 , 1444.1025641 , 1472.82051282 , 1972.30769231 , 1518.46153846 , 1497.43589744 , 847.179487179 , 1368.71794872 , 1315.8974359 , 1723.58974359 , 1251.28205128 , 1487.17948718 , 2015.8974359 , 1697.43589744 , 1594.35897436 , 2043.0 , 2035.0 , 16.713 , 0.0 , 0.0 , 0.0 , 0.0 , 

62.0 , 1444.61538462 , 1476.41025641 , 1973.84615385 , 1521.02564103 , 1502.05128205 , 851.282051282 , 1366.66666667 , 1315.8974359 , 1724.1025641 , 1255.38461538 , 1491.28205128 , 2023.58974359 , 1700.51282051 , 1594.87179487 , 2043.0 , 2035.0 , 16.721 , 0.0 , 0.0 , 0.0 , 0.0 , 

63.0 , 1443.07692308 , 1476.92307692 , 1973.84615385 , 1521.02564103 , 1507.69230769 , 859.487179487 , 1369.23076923 , 1322.05128205 , 1721.53846154 , 1259.48717949 , 1495.38461538 , 2027.17948718 , 1704.61538462 , 1597.94871795 , 2043.0 , 2035.0 , 16.728 , 0.0 , 0.0 , 0.0 , 0.0 , 

64.0 , 1451.79487179 , 1481.53846154 , 1977.43589744 , 1524.1025641 , 1508.71794872 , 864.102564103 , 1370.76923077 , 1327.69230769 , 1726.15384615 , 1266.66666667 , 1498.97435897 , 2037.94871795 , 1708.20512821 , 1603.07692308 , 2045.0 , 2034.0 , 16.737 , 0.0 , 0.0 , 0.0 , 0.0 , 

65.0 , 1460.51282051 , 1486.15384615 , 1980.0 , 1528.71794872 , 1511.28205128 , 869.230769231 , 1373.84615385 , 1329.74358974 , 1729.74358974 , 1272.30769231 , 1500.0 , 2045.64102564 , 1709.74358974 , 1604.61538462 , 2043.0 , 2035.0 , 16.744 , 0.0 , 0.0 , 0.0 , 0.0 , 

66.0 , 1460.0 , 1490.76923077 , 1980.51282051 , 1531.28205128 , 1515.38461538 , 882.564102564 , 1382.56410256 , 1334.35897436 , 1728.71794872 , 1271.79487179 , 1503.58974359 , 2047.17948718 , 1713.33333333 , 1603.58974359 , 2041.0 , 2034.0 , 16.752 , 0.0 , 0.0 , 0.0 , 0.0 , 

67.0 , 1460.0 , 1493.33333333 , 1981.02564103 , 1534.35897436 , 1515.8974359 , 889.230769231 , 1387.17948718 , 1341.53846154 , 1729.74358974 , 1272.82051282 , 1507.69230769 , 2053.84615385 , 1716.92307692 , 1606.15384615 , 2043.0 , 2034.0 , 16.76 , 0.0 , 0.0 , 0.0 , 0.0 , 

68.0 , 1465.64102564 , 1494.87179487 , 1982.05128205 , 1539.48717949 , 1517.94871795 , 891.282051282 , 1383.58974359 , 1344.1025641 , 1733.84615385 , 1281.53846154 , 1506.66666667 , 2064.1025641 , 1715.8974359 , 1610.25641026 , 2043.0 , 2035.0 , 16.768 , 0.0 , 0.0 , 0.0 , 0.0 , 

69.0 , 1467.17948718 , 1496.92307692 , 1982.05128205 , 1543.07692308 , 1525.12820513 , 898.974358974 , 1387.17948718 , 1345.64102564 , 1736.41025641 , 1289.23076923 , 1508.20512821 , 2069.74358974 , 1717.94871795 , 1612.30769231 , 2044.0 , 2036.0 , 16.776 , 0.0 , 0.0 , 0.0 , 0.0 , 

70.0 , 1469.74358974 , 1500.0 , 1982.56410256 , 1543.58974359 , 1525.64102564 , 907.179487179 , 1396.41025641 , 1351.79487179 , 1737.94871795 , 1287.69230769 , 1514.35897436 , 2072.82051282 , 1722.05128205 , 1612.30769231 , 2043.0 , 2035.0 , 16.784 , 0.0 , 0.0 , 0.0 , 0.0 , 

71.0 , 1480.0 , 1505.12820513 , 1986.66666667 , 1548.20512821 , 1524.61538462 , 913.333333333 , 1402.56410256 , 1354.87179487 , 1737.94871795 , 1289.74358974 , 1519.48717949 , 2083.07692308 , 1724.61538462 , 1616.92307692 , 2044.0 , 2034.0 , 16.791 , 0.0 , 0.0 , 0.0 , 0.0 , 

72.0 , 1484.1025641 , 1505.64102564 , 1984.1025641 , 1554.35897436 , 1533.84615385 , 916.923076923 , 1402.56410256 , 1356.92307692 , 1740.0 , 1301.53846154 , 1521.53846154 , 2088.20512821 , 1723.58974359 , 1620.51282051 , 2044.0 , 2034.0 , 16.799 , 0.0 , 0.0 , 0.0 , 0.0 , 

73.0 , 1484.1025641 , 1509.74358974 , 1985.64102564 , 1555.8974359 , 1537.94871795 , 920.512820513 , 1401.53846154 , 1360.51282051 , 1742.56410256 , 1305.12820513 , 1525.64102564 , 2093.84615385 , 1720.51282051 , 1621.02564103 , 2043.0 , 2033.0 , 16.807 , 0.0 , 0.0 , 0.0 , 0.0 , 

74.0 , 1486.15384615 , 1515.8974359 , 1985.12820513 , 1556.41025641 , 1533.84615385 , 930.769230769 , 1408.71794872 , 1366.15384615 , 1744.61538462 , 1300.51282051 , 1527.17948718 , 2100.0 , 1722.56410256 , 1621.02564103 , 2044.0 , 2034.0 , 16.815 , 0.0 , 0.0 , 0.0 , 0.0 , 

75.0 , 1492.30769231 , 1520.51282051 , 1988.20512821 , 1563.07692308 , 1537.94871795 , 938.461538462 , 1415.8974359 , 1369.23076923 , 1747.69230769 , 1308.71794872 , 1530.76923077 , 2108.20512821 , 1731.79487179 , 1626.66666667 , 2044.0 , 2034.0 , 16.823 , 0.0 , 0.0 , 0.0 , 0.0 , 

76.0 , 1494.35897436 , 1520.51282051 , 1988.71794872 , 1564.61538462 , 1548.20512821 , 940.512820513 , 1416.41025641 , 1372.30769231 , 1750.76923077 , 1322.56410256 , 1535.8974359 , 2110.76923077 , 1732.30769231 , 1630.76923077 , 2044.0 , 2034.0 , 16.831 , 0.0 , 0.0 , 0.0 , 0.0 , 

77.0 , 1498.46153846 , 1523.07692308 , 1988.71794872 , 1563.58974359 , 1546.66666667 , 946.153846154 , 1414.87179487 , 1376.92307692 , 1751.28205128 , 1321.53846154 , 1538.46153846 , 2118.97435897 , 1729.23076923 , 1634.87179487 , 2044.0 , 2034.0 , 16.84 , 0.0 , 0.0 , 0.0 , 0.0 , 

78.0 , 1500.0 , 1526.66666667 , 1985.12820513 , 1567.69230769 , 1546.15384615 , 955.384615385 , 1422.05128205 , 1386.66666667 , 1753.33333333 , 1317.94871795 , 1538.46153846 , 2125.12820513 , 1734.35897436 , 1636.92307692 , 2042.0 , 2033.0 , 16.846 , 0.0 , 0.0 , 0.0 , 0.0 , 

79.0 , 1505.12820513 , 1531.79487179 , 1994.87179487 , 1574.35897436 , 1552.82051282 , 960.0 , 1432.82051282 , 1388.71794872 , 1753.84615385 , 1327.69230769 , 1547.17948718 , 2133.84615385 , 1738.46153846 , 1637.94871795 , 2043.0 , 2034.0 , 16.854 , 0.0 , 0.0 , 0.0 , 0.0 , 

80.0 , 1507.69230769 , 1533.33333333 , 1996.41025641 , 1577.43589744 , 1555.38461538 , 965.641025641 , 1433.84615385 , 1389.23076923 , 1755.8974359 , 1338.46153846 , 1551.79487179 , 2136.92307692 , 1738.46153846 , 1639.48717949 , 2044.0 , 2035.0 , 16.862 , 0.0 , 0.0 , 0.0 , 0.0 , 

81.0 , 1509.23076923 , 1535.8974359 , 1993.84615385 , 1581.02564103 , 1554.87179487 , 974.358974359 , 1429.23076923 , 1393.84615385 , 1756.92307692 , 1336.41025641 , 1551.28205128 , 2143.58974359 , 1744.61538462 , 1645.12820513 , 2044.0 , 2036.0 , 16.87 , 0.0 , 0.0 , 0.0 , 0.0 , 

82.0 , 1511.28205128 , 1538.46153846 , 1993.33333333 , 1585.12820513 , 1561.02564103 , 980.0 , 1435.38461538 , 1398.97435897 , 1758.46153846 , 1335.8974359 , 1554.35897436 , 2151.79487179 , 1746.66666667 , 1647.69230769 , 2044.0 , 2035.0 , 16.878 , 0.0 , 0.0 , 0.0 , 0.0 , 

83.0 , 1517.94871795 , 1542.05128205 , 1998.97435897 , 1587.69230769 , 1567.17948718 , 981.538461538 , 1445.64102564 , 1401.02564103 , 1760.51282051 , 1345.12820513 , 1562.56410256 , 2157.94871795 , 1744.61538462 , 1648.71794872 , 2043.0 , 2034.0 , 16.886 , 0.0 , 0.0 , 0.0 , 0.0 , 

84.0 , 1521.53846154 , 1545.64102564 , 2001.02564103 , 1589.23076923 , 1568.20512821 , 985.641025641 , 1447.17948718 , 1405.12820513 , 1761.53846154 , 1353.33333333 , 1563.58974359 , 2159.48717949 , 1747.69230769 , 1649.74358974 , 2043.0 , 2034.0 , 16.894 , 0.0 , 0.0 , 0.0 , 0.0 , 

85.0 , 1524.61538462 , 1550.76923077 , 2002.05128205 , 1592.30769231 , 1569.74358974 , 994.871794872 , 1446.15384615 , 1408.71794872 , 1762.05128205 , 1353.84615385 , 1563.07692308 , 2166.15384615 , 1751.79487179 , 1653.84615385 , 2043.0 , 2034.0 , 16.902 , 0.0 , 0.0 , 0.0 , 0.0 , 

86.0 , 1528.20512821 , 1552.82051282 , 2001.53846154 , 1595.8974359 , 1573.84615385 , 1001.02564103 , 1451.79487179 , 1412.30769231 , 1766.66666667 , 1351.79487179 , 1568.71794872 , 2175.38461538 , 1751.28205128 , 1658.46153846 , 2043.0 , 2035.0 , 16.91 , 0.0 , 0.0 , 0.0 , 0.0 , 

87.0 , 1531.28205128 , 1554.87179487 , 1999.48717949 , 1598.97435897 , 1575.8974359 , 1004.61538462 , 1456.41025641 , 1418.97435897 , 1771.79487179 , 1355.38461538 , 1573.33333333 , 2180.51282051 , 1752.82051282 , 1661.02564103 , 2043.0 , 2035.0 , 16.918 , 0.0 , 0.0 , 0.0 , 0.0 , 

88.0 , 1532.82051282 , 1559.48717949 , 2003.07692308 , 1602.56410256 , 1576.92307692 , 1011.28205128 , 1457.43589744 , 1422.56410256 , 1772.30769231 , 1366.15384615 , 1572.82051282 , 2186.15384615 , 1756.41025641 , 1663.58974359 , 2043.0 , 2034.0 , 16.925 , 0.0 , 0.0 , 0.0 , 0.0 , 

89.0 , 1535.38461538 , 1560.0 , 2003.07692308 , 1604.1025641 , 1582.56410256 , 1017.43589744 , 1461.02564103 , 1422.56410256 , 1772.30769231 , 1370.25641026 , 1574.87179487 , 2191.79487179 , 1757.43589744 , 1665.12820513 , 2044.0 , 2035.0 , 16.933 , 0.0 , 0.0 , 0.0 , 0.0 , 

90.0 , 1543.07692308 , 1562.05128205 , 2004.1025641 , 1604.61538462 , 1588.71794872 , 1025.12820513 , 1465.64102564 , 1424.1025641 , 1772.82051282 , 1367.17948718 , 1581.53846154 , 2200.0 , 1758.97435897 , 1667.69230769 , 2043.0 , 2034.0 , 16.942 , 0.0 , 0.0 , 0.0 , 0.0 , 

91.0 , 1545.12820513 , 1568.20512821 , 2003.07692308 , 1606.15384615 , 1590.76923077 , 1032.82051282 , 1465.12820513 , 1429.74358974 , 1775.8974359 , 1373.33333333 , 1584.1025641 , 2206.15384615 , 1764.1025641 , 1666.15384615 , 2044.0 , 2034.0 , 16.949 , 0.0 , 0.0 , 0.0 , 0.0 , 

92.0 , 1546.66666667 , 1572.30769231 , 2006.66666667 , 1610.76923077 , 1590.76923077 , 1033.84615385 , 1467.69230769 , 1433.33333333 , 1778.97435897 , 1384.61538462 , 1586.15384615 , 2215.38461538 , 1767.17948718 , 1668.20512821 , 2044.0 , 2034.0 , 16.957 , 0.0 , 0.0 , 0.0 , 0.0 , 

93.0 , 1547.69230769 , 1569.23076923 , 2007.17948718 , 1613.33333333 , 1595.38461538 , 1035.8974359 , 1475.38461538 , 1438.46153846 , 1780.51282051 , 1383.58974359 , 1588.20512821 , 2218.97435897 , 1766.15384615 , 1673.84615385 , 2043.0 , 2034.0 , 16.965 , 0.0 , 0.0 , 0.0 , 0.0 , 

94.0 , 1552.30769231 , 1574.87179487 , 2009.74358974 , 1614.87179487 , 1598.97435897 , 1044.61538462 , 1480.0 , 1443.07692308 , 1782.56410256 , 1383.58974359 , 1593.33333333 , 2224.1025641 , 1769.74358974 , 1679.48717949 , 2042.0 , 2033.0 , 16.973 , 0.0 , 0.0 , 0.0 , 0.0 , 

95.0 , 1554.87179487 , 1582.05128205 , 2007.69230769 , 1619.48717949 , 1598.46153846 , 1052.30769231 , 1479.48717949 , 1448.20512821 , 1786.15384615 , 1394.35897436 , 1597.94871795 , 2226.15384615 , 1773.33333333 , 1678.97435897 , 2043.0 , 2035.0 , 16.981 , 0.0 , 0.0 , 0.0 , 0.0 , 

96.0 , 1560.51282051 , 1582.56410256 , 2011.28205128 , 1625.12820513 , 1601.02564103 , 1057.43589744 , 1484.1025641 , 1449.23076923 , 1784.1025641 , 1402.05128205 , 1598.97435897 , 2233.33333333 , 1772.82051282 , 1680.0 , 2044.0 , 2035.0 , 16.988 , 0.0 , 0.0 , 0.0 , 0.0 , 

97.0 , 1562.56410256 , 1582.05128205 , 2013.84615385 , 1625.64102564 , 1607.17948718 , 1061.53846154 , 1491.79487179 , 1451.79487179 , 1785.64102564 , 1399.48717949 , 1598.97435897 , 2237.43589744 , 1772.82051282 , 1683.07692308 , 2044.0 , 2034.0 , 16.996 , 0.0 , 0.0 , 0.0 , 0.0 , 

98.0 , 1565.12820513 , 1589.23076923 , 2016.92307692 , 1627.17948718 , 1609.23076923 , 1068.71794872 , 1491.28205128 , 1457.94871795 , 1791.79487179 , 1399.48717949 , 1605.64102564 , 2246.66666667 , 1775.8974359 , 1686.15384615 , 2044.0 , 2035.0 , 17.004 , 0.0 , 0.0 , 0.0 , 0.0 , 

99.0 , 1569.23076923 , 1592.82051282 , 2014.87179487 , 1632.82051282 , 1611.79487179 , 1077.43589744 , 1488.20512821 , 1463.07692308 , 1792.82051282 , 1408.71794872 , 1610.76923077 , 2252.30769231 , 1779.48717949 , 1685.12820513 , 2044.0 , 2035.0 , 17.012 , 0.0 , 0.0 , 0.0 , 0.0 , 

100.0 , 1573.33333333 , 1592.30769231 , 2016.92307692 , 1636.92307692 , 1616.92307692 , 1078.46153846 , 1495.8974359 , 1465.12820513 , 1790.76923077 , 1417.94871795 , 1611.79487179 , 2256.92307692 , 1781.02564103 , 1688.71794872 , 2044.0 , 2035.0 , 17.02 , 0.0 , 0.0 , 0.0 , 0.0 , 

101.0 , 1573.84615385 , 1593.84615385 , 2015.38461538 , 1636.41025641 , 1617.94871795 , 1080.0 , 1504.1025641 , 1469.74358974 , 1794.87179487 , 1415.8974359 , 1614.35897436 , 2260.51282051 , 1780.0 , 1694.35897436 , 2042.0 , 2035.0 , 17.028 , 0.0 , 0.0 , 0.0 , 0.0 , 

102.0 , 1578.46153846 , 1599.48717949 , 2015.38461538 , 1639.48717949 , 1618.46153846 , 1087.69230769 , 1501.53846154 , 1474.35897436 , 1797.43589744 , 1414.35897436 , 1620.0 , 2269.23076923 , 1782.05128205 , 1696.41025641 , 2043.0 , 2033.0 , 17.036 , 0.0 , 0.0 , 0.0 , 0.0 , 

103.0 , 1583.58974359 , 1603.58974359 , 2018.46153846 , 1645.12820513 , 1623.07692308 , 1092.82051282 , 1502.56410256 , 1477.43589744 , 1796.92307692 , 1426.15384615 , 1621.53846154 , 2274.87179487 , 1786.66666667 , 1695.8974359 , 2044.0 , 2035.0 , 17.044 , 0.0 , 0.0 , 0.0 , 0.0 , 

104.0 , 1584.1025641 , 1605.12820513 , 2020.51282051 , 1647.69230769 , 1625.64102564 , 1097.43589744 , 1514.87179487 , 1481.53846154 , 1801.02564103 , 1435.38461538 , 1622.56410256 , 2279.48717949 , 1789.23076923 , 1699.48717949 , 2043.0 , 2034.0 , 17.052 , 0.0 , 0.0 , 0.0 , 0.0 , 

105.0 , 1586.66666667 , 1607.69230769 , 2021.02564103 , 1649.74358974 , 1627.17948718 , 1106.66666667 , 1520.0 , 1485.12820513 , 1804.61538462 , 1431.79487179 , 1628.20512821 , 2286.66666667 , 1789.74358974 , 1704.61538462 , 2042.0 , 2035.0 , 17.059 , 0.0 , 0.0 , 0.0 , 0.0 , 

106.0 , 1591.28205128 , 1610.25641026 , 2022.05128205 , 1653.33333333 , 1630.76923077 , 1113.33333333 , 1516.92307692 , 1487.69230769 , 1806.15384615 , 1432.82051282 , 1631.28205128 , 2290.76923077 , 1791.79487179 , 1704.61538462 , 2044.0 , 2035.0 , 17.067 , 0.0 , 0.0 , 0.0 , 0.0 , 

107.0 , 1595.8974359 , 1613.33333333 , 2024.61538462 , 1656.92307692 , 1631.79487179 , 1116.92307692 , 1517.94871795 , 1491.28205128 , 1807.17948718 , 1442.56410256 , 1631.28205128 , 2296.92307692 , 1791.79487179 , 1706.66666667 , 2045.0 , 2035.0 , 17.075 , 0.0 , 0.0 , 0.0 , 0.0 , 

108.0 , 1598.46153846 , 1615.38461538 , 2023.07692308 , 1658.46153846 , 1634.87179487 , 1123.07692308 , 1521.53846154 , 1494.87179487 , 1808.20512821 , 1447.69230769 , 1634.87179487 , 2302.05128205 , 1793.33333333 , 1709.74358974 , 2043.0 , 2033.0 , 17.083 , 0.0 , 0.0 , 0.0 , 0.0 , 

109.0 , 1600.51282051 , 1619.48717949 , 2025.64102564 , 1661.02564103 , 1638.46153846 , 1125.64102564 , 1524.61538462 , 1497.94871795 , 1810.76923077 , 1448.20512821 , 1642.05128205 , 2307.69230769 , 1798.46153846 , 1712.82051282 , 2045.0 , 2033.0 , 17.091 , 0.0 , 0.0 , 0.0 , 0.0 , 

110.0 , 1601.53846154 , 1623.07692308 , 2028.20512821 , 1663.07692308 , 1640.51282051 , 1129.74358974 , 1528.71794872 , 1503.07692308 , 1814.35897436 , 1449.74358974 , 1645.12820513 , 2309.74358974 , 1800.51282051 , 1715.38461538 , 2044.0 , 2034.0 , 17.099 , 0.0 , 0.0 , 0.0 , 0.0 , 

111.0 , 1608.71794872 , 1627.17948718 , 2033.84615385 , 1664.61538462 , 1643.07692308 , 1136.92307692 , 1533.84615385 , 1505.12820513 , 1812.82051282 , 1452.82051282 , 1647.69230769 , 2319.48717949 , 1803.07692308 , 1720.0 , 2042.0 , 2034.0 , 17.107 , 0.0 , 0.0 , 0.0 , 0.0 , 

112.0 , 1611.28205128 , 1627.69230769 , 2031.28205128 , 1668.71794872 , 1648.71794872 , 1142.05128205 , 1537.94871795 , 1509.23076923 , 1814.87179487 , 1458.46153846 , 1648.71794872 , 2323.07692308 , 1804.61538462 , 1720.0 , 2042.0 , 2035.0 , 17.115 , 0.0 , 0.0 , 0.0 , 0.0 , 

113.0 , 1614.87179487 , 1632.30769231 , 2033.33333333 , 1675.8974359 , 1652.30769231 , 1148.71794872 , 1539.48717949 , 1513.33333333 , 1821.02564103 , 1464.1025641 , 1651.79487179 , 2329.74358974 , 1803.58974359 , 1723.07692308 , 2044.0 , 2034.0 , 17.123 , 0.0 , 0.0 , 0.0 , 0.0 , 

114.0 , 1617.94871795 , 1637.94871795 , 2032.30769231 , 1676.41025641 , 1653.84615385 , 1156.41025641 , 1543.07692308 , 1516.41025641 , 1819.48717949 , 1466.15384615 , 1654.87179487 , 2336.92307692 , 1804.1025641 , 1726.66666667 , 2043.0 , 2035.0 , 17.13 , 0.0 , 0.0 , 0.0 , 0.0 , 

115.0 , 1620.51282051 , 1640.0 , 2034.35897436 , 1674.35897436 , 1653.84615385 , 1157.94871795 , 1549.74358974 , 1517.94871795 , 1815.8974359 , 1468.20512821 , 1657.94871795 , 2344.1025641 , 1810.25641026 , 1728.71794872 , 2043.0 , 2035.0 , 17.138 , 0.0 , 0.0 , 0.0 , 0.0 , 

116.0 , 1621.02564103 , 1637.94871795 , 2033.84615385 , 1680.51282051 , 1658.46153846 , 1160.0 , 1552.30769231 , 1524.61538462 , 1824.61538462 , 1473.33333333 , 1660.51282051 , 2346.66666667 , 1813.84615385 , 1728.71794872 , 2042.0 , 2036.0 , 17.147 , 0.0 , 0.0 , 0.0 , 0.0 , 

117.0 , 1627.69230769 , 1642.05128205 , 2036.92307692 , 1686.15384615 , 1663.58974359 , 1166.66666667 , 1552.82051282 , 1528.71794872 , 1826.66666667 , 1477.94871795 , 1664.61538462 , 2355.8974359 , 1814.87179487 , 1731.79487179 , 2043.0 , 2034.0 , 17.154 , 0.0 , 0.0 , 0.0 , 0.0 , 

118.0 , 1630.76923077 , 1645.64102564 , 2034.87179487 , 1686.15384615 , 1663.58974359 , 1173.33333333 , 1557.43589744 , 1531.79487179 , 1822.56410256 , 1482.05128205 , 1666.66666667 , 2357.94871795 , 1818.97435897 , 1733.84615385 , 2043.0 , 2035.0 , 17.162 , 0.0 , 0.0 , 0.0 , 0.0 , 

119.0 , 1631.28205128 , 1649.74358974 , 2036.92307692 , 1690.25641026 , 1665.12820513 , 1181.53846154 , 1563.07692308 , 1533.33333333 , 1828.20512821 , 1485.64102564 , 1670.76923077 , 2357.94871795 , 1823.58974359 , 1736.92307692 , 2044.0 , 2035.0 , 17.17 , 0.0 , 0.0 , 0.0 , 0.0 , 

120.0 , 1633.84615385 , 1652.82051282 , 2039.48717949 , 1697.94871795 , 1672.82051282 , 1188.71794872 , 1564.61538462 , 1536.41025641 , 1834.35897436 , 1486.15384615 , 1675.8974359 , 2366.66666667 , 1824.1025641 , 1740.0 , 2043.0 , 2034.0 , 17.178 , 0.0 , 0.0 , 0.0 , 0.0 , 

121.0 , 1637.43589744 , 1654.35897436 , 2042.05128205 , 1698.97435897 , 1675.38461538 , 1189.74358974 , 1565.12820513 , 1541.02564103 , 1831.79487179 , 1490.25641026 , 1679.48717949 , 2377.43589744 , 1821.53846154 , 1742.56410256 , 2043.0 , 2033.0 , 17.185 , 0.0 , 0.0 , 0.0 , 0.0 , 

122.0 , 1638.46153846 , 1656.41025641 , 2044.1025641 , 1699.48717949 , 1675.8974359 , 1193.33333333 , 1571.79487179 , 1545.12820513 , 1834.35897436 , 1500.51282051 , 1681.53846154 , 2378.97435897 , 1823.07692308 , 1745.12820513 , 2044.0 , 2034.0 , 17.193 , 0.0 , 0.0 , 0.0 , 0.0 , 

123.0 , 1641.02564103 , 1661.02564103 , 2043.58974359 , 1700.0 , 1680.51282051 , 1202.05128205 , 1577.94871795 , 1546.66666667 , 1838.46153846 , 1504.61538462 , 1682.05128205 , 2382.05128205 , 1828.71794872 , 1746.66666667 , 2042.0 , 2035.0 , 17.201 , 0.0 , 0.0 , 0.0 , 0.0 , 

124.0 , 1646.15384615 , 1663.07692308 , 2042.05128205 , 1701.02564103 , 1682.05128205 , 1204.61538462 , 1576.41025641 , 1552.30769231 , 1836.41025641 , 1502.05128205 , 1684.61538462 , 2390.25641026 , 1829.74358974 , 1747.17948718 , 2043.0 , 2034.0 , 17.209 , 0.0 , 0.0 , 0.0 , 0.0 , 

125.0 , 1650.76923077 , 1663.58974359 , 2043.58974359 , 1705.12820513 , 1682.56410256 , 1206.15384615 , 1575.8974359 , 1559.48717949 , 1837.94871795 , 1506.66666667 , 1690.25641026 , 2396.41025641 , 1828.71794872 , 1750.25641026 , 2044.0 , 2036.0 , 17.217 , 0.0 , 0.0 , 0.0 , 0.0 , 

126.0 , 1652.82051282 , 1668.71794872 , 2047.69230769 , 1711.28205128 , 1684.1025641 , 1215.38461538 , 1584.61538462 , 1560.51282051 , 1842.05128205 , 1516.92307692 , 1696.41025641 , 2403.07692308 , 1833.33333333 , 1756.92307692 , 2044.0 , 2037.0 , 17.225 , 0.0 , 0.0 , 0.0 , 0.0 , 

127.0 , 1652.82051282 , 1673.33333333 , 2046.15384615 , 1710.76923077 , 1685.12820513 , 1223.07692308 , 1587.69230769 , 1562.05128205 , 1844.1025641 , 1520.0 , 1697.94871795 , 2404.1025641 , 1835.38461538 , 1758.46153846 , 2044.0 , 2034.0 , 17.232 , 0.0 , 0.0 , 0.0 , 0.0 , 

128.0 , 1659.48717949 , 1674.35897436 , 2050.76923077 , 1712.30769231 , 1688.71794872 , 1224.61538462 , 1586.15384615 , 1566.15384615 , 1843.07692308 , 1517.43589744 , 1697.94871795 , 2407.69230769 , 1836.92307692 , 1761.02564103 , 2043.0 , 2035.0 , 17.241 , 0.0 , 0.0 , 0.0 , 0.0 , 

0.0 , 1665.12820513 , 1671.79487179 , 2049.74358974 , 1716.41025641 , 1696.41025641 , 1228.71794872 , 1591.79487179 , 1569.23076923 , 1842.56410256 , 1520.51282051 , 1698.46153846 , 2414.87179487 , 1838.46153846 , 1761.53846154 , 2042.0 , 2033.0 , 17.249 , 0.0 , 0.0 , 0.0 , 0.0 , 

1.0 , 1668.20512821 , 1677.94871795 , 2049.74358974 , 1716.92307692 , 1697.94871795 , 1236.41025641 , 1598.46153846 , 1571.28205128 , 1846.66666667 , 1529.74358974 , 1704.61538462 , 2425.12820513 , 1840.0 , 1761.02564103 , 2044.0 , 2035.0 , 17.256 , 0.0 , 0.0 , 0.0 , 0.0 , 

2.0 , 1665.64102564 , 1684.61538462 , 2049.23076923 , 1720.0 , 1696.41025641 , 1240.51282051 , 1600.51282051 , 1577.43589744 , 1852.82051282 , 1534.35897436 , 1709.74358974 , 2424.1025641 , 1842.56410256 , 1762.05128205 , 2042.0 , 2034.0 , 17.264 , 0.0 , 0.0 , 0.0 , 0.0 , 

3.0 , 1668.20512821 , 1684.61538462 , 2053.33333333 , 1728.20512821 , 1698.97435897 , 1242.56410256 , 1602.56410256 , 1580.0 , 1850.76923077 , 1534.35897436 , 1710.25641026 , 2429.23076923 , 1845.64102564 , 1768.20512821 , 2041.0 , 2034.0 , 17.272 , 0.0 , 0.0 , 0.0 , 0.0 , 

4.0 , 1673.84615385 , 1686.66666667 , 2051.79487179 , 1730.76923077 , 1706.15384615 , 1248.71794872 , 1605.64102564 , 1582.05128205 , 1849.23076923 , 1536.41025641 , 1711.79487179 , 2435.38461538 , 1845.12820513 , 1771.79487179 , 2043.0 , 2034.0 , 17.28 , 0.0 , 0.0 , 0.0 , 0.0 , 

5.0 , 1681.02564103 , 1695.8974359 , 2054.35897436 , 1730.76923077 , 1710.76923077 , 1254.87179487 , 1609.23076923 , 1584.1025641 , 1852.82051282 , 1539.48717949 , 1718.97435897 , 2442.05128205 , 1847.69230769 , 1774.87179487 , 2044.0 , 2033.0 , 17.289 , 0.0 , 0.0 , 0.0 , 0.0 , 

6.0 , 1680.51282051 , 1696.92307692 , 2053.84615385 , 1734.87179487 , 1711.79487179 , 1257.94871795 , 1612.30769231 , 1588.71794872 , 1857.94871795 , 1543.58974359 , 1720.0 , 2444.61538462 , 1850.25641026 , 1778.97435897 , 2043.0 , 2033.0 , 17.3 , 0.0 , 0.0 , 0.0 , 0.0 , 

7.0 , 1681.53846154 , 1696.92307692 , 2057.94871795 , 1740.51282051 , 1711.79487179 , 1264.1025641 , 1613.84615385 , 1595.8974359 , 1857.94871795 , 1548.71794872 , 1720.51282051 , 2451.28205128 , 1849.74358974 , 1780.51282051 , 2043.0 , 2035.0 , 17.305 , 0.0 , 0.0 , 0.0 , 0.0 , 

8.0 , 1685.12820513 , 1701.02564103 , 2060.51282051 , 1742.56410256 , 1717.43589744 , 1274.87179487 , 1616.92307692 , 1601.53846154 , 1860.0 , 1550.76923077 , 1722.56410256 , 2452.82051282 , 1852.30769231 , 1779.48717949 , 2044.0 , 2034.0 , 17.311 , 0.0 , 0.0 , 0.0 , 0.0 , 

9.0 , 1689.74358974 , 1704.1025641 , 2062.56410256 , 1744.1025641 , 1723.58974359 , 1275.8974359 , 1621.53846154 , 1600.51282051 , 1862.56410256 , 1551.79487179 , 1727.17948718 , 2455.8974359 , 1858.97435897 , 1784.61538462 , 2044.0 , 2036.0 , 17.32 , 0.0 , 0.0 , 0.0 , 0.0 , 

10.0 , 1690.76923077 , 1705.64102564 , 2063.07692308 , 1746.15384615 , 1726.15384615 , 1272.82051282 , 1623.07692308 , 1602.05128205 , 1862.05128205 , 1558.97435897 , 1731.28205128 , 2461.02564103 , 1860.51282051 , 1789.23076923 , 2044.0 , 2033.0 , 17.328 , 0.0 , 0.0 , 0.0 , 0.0 , 

11.0 , 1693.33333333 , 1711.79487179 , 2064.1025641 , 1748.71794872 , 1726.66666667 , 1281.02564103 , 1622.56410256 , 1608.20512821 , 1861.02564103 , 1566.15384615 , 1734.87179487 , 2467.69230769 , 1861.53846154 , 1788.71794872 , 2044.0 , 2033.0 , 17.335 , 0.0 , 0.0 , 0.0 , 0.0 , 

12.0 , 1695.8974359 , 1714.87179487 , 2064.1025641 , 1749.23076923 , 1728.20512821 , 1289.74358974 , 1626.66666667 , 1608.71794872 , 1864.1025641 , 1567.69230769 , 1736.92307692 , 2475.38461538 , 1863.07692308 , 1790.76923077 , 2042.0 , 2035.0 , 17.343 , 0.0 , 0.0 , 0.0 , 0.0 , 

13.0 , 1701.02564103 , 1715.38461538 , 2065.12820513 , 1752.30769231 , 1728.71794872 , 1292.30769231 , 1634.87179487 , 1608.20512821 , 1867.17948718 , 1569.74358974 , 1740.0 , 2481.02564103 , 1863.58974359 , 1794.35897436 , 2042.0 , 2034.0 , 17.352 , 0.0 , 0.0 , 0.0 , 0.0 , 

14.0 , 1703.07692308 , 1718.97435897 , 2067.17948718 , 1758.46153846 , 1730.76923077 , 1301.53846154 , 1639.48717949 , 1613.84615385 , 1867.69230769 , 1574.35897436 , 1744.1025641 , 2485.12820513 , 1864.61538462 , 1794.35897436 , 2043.0 , 2034.0 , 17.359 , 0.0 , 0.0 , 0.0 , 0.0 , 

15.0 , 1701.02564103 , 1720.0 , 2066.15384615 , 1762.05128205 , 1735.8974359 , 1307.17948718 , 1638.97435897 , 1622.05128205 , 1871.28205128 , 1580.51282051 , 1746.66666667 , 2489.74358974 , 1867.17948718 , 1796.92307692 , 2044.0 , 2034.0 , 17.367 , 0.0 , 0.0 , 0.0 , 0.0 , 

16.0 , 1707.69230769 , 1720.0 , 2070.76923077 , 1763.58974359 , 1738.97435897 , 1304.61538462 , 1640.51282051 , 1623.58974359 , 1871.79487179 , 1584.61538462 , 1748.71794872 , 2497.94871795 , 1872.82051282 , 1802.05128205 , 2044.0 , 2033.0 , 17.375 , 0.0 , 0.0 , 0.0 , 0.0 , 

17.0 , 1712.82051282 , 1725.12820513 , 2071.79487179 , 1766.15384615 , 1743.58974359 , 1309.74358974 , 1645.64102564 , 1624.61538462 , 1870.25641026 , 1586.66666667 , 1750.25641026 , 2499.48717949 , 1874.87179487 , 1803.07692308 , 2044.0 , 2034.0 , 17.383 , 0.0 , 0.0 , 0.0 , 0.0 , 

18.0 , 1712.30769231 , 1731.79487179 , 2073.33333333 , 1768.71794872 , 1747.17948718 , 1320.0 , 1648.71794872 , 1628.20512821 , 1871.79487179 , 1589.74358974 , 1754.35897436 , 2506.15384615 , 1874.35897436 , 1806.15384615 , 2043.0 , 2035.0 , 17.39 , 0.0 , 0.0 , 0.0 , 0.0 , 

19.0 , 1714.35897436 , 1729.74358974 , 2072.82051282 , 1770.25641026 , 1746.66666667 , 1322.56410256 , 1650.76923077 , 1633.84615385 , 1876.41025641 , 1593.84615385 , 1756.92307692 , 2511.79487179 , 1875.38461538 , 1808.71794872 , 2043.0 , 2034.0 , 17.399 , 0.0 , 0.0 , 0.0 , 0.0 , 

20.0 , 1723.58974359 , 1732.30769231 , 2078.97435897 , 1774.87179487 , 1747.17948718 , 1323.07692308 , 1656.41025641 , 1637.43589744 , 1877.94871795 , 1595.8974359 , 1761.02564103 , 2515.8974359 , 1881.53846154 , 1808.20512821 , 2043.0 , 2033.0 , 17.406 , 0.0 , 0.0 , 0.0 , 0.0 , 

21.0 , 1723.58974359 , 1735.38461538 , 2077.94871795 , 1777.43589744 , 1753.33333333 , 1330.25641026 , 1658.46153846 , 1640.51282051 , 1880.0 , 1598.97435897 , 1764.61538462 , 2516.92307692 , 1883.58974359 , 1808.71794872 , 2042.0 , 2036.0 , 17.414 , 0.0 , 0.0 , 0.0 , 0.0 , 

22.0 , 1724.61538462 , 1736.92307692 , 2079.48717949 , 1777.43589744 , 1756.41025641 , 1336.41025641 , 1656.92307692 , 1642.56410256 , 1879.48717949 , 1604.61538462 , 1767.17948718 , 2526.15384615 , 1882.05128205 , 1815.8974359 , 2043.0 , 2035.0 , 17.422 , 0.0 , 0.0 , 0.0 , 0.0 , 

23.0 , 1729.23076923 , 1738.97435897 , 2078.97435897 , 1782.05128205 , 1757.94871795 , 1338.97435897 , 1660.51282051 , 1648.20512821 , 1879.48717949 , 1609.74358974 , 1768.71794872 , 2528.71794872 , 1884.1025641 , 1820.51282051 , 2043.0 , 2034.0 , 17.43 , 0.0 , 0.0 , 0.0 , 0.0 , 

24.0 , 1731.79487179 , 1745.12820513 , 2082.56410256 , 1786.66666667 , 1760.0 , 1344.61538462 , 1670.25641026 , 1651.28205128 , 1881.53846154 , 1610.76923077 , 1771.28205128 , 2530.76923077 , 1888.71794872 , 1822.05128205 , 2043.0 , 2035.0 , 17.438 , 0.0 , 0.0 , 0.0 , 0.0 , 

25.0 , 1733.33333333 , 1743.58974359 , 2082.56410256 , 1783.58974359 , 1761.53846154 , 1353.33333333 , 1673.84615385 , 1652.82051282 , 1885.64102564 , 1611.79487179 , 1771.28205128 , 2535.8974359 , 1888.71794872 , 1820.51282051 , 2043.0 , 2034.0 , 17.446 , 0.0 , 0.0 , 0.0 , 0.0 , 

26.0 , 1736.41025641 , 1745.12820513 , 2083.07692308 , 1786.15384615 , 1763.58974359 , 1353.84615385 , 1669.74358974 , 1658.46153846 , 1887.69230769 , 1617.43589744 , 1773.84615385 , 2543.58974359 , 1890.76923077 , 1824.61538462 , 2044.0 , 2034.0 , 17.454 , 0.0 , 0.0 , 0.0 , 0.0 , 

27.0 , 1736.41025641 , 1754.35897436 , 2082.05128205 , 1793.84615385 , 1768.20512821 , 1355.38461538 , 1673.84615385 , 1665.12820513 , 1889.74358974 , 1625.12820513 , 1780.0 , 2543.58974359 , 1894.35897436 , 1828.71794872 , 2044.0 , 2034.0 , 17.461 , 0.0 , 0.0 , 0.0 , 0.0 , 

28.0 , 1741.53846154 , 1756.92307692 , 2083.07692308 , 1794.35897436 , 1771.79487179 , 1364.61538462 , 1683.07692308 , 1664.61538462 , 1889.23076923 , 1625.64102564 , 1785.64102564 , 2548.71794872 , 1895.38461538 , 1828.71794872 , 2044.0 , 2034.0 , 17.469 , 0.0 , 0.0 , 0.0 , 0.0 , 

29.0 , 1746.66666667 , 1753.33333333 , 2083.58974359 , 1794.87179487 , 1774.35897436 , 1369.74358974 , 1683.58974359 , 1666.66666667 , 1890.25641026 , 1625.12820513 , 1786.15384615 , 2557.43589744 , 1895.8974359 , 1829.23076923 , 2042.0 , 2035.0 , 17.477 , 0.0 , 0.0 , 0.0 , 0.0 , 

30.0 , 1747.17948718 , 1759.48717949 , 2087.17948718 , 1801.02564103 , 1777.43589744 , 1371.28205128 , 1685.12820513 , 1671.28205128 , 1892.82051282 , 1632.30769231 , 1788.71794872 , 2564.61538462 , 1895.38461538 , 1836.41025641 , 2043.0 , 2034.0 , 17.485 , 0.0 , 0.0 , 0.0 , 0.0 , 

31.0 , 1747.17948718 , 1765.64102564 , 2091.28205128 , 1802.56410256 , 1779.48717949 , 1377.43589744 , 1692.30769231 , 1671.79487179 , 1892.30769231 , 1639.48717949 , 1794.35897436 , 2567.17948718 , 1897.43589744 , 1838.97435897 , 2043.0 , 2035.0 , 17.493 , 0.0 , 0.0 , 0.0 , 0.0 , 

32.0 , 1751.79487179 , 1763.58974359 , 2092.30769231 , 1803.07692308 , 1780.51282051 , 1381.02564103 , 1689.23076923 , 1676.92307692 , 1890.25641026 , 1640.51282051 , 1796.92307692 , 2569.74358974 , 1905.12820513 , 1837.43589744 , 2043.0 , 2035.0 , 17.501 , 0.0 , 0.0 , 0.0 , 0.0 , 

33.0 , 1755.8974359 , 1766.15384615 , 2092.82051282 , 1809.74358974 , 1782.56410256 , 1382.05128205 , 1686.15384615 , 1683.58974359 , 1892.30769231 , 1641.02564103 , 1800.0 , 2575.8974359 , 1906.66666667 , 1841.02564103 , 2043.0 , 2035.0 , 17.509 , 0.0 , 0.0 , 0.0 , 0.0 , 

34.0 , 1757.43589744 , 1772.82051282 , 2092.30769231 , 1813.33333333 , 1784.61538462 , 1389.23076923 , 1694.87179487 , 1687.69230769 , 1895.8974359 , 1640.51282051 , 1802.56410256 , 2581.02564103 , 1903.58974359 , 1845.12820513 , 2043.0 , 2034.0 , 17.517 , 0.0 , 0.0 , 0.0 , 0.0 , 

35.0 , 1760.51282051 , 1773.33333333 , 2093.33333333 , 1811.79487179 , 1786.15384615 , 1396.41025641 , 1700.51282051 , 1686.15384615 , 1895.38461538 , 1644.61538462 , 1803.07692308 , 2589.74358974 , 1909.23076923 , 1846.66666667 , 2044.0 , 2034.0 , 17.524 , 0.0 , 0.0 , 0.0 , 0.0 , 

36.0 , 1762.05128205 , 1773.33333333 , 2088.71794872 , 1813.33333333 , 1790.76923077 , 1398.97435897 , 1698.46153846 , 1686.66666667 , 1897.43589744 , 1653.33333333 , 1802.05128205 , 2591.28205128 , 1913.33333333 , 1848.20512821 , 2043.0 , 2035.0 , 17.532 , 0.0 , 0.0 , 0.0 , 0.0 , 

37.0 , 1767.69230769 , 1781.02564103 , 2093.84615385 , 1818.46153846 , 1793.33333333 , 1398.97435897 , 1704.1025641 , 1690.25641026 , 1898.46153846 , 1657.43589744 , 1808.20512821 , 2592.82051282 , 1912.30769231 , 1851.79487179 , 2044.0 , 2033.0 , 17.54 , 0.0 , 0.0 , 0.0 , 0.0 , 

38.0 , 1770.25641026 , 1785.12820513 , 2098.46153846 , 1823.58974359 , 1794.87179487 , 1402.56410256 , 1706.66666667 , 1696.41025641 , 1900.0 , 1656.41025641 , 1815.38461538 , 2594.87179487 , 1914.87179487 , 1853.84615385 , 2042.0 , 2033.0 , 17.548 , 0.0 , 0.0 , 0.0 , 0.0 , 

39.0 , 1772.30769231 , 1784.61538462 , 2101.53846154 , 1826.66666667 , 1798.46153846 , 1414.35897436 , 1703.58974359 , 1698.46153846 , 1902.56410256 , 1655.8974359 , 1816.41025641 , 2604.61538462 , 1921.02564103 , 1854.87179487 , 2043.0 , 2035.0 , 17.556 , 0.0 , 0.0 , 0.0 , 0.0 , 

40.0 , 1773.84615385 , 1785.12820513 , 2096.41025641 , 1826.66666667 , 1802.56410256 , 1420.0 , 1709.23076923 , 1701.53846154 , 1903.07692308 , 1657.94871795 , 1815.38461538 , 2606.15384615 , 1921.53846154 , 1853.33333333 , 2043.0 , 2035.0 , 17.564 , 0.0 , 0.0 , 0.0 , 0.0 , 

41.0 , 1778.97435897 , 1792.82051282 , 2100.51282051 , 1828.71794872 , 1804.1025641 , 1416.92307692 , 1718.97435897 , 1703.07692308 , 1901.02564103 , 1665.12820513 , 1821.02564103 , 2611.79487179 , 1920.51282051 , 1857.94871795 , 2043.0 , 2034.0 , 17.573 , 0.0 , 0.0 , 0.0 , 0.0 , 

42.0 , 1777.94871795 , 1794.87179487 , 2103.07692308 , 1833.84615385 , 1807.69230769 , 1421.53846154 , 1720.0 , 1705.64102564 , 1905.12820513 , 1674.35897436 , 1825.64102564 , 2617.94871795 , 1922.56410256 , 1863.07692308 , 2044.0 , 2032.0 , 17.58 , 0.0 , 0.0 , 0.0 , 0.0 , 

43.0 , 1778.46153846 , 1795.38461538 , 2104.1025641 , 1836.92307692 , 1812.30769231 , 1431.79487179 , 1721.02564103 , 1711.79487179 , 1908.71794872 , 1674.87179487 , 1827.69230769 , 2623.07692308 , 1924.61538462 , 1864.61538462 , 2044.0 , 2034.0 , 17.587 , 0.0 , 0.0 , 0.0 , 0.0 , 

44.0 , 1786.15384615 , 1796.41025641 , 2102.56410256 , 1836.92307692 , 1815.8974359 , 1436.92307692 , 1721.53846154 , 1715.8974359 , 1906.15384615 , 1672.30769231 , 1830.76923077 , 2623.07692308 , 1924.61538462 , 1864.61538462 , 2042.0 , 2033.0 , 17.595 , 0.0 , 0.0 , 0.0 , 0.0 , 

45.0 , 1792.82051282 , 1798.97435897 , 2108.20512821 , 1839.48717949 , 1815.8974359 , 1436.92307692 , 1724.61538462 , 1715.8974359 , 1904.1025641 , 1678.97435897 , 1835.38461538 , 2630.25641026 , 1927.69230769 , 1870.25641026 , 2043.0 , 2035.0 , 17.603 , 0.0 , 0.0 , 0.0 , 0.0 , 

46.0 , 1789.74358974 , 1801.02564103 , 2111.79487179 , 1842.05128205 , 1815.8974359 , 1441.53846154 , 1731.79487179 , 1721.53846154 , 1909.23076923 , 1688.71794872 , 1833.84615385 , 2635.8974359 , 1933.84615385 , 1872.82051282 , 2042.0 , 2033.0 , 17.611 , 0.0 , 0.0 , 0.0 , 0.0 , 

47.0 , 1791.79487179 , 1807.69230769 , 2111.79487179 , 1843.58974359 , 1818.97435897 , 1448.20512821 , 1738.46153846 , 1727.17948718 , 1910.76923077 , 1690.25641026 , 1835.38461538 , 2639.48717949 , 1936.41025641 , 1873.33333333 , 2043.0 , 2034.0 , 17.619 , 0.0 , 0.0 , 0.0 , 0.0 , 

48.0 , 1798.46153846 , 1811.79487179 , 2109.74358974 , 1846.66666667 , 1822.56410256 , 1453.84615385 , 1738.46153846 , 1730.25641026 , 1906.66666667 , 1685.64102564 , 1840.51282051 , 2643.07692308 , 1936.41025641 , 1876.92307692 , 2043.0 , 2035.0 , 17.627 , 0.0 , 0.0 , 0.0 , 0.0 , 

49.0 , 1802.05128205 , 1810.25641026 , 2110.76923077 , 1848.20512821 , 1824.1025641 , 1458.46153846 , 1733.84615385 , 1731.79487179 , 1907.17948718 , 1688.71794872 , 1844.1025641 , 2647.69230769 , 1938.46153846 , 1881.53846154 , 2042.0 , 2035.0 , 17.635 , 0.0 , 0.0 , 0.0 , 0.0 , 

50.0 , 1803.07692308 , 1812.30769231 , 2113.33333333 , 1847.17948718 , 1827.17948718 , 1461.53846154 , 1739.48717949 , 1731.79487179 , 1912.30769231 , 1701.53846154 , 1847.17948718 , 2653.33333333 , 1940.0 , 1883.58974359 , 2041.0 , 2034.0 , 17.643 , 0.0 , 0.0 , 0.0 , 0.0 , 

51.0 , 1803.07692308 , 1818.46153846 , 2113.84615385 , 1852.30769231 , 1828.20512821 , 1463.58974359 , 1746.15384615 , 1733.33333333 , 1913.84615385 , 1705.64102564 , 1849.74358974 , 2654.35897436 , 1940.0 , 1883.58974359 , 2043.0 , 2036.0 , 17.65 , 0.0 , 0.0 , 0.0 , 0.0 , 

52.0 , 1807.69230769 , 1819.48717949 , 2114.87179487 , 1861.02564103 , 1828.71794872 , 1468.71794872 , 1744.1025641 , 1736.92307692 , 1912.82051282 , 1704.61538462 , 1853.33333333 , 2655.8974359 , 1940.51282051 , 1885.12820513 , 2044.0 , 2035.0 , 17.658 , 0.0 , 0.0 , 0.0 , 0.0 , 

53.0 , 1814.35897436 , 1816.92307692 , 2114.87179487 , 1863.07692308 , 1835.38461538 , 1476.41025641 , 1745.12820513 , 1742.05128205 , 1915.38461538 , 1706.15384615 , 1854.35897436 , 2660.51282051 , 1942.56410256 , 1888.20512821 , 2044.0 , 2033.0 , 17.666 , 0.0 , 0.0 , 0.0 , 0.0 , 

54.0 , 1817.43589744 , 1823.07692308 , 2120.0 , 1863.07692308 , 1841.02564103 , 1478.46153846 , 1755.8974359 , 1745.64102564 , 1916.41025641 , 1707.69230769 , 1854.35897436 , 2670.25641026 , 1946.66666667 , 1890.25641026 , 2044.0 , 2034.0 , 17.674 , 0.0 , 0.0 , 0.0 , 0.0 , 

55.0 , 1815.38461538 , 1828.20512821 , 2121.02564103 , 1865.12820513 , 1841.02564103 , 1478.46153846 , 1755.8974359 , 1748.20512821 , 1917.43589744 , 1712.82051282 , 1858.97435897 , 2672.30769231 , 1951.28205128 , 1890.25641026 , 2043.0 , 2034.0 , 17.682 , 0.0 , 0.0 , 0.0 , 0.0 , 

56.0 , 1821.53846154 , 1829.23076923 , 2123.07692308 , 1869.23076923 , 1842.05128205 , 1485.12820513 , 1751.28205128 , 1748.20512821 , 1916.92307692 , 1720.0 , 1868.71794872 , 2675.8974359 , 1954.87179487 , 1894.35897436 , 2044.0 , 2035.0 , 17.69 , 0.0 , 0.0 , 0.0 , 0.0 , 

57.0 , 1823.58974359 , 1830.76923077 , 2120.0 , 1870.76923077 , 1846.15384615 , 1490.25641026 , 1760.51282051 , 1753.33333333 , 1916.41025641 , 1723.07692308 , 1870.76923077 , 2678.97435897 , 1955.38461538 , 1896.92307692 , 2043.0 , 2036.0 , 17.698 , 0.0 , 0.0 , 0.0 , 0.0 , 

58.0 , 1825.12820513 , 1837.43589744 , 2124.1025641 , 1871.28205128 , 1846.15384615 , 1490.25641026 , 1764.1025641 , 1758.97435897 , 1916.41025641 , 1722.05128205 , 1868.71794872 , 2687.17948718 , 1956.92307692 , 1898.46153846 , 2043.0 , 2034.0 , 17.706 , 0.0 , 0.0 , 0.0 , 0.0 , 

59.0 , 1828.71794872 , 1837.43589744 , 2127.69230769 , 1873.84615385 , 1848.71794872 , 1494.35897436 , 1761.53846154 , 1761.53846154 , 1918.97435897 , 1722.56410256 , 1871.28205128 , 2691.28205128 , 1956.92307692 , 1899.48717949 , 2042.0 , 2034.0 , 17.713 , 0.0 , 0.0 , 0.0 , 0.0 , 

60.0 , 1831.28205128 , 1835.8974359 , 2132.30769231 , 1877.43589744 , 1851.79487179 , 1501.02564103 , 1769.23076923 , 1762.05128205 , 1917.94871795 , 1726.66666667 , 1875.8974359 , 2696.41025641 , 1958.46153846 , 1905.64102564 , 2043.0 , 2034.0 , 17.721 , 0.0 , 0.0 , 0.0 , 0.0 , 

61.0 , 1829.74358974 , 1837.94871795 , 2129.23076923 , 1880.0 , 1853.84615385 , 1506.15384615 , 1772.30769231 , 1767.69230769 , 1918.46153846 , 1733.33333333 , 1877.94871795 , 2696.92307692 , 1958.97435897 , 1909.74358974 , 2044.0 , 2035.0 , 17.729 , 0.0 , 0.0 , 0.0 , 0.0 , 

62.0 , 1835.8974359 , 1846.15384615 , 2128.71794872 , 1882.05128205 , 1857.43589744 , 1512.30769231 , 1769.23076923 , 1771.79487179 , 1919.48717949 , 1738.46153846 , 1879.48717949 , 2704.1025641 , 1960.51282051 , 1910.76923077 , 2043.0 , 2035.0 , 17.737 , 0.0 , 0.0 , 0.0 , 0.0 , 

63.0 , 1841.53846154 , 1849.23076923 , 2128.71794872 , 1884.61538462 , 1861.53846154 , 1518.46153846 , 1775.8974359 , 1772.82051282 , 1918.97435897 , 1737.94871795 , 1881.53846154 , 2708.20512821 , 1966.15384615 , 1910.76923077 , 2043.0 , 2033.0 , 17.745 , 0.0 , 0.0 , 0.0 , 0.0 , 

64.0 , 1841.02564103 , 1848.71794872 , 2131.28205128 , 1889.74358974 , 1860.51282051 , 1520.0 , 1786.15384615 , 1775.8974359 , 1917.43589744 , 1736.41025641 , 1886.66666667 , 2710.76923077 , 1971.79487179 , 1913.84615385 , 2043.0 , 2035.0 , 17.753 , 0.0 , 0.0 , 0.0 , 0.0 , 

65.0 , 1840.0 , 1852.82051282 , 2132.30769231 , 1893.84615385 , 1863.07692308 , 1521.53846154 , 1786.15384615 , 1781.02564103 , 1920.0 , 1739.48717949 , 1889.74358974 , 2712.30769231 , 1971.79487179 , 1915.38461538 , 2043.0 , 2034.0 , 17.762 , 0.0 , 0.0 , 0.0 , 0.0 , 

66.0 , 1846.66666667 , 1858.46153846 , 2136.41025641 , 1892.82051282 , 1869.23076923 , 1526.15384615 , 1784.1025641 , 1780.51282051 , 1921.53846154 , 1748.20512821 , 1890.25641026 , 2715.38461538 , 1970.76923077 , 1917.43589744 , 2044.0 , 2034.0 , 17.769 , 0.0 , 0.0 , 0.0 , 0.0 , 

67.0 , 1850.25641026 , 1858.97435897 , 2138.46153846 , 1892.30769231 , 1870.76923077 , 1531.79487179 , 1786.66666667 , 1780.51282051 , 1918.46153846 , 1754.87179487 , 1892.30769231 , 2720.0 , 1973.84615385 , 1920.51282051 , 2043.0 , 2034.0 , 17.777 , 0.0 , 0.0 , 0.0 , 0.0 , 

68.0 , 1850.76923077 , 1860.0 , 2137.43589744 , 1897.94871795 , 1871.28205128 , 1535.8974359 , 1789.23076923 , 1788.20512821 , 1917.94871795 , 1754.35897436 , 1900.0 , 2728.20512821 , 1974.87179487 , 1923.58974359 , 2043.0 , 2034.0 , 17.783 , 0.0 , 0.0 , 0.0 , 0.0 , 

69.0 , 1856.41025641 , 1863.07692308 , 2140.0 , 1903.07692308 , 1876.41025641 , 1538.46153846 , 1794.35897436 , 1793.33333333 , 1921.02564103 , 1752.82051282 , 1904.1025641 , 2732.30769231 , 1976.41025641 , 1926.66666667 , 2042.0 , 2034.0 , 17.792 , 0.0 , 0.0 , 0.0 , 0.0 , 

70.0 , 1860.51282051 , 1864.61538462 , 2140.51282051 , 1900.51282051 , 1880.0 , 1543.07692308 , 1800.51282051 , 1792.82051282 , 1920.51282051 , 1755.38461538 , 1900.51282051 , 2730.76923077 , 1981.02564103 , 1929.23076923 , 2044.0 , 2034.0 , 17.8 , 0.0 , 0.0 , 0.0 , 0.0 , 

71.0 , 1860.51282051 , 1867.69230769 , 2139.48717949 , 1900.0 , 1880.51282051 , 1547.17948718 , 1801.02564103 , 1793.84615385 , 1918.97435897 , 1763.07692308 , 1903.07692308 , 2740.0 , 1984.61538462 , 1928.71794872 , 2043.0 , 2035.0 , 17.808 , 0.0 , 0.0 , 0.0 , 0.0 , 

72.0 , 1863.07692308 , 1869.74358974 , 2141.53846154 , 1906.15384615 , 1881.02564103 , 1549.74358974 , 1800.51282051 , 1797.94871795 , 1921.02564103 , 1770.25641026 , 1910.76923077 , 2745.64102564 , 1986.66666667 , 1928.20512821 , 2043.0 , 2035.0 , 17.816 , 0.0 , 0.0 , 0.0 , 0.0 , 

73.0 , 1866.66666667 , 1873.33333333 , 2148.71794872 , 1911.28205128 , 1884.61538462 , 1554.87179487 , 1806.15384615 , 1801.53846154 , 1922.05128205 , 1770.25641026 , 1913.84615385 , 2746.15384615 , 1990.25641026 , 1934.87179487 , 2044.0 , 2034.0 , 17.824 , 0.0 , 0.0 , 0.0 , 0.0 , 

74.0 , 1865.12820513 , 1876.41025641 , 2142.05128205 , 1909.74358974 , 1888.20512821 , 1560.0 , 1809.23076923 , 1805.64102564 , 1923.07692308 , 1768.71794872 , 1911.79487179 , 2746.66666667 , 1989.74358974 , 1936.92307692 , 2043.0 , 2034.0 , 17.832 , 0.0 , 0.0 , 0.0 , 0.0 , 

75.0 , 1869.74358974 , 1878.46153846 , 2141.02564103 , 1914.87179487 , 1888.71794872 , 1563.58974359 , 1806.15384615 , 1807.17948718 , 1922.56410256 , 1772.82051282 , 1916.41025641 , 2757.43589744 , 1988.20512821 , 1935.8974359 , 2044.0 , 2034.0 , 17.84 , 0.0 , 0.0 , 0.0 , 0.0 , 

76.0 , 1872.30769231 , 1878.97435897 , 2145.12820513 , 1920.51282051 , 1891.79487179 , 1567.17948718 , 1810.25641026 , 1810.76923077 , 1921.02564103 , 1781.53846154 , 1917.43589744 , 2757.94871795 , 1989.23076923 , 1939.48717949 , 2044.0 , 2035.0 , 17.847 , 0.0 , 0.0 , 0.0 , 0.0 , 

77.0 , 1875.8974359 , 1883.58974359 , 2150.76923077 , 1920.51282051 , 1897.43589744 , 1574.35897436 , 1815.8974359 , 1814.35897436 , 1919.48717949 , 1786.15384615 , 1918.46153846 , 2762.56410256 , 1993.84615385 , 1945.64102564 , 2042.0 , 2033.0 , 17.856 , 0.0 , 0.0 , 0.0 , 0.0 , 

78.0 , 1878.46153846 , 1884.61538462 , 2149.74358974 , 1923.58974359 , 1901.02564103 , 1580.0 , 1815.38461538 , 1815.38461538 , 1922.05128205 , 1785.64102564 , 1923.07692308 , 2770.25641026 , 1995.8974359 , 1945.12820513 , 2043.0 , 2034.0 , 17.864 , 0.0 , 0.0 , 0.0 , 0.0 , 

79.0 , 1882.56410256 , 1886.66666667 , 2153.84615385 , 1928.20512821 , 1900.0 , 1580.0 , 1817.94871795 , 1816.92307692 , 1920.0 , 1788.20512821 , 1926.15384615 , 2772.30769231 , 1998.46153846 , 1946.15384615 , 2043.0 , 2035.0 , 17.871 , 0.0 , 0.0 , 0.0 , 0.0 , 

80.0 , 1883.07692308 , 1891.79487179 , 2153.33333333 , 1928.71794872 , 1898.46153846 , 1584.1025641 , 1824.1025641 , 1824.1025641 , 1915.8974359 , 1792.30769231 , 1926.15384615 , 2768.71794872 , 2001.02564103 , 1949.74358974 , 2042.0 , 2036.0 , 17.879 , 0.0 , 0.0 , 0.0 , 0.0 , 

81.0 , 1888.71794872 , 1895.8974359 , 2156.92307692 , 1929.23076923 , 1900.51282051 , 1590.25641026 , 1825.64102564 , 1825.64102564 , 1914.35897436 , 1794.35897436 , 1930.76923077 , 2778.97435897 , 2003.07692308 , 1953.33333333 , 2045.0 , 2035.0 , 17.887 , 0.0 , 0.0 , 0.0 , 0.0 , 

82.0 , 1890.76923077 , 1894.87179487 , 2158.97435897 , 1930.76923077 , 1908.20512821 , 1592.82051282 , 1829.74358974 , 1825.64102564 , 1914.87179487 , 1797.43589744 , 1934.35897436 , 2785.64102564 , 2003.58974359 , 1952.82051282 , 2044.0 , 2035.0 , 17.895 , 0.0 , 0.0 , 0.0 , 0.0 , 

83.0 , 1890.76923077 , 1898.97435897 , 2157.94871795 , 1931.28205128 , 1913.33333333 , 1593.33333333 , 1837.43589744 , 1829.74358974 , 1915.8974359 , 1802.05128205 , 1934.35897436 , 2785.64102564 , 2005.64102564 , 1955.8974359 , 2042.0 , 2035.0 , 17.903 , 0.0 , 0.0 , 0.0 , 0.0 , 

84.0 , 1892.82051282 , 1902.56410256 , 2157.94871795 , 1936.41025641 , 1911.28205128 , 1595.38461538 , 1838.46153846 , 1834.35897436 , 1915.8974359 , 1806.15384615 , 1937.43589744 , 2789.23076923 , 2008.20512821 , 1960.0 , 2042.0 , 2034.0 , 17.91 , 0.0 , 0.0 , 0.0 , 0.0 , 

85.0 , 1895.38461538 , 1903.07692308 , 2162.05128205 , 1941.53846154 , 1910.76923077 , 1600.51282051 , 1838.46153846 , 1835.38461538 , 1911.79487179 , 1808.20512821 , 1940.51282051 , 2794.87179487 , 2009.74358974 , 1958.97435897 , 2043.0 , 2034.0 , 17.918 , 0.0 , 0.0 , 0.0 , 0.0 , 

86.0 , 1895.38461538 , 1903.07692308 , 2160.0 , 1938.97435897 , 1917.43589744 , 1608.71794872 , 1842.56410256 , 1837.94871795 , 1910.25641026 , 1807.17948718 , 1941.53846154 , 2795.8974359 , 2011.79487179 , 1959.48717949 , 2044.0 , 2033.0 , 17.926 , 0.0 , 0.0 , 0.0 , 0.0 , 

87.0 , 1899.48717949 , 1907.69230769 , 2158.46153846 , 1941.02564103 , 1921.53846154 , 1612.82051282 , 1840.51282051 , 1842.05128205 , 1912.82051282 , 1809.74358974 , 1945.12820513 , 2803.07692308 , 2015.8974359 , 1966.15384615 , 2044.0 , 2034.0 , 17.934 , 0.0 , 0.0 , 0.0 , 0.0 , 

88.0 , 1905.12820513 , 1912.30769231 , 2164.61538462 , 1946.66666667 , 1920.0 , 1612.30769231 , 1838.46153846 , 1845.12820513 , 1913.33333333 , 1816.92307692 , 1950.25641026 , 2808.71794872 , 2017.43589744 , 1971.28205128 , 2043.0 , 2035.0 , 17.942 , 0.0 , 0.0 , 0.0 , 0.0 , 

89.0 , 1904.61538462 , 1911.28205128 , 2165.64102564 , 1946.66666667 , 1921.02564103 , 1616.92307692 , 1847.69230769 , 1848.71794872 , 1910.25641026 , 1821.53846154 , 1952.30769231 , 2806.66666667 , 2017.43589744 , 1970.25641026 , 2042.0 , 2035.0 , 17.95 , 0.0 , 0.0 , 0.0 , 0.0 , 

90.0 , 1906.15384615 , 1913.33333333 , 2166.15384615 , 1950.25641026 , 1926.15384615 , 1624.1025641 , 1856.92307692 , 1849.74358974 , 1909.74358974 , 1822.56410256 , 1953.84615385 , 2810.76923077 , 2018.46153846 , 1971.28205128 , 2043.0 , 2034.0 , 17.958 , 0.0 , 0.0 , 0.0 , 0.0 , 

91.0 , 1912.30769231 , 1915.8974359 , 2166.15384615 , 1957.43589744 , 1929.74358974 , 1626.15384615 , 1854.35897436 , 1850.25641026 , 1910.76923077 , 1824.61538462 , 1958.46153846 , 2815.8974359 , 2020.0 , 1971.79487179 , 2043.0 , 2034.0 , 17.966 , 0.0 , 0.0 , 0.0 , 0.0 , 

92.0 , 1915.8974359 , 1918.46153846 , 2170.76923077 , 1958.97435897 , 1928.71794872 , 1627.17948718 , 1853.84615385 , 1852.82051282 , 1908.71794872 , 1828.71794872 , 1963.58974359 , 2822.05128205 , 2025.64102564 , 1973.84615385 , 2043.0 , 2033.0 , 17.974 , 0.0 , 0.0 , 0.0 , 0.0 , 

93.0 , 1916.41025641 , 1921.02564103 , 2169.23076923 , 1957.94871795 , 1933.33333333 , 1631.28205128 , 1858.97435897 , 1859.48717949 , 1908.20512821 , 1830.76923077 , 1962.05128205 , 2822.56410256 , 2028.71794872 , 1978.46153846 , 2043.0 , 2033.0 , 17.982 , 0.0 , 0.0 , 0.0 , 0.0 , 

94.0 , 1921.02564103 , 1925.64102564 , 2172.82051282 , 1959.48717949 , 1936.92307692 , 1637.94871795 , 1862.05128205 , 1863.58974359 , 1903.58974359 , 1834.35897436 , 1963.58974359 , 2827.17948718 , 2028.71794872 , 1982.56410256 , 2042.0 , 2032.0 , 17.989 , 0.0 , 0.0 , 0.0 , 0.0 , 

95.0 , 1921.02564103 , 1926.15384615 , 2173.33333333 , 1958.97435897 , 1935.38461538 , 1644.1025641 , 1865.64102564 , 1865.64102564 , 1901.53846154 , 1840.0 , 1968.71794872 , 2830.76923077 , 2032.30769231 , 1981.02564103 , 2043.0 , 2034.0 , 17.997 , 0.0 , 0.0 , 0.0 , 0.0 , 

96.0 , 1922.56410256 , 1929.74358974 , 2176.92307692 , 1963.58974359 , 1936.41025641 , 1644.1025641 , 1870.25641026 , 1865.64102564 , 1903.07692308 , 1841.02564103 , 1970.76923077 , 2835.8974359 , 2036.41025641 , 1983.07692308 , 2043.0 , 2034.0 , 18.005 , 0.0 , 0.0 , 0.0 , 0.0 , 

97.0 , 1925.12820513 , 1931.79487179 , 2176.92307692 , 1968.20512821 , 1943.58974359 , 1643.58974359 , 1871.28205128 , 1869.23076923 , 1903.07692308 , 1838.97435897 , 1971.28205128 , 2837.43589744 , 2033.84615385 , 1987.69230769 , 2043.0 , 2034.0 , 18.017 , 0.0 , 0.0 , 0.0 , 0.0 , 

98.0 , 1927.69230769 , 1932.82051282 , 2179.48717949 , 1967.69230769 , 1944.61538462 , 1649.74358974 , 1870.25641026 , 1872.82051282 , 1897.43589744 , 1845.64102564 , 1977.94871795 , 2845.12820513 , 2034.87179487 , 1990.76923077 , 2042.0 , 2034.0 , 18.021 , 0.0 , 0.0 , 0.0 , 0.0 , 

99.0 , 1927.69230769 , 1934.87179487 , 2177.94871795 , 1970.76923077 , 1942.56410256 , 1659.48717949 , 1874.87179487 , 1875.38461538 , 1894.87179487 , 1854.87179487 , 1978.97435897 , 2848.71794872 , 2036.92307692 , 1989.23076923 , 2043.0 , 2033.0 , 18.029 , 0.0 , 0.0 , 0.0 , 0.0 , 

100.0 , 1933.84615385 , 1940.0 , 2180.0 , 1975.8974359 , 1947.69230769 , 1659.48717949 , 1881.02564103 , 1877.94871795 , 1893.33333333 , 1853.33333333 , 1977.43589744 , 2849.74358974 , 2037.43589744 , 1992.30769231 , 2043.0 , 2032.0 , 18.037 , 0.0 , 0.0 , 0.0 , 0.0 , 

101.0 , 1936.92307692 , 1940.51282051 , 2182.56410256 , 1974.87179487 , 1954.87179487 , 1656.41025641 , 1882.56410256 , 1880.0 , 1892.30769231 , 1853.84615385 , 1983.58974359 , 2852.82051282 , 2038.97435897 , 1996.92307692 , 2044.0 , 2034.0 , 18.043 , 0.0 , 0.0 , 0.0 , 0.0 , 

102.0 , 1937.94871795 , 1943.58974359 , 2185.64102564 , 1976.92307692 , 1954.87179487 , 1663.58974359 , 1884.61538462 , 1881.02564103 , 1891.28205128 , 1861.53846154 , 1989.23076923 , 2859.48717949 , 2040.0 , 1999.48717949 , 2043.0 , 2034.0 , 18.052 , 0.0 , 0.0 , 0.0 , 0.0 , 

103.0 , 1942.56410256 , 1948.20512821 , 2182.56410256 , 1983.58974359 , 1955.38461538 , 1674.35897436 , 1887.17948718 , 1884.61538462 , 1888.71794872 , 1861.53846154 , 1988.20512821 , 2860.51282051 , 2043.07692308 , 1998.46153846 , 2043.0 , 2035.0 , 18.06 , 0.0 , 0.0 , 0.0 , 0.0 , 

104.0 , 1946.15384615 , 1949.23076923 , 2184.1025641 , 1984.1025641 , 1958.46153846 , 1675.38461538 , 1886.66666667 , 1889.23076923 , 1887.17948718 , 1860.0 , 1990.25641026 , 2862.56410256 , 2050.25641026 , 2003.07692308 , 2042.0 , 2034.0 , 18.068 , 0.0 , 0.0 , 0.0 , 0.0 , 

105.0 , 1948.20512821 , 1950.76923077 , 2190.76923077 , 1986.15384615 , 1960.51282051 , 1673.84615385 , 1888.20512821 , 1891.28205128 , 1886.15384615 , 1867.69230769 , 1994.35897436 , 2870.76923077 , 2052.82051282 , 2007.69230769 , 2042.0 , 2033.0 , 18.076 , 0.0 , 0.0 , 0.0 , 0.0 , 

106.0 , 1950.25641026 , 1954.35897436 , 2191.79487179 , 1989.23076923 , 1958.97435897 , 1680.0 , 1893.33333333 , 1892.82051282 , 1883.07692308 , 1874.35897436 , 1994.35897436 , 2873.33333333 , 2051.28205128 , 2005.64102564 , 2043.0 , 2034.0 , 18.083 , 0.0 , 0.0 , 0.0 , 0.0 , 

107.0 , 1950.25641026 , 1956.92307692 , 2189.74358974 , 1988.71794872 , 1962.56410256 , 1688.71794872 , 1896.92307692 , 1896.92307692 , 1879.48717949 , 1871.28205128 , 1997.43589744 , 2875.38461538 , 2053.33333333 , 2008.20512821 , 2044.0 , 2034.0 , 18.092 , 0.0 , 0.0 , 0.0 , 0.0 , 

108.0 , 1949.74358974 , 1954.87179487 , 2188.71794872 , 1991.28205128 , 1968.71794872 , 1690.25641026 , 1899.48717949 , 1901.53846154 , 1880.51282051 , 1871.28205128 , 2004.61538462 , 2880.0 , 2055.38461538 , 2013.33333333 , 2042.0 , 2035.0 , 18.1 , 0.0 , 0.0 , 0.0 , 0.0 , 

109.0 , 1956.41025641 , 1958.46153846 , 2193.84615385 , 1994.35897436 , 1969.23076923 , 1687.69230769 , 1903.58974359 , 1903.07692308 , 1876.92307692 , 1879.48717949 , 2008.71794872 , 2884.61538462 , 2054.87179487 , 2013.33333333 , 2043.0 , 2035.0 , 18.108 , 0.0 , 0.0 , 0.0 , 0.0 , 

110.0 , 1960.0 , 1965.12820513 , 2193.84615385 , 1992.30769231 , 1970.76923077 , 1691.28205128 , 1905.64102564 , 1907.17948718 , 1870.25641026 , 1885.12820513 , 2008.71794872 , 2883.58974359 , 2057.43589744 , 2012.82051282 , 2043.0 , 2035.0 , 18.115 , 0.0 , 0.0 , 0.0 , 0.0 , 

111.0 , 1958.97435897 , 1967.69230769 , 2196.92307692 , 1997.43589744 , 1975.38461538 , 1702.05128205 , 1904.1025641 , 1909.23076923 , 1868.20512821 , 1885.64102564 , 2011.28205128 , 2889.23076923 , 2063.58974359 , 2018.97435897 , 2043.0 , 2034.0 , 18.123 , 0.0 , 0.0 , 0.0 , 0.0 , 

112.0 , 1958.97435897 , 1964.61538462 , 2197.43589744 , 2003.58974359 , 1977.43589744 , 1707.69230769 , 1908.71794872 , 1909.23076923 , 1868.71794872 , 1885.64102564 , 2011.79487179 , 2890.76923077 , 2065.12820513 , 2021.02564103 , 2044.0 , 2034.0 , 18.131 , 0.0 , 0.0 , 0.0 , 0.0 , 

113.0 , 1964.61538462 , 1966.66666667 , 2200.0 , 2001.53846154 , 1978.97435897 , 1705.64102564 , 1916.41025641 , 1909.74358974 , 1866.66666667 , 1888.20512821 , 2013.33333333 , 2895.8974359 , 2064.1025641 , 2022.56410256 , 2042.0 , 2034.0 , 18.139 , 0.0 , 0.0 , 0.0 , 0.0 , 

114.0 , 1966.66666667 , 1971.79487179 , 2197.94871795 , 2002.56410256 , 1985.12820513 , 1706.15384615 , 1917.43589744 , 1916.92307692 , 1864.61538462 , 1893.33333333 , 2016.41025641 , 2898.97435897 , 2067.17948718 , 2024.1025641 , 2042.0 , 2035.0 , 18.147 , 0.0 , 0.0 , 0.0 , 0.0 , 

115.0 , 1969.74358974 , 1976.41025641 , 2202.56410256 , 2009.23076923 , 1984.61538462 , 1714.87179487 , 1916.92307692 , 1920.51282051 , 1862.05128205 , 1898.46153846 , 2019.48717949 , 2905.64102564 , 2070.25641026 , 2026.66666667 , 2042.0 , 2034.0 , 18.155 , 0.0 , 0.0 , 0.0 , 0.0 , 

116.0 , 1972.30769231 , 1976.41025641 , 2204.61538462 , 2012.30769231 , 1983.07692308 , 1723.58974359 , 1918.46153846 , 1921.53846154 , 1858.46153846 , 1900.51282051 , 2022.05128205 , 2907.17948718 , 2067.69230769 , 2030.25641026 , 2044.0 , 2035.0 , 18.163 , 0.0 , 0.0 , 0.0 , 0.0 , 

117.0 , 1975.8974359 , 1978.46153846 , 2207.69230769 , 2013.84615385 , 1988.20512821 , 1721.53846154 , 1918.46153846 , 1922.05128205 , 1855.38461538 , 1901.02564103 , 2026.15384615 , 2912.30769231 , 2068.71794872 , 2035.38461538 , 2043.0 , 2035.0 , 18.171 , 0.0 , 0.0 , 0.0 , 0.0 , 

118.0 , 1977.94871795 , 1981.02564103 , 2206.15384615 , 2015.38461538 , 1992.30769231 , 1718.97435897 , 1922.05128205 , 1925.12820513 , 1852.82051282 , 1902.05128205 , 2025.12820513 , 2914.87179487 , 2072.82051282 , 2034.87179487 , 2042.0 , 2034.0 , 18.178 , 0.0 , 0.0 , 0.0 , 0.0 , 

119.0 , 1981.02564103 , 1984.1025641 , 2206.66666667 , 2014.35897436 , 1990.76923077 , 1727.17948718 , 1931.79487179 , 1928.20512821 , 1847.69230769 , 1906.15384615 , 2026.15384615 , 2918.97435897 , 2075.38461538 , 2034.35897436 , 2043.0 , 2034.0 , 18.186 , 0.0 , 0.0 , 0.0 , 0.0 , 

120.0 , 1978.46153846 , 1985.64102564 , 2207.17948718 , 2017.94871795 , 1993.84615385 , 1734.87179487 , 1933.33333333 , 1932.30769231 , 1844.61538462 , 1914.87179487 , 2031.79487179 , 2921.53846154 , 2078.46153846 , 2035.8974359 , 2044.0 , 2035.0 , 18.194 , 0.0 , 0.0 , 0.0 , 0.0 , 

121.0 , 1982.05128205 , 1988.20512821 , 2212.30769231 , 2027.17948718 , 2001.02564103 , 1732.30769231 , 1930.25641026 , 1935.8974359 , 1841.02564103 , 1918.97435897 , 2036.41025641 , 2925.12820513 , 2081.53846154 , 2038.46153846 , 2045.0 , 2034.0 , 18.202 , 0.0 , 0.0 , 0.0 , 0.0 , 

122.0 , 1990.25641026 , 1990.76923077 , 2215.38461538 , 2028.20512821 , 2003.58974359 , 1735.8974359 , 1934.35897436 , 1938.46153846 , 1837.43589744 , 1915.8974359 , 2036.92307692 , 2928.71794872 , 2083.58974359 , 2040.0 , 2044.0 , 2034.0 , 18.21 , 0.0 , 0.0 , 0.0 , 0.0 , 

123.0 , 1991.28205128 , 1992.30769231 , 2213.84615385 , 2025.64102564 , 2003.07692308 , 1744.61538462 , 1936.92307692 , 1940.51282051 , 1835.38461538 , 1915.8974359 , 2038.97435897 , 2931.28205128 , 2085.12820513 , 2043.07692308 , 2042.0 , 2034.0 , 18.218 , 0.0 , 0.0 , 0.0 , 0.0 , 

124.0 , 1992.30769231 , 1993.84615385 , 2214.35897436 , 2028.20512821 , 2004.1025641 , 1744.61538462 , 1936.41025641 , 1942.05128205 , 1833.33333333 , 1921.02564103 , 2042.56410256 , 2935.38461538 , 2087.69230769 , 2045.64102564 , 2043.0 , 2034.0 , 18.226 , 0.0 , 0.0 , 0.0 , 0.0 , 

125.0 , 1996.92307692 , 1996.41025641 , 2216.92307692 , 2031.28205128 , 2005.64102564 , 1745.64102564 , 1943.58974359 , 1943.58974359 , 1831.28205128 , 1924.1025641 , 2045.64102564 , 2940.51282051 , 2088.71794872 , 2046.66666667 , 2045.0 , 2034.0 , 18.234 , 0.0 , 0.0 , 0.0 , 0.0 , 

126.0 , 1998.46153846 , 2000.0 , 2220.51282051 , 2032.82051282 , 2007.17948718 , 1752.30769231 , 1952.30769231 , 1945.12820513 , 1826.15384615 , 1927.69230769 , 2050.76923077 , 2944.61538462 , 2089.23076923 , 2050.25641026 , 2045.0 , 2034.0 , 18.242 , 0.0 , 0.0 , 0.0 , 0.0 , 

127.0 , 1997.43589744 , 2002.05128205 , 2218.46153846 , 2034.35897436 , 2011.28205128 , 1755.38461538 , 1950.25641026 , 1950.76923077 , 1822.05128205 , 1931.79487179 , 2051.79487179 , 2944.61538462 , 2090.76923077 , 2050.25641026 , 2044.0 , 2035.0 , 18.249 , 0.0 , 0.0 , 0.0 , 0.0 , 

128.0 , 2002.05128205 , 2005.64102564 , 2222.56410256 , 2035.38461538 , 2015.38461538 , 1757.43589744 , 1947.69230769 , 1953.33333333 , 1820.0 , 1932.82051282 , 2049.23076923 , 2949.23076923 , 2090.76923077 , 2054.87179487 , 2043.0 , 2034.0 , 18.257 , 0.0 , 0.0 , 0.0 , 0.0 , 

0.0 , 2003.58974359 , 2006.66666667 , 2223.07692308 , 2035.38461538 , 2018.46153846 , 1762.05128205 , 1953.84615385 , 1952.82051282 , 1816.92307692 , 1934.35897436 , 2052.82051282 , 2952.30769231 , 2092.82051282 , 2060.0 , 2043.0 , 2034.0 , 18.265 , 0.0 , 0.0 , 0.0 , 0.0 , 

1.0 , 2005.64102564 , 2008.20512821 , 2224.61538462 , 2040.0 , 2018.46153846 , 1768.20512821 , 1956.41025641 , 1954.35897436 , 1810.76923077 , 1934.87179487 , 2058.97435897 , 2956.92307692 , 2100.0 , 2061.02564103 , 2043.0 , 2035.0 , 18.273 , 0.0 , 0.0 , 0.0 , 0.0 , 

2.0 , 2007.17948718 , 2008.71794872 , 2223.58974359 , 2043.58974359 , 2017.94871795 , 1769.74358974 , 1955.38461538 , 1958.97435897 , 1809.23076923 , 1936.41025641 , 2056.92307692 , 2957.94871795 , 2101.53846154 , 2059.48717949 , 2042.0 , 2034.0 , 18.281 , 0.0 , 0.0 , 0.0 , 0.0 , 

3.0 , 2009.74358974 , 2011.79487179 , 2227.69230769 , 2045.12820513 , 2020.0 , 1768.20512821 , 1961.53846154 , 1958.97435897 , 1805.12820513 , 1943.07692308 , 2058.97435897 , 2964.1025641 , 2100.51282051 , 2062.05128205 , 2043.0 , 2034.0 , 18.289 , 0.0 , 0.0 , 0.0 , 0.0 , 

4.0 , 2011.79487179 , 2014.35897436 , 2226.66666667 , 2047.69230769 , 2023.07692308 , 1771.28205128 , 1965.64102564 , 1962.05128205 , 1800.0 , 1949.74358974 , 2067.17948718 , 2964.1025641 , 2102.56410256 , 2065.12820513 , 2043.0 , 2035.0 , 18.296 , 0.0 , 0.0 , 0.0 , 0.0 , 

5.0 , 2017.43589744 , 2018.46153846 , 2230.25641026 , 2050.76923077 , 2021.53846154 , 1780.51282051 , 1963.58974359 , 1966.15384615 , 1796.41025641 , 1949.74358974 , 2069.74358974 , 2968.20512821 , 2105.12820513 , 2069.23076923 , 2042.0 , 2033.0 , 18.303 , 0.0 , 0.0 , 0.0 , 0.0 , 

6.0 , 2016.92307692 , 2020.0 , 2230.25641026 , 2052.82051282 , 2026.66666667 , 1785.12820513 , 1966.66666667 , 1968.71794872 , 1792.82051282 , 1948.20512821 , 2067.17948718 , 2971.79487179 , 2105.64102564 , 2070.76923077 , 2042.0 , 2034.0 , 18.312 , 0.0 , 0.0 , 0.0 , 0.0 , 

7.0 , 2020.0 , 2023.58974359 , 2233.84615385 , 2054.35897436 , 2035.38461538 , 1782.56410256 , 1971.28205128 , 1969.74358974 , 1788.20512821 , 1952.30769231 , 2070.25641026 , 2976.41025641 , 2110.76923077 , 2070.76923077 , 2044.0 , 2036.0 , 18.319 , 0.0 , 0.0 , 0.0 , 0.0 , 

8.0 , 2023.58974359 , 2027.17948718 , 2233.84615385 , 2055.38461538 , 2036.92307692 , 1784.61538462 , 1970.76923077 , 1974.87179487 , 1785.12820513 , 1958.97435897 , 2074.35897436 , 2975.8974359 , 2114.35897436 , 2072.82051282 , 2043.0 , 2033.0 , 18.328 , 0.0 , 0.0 , 0.0 , 0.0 , 

9.0 , 2026.66666667 , 2030.25641026 , 2235.8974359 , 2058.97435897 , 2034.87179487 , 1792.82051282 , 1973.33333333 , 1975.8974359 , 1781.53846154 , 1962.56410256 , 2077.94871795 , 2982.05128205 , 2114.87179487 , 2077.43589744 , 2042.0 , 2034.0 , 18.336 , 0.0 , 0.0 , 0.0 , 0.0 , 

10.0 , 2027.17948718 , 2028.71794872 , 2234.87179487 , 2062.05128205 , 2038.97435897 , 1800.51282051 , 1978.46153846 , 1974.87179487 , 1776.41025641 , 1964.1025641 , 2078.46153846 , 2990.76923077 , 2114.35897436 , 2078.97435897 , 2043.0 , 2036.0 , 18.344 , 0.0 , 0.0 , 0.0 , 0.0 , 

11.0 , 2028.71794872 , 2028.71794872 , 2234.87179487 , 2063.07692308 , 2039.48717949 , 1800.0 , 1980.0 , 1978.97435897 , 1770.76923077 , 1965.12820513 , 2078.46153846 , 2992.30769231 , 2114.35897436 , 2080.51282051 , 2043.0 , 2036.0 , 18.352 , 0.0 , 0.0 , 0.0 , 0.0 , 

12.0 , 2031.28205128 , 2033.33333333 , 2236.92307692 , 2064.61538462 , 2040.0 , 1799.48717949 , 1981.02564103 , 1984.1025641 , 1768.20512821 , 1964.61538462 , 2084.1025641 , 2989.23076923 , 2118.97435897 , 2082.05128205 , 2043.0 , 2034.0 , 18.36 , 0.0 , 0.0 , 0.0 , 0.0 , 

13.0 , 2033.84615385 , 2037.43589744 , 2241.02564103 , 2067.17948718 , 2046.15384615 , 1808.20512821 , 1982.56410256 , 1984.61538462 , 1766.66666667 , 1967.17948718 , 2088.71794872 , 2993.84615385 , 2121.53846154 , 2084.61538462 , 2044.0 , 2034.0 , 18.369 , 0.0 , 0.0 , 0.0 , 0.0 , 

14.0 , 2037.43589744 , 2037.43589744 , 2243.07692308 , 2069.23076923 , 2049.23076923 , 1812.30769231 , 1983.07692308 , 1986.15384615 , 1762.05128205 , 1975.38461538 , 2088.71794872 , 3002.56410256 , 2118.46153846 , 2087.69230769 , 2044.0 , 2035.0 , 18.375 , 0.0 , 0.0 , 0.0 , 0.0 , 

15.0 , 2038.97435897 , 2038.46153846 , 2240.51282051 , 2071.28205128 , 2048.71794872 , 1809.23076923 , 1988.20512821 , 1990.25641026 , 1756.92307692 , 1980.0 , 2091.28205128 , 3004.61538462 , 2120.51282051 , 2089.74358974 , 2042.0 , 2034.0 , 18.383 , 0.0 , 0.0 , 0.0 , 0.0 , 

16.0 , 2042.05128205 , 2043.58974359 , 2243.07692308 , 2074.87179487 , 2050.25641026 , 1813.33333333 , 1994.35897436 , 1992.82051282 , 1753.33333333 , 1978.97435897 , 2095.38461538 , 3006.66666667 , 2130.25641026 , 2091.79487179 , 2043.0 , 2034.0 , 18.391 , 0.0 , 0.0 , 0.0 , 0.0 , 

17.0 , 2045.64102564 , 2044.61538462 , 2245.64102564 , 2077.43589744 , 2052.82051282 , 1820.0 , 1994.35897436 , 1995.38461538 , 1748.20512821 , 1980.51282051 , 2095.38461538 , 3006.66666667 , 2132.82051282 , 2093.84615385 , 2043.0 , 2034.0 , 18.399 , 0.0 , 0.0 , 0.0 , 0.0 , 

18.0 , 2048.20512821 , 2048.20512821 , 2248.71794872 , 2078.46153846 , 2054.35897436 , 1821.02564103 , 1996.41025641 , 1998.46153846 , 1742.05128205 , 1982.05128205 , 2098.46153846 , 3011.79487179 , 2130.76923077 , 2096.92307692 , 2042.0 , 2034.0 , 18.407 , 0.0 , 0.0 , 0.0 , 0.0 , 

19.0 , 2048.71794872 , 2053.84615385 , 2246.66666667 , 2080.0 , 2056.92307692 , 1825.64102564 , 1999.48717949 , 2002.56410256 , 1740.51282051 , 1980.51282051 , 2100.0 , 3014.87179487 , 2131.79487179 , 2096.92307692 , 2044.0 , 2034.0 , 18.415 , 0.0 , 0.0 , 0.0 , 0.0 , 

20.0 , 2050.76923077 , 2056.41025641 , 2250.25641026 , 2082.05128205 , 2059.48717949 , 1832.30769231 , 1997.94871795 , 2002.56410256 , 1735.8974359 , 1985.12820513 , 2103.58974359 , 3020.51282051 , 2133.33333333 , 2096.92307692 , 2044.0 , 2033.0 , 18.423 , 0.0 , 0.0 , 0.0 , 0.0 , 

21.0 , 2050.76923077 , 2054.87179487 , 2250.25641026 , 2084.1025641 , 2064.1025641 , 1832.30769231 , 2000.51282051 , 2002.56410256 , 1730.76923077 , 1994.35897436 , 2106.15384615 , 3022.05128205 , 2135.38461538 , 2098.97435897 , 2043.0 , 2035.0 , 18.431 , 0.0 , 0.0 , 0.0 , 0.0 , 

22.0 , 2054.35897436 , 2058.97435897 , 2253.84615385 , 2086.15384615 , 2065.64102564 , 1831.79487179 , 2008.71794872 , 2005.12820513 , 1725.12820513 , 1996.41025641 , 2107.69230769 , 3026.66666667 , 2138.97435897 , 2101.53846154 , 2043.0 , 2035.0 , 18.438 , 0.0 , 0.0 , 0.0 , 0.0 , 

23.0 , 2057.94871795 , 2060.51282051 , 2253.33333333 , 2088.71794872 , 2066.66666667 , 1837.94871795 , 2011.28205128 , 2011.28205128 , 1723.07692308 , 1996.92307692 , 2108.20512821 , 3026.66666667 , 2140.51282051 , 2103.58974359 , 2044.0 , 2034.0 , 18.446 , 0.0 , 0.0 , 0.0 , 0.0 , 

24.0 , 2064.1025641 , 2060.51282051 , 2256.41025641 , 2093.33333333 , 2071.28205128 , 1843.07692308 , 2012.30769231 , 2013.84615385 , 1720.0 , 1998.46153846 , 2113.33333333 , 3032.30769231 , 2142.05128205 , 2110.76923077 , 2044.0 , 2033.0 , 18.454 , 0.0 , 0.0 , 0.0 , 0.0 , 

25.0 , 2064.1025641 , 2061.53846154 , 2255.38461538 , 2097.43589744 , 2073.84615385 , 1843.58974359 , 2013.84615385 , 2014.35897436 , 1714.87179487 , 1998.97435897 , 2114.87179487 , 3034.35897436 , 2143.07692308 , 2112.82051282 , 2043.0 , 2034.0 , 18.462 , 0.0 , 0.0 , 0.0 , 0.0 , 

26.0 , 2063.58974359 , 2066.15384615 , 2259.48717949 , 2097.94871795 , 2072.82051282 , 1847.17948718 , 2012.82051282 , 2014.87179487 , 1707.69230769 , 2003.58974359 , 2115.8974359 , 3036.41025641 , 2145.12820513 , 2111.79487179 , 2043.0 , 2035.0 , 18.469 , 0.0 , 0.0 , 0.0 , 0.0 , 

27.0 , 2066.15384615 , 2067.17948718 , 2260.51282051 , 2096.41025641 , 2077.43589744 , 1854.35897436 , 2017.43589744 , 2017.43589744 , 1703.58974359 , 2011.28205128 , 2119.48717949 , 3041.02564103 , 2147.17948718 , 2113.33333333 , 2043.0 , 2034.0 , 18.478 , 0.0 , 0.0 , 0.0 , 0.0 , 

28.0 , 2070.25641026 , 2067.17948718 , 2262.05128205 , 2102.05128205 , 2084.1025641 , 1855.8974359 , 2024.1025641 , 2021.02564103 , 1699.48717949 , 2012.30769231 , 2123.58974359 , 3047.69230769 , 2148.71794872 , 2116.92307692 , 2043.0 , 2033.0 , 18.486 , 0.0 , 0.0 , 0.0 , 0.0 , 

29.0 , 2070.25641026 , 2070.25641026 , 2262.56410256 , 2105.64102564 , 2083.58974359 , 1854.35897436 , 2024.1025641 , 2024.61538462 , 1696.41025641 , 2012.82051282 , 2125.12820513 , 3049.74358974 , 2150.25641026 , 2117.94871795 , 2043.0 , 2035.0 , 18.494 , 0.0 , 0.0 , 0.0 , 0.0 , 

30.0 , 2073.33333333 , 2075.38461538 , 2264.61538462 , 2102.56410256 , 2080.51282051 , 1861.53846154 , 2026.66666667 , 2027.17948718 , 1694.87179487 , 2015.38461538 , 2126.15384615 , 3053.33333333 , 2152.30769231 , 2120.51282051 , 2045.0 , 2034.0 , 18.501 , 0.0 , 0.0 , 0.0 , 0.0 , 

31.0 , 2078.97435897 , 2077.94871795 , 2266.15384615 , 2105.12820513 , 2082.56410256 , 1870.76923077 , 2031.28205128 , 2028.71794872 , 1689.74358974 , 2012.82051282 , 2128.20512821 , 3056.41025641 , 2153.84615385 , 2123.07692308 , 2044.0 , 2035.0 , 18.509 , 0.0 , 0.0 , 0.0 , 0.0 , 

32.0 , 2078.97435897 , 2080.0 , 2266.66666667 , 2112.82051282 , 2086.66666667 , 1870.25641026 , 2029.23076923 , 2030.25641026 , 1685.12820513 , 2016.41025641 , 2131.28205128 , 3055.8974359 , 2158.97435897 , 2124.61538462 , 2044.0 , 2034.0 , 18.517 , 0.0 , 0.0 , 0.0 , 0.0 , 

33.0 , 2078.97435897 , 2082.56410256 , 2268.71794872 , 2113.33333333 , 2088.71794872 , 1868.71794872 , 2030.25641026 , 2031.28205128 , 1684.1025641 , 2026.66666667 , 2132.82051282 , 3058.97435897 , 2162.56410256 , 2127.17948718 , 2043.0 , 2034.0 , 18.525 , 0.0 , 0.0 , 0.0 , 0.0 , 

34.0 , 2082.05128205 , 2080.51282051 , 2268.20512821 , 2112.82051282 , 2088.71794872 , 1872.82051282 , 2038.46153846 , 2033.33333333 , 1678.97435897 , 2027.69230769 , 2133.84615385 , 3063.58974359 , 2159.48717949 , 2127.17948718 , 2043.0 , 2035.0 , 18.533 , 0.0 , 0.0 , 0.0 , 0.0 , 

35.0 , 2084.61538462 , 2084.61538462 , 2272.82051282 , 2118.46153846 , 2091.28205128 , 1876.41025641 , 2040.51282051 , 2034.35897436 , 1672.82051282 , 2025.12820513 , 2138.97435897 , 3069.23076923 , 2160.0 , 2128.20512821 , 2043.0 , 2035.0 , 18.541 , 0.0 , 0.0 , 0.0 , 0.0 , 

36.0 , 2085.12820513 , 2089.23076923 , 2274.35897436 , 2121.53846154 , 2096.92307692 , 1878.46153846 , 2040.0 , 2038.46153846 , 1672.82051282 , 2030.25641026 , 2142.05128205 , 3069.23076923 , 2164.61538462 , 2131.28205128 , 2043.0 , 2034.0 , 18.549 , 0.0 , 0.0 , 0.0 , 0.0 , 

37.0 , 2089.23076923 , 2089.74358974 , 2276.41025641 , 2120.0 , 2096.41025641 , 1884.1025641 , 2042.56410256 , 2041.02564103 , 1668.20512821 , 2032.82051282 , 2144.61538462 , 3073.84615385 , 2164.1025641 , 2134.87179487 , 2043.0 , 2036.0 , 18.556 , 0.0 , 0.0 , 0.0 , 0.0 , 

38.0 , 2091.28205128 , 2090.25641026 , 2274.35897436 , 2122.05128205 , 2097.43589744 , 1887.69230769 , 2044.1025641 , 2043.58974359 , 1660.51282051 , 2030.76923077 , 2145.64102564 , 3075.8974359 , 2164.1025641 , 2135.8974359 , 2043.0 , 2035.0 , 18.565 , 0.0 , 0.0 , 0.0 , 0.0 , 

39.0 , 2094.87179487 , 2095.38461538 , 2277.94871795 , 2125.64102564 , 2102.56410256 , 1886.15384615 , 2044.61538462 , 2046.15384615 , 1657.43589744 , 2035.38461538 , 2147.69230769 , 3080.51282051 , 2168.71794872 , 2138.97435897 , 2043.0 , 2034.0 , 18.572 , 0.0 , 0.0 , 0.0 , 0.0 , 

40.0 , 2097.43589744 , 2096.41025641 , 2277.94871795 , 2127.17948718 , 2104.61538462 , 1887.17948718 , 2045.64102564 , 2050.25641026 , 1656.41025641 , 2040.51282051 , 2151.28205128 , 3082.05128205 , 2174.35897436 , 2138.97435897 , 2044.0 , 2034.0 , 18.58 , 0.0 , 0.0 , 0.0 , 0.0 , 

41.0 , 2098.46153846 , 2098.97435897 , 2280.51282051 , 2127.17948718 , 2104.1025641 , 1896.92307692 , 2047.17948718 , 2049.23076923 , 1648.71794872 , 2042.56410256 , 2154.87179487 , 3087.69230769 , 2176.41025641 , 2141.02564103 , 2043.0 , 2034.0 , 18.588 , 0.0 , 0.0 , 0.0 , 0.0 , 

42.0 , 2097.43589744 , 2101.53846154 , 2280.0 , 2127.69230769 , 2108.20512821 , 1905.12820513 , 2051.79487179 , 2052.30769231 , 1644.61538462 , 2046.15384615 , 2154.87179487 , 3088.20512821 , 2175.38461538 , 2143.07692308 , 2042.0 , 2035.0 , 18.596 , 0.0 , 0.0 , 0.0 , 0.0 , 

43.0 , 2104.1025641 , 2104.1025641 , 2284.1025641 , 2132.30769231 , 2111.28205128 , 1902.05128205 , 2056.41025641 , 2054.87179487 , 1642.56410256 , 2046.66666667 , 2156.92307692 , 3092.30769231 , 2176.41025641 , 2146.15384615 , 2043.0 , 2034.0 , 18.604 , 0.0 , 0.0 , 0.0 , 0.0 , 

