['COUNTER', 'AF3', 'F7', 'F3', 'FC5', 'T7', 'P7', 'O1', 'O2', 'P8', 'T8', 'FC6', 'F4', 'F8', 'AF4', 'GYROX', 'GYROY', 'TIMESTAMP', 'FUNC_ID', 'FUNC_VALUE', 'MARKER', 'SYNC_SIGNAL']
62.0 , 4137.43589744 , 4128.71794872 , 4247.17948718 , 4133.84615385 , 4134.87179487 , 4134.87179487 , 4134.35897436 , 4140.0 , 4144.61538462 , 4146.66666667 , 4168.71794872 , 4538.46153846 , 4134.87179487 , 4138.46153846 , 2036.0 , 2032.0 , 6.035 , 0.0 , 0.0 , 0.0 , 0.0 , 

63.0 , 4135.38461538 , 4130.76923077 , 4233.84615385 , 4134.35897436 , 4134.87179487 , 4135.38461538 , 4134.35897436 , 4138.46153846 , 4138.97435897 , 4146.15384615 , 4169.74358974 , 4538.97435897 , 4134.35897436 , 4139.48717949 , 2035.0 , 2031.0 , 6.043 , 0.0 , 0.0 , 0.0 , 0.0 , 

64.0 , 4133.33333333 , 4132.30769231 , 4217.94871795 , 4134.35897436 , 4134.87179487 , 4134.35897436 , 4134.35897436 , 4138.46153846 , 4137.94871795 , 4144.1025641 , 4170.25641026 , 4538.46153846 , 4135.38461538 , 4137.94871795 , 2034.0 , 2031.0 , 6.051 , 0.0 , 0.0 , 0.0 , 0.0 , 

65.0 , 4135.38461538 , 4134.35897436 , 4211.28205128 , 4134.35897436 , 4134.87179487 , 4135.38461538 , 4134.35897436 , 4136.92307692 , 4138.46153846 , 4143.58974359 , 4167.69230769 , 4540.51282051 , 4134.87179487 , 4136.41025641 , 2035.0 , 2031.0 , 6.059 , 0.0 , 0.0 , 0.0 , 0.0 , 

66.0 , 4136.92307692 , 4134.35897436 , 4208.20512821 , 4133.84615385 , 4134.87179487 , 4135.38461538 , 4134.35897436 , 4133.84615385 , 4137.43589744 , 4143.58974359 , 4167.69230769 , 4542.56410256 , 4131.79487179 , 4135.38461538 , 2036.0 , 2034.0 , 6.067 , 0.0 , 0.0 , 0.0 , 0.0 , 

67.0 , 4136.41025641 , 4134.35897436 , 4207.69230769 , 4133.84615385 , 4134.87179487 , 4134.87179487 , 4134.35897436 , 4133.33333333 , 4135.8974359 , 4141.02564103 , 4169.23076923 , 4543.58974359 , 4131.28205128 , 4135.8974359 , 2038.0 , 2037.0 , 6.075 , 0.0 , 0.0 , 0.0 , 0.0 , 

68.0 , 4136.41025641 , 4135.8974359 , 4207.17948718 , 4135.38461538 , 4134.87179487 , 4135.38461538 , 4134.35897436 , 4136.92307692 , 4136.92307692 , 4138.97435897 , 4169.74358974 , 4544.1025641 , 4132.82051282 , 4137.94871795 , 2038.0 , 2039.0 , 6.083 , 0.0 , 0.0 , 0.0 , 0.0 , 

69.0 , 4134.87179487 , 4134.87179487 , 4209.74358974 , 4135.38461538 , 4134.87179487 , 4135.38461538 , 4134.35897436 , 4140.0 , 4136.41025641 , 4141.02564103 , 4170.25641026 , 4546.15384615 , 4132.30769231 , 4138.97435897 , 2038.0 , 2040.0 , 6.091 , 0.0 , 0.0 , 0.0 , 0.0 , 

70.0 , 4133.84615385 , 4131.28205128 , 4208.71794872 , 4134.87179487 , 4134.87179487 , 4135.38461538 , 4134.35897436 , 4136.92307692 , 4135.8974359 , 4143.07692308 , 4169.23076923 , 4547.69230769 , 4128.71794872 , 4135.38461538 , 2038.0 , 2041.0 , 6.099 , 0.0 , 0.0 , 0.0 , 0.0 , 

71.0 , 4134.87179487 , 4132.82051282 , 4206.15384615 , 4136.41025641 , 4134.87179487 , 4135.38461538 , 4134.35897436 , 4135.38461538 , 4137.94871795 , 4142.56410256 , 4166.66666667 , 4549.23076923 , 4129.74358974 , 4134.35897436 , 2038.0 , 2040.0 , 6.108 , 0.0 , 0.0 , 0.0 , 0.0 , 

72.0 , 4132.82051282 , 4133.84615385 , 4205.64102564 , 4137.43589744 , 4134.87179487 , 4135.38461538 , 4134.35897436 , 4136.92307692 , 4138.46153846 , 4141.53846154 , 4167.69230769 , 4548.71794872 , 4132.30769231 , 4135.38461538 , 2038.0 , 2040.0 , 6.115 , 0.0 , 0.0 , 0.0 , 0.0 , 

73.0 , 4130.76923077 , 4128.71794872 , 4209.74358974 , 4136.41025641 , 4134.87179487 , 4135.38461538 , 4134.35897436 , 4134.87179487 , 4137.43589744 , 4140.51282051 , 4169.23076923 , 4550.25641026 , 4131.79487179 , 4138.46153846 , 2038.0 , 2039.0 , 6.122 , 0.0 , 0.0 , 0.0 , 0.0 , 

74.0 , 4136.41025641 , 4130.25641026 , 4209.23076923 , 4135.8974359 , 4134.87179487 , 4135.38461538 , 4134.35897436 , 4130.25641026 , 4136.92307692 , 4137.43589744 , 4166.15384615 , 4553.84615385 , 4131.28205128 , 4136.92307692 , 2038.0 , 2039.0 , 6.13 , 0.0 , 0.0 , 0.0 , 0.0 , 

75.0 , 4136.41025641 , 4132.30769231 , 4208.71794872 , 4136.41025641 , 4134.87179487 , 4135.38461538 , 4134.35897436 , 4132.30769231 , 4137.43589744 , 4141.53846154 , 4168.20512821 , 4555.8974359 , 4131.28205128 , 4134.87179487 , 2040.0 , 2037.0 , 6.138 , 0.0 , 0.0 , 0.0 , 0.0 , 

76.0 , 4127.17948718 , 4128.20512821 , 4214.35897436 , 4135.8974359 , 4134.87179487 , 4135.38461538 , 4134.35897436 , 4137.94871795 , 4137.94871795 , 4146.66666667 , 4171.28205128 , 4554.35897436 , 4131.79487179 , 4135.38461538 , 2040.0 , 2037.0 , 6.146 , 0.0 , 0.0 , 0.0 , 0.0 , 

77.0 , 4127.69230769 , 4129.74358974 , 4215.8974359 , 4135.8974359 , 4134.87179487 , 4135.38461538 , 4134.35897436 , 4135.38461538 , 4137.43589744 , 4144.1025641 , 4166.66666667 , 4556.41025641 , 4131.79487179 , 4132.82051282 , 2039.0 , 2038.0 , 6.154 , 0.0 , 0.0 , 0.0 , 0.0 , 

78.0 , 4137.43589744 , 4135.38461538 , 4207.17948718 , 4135.8974359 , 4134.87179487 , 4135.38461538 , 4134.35897436 , 4131.79487179 , 4136.41025641 , 4142.05128205 , 4163.58974359 , 4557.43589744 , 4129.23076923 , 4131.28205128 , 2038.0 , 2039.0 , 6.161 , 0.0 , 0.0 , 0.0 , 0.0 , 

79.0 , 4138.97435897 , 4133.33333333 , 4201.53846154 , 4135.8974359 , 4134.87179487 , 4134.87179487 , 4134.35897436 , 4135.38461538 , 4138.46153846 , 4144.61538462 , 4164.61538462 , 4557.43589744 , 4129.23076923 , 4136.92307692 , 2039.0 , 2040.0 , 6.169 , 0.0 , 0.0 , 0.0 , 0.0 , 

80.0 , 4134.35897436 , 4132.82051282 , 4210.25641026 , 4135.8974359 , 4134.87179487 , 4135.8974359 , 4134.35897436 , 4138.97435897 , 4138.97435897 , 4146.66666667 , 4165.64102564 , 4563.07692308 , 4130.76923077 , 4139.48717949 , 2041.0 , 2039.0 , 6.177 , 0.0 , 0.0 , 0.0 , 0.0 , 

81.0 , 4135.38461538 , 4138.46153846 , 4217.94871795 , 4135.8974359 , 4134.87179487 , 4134.87179487 , 4134.35897436 , 4135.8974359 , 4136.41025641 , 4144.1025641 , 4168.20512821 , 4566.15384615 , 4130.76923077 , 4137.43589744 , 2041.0 , 2038.0 , 6.185 , 0.0 , 0.0 , 0.0 , 0.0 , 

82.0 , 4136.92307692 , 4131.79487179 , 4214.87179487 , 4135.8974359 , 4134.87179487 , 4131.28205128 , 4134.35897436 , 4132.30769231 , 4136.92307692 , 4142.56410256 , 4169.74358974 , 4564.61538462 , 4129.23076923 , 4139.48717949 , 2039.0 , 2037.0 , 6.193 , 0.0 , 0.0 , 0.0 , 0.0 , 

83.0 , 4135.38461538 , 4125.64102564 , 4210.25641026 , 4135.8974359 , 4134.87179487 , 4132.82051282 , 4134.35897436 , 4137.43589744 , 4138.97435897 , 4143.07692308 , 4168.20512821 , 4566.15384615 , 4130.76923077 , 4138.97435897 , 2038.0 , 2035.0 , 6.201 , 0.0 , 0.0 , 0.0 , 0.0 , 

84.0 , 4134.87179487 , 4135.8974359 , 4216.41025641 , 4135.8974359 , 4134.87179487 , 4135.8974359 , 4134.35897436 , 4141.02564103 , 4138.97435897 , 4145.64102564 , 4167.69230769 , 4569.23076923 , 4133.84615385 , 4133.33333333 , 2038.0 , 2034.0 , 6.209 , 0.0 , 0.0 , 0.0 , 0.0 , 

85.0 , 4134.87179487 , 4137.94871795 , 4224.61538462 , 4136.41025641 , 4134.87179487 , 4135.38461538 , 4134.35897436 , 4136.92307692 , 4138.46153846 , 4145.12820513 , 4169.23076923 , 4571.79487179 , 4132.30769231 , 4134.87179487 , 2038.0 , 2034.0 , 6.217 , 0.0 , 0.0 , 0.0 , 0.0 , 

86.0 , 4135.38461538 , 4133.33333333 , 4226.66666667 , 4135.8974359 , 4134.87179487 , 4133.84615385 , 4134.35897436 , 4137.94871795 , 4140.0 , 4143.58974359 , 4169.23076923 , 4572.30769231 , 4131.28205128 , 4138.97435897 , 2038.0 , 2035.0 , 6.225 , 0.0 , 0.0 , 0.0 , 0.0 , 

87.0 , 4135.8974359 , 4136.41025641 , 4226.66666667 , 4135.38461538 , 4134.87179487 , 4135.38461538 , 4134.35897436 , 4140.0 , 4140.0 , 4143.58974359 , 4169.23076923 , 4572.82051282 , 4132.82051282 , 4138.97435897 , 2037.0 , 2035.0 , 6.233 , 0.0 , 0.0 , 0.0 , 0.0 , 

88.0 , 4134.35897436 , 4134.35897436 , 4231.28205128 , 4134.87179487 , 4134.87179487 , 4135.8974359 , 4134.35897436 , 4138.97435897 , 4139.48717949 , 4142.56410256 , 4169.74358974 , 4575.8974359 , 4131.79487179 , 4137.94871795 , 2037.0 , 2036.0 , 6.24 , 0.0 , 0.0 , 0.0 , 0.0 , 

89.0 , 4134.87179487 , 4128.71794872 , 4226.66666667 , 4134.87179487 , 4134.87179487 , 4134.87179487 , 4134.35897436 , 4140.0 , 4138.97435897 , 4141.02564103 , 4167.69230769 , 4578.97435897 , 4129.23076923 , 4138.46153846 , 2036.0 , 2034.0 , 6.248 , 0.0 , 0.0 , 0.0 , 0.0 , 

90.0 , 4136.41025641 , 4131.79487179 , 4215.38461538 , 4134.87179487 , 4134.87179487 , 4134.35897436 , 4134.35897436 , 4141.02564103 , 4138.97435897 , 4141.02564103 , 4166.15384615 , 4578.46153846 , 4130.25641026 , 4139.48717949 , 2036.0 , 2035.0 , 6.256 , 0.0 , 0.0 , 0.0 , 0.0 , 

91.0 , 4136.92307692 , 4135.38461538 , 4207.69230769 , 4134.87179487 , 4134.87179487 , 4134.35897436 , 4134.35897436 , 4134.87179487 , 4138.46153846 , 4143.07692308 , 4165.64102564 , 4577.94871795 , 4130.25641026 , 4137.94871795 , 2036.0 , 2035.0 , 6.264 , 0.0 , 0.0 , 0.0 , 0.0 , 

92.0 , 4135.8974359 , 4132.30769231 , 4201.53846154 , 4134.87179487 , 4134.87179487 , 4134.35897436 , 4134.35897436 , 4132.82051282 , 4136.41025641 , 4140.0 , 4167.17948718 , 4580.51282051 , 4129.23076923 , 4135.8974359 , 2035.0 , 2036.0 , 6.272 , 0.0 , 0.0 , 0.0 , 0.0 , 

93.0 , 4136.41025641 , 4132.30769231 , 4192.82051282 , 4134.87179487 , 4134.87179487 , 4134.35897436 , 4134.35897436 , 4134.87179487 , 4135.38461538 , 4137.43589744 , 4165.64102564 , 4581.02564103 , 4130.25641026 , 4134.87179487 , 2035.0 , 2035.0 , 6.28 , 0.0 , 0.0 , 0.0 , 0.0 , 

94.0 , 4135.8974359 , 4134.87179487 , 4180.0 , 4134.87179487 , 4134.87179487 , 4134.35897436 , 4134.35897436 , 4131.28205128 , 4137.43589744 , 4140.0 , 4164.1025641 , 4582.05128205 , 4129.23076923 , 4136.92307692 , 2036.0 , 2033.0 , 6.288 , 0.0 , 0.0 , 0.0 , 0.0 , 

95.0 , 4132.82051282 , 4133.33333333 , 4173.84615385 , 4134.87179487 , 4134.87179487 , 4134.35897436 , 4134.35897436 , 4130.25641026 , 4137.43589744 , 4138.97435897 , 4164.1025641 , 4582.56410256 , 4127.69230769 , 4136.92307692 , 2038.0 , 2034.0 , 6.295 , 0.0 , 0.0 , 0.0 , 0.0 , 

96.0 , 4131.79487179 , 4131.28205128 , 4170.76923077 , 4134.87179487 , 4134.87179487 , 4134.35897436 , 4134.35897436 , 4132.30769231 , 4131.79487179 , 4136.92307692 , 4162.56410256 , 4582.56410256 , 4128.20512821 , 4131.79487179 , 2038.0 , 2035.0 , 6.304 , 0.0 , 0.0 , 0.0 , 0.0 , 

97.0 , 4133.33333333 , 4135.38461538 , 4167.69230769 , 4134.87179487 , 4134.87179487 , 4134.35897436 , 4134.35897436 , 4131.79487179 , 4130.25641026 , 4138.46153846 , 4162.56410256 , 4582.05128205 , 4127.17948718 , 4129.74358974 , 2039.0 , 2036.0 , 6.313 , 0.0 , 0.0 , 0.0 , 0.0 , 

98.0 , 4134.87179487 , 4138.97435897 , 4158.97435897 , 4134.87179487 , 4134.87179487 , 4134.35897436 , 4134.35897436 , 4129.74358974 , 4134.35897436 , 4140.51282051 , 4164.61538462 , 4582.05128205 , 4126.66666667 , 4134.87179487 , 2038.0 , 2036.0 , 6.32 , 0.0 , 0.0 , 0.0 , 0.0 , 

99.0 , 4134.87179487 , 4131.79487179 , 4155.8974359 , 4134.87179487 , 4134.87179487 , 4134.35897436 , 4134.35897436 , 4128.20512821 , 4135.8974359 , 4137.94871795 , 4165.64102564 , 4583.58974359 , 4128.71794872 , 4137.43589744 , 2041.0 , 2038.0 , 6.327 , 0.0 , 0.0 , 0.0 , 0.0 , 

100.0 , 4136.41025641 , 4126.15384615 , 4142.05128205 , 4134.87179487 , 4134.87179487 , 4134.35897436 , 4134.35897436 , 4129.23076923 , 4131.28205128 , 4137.94871795 , 4162.56410256 , 4584.61538462 , 4129.23076923 , 4134.87179487 , 2042.0 , 2039.0 , 6.335 , 0.0 , 0.0 , 0.0 , 0.0 , 

101.0 , 4135.8974359 , 4132.30769231 , 4127.69230769 , 4134.87179487 , 4134.87179487 , 4133.84615385 , 4134.35897436 , 4132.30769231 , 4129.23076923 , 4136.41025641 , 4162.05128205 , 4583.07692308 , 4128.71794872 , 4135.8974359 , 2042.0 , 2038.0 , 6.343 , 0.0 , 0.0 , 0.0 , 0.0 , 

102.0 , 4136.41025641 , 4136.92307692 , 4118.46153846 , 4134.87179487 , 4134.87179487 , 4134.35897436 , 4134.35897436 , 4131.79487179 , 4132.30769231 , 4135.8974359 , 4163.58974359 , 4583.58974359 , 4127.17948718 , 4136.92307692 , 2042.0 , 2039.0 , 6.351 , 0.0 , 0.0 , 0.0 , 0.0 , 

103.0 , 4136.92307692 , 4130.25641026 , 4121.02564103 , 4134.87179487 , 4134.87179487 , 4135.8974359 , 4134.35897436 , 4129.23076923 , 4135.8974359 , 4138.46153846 , 4164.1025641 , 4586.15384615 , 4125.64102564 , 4133.84615385 , 2043.0 , 2040.0 , 6.359 , 0.0 , 0.0 , 0.0 , 0.0 , 

104.0 , 4134.87179487 , 4126.66666667 , 4129.23076923 , 4134.87179487 , 4134.87179487 , 4135.38461538 , 4134.35897436 , 4130.25641026 , 4135.38461538 , 4138.97435897 , 4165.12820513 , 4584.61538462 , 4126.66666667 , 4135.8974359 , 2047.0 , 2041.0 , 6.366 , 0.0 , 0.0 , 0.0 , 0.0 , 

105.0 , 4134.87179487 , 4134.87179487 , 4134.87179487 , 4134.87179487 , 4134.87179487 , 4134.35897436 , 4134.35897436 , 4133.33333333 , 4134.87179487 , 4140.0 , 4165.12820513 , 4586.15384615 , 4127.69230769 , 4137.94871795 , 2048.0 , 2042.0 , 6.374 , 0.0 , 0.0 , 0.0 , 0.0 , 

106.0 , 4138.46153846 , 4138.97435897 , 4133.33333333 , 4135.38461538 , 4134.87179487 , 4134.35897436 , 4134.35897436 , 4135.38461538 , 4135.38461538 , 4139.48717949 , 4164.61538462 , 4588.71794872 , 4126.66666667 , 4135.8974359 , 2048.0 , 2041.0 , 6.382 , 0.0 , 0.0 , 0.0 , 0.0 , 

107.0 , 4134.35897436 , 4135.38461538 , 4132.82051282 , 4134.35897436 , 4134.87179487 , 4134.35897436 , 4134.35897436 , 4134.35897436 , 4134.87179487 , 4138.46153846 , 4163.58974359 , 4584.61538462 , 4127.17948718 , 4134.35897436 , 2050.0 , 2039.0 , 6.39 , 0.0 , 0.0 , 0.0 , 0.0 , 

108.0 , 4130.25641026 , 4135.38461538 , 4133.33333333 , 4135.38461538 , 4134.87179487 , 4134.35897436 , 4134.35897436 , 4133.33333333 , 4134.87179487 , 4141.02564103 , 4165.64102564 , 4584.61538462 , 4130.76923077 , 4136.41025641 , 2049.0 , 2037.0 , 6.398 , 0.0 , 0.0 , 0.0 , 0.0 , 

109.0 , 4131.28205128 , 4137.43589744 , 4126.66666667 , 4136.41025641 , 4134.87179487 , 4134.35897436 , 4134.35897436 , 4134.87179487 , 4132.30769231 , 4141.02564103 , 4167.69230769 , 4590.25641026 , 4130.25641026 , 4137.43589744 , 2047.0 , 2034.0 , 6.406 , 0.0 , 0.0 , 0.0 , 0.0 , 

110.0 , 4129.74358974 , 4135.8974359 , 4125.12820513 , 4135.38461538 , 4134.87179487 , 4134.35897436 , 4134.35897436 , 4134.87179487 , 4133.33333333 , 4138.46153846 , 4168.20512821 , 4589.74358974 , 4130.25641026 , 4135.8974359 , 2047.0 , 2033.0 , 6.414 , 0.0 , 0.0 , 0.0 , 0.0 , 

111.0 , 4131.28205128 , 4133.33333333 , 4117.94871795 , 4134.87179487 , 4134.87179487 , 4134.35897436 , 4133.84615385 , 4130.25641026 , 4140.0 , 4139.48717949 , 4168.71794872 , 4586.66666667 , 4129.74358974 , 4135.38461538 , 2047.0 , 2031.0 , 6.422 , 0.0 , 0.0 , 0.0 , 0.0 , 

112.0 , 4136.92307692 , 4134.87179487 , 4121.02564103 , 4135.38461538 , 4134.87179487 , 4134.35897436 , 4133.84615385 , 4130.76923077 , 4141.02564103 , 4140.51282051 , 4168.20512821 , 4589.23076923 , 4127.17948718 , 4135.8974359 , 2047.0 , 2029.0 , 6.429 , 0.0 , 0.0 , 0.0 , 0.0 , 

113.0 , 4136.41025641 , 4132.82051282 , 4132.30769231 , 4135.38461538 , 4134.87179487 , 4134.35897436 , 4135.38461538 , 4135.38461538 , 4137.43589744 , 4137.94871795 , 4169.23076923 , 4592.82051282 , 4129.74358974 , 4137.43589744 , 2045.0 , 2027.0 , 6.437 , 0.0 , 0.0 , 0.0 , 0.0 , 

114.0 , 4135.8974359 , 4129.23076923 , 4145.64102564 , 4135.38461538 , 4134.87179487 , 4134.35897436 , 4136.41025641 , 4133.84615385 , 4138.46153846 , 4140.51282051 , 4170.25641026 , 4591.28205128 , 4134.87179487 , 4137.43589744 , 2043.0 , 2025.0 , 6.445 , 0.0 , 0.0 , 0.0 , 0.0 , 

115.0 , 4136.92307692 , 4130.25641026 , 4144.1025641 , 4135.8974359 , 4134.87179487 , 4133.84615385 , 4134.87179487 , 4135.38461538 , 4138.97435897 , 4144.1025641 , 4170.76923077 , 4590.25641026 , 4132.82051282 , 4137.43589744 , 2043.0 , 2022.0 , 6.453 , 0.0 , 0.0 , 0.0 , 0.0 , 

116.0 , 4132.30769231 , 4130.25641026 , 4132.30769231 , 4135.8974359 , 4134.87179487 , 4134.35897436 , 4134.35897436 , 4138.97435897 , 4135.38461538 , 4142.56410256 , 4166.66666667 , 4589.74358974 , 4127.69230769 , 4137.43589744 , 2043.0 , 2021.0 , 6.461 , 0.0 , 0.0 , 0.0 , 0.0 , 

117.0 , 4131.28205128 , 4130.25641026 , 4108.20512821 , 4135.8974359 , 4134.87179487 , 4134.35897436 , 4135.38461538 , 4136.92307692 , 4135.38461538 , 4138.97435897 , 4163.58974359 , 4589.74358974 , 4129.74358974 , 4138.97435897 , 2042.0 , 2020.0 , 6.469 , 0.0 , 0.0 , 0.0 , 0.0 , 

118.0 , 4131.79487179 , 4135.8974359 , 4064.1025641 , 4135.8974359 , 4134.87179487 , 4134.35897436 , 4135.38461538 , 4129.23076923 , 4135.8974359 , 4135.8974359 , 4165.64102564 , 4585.64102564 , 4126.66666667 , 4139.48717949 , 2043.0 , 2020.0 , 6.477 , 0.0 , 0.0 , 0.0 , 0.0 , 

119.0 , 4129.74358974 , 4137.94871795 , 4014.87179487 , 4135.8974359 , 4134.87179487 , 4134.35897436 , 4134.87179487 , 4124.1025641 , 4128.20512821 , 4132.30769231 , 4163.58974359 , 4578.97435897 , 4119.48717949 , 4132.82051282 , 2042.0 , 2021.0 , 6.485 , 0.0 , 0.0 , 0.0 , 0.0 , 

120.0 , 4134.87179487 , 4135.38461538 , 3980.51282051 , 4135.8974359 , 4134.87179487 , 4134.35897436 , 4135.38461538 , 4123.07692308 , 4124.1025641 , 4130.25641026 , 4160.0 , 4576.92307692 , 4118.97435897 , 4127.17948718 , 2044.0 , 2025.0 , 6.492 , 0.0 , 0.0 , 0.0 , 0.0 , 

121.0 , 4138.97435897 , 4135.38461538 , 3964.1025641 , 4134.87179487 , 4134.87179487 , 4134.35897436 , 4135.38461538 , 4121.53846154 , 4127.69230769 , 4128.71794872 , 4160.51282051 , 4575.8974359 , 4121.02564103 , 4129.74358974 , 2043.0 , 2028.0 , 6.5 , 0.0 , 0.0 , 0.0 , 0.0 , 

122.0 , 4136.92307692 , 4136.92307692 , 3917.94871795 , 4135.8974359 , 4134.87179487 , 4134.35897436 , 4135.38461538 , 4116.92307692 , 4125.64102564 , 4124.61538462 , 4160.0 , 4571.79487179 , 4118.46153846 , 4131.28205128 , 2047.0 , 2030.0 , 6.508 , 0.0 , 0.0 , 0.0 , 0.0 , 

123.0 , 4136.92307692 , 4135.38461538 , 3848.71794872 , 4137.43589744 , 4134.87179487 , 4134.35897436 , 4135.38461538 , 4111.79487179 , 4119.48717949 , 4122.05128205 , 4155.38461538 , 4563.58974359 , 4112.82051282 , 4124.61538462 , 2048.0 , 2032.0 , 6.516 , 0.0 , 0.0 , 0.0 , 0.0 , 

124.0 , 4138.46153846 , 4135.8974359 , 3806.66666667 , 4137.43589744 , 4134.87179487 , 4134.35897436 , 4135.38461538 , 4113.84615385 , 4121.53846154 , 4121.53846154 , 4153.84615385 , 4554.87179487 , 4111.79487179 , 4126.15384615 , 2049.0 , 2031.0 , 6.524 , 0.0 , 0.0 , 0.0 , 0.0 , 

125.0 , 4134.87179487 , 4134.87179487 , 3786.66666667 , 4136.41025641 , 4134.87179487 , 4134.35897436 , 4135.38461538 , 4113.33333333 , 4122.56410256 , 4120.0 , 4153.84615385 , 4548.20512821 , 4112.82051282 , 4127.69230769 , 2053.0 , 2030.0 , 6.532 , 0.0 , 0.0 , 0.0 , 0.0 , 

126.0 , 4135.38461538 , 4134.35897436 , 3770.25641026 , 4136.41025641 , 4134.87179487 , 4134.35897436 , 4135.38461538 , 4112.82051282 , 4122.56410256 , 4122.05128205 , 4153.84615385 , 4546.15384615 , 4113.33333333 , 4126.15384615 , 2055.0 , 2029.0 , 6.54 , 0.0 , 0.0 , 0.0 , 0.0 , 

127.0 , 4136.92307692 , 4134.35897436 , 3753.33333333 , 4136.92307692 , 4134.87179487 , 4134.35897436 , 4135.38461538 , 4117.43589744 , 4124.1025641 , 4124.1025641 , 4151.79487179 , 4537.43589744 , 4113.33333333 , 4127.69230769 , 2059.0 , 2030.0 , 6.548 , 0.0 , 0.0 , 0.0 , 0.0 , 

128.0 , 4135.8974359 , 4133.33333333 , 3772.30769231 , 4137.43589744 , 4134.87179487 , 4133.84615385 , 4135.38461538 , 4124.1025641 , 4124.61538462 , 4126.15384615 , 4155.38461538 , 4528.20512821 , 4118.97435897 , 4129.23076923 , 2061.0 , 2033.0 , 6.556 , 0.0 , 0.0 , 0.0 , 0.0 , 

0.0 , 4135.8974359 , 4134.87179487 , 3804.1025641 , 4134.35897436 , 4134.87179487 , 4133.84615385 , 4135.38461538 , 4125.12820513 , 4126.66666667 , 4128.71794872 , 4160.0 , 4527.17948718 , 4125.64102564 , 4128.71794872 , 2060.0 , 2035.0 , 6.564 , 0.0 , 0.0 , 0.0 , 0.0 , 

1.0 , 4136.92307692 , 4136.41025641 , 3842.05128205 , 4132.82051282 , 4134.87179487 , 4134.35897436 , 4135.38461538 , 4128.71794872 , 4135.8974359 , 4137.94871795 , 4160.0 , 4527.17948718 , 4129.23076923 , 4131.28205128 , 2061.0 , 2036.0 , 6.572 , 0.0 , 0.0 , 0.0 , 0.0 , 

2.0 , 4136.41025641 , 4135.38461538 , 3871.79487179 , 4134.87179487 , 4134.87179487 , 4133.84615385 , 4135.38461538 , 4133.33333333 , 4135.8974359 , 4145.12820513 , 4159.48717949 , 4523.07692308 , 4129.74358974 , 4134.35897436 , 2062.0 , 2034.0 , 6.579 , 0.0 , 0.0 , 0.0 , 0.0 , 

3.0 , 4134.35897436 , 4135.8974359 , 3923.58974359 , 4135.8974359 , 4134.87179487 , 4133.84615385 , 4135.38461538 , 4136.92307692 , 4137.94871795 , 4147.17948718 , 4166.15384615 , 4520.51282051 , 4135.8974359 , 4138.46153846 , 2064.0 , 2033.0 , 6.587 , 0.0 , 0.0 , 0.0 , 0.0 , 

4.0 , 4134.35897436 , 4136.41025641 , 3969.74358974 , 4133.33333333 , 4134.87179487 , 4134.87179487 , 4135.38461538 , 4139.48717949 , 4145.12820513 , 4148.20512821 , 4167.17948718 , 4518.46153846 , 4143.07692308 , 4139.48717949 , 2065.0 , 2033.0 , 6.595 , 0.0 , 0.0 , 0.0 , 0.0 , 

5.0 , 4135.38461538 , 4134.35897436 , 4001.53846154 , 4132.82051282 , 4134.87179487 , 4135.38461538 , 4135.38461538 , 4143.58974359 , 4144.61538462 , 4152.30769231 , 4166.66666667 , 4517.94871795 , 4142.56410256 , 4137.94871795 , 2066.0 , 2032.0 , 6.603 , 0.0 , 0.0 , 0.0 , 0.0 , 

6.0 , 4134.87179487 , 4134.35897436 , 4038.46153846 , 4133.33333333 , 4134.87179487 , 4134.87179487 , 4135.38461538 , 4145.12820513 , 4144.1025641 , 4158.97435897 , 4171.79487179 , 4517.94871795 , 4142.05128205 , 4140.0 , 2067.0 , 2034.0 , 6.612 , 0.0 , 0.0 , 0.0 , 0.0 , 

7.0 , 4134.87179487 , 4135.38461538 , 4092.82051282 , 4132.82051282 , 4134.87179487 , 4134.87179487 , 4135.38461538 , 4146.15384615 , 4151.79487179 , 4159.48717949 , 4171.28205128 , 4517.43589744 , 4146.66666667 , 4144.1025641 , 2069.0 , 2036.0 , 6.619 , 0.0 , 0.0 , 0.0 , 0.0 , 

8.0 , 4135.38461538 , 4135.38461538 , 4147.17948718 , 4133.33333333 , 4134.87179487 , 4135.38461538 , 4135.38461538 , 4150.25641026 , 4154.35897436 , 4160.51282051 , 4171.28205128 , 4519.48717949 , 4148.20512821 , 4144.61538462 , 2069.0 , 2038.0 , 6.626 , 0.0 , 0.0 , 0.0 , 0.0 , 

9.0 , 4135.38461538 , 4133.84615385 , 4184.61538462 , 4134.87179487 , 4134.87179487 , 4135.38461538 , 4135.38461538 , 4153.84615385 , 4152.82051282 , 4164.1025641 , 4175.8974359 , 4525.12820513 , 4149.23076923 , 4144.61538462 , 2071.0 , 2039.0 , 6.634 , 0.0 , 0.0 , 0.0 , 0.0 , 

10.0 , 4134.87179487 , 4134.35897436 , 4214.35897436 , 4135.38461538 , 4134.87179487 , 4134.87179487 , 4135.38461538 , 4157.43589744 , 4153.33333333 , 4165.12820513 , 4175.8974359 , 4529.74358974 , 4151.28205128 , 4146.66666667 , 2073.0 , 2040.0 , 6.642 , 0.0 , 0.0 , 0.0 , 0.0 , 

11.0 , 4134.87179487 , 4134.87179487 , 4238.97435897 , 4134.87179487 , 4134.87179487 , 4135.38461538 , 4135.38461538 , 4157.43589744 , 4153.84615385 , 4161.02564103 , 4173.84615385 , 4529.23076923 , 4146.66666667 , 4144.61538462 , 2072.0 , 2039.0 , 6.65 , 0.0 , 0.0 , 0.0 , 0.0 , 

12.0 , 4134.35897436 , 4134.35897436 , 4264.61538462 , 4134.87179487 , 4134.87179487 , 4135.38461538 , 4135.38461538 , 4154.87179487 , 4152.30769231 , 4159.48717949 , 4175.8974359 , 4529.23076923 , 4146.15384615 , 4144.1025641 , 2072.0 , 2040.0 , 6.658 , 0.0 , 0.0 , 0.0 , 0.0 , 

13.0 , 4134.35897436 , 4135.38461538 , 4283.58974359 , 4135.38461538 , 4134.87179487 , 4135.38461538 , 4135.38461538 , 4151.79487179 , 4153.33333333 , 4162.05128205 , 4177.94871795 , 4529.23076923 , 4148.71794872 , 4144.61538462 , 2072.0 , 2040.0 , 6.666 , 0.0 , 0.0 , 0.0 , 0.0 , 

14.0 , 4134.35897436 , 4134.87179487 , 4297.43589744 , 4134.87179487 , 4134.87179487 , 4135.38461538 , 4135.38461538 , 4151.79487179 , 4156.41025641 , 4162.05128205 , 4177.94871795 , 4530.76923077 , 4146.15384615 , 4145.12820513 , 2068.0 , 2036.0 , 6.674 , 0.0 , 0.0 , 0.0 , 0.0 , 

15.0 , 4135.38461538 , 4131.79487179 , 4306.15384615 , 4134.87179487 , 4134.87179487 , 4135.38461538 , 4135.38461538 , 4150.25641026 , 4151.79487179 , 4159.48717949 , 4175.8974359 , 4531.28205128 , 4144.1025641 , 4144.1025641 , 2068.0 , 2035.0 , 6.682 , 0.0 , 0.0 , 0.0 , 0.0 , 

16.0 , 4132.82051282 , 4133.84615385 , 4304.61538462 , 4135.38461538 , 4134.87179487 , 4135.38461538 , 4135.38461538 , 4148.20512821 , 4145.64102564 , 4157.43589744 , 4172.30769231 , 4530.76923077 , 4144.1025641 , 4142.56410256 , 2067.0 , 2033.0 , 6.69 , 0.0 , 0.0 , 0.0 , 0.0 , 

17.0 , 4131.79487179 , 4137.43589744 , 4289.23076923 , 4135.8974359 , 4134.87179487 , 4135.38461538 , 4135.38461538 , 4145.64102564 , 4145.12820513 , 4153.84615385 , 4169.74358974 , 4530.25641026 , 4142.05128205 , 4142.05128205 , 2064.0 , 2030.0 , 6.697 , 0.0 , 0.0 , 0.0 , 0.0 , 

18.0 , 4135.38461538 , 4134.87179487 , 4280.0 , 4136.41025641 , 4134.87179487 , 4135.38461538 , 4134.87179487 , 4145.64102564 , 4145.64102564 , 4149.74358974 , 4170.76923077 , 4534.35897436 , 4141.53846154 , 4142.56410256 , 2064.0 , 2028.0 , 6.705 , 0.0 , 0.0 , 0.0 , 0.0 , 

19.0 , 4136.41025641 , 4131.79487179 , 4284.61538462 , 4135.8974359 , 4134.87179487 , 4135.38461538 , 4135.38461538 , 4145.12820513 , 4143.58974359 , 4148.71794872 , 4173.33333333 , 4533.33333333 , 4140.0 , 4141.02564103 , 2064.0 , 2026.0 , 6.713 , 0.0 , 0.0 , 0.0 , 0.0 , 

20.0 , 4134.35897436 , 4132.82051282 , 4289.74358974 , 4135.8974359 , 4134.87179487 , 4135.38461538 , 4135.8974359 , 4143.58974359 , 4142.56410256 , 4150.76923077 , 4172.30769231 , 4531.79487179 , 4137.94871795 , 4137.94871795 , 2064.0 , 2026.0 , 6.721 , 0.0 , 0.0 , 0.0 , 0.0 , 

21.0 , 4134.87179487 , 4133.33333333 , 4286.66666667 , 4136.41025641 , 4134.87179487 , 4135.38461538 , 4136.41025641 , 4142.56410256 , 4141.53846154 , 4149.74358974 , 4170.25641026 , 4535.8974359 , 4140.0 , 4137.43589744 , 2065.0 , 2029.0 , 6.729 , 0.0 , 0.0 , 0.0 , 0.0 , 

22.0 , 4136.92307692 , 4132.30769231 , 4285.64102564 , 4135.8974359 , 4134.87179487 , 4135.38461538 , 4136.41025641 , 4142.56410256 , 4137.43589744 , 4147.17948718 , 4170.25641026 , 4540.0 , 4138.46153846 , 4138.97435897 , 2064.0 , 2030.0 , 6.737 , 0.0 , 0.0 , 0.0 , 0.0 , 

23.0 , 4135.38461538 , 4132.82051282 , 4275.8974359 , 4134.87179487 , 4134.87179487 , 4135.38461538 , 4135.38461538 , 4140.51282051 , 4136.92307692 , 4144.61538462 , 4168.71794872 , 4539.48717949 , 4132.82051282 , 4137.43589744 , 2066.0 , 2035.0 , 6.745 , 0.0 , 0.0 , 0.0 , 0.0 , 

24.0 , 4134.87179487 , 4132.82051282 , 4264.61538462 , 4134.35897436 , 4134.87179487 , 4135.38461538 , 4134.35897436 , 4138.97435897 , 4139.48717949 , 4145.64102564 , 4169.23076923 , 4542.05128205 , 4134.35897436 , 4136.92307692 , 2065.0 , 2036.0 , 6.753 , 0.0 , 0.0 , 0.0 , 0.0 , 

25.0 , 4134.87179487 , 4132.82051282 , 4246.15384615 , 4134.35897436 , 4134.87179487 , 4135.38461538 , 4133.84615385 , 4134.87179487 , 4139.48717949 , 4143.58974359 , 4169.74358974 , 4543.58974359 , 4134.87179487 , 4137.43589744 , 2064.0 , 2036.0 , 6.761 , 0.0 , 0.0 , 0.0 , 0.0 , 

26.0 , 4135.8974359 , 4133.84615385 , 4234.35897436 , 4134.35897436 , 4134.87179487 , 4135.38461538 , 4134.35897436 , 4133.84615385 , 4139.48717949 , 4142.05128205 , 4165.12820513 , 4543.58974359 , 4129.74358974 , 4138.97435897 , 2065.0 , 2037.0 , 6.77 , 0.0 , 0.0 , 0.0 , 0.0 , 

27.0 , 4136.92307692 , 4131.79487179 , 4229.74358974 , 4134.35897436 , 4134.87179487 , 4135.38461538 , 4134.87179487 , 4134.35897436 , 4140.0 , 4143.07692308 , 4163.58974359 , 4545.64102564 , 4129.74358974 , 4136.92307692 , 2064.0 , 2037.0 , 6.776 , 0.0 , 0.0 , 0.0 , 0.0 , 

28.0 , 4135.8974359 , 4131.79487179 , 4219.48717949 , 4134.35897436 , 4134.87179487 , 4134.87179487 , 4135.38461538 , 4132.82051282 , 4139.48717949 , 4143.58974359 , 4165.12820513 , 4547.17948718 , 4131.28205128 , 4134.35897436 , 2062.0 , 2035.0 , 6.784 , 0.0 , 0.0 , 0.0 , 0.0 , 

29.0 , 4135.8974359 , 4133.84615385 , 4211.28205128 , 4134.35897436 , 4134.87179487 , 4133.33333333 , 4135.38461538 , 4131.28205128 , 4135.38461538 , 4142.05128205 , 4164.61538462 , 4547.17948718 , 4130.25641026 , 4133.84615385 , 2061.0 , 2035.0 , 6.792 , 0.0 , 0.0 , 0.0 , 0.0 , 

30.0 , 4136.92307692 , 4135.38461538 , 4217.94871795 , 4134.35897436 , 4134.87179487 , 4132.82051282 , 4135.38461538 , 4132.82051282 , 4135.8974359 , 4142.05128205 , 4163.58974359 , 4546.66666667 , 4128.71794872 , 4136.41025641 , 2059.0 , 2033.0 , 6.8 , 0.0 , 0.0 , 0.0 , 0.0 , 

31.0 , 4135.8974359 , 4129.74358974 , 4224.61538462 , 4134.35897436 , 4134.87179487 , 4133.33333333 , 4135.38461538 , 4134.35897436 , 4138.46153846 , 4144.61538462 , 4166.15384615 , 4550.76923077 , 4129.74358974 , 4138.97435897 , 2060.0 , 2031.0 , 6.808 , 0.0 , 0.0 , 0.0 , 0.0 , 

32.0 , 4134.87179487 , 4125.12820513 , 4225.64102564 , 4134.35897436 , 4134.87179487 , 4132.82051282 , 4135.38461538 , 4134.87179487 , 4136.41025641 , 4145.64102564 , 4166.15384615 , 4556.41025641 , 4130.76923077 , 4138.97435897 , 2060.0 , 2030.0 , 6.816 , 0.0 , 0.0 , 0.0 , 0.0 , 

33.0 , 4136.41025641 , 4131.28205128 , 4230.25641026 , 4134.35897436 , 4134.87179487 , 4133.84615385 , 4135.38461538 , 4137.43589744 , 4134.35897436 , 4144.61538462 , 4164.1025641 , 4555.8974359 , 4131.28205128 , 4136.92307692 , 2056.0 , 2027.0 , 6.824 , 0.0 , 0.0 , 0.0 , 0.0 , 

34.0 , 4136.41025641 , 4137.94871795 , 4230.25641026 , 4135.8974359 , 4134.87179487 , 4135.38461538 , 4135.38461538 , 4135.8974359 , 4136.41025641 , 4144.61538462 , 4168.20512821 , 4555.8974359 , 4131.28205128 , 4136.41025641 , 2056.0 , 2026.0 , 6.831 , 0.0 , 0.0 , 0.0 , 0.0 , 

35.0 , 4134.35897436 , 4133.33333333 , 4227.17948718 , 4136.41025641 , 4134.87179487 , 4134.87179487 , 4135.38461538 , 4131.79487179 , 4137.94871795 , 4143.07692308 , 4172.30769231 , 4562.56410256 , 4132.30769231 , 4138.46153846 , 2059.0 , 2024.0 , 6.839 , 0.0 , 0.0 , 0.0 , 0.0 , 

36.0 , 4134.35897436 , 4130.25641026 , 4226.66666667 , 4135.8974359 , 4134.87179487 , 4134.87179487 , 4135.38461538 , 4133.33333333 , 4138.46153846 , 4141.02564103 , 4169.74358974 , 4564.1025641 , 4132.30769231 , 4138.46153846 , 2060.0 , 2025.0 , 6.847 , 0.0 , 0.0 , 0.0 , 0.0 , 

37.0 , 4135.8974359 , 4134.35897436 , 4228.20512821 , 4135.8974359 , 4134.87179487 , 4134.87179487 , 4135.38461538 , 4136.92307692 , 4138.46153846 , 4143.58974359 , 4167.17948718 , 4561.53846154 , 4131.79487179 , 4137.94871795 , 2063.0 , 2027.0 , 6.855 , 0.0 , 0.0 , 0.0 , 0.0 , 

38.0 , 4135.38461538 , 4134.87179487 , 4225.64102564 , 4135.8974359 , 4134.87179487 , 4133.84615385 , 4135.38461538 , 4134.35897436 , 4135.8974359 , 4147.17948718 , 4166.66666667 , 4565.64102564 , 4131.28205128 , 4135.38461538 , 2065.0 , 2027.0 , 6.863 , 0.0 , 0.0 , 0.0 , 0.0 , 

39.0 , 4134.87179487 , 4131.79487179 , 4220.0 , 4135.8974359 , 4134.87179487 , 4132.82051282 , 4135.38461538 , 4132.30769231 , 4136.92307692 , 4144.1025641 , 4164.1025641 , 4570.25641026 , 4130.76923077 , 4134.87179487 , 2065.0 , 2028.0 , 6.871 , 0.0 , 0.0 , 0.0 , 0.0 , 

40.0 , 4136.41025641 , 4133.33333333 , 4211.28205128 , 4135.8974359 , 4134.87179487 , 4132.82051282 , 4135.38461538 , 4132.30769231 , 4138.46153846 , 4137.94871795 , 4162.05128205 , 4568.20512821 , 4129.74358974 , 4136.41025641 , 2065.0 , 2029.0 , 6.879 , 0.0 , 0.0 , 0.0 , 0.0 , 

41.0 , 4136.92307692 , 4134.35897436 , 4201.02564103 , 4135.8974359 , 4134.87179487 , 4133.84615385 , 4135.38461538 , 4131.79487179 , 4135.38461538 , 4137.94871795 , 4164.61538462 , 4567.69230769 , 4130.76923077 , 4137.94871795 , 2067.0 , 2031.0 , 6.887 , 0.0 , 0.0 , 0.0 , 0.0 , 

42.0 , 4134.87179487 , 4133.84615385 , 4200.0 , 4135.8974359 , 4134.87179487 , 4134.87179487 , 4135.38461538 , 4132.30769231 , 4133.84615385 , 4142.56410256 , 4163.58974359 , 4570.25641026 , 4131.28205128 , 4136.92307692 , 2066.0 , 2033.0 , 6.894 , 0.0 , 0.0 , 0.0 , 0.0 , 

43.0 , 4134.87179487 , 4133.33333333 , 4197.94871795 , 4135.8974359 , 4134.87179487 , 4134.87179487 , 4135.38461538 , 4135.38461538 , 4137.43589744 , 4143.07692308 , 4163.07692308 , 4570.76923077 , 4131.28205128 , 4133.33333333 , 2066.0 , 2032.0 , 6.902 , 0.0 , 0.0 , 0.0 , 0.0 , 

44.0 , 4136.92307692 , 4132.82051282 , 4183.58974359 , 4135.8974359 , 4134.87179487 , 4134.87179487 , 4135.38461538 , 4134.35897436 , 4138.46153846 , 4138.97435897 , 4165.64102564 , 4569.23076923 , 4129.23076923 , 4132.30769231 , 2066.0 , 2030.0 , 6.91 , 0.0 , 0.0 , 0.0 , 0.0 , 

45.0 , 4135.38461538 , 4132.82051282 , 4161.53846154 , 4135.8974359 , 4134.87179487 , 4135.38461538 , 4135.38461538 , 4132.82051282 , 4131.28205128 , 4138.97435897 , 4163.58974359 , 4569.74358974 , 4127.17948718 , 4131.79487179 , 2067.0 , 2031.0 , 6.918 , 0.0 , 0.0 , 0.0 , 0.0 , 

46.0 , 4134.87179487 , 4134.35897436 , 4149.74358974 , 4135.8974359 , 4134.87179487 , 4135.38461538 , 4135.38461538 , 4130.76923077 , 4129.23076923 , 4140.0 , 4162.05128205 , 4572.30769231 , 4126.15384615 , 4131.79487179 , 2066.0 , 2031.0 , 6.927 , 0.0 , 0.0 , 0.0 , 0.0 , 

47.0 , 4137.43589744 , 4134.35897436 , 4135.38461538 , 4135.8974359 , 4134.87179487 , 4134.87179487 , 4135.38461538 , 4128.20512821 , 4132.82051282 , 4136.41025641 , 4165.12820513 , 4574.35897436 , 4126.15384615 , 4132.30769231 , 2064.0 , 2029.0 , 6.934 , 0.0 , 0.0 , 0.0 , 0.0 , 

48.0 , 4137.43589744 , 4134.87179487 , 4128.20512821 , 4135.8974359 , 4134.87179487 , 4135.38461538 , 4135.38461538 , 4130.76923077 , 4133.84615385 , 4134.87179487 , 4166.15384615 , 4574.35897436 , 4126.66666667 , 4135.38461538 , 2064.0 , 2028.0 , 6.942 , 0.0 , 0.0 , 0.0 , 0.0 , 

49.0 , 4135.38461538 , 4134.87179487 , 4140.0 , 4135.8974359 , 4134.87179487 , 4135.38461538 , 4135.38461538 , 4133.84615385 , 4133.33333333 , 4138.46153846 , 4162.05128205 , 4574.35897436 , 4128.71794872 , 4135.8974359 , 2065.0 , 2029.0 , 6.95 , 0.0 , 0.0 , 0.0 , 0.0 , 

50.0 , 4135.8974359 , 4132.30769231 , 4150.76923077 , 4135.8974359 , 4134.87179487 , 4135.38461538 , 4135.38461538 , 4133.33333333 , 4138.46153846 , 4142.05128205 , 4162.05128205 , 4575.38461538 , 4131.28205128 , 4135.8974359 , 2068.0 , 2029.0 , 6.957 , 0.0 , 0.0 , 0.0 , 0.0 , 

51.0 , 4135.8974359 , 4131.79487179 , 4143.07692308 , 4135.8974359 , 4134.87179487 , 4135.38461538 , 4135.38461538 , 4131.79487179 , 4138.46153846 , 4141.53846154 , 4165.12820513 , 4575.8974359 , 4129.74358974 , 4135.38461538 , 2068.0 , 2030.0 , 6.965 , 0.0 , 0.0 , 0.0 , 0.0 , 

52.0 , 4134.87179487 , 4133.84615385 , 4125.12820513 , 4135.8974359 , 4134.87179487 , 4135.38461538 , 4135.38461538 , 4132.30769231 , 4133.33333333 , 4140.0 , 4164.1025641 , 4575.8974359 , 4127.69230769 , 4133.84615385 , 2067.0 , 2029.0 , 6.973 , 0.0 , 0.0 , 0.0 , 0.0 , 

53.0 , 4134.87179487 , 4132.82051282 , 4116.92307692 , 4135.8974359 , 4134.87179487 , 4134.87179487 , 4135.38461538 , 4131.28205128 , 4133.33333333 , 4137.94871795 , 4162.05128205 , 4575.8974359 , 4128.71794872 , 4133.84615385 , 2067.0 , 2030.0 , 6.981 , 0.0 , 0.0 , 0.0 , 0.0 , 

54.0 , 4134.87179487 , 4133.33333333 , 4111.28205128 , 4135.8974359 , 4134.87179487 , 4133.33333333 , 4135.38461538 , 4129.74358974 , 4137.94871795 , 4135.38461538 , 4164.1025641 , 4576.41025641 , 4128.20512821 , 4132.30769231 , 2070.0 , 2034.0 , 6.989 , 0.0 , 0.0 , 0.0 , 0.0 , 

55.0 , 4134.35897436 , 4135.8974359 , 4087.17948718 , 4135.8974359 , 4134.87179487 , 4132.82051282 , 4135.38461538 , 4128.71794872 , 4133.84615385 , 4135.8974359 , 4163.58974359 , 4573.84615385 , 4125.12820513 , 4130.76923077 , 2071.0 , 2033.0 , 6.997 , 0.0 , 0.0 , 0.0 , 0.0 , 

56.0 , 4133.84615385 , 4134.35897436 , 4057.94871795 , 4135.8974359 , 4134.87179487 , 4133.33333333 , 4135.38461538 , 4128.20512821 , 4128.20512821 , 4137.94871795 , 4160.0 , 4574.35897436 , 4125.12820513 , 4135.38461538 , 2071.0 , 2032.0 , 7.011 , 0.0 , 0.0 , 0.0 , 0.0 , 

57.0 , 4134.35897436 , 4134.35897436 , 4043.58974359 , 4135.8974359 , 4134.87179487 , 4132.82051282 , 4135.38461538 , 4125.64102564 , 4130.25641026 , 4135.38461538 , 4160.51282051 , 4573.33333333 , 4125.64102564 , 4134.35897436 , 2071.0 , 2032.0 , 7.014 , 0.0 , 0.0 , 0.0 , 0.0 , 

58.0 , 4134.87179487 , 4135.38461538 , 4046.66666667 , 4135.8974359 , 4134.87179487 , 4133.33333333 , 4135.38461538 , 4126.15384615 , 4132.30769231 , 4135.8974359 , 4163.58974359 , 4571.79487179 , 4125.64102564 , 4131.79487179 , 2073.0 , 2030.0 , 7.021 , 0.0 , 0.0 , 0.0 , 0.0 , 

59.0 , 4135.38461538 , 4132.82051282 , 4060.51282051 , 4135.8974359 , 4134.87179487 , 4135.38461538 , 4135.38461538 , 4131.79487179 , 4130.25641026 , 4141.02564103 , 4164.1025641 , 4571.79487179 , 4128.71794872 , 4135.38461538 , 2073.0 , 2028.0 , 7.028 , 0.0 , 0.0 , 0.0 , 0.0 , 

60.0 , 4135.38461538 , 4132.30769231 , 4082.56410256 , 4135.8974359 , 4134.87179487 , 4135.38461538 , 4135.38461538 , 4136.41025641 , 4133.84615385 , 4142.56410256 , 4163.58974359 , 4574.87179487 , 4132.82051282 , 4137.94871795 , 2072.0 , 2026.0 , 7.037 , 0.0 , 0.0 , 0.0 , 0.0 , 

61.0 , 4134.35897436 , 4134.35897436 , 4102.56410256 , 4135.8974359 , 4134.87179487 , 4134.87179487 , 4135.38461538 , 4136.41025641 , 4140.0 , 4140.51282051 , 4163.07692308 , 4574.87179487 , 4132.30769231 , 4135.38461538 , 2070.0 , 2025.0 , 7.044 , 0.0 , 0.0 , 0.0 , 0.0 , 

62.0 , 4133.84615385 , 4135.38461538 , 4107.69230769 , 4135.8974359 , 4134.87179487 , 4135.38461538 , 4135.38461538 , 4135.38461538 , 4136.92307692 , 4142.56410256 , 4168.20512821 , 4572.82051282 , 4130.25641026 , 4135.38461538 , 2068.0 , 2025.0 , 7.053 , 0.0 , 0.0 , 0.0 , 0.0 , 

63.0 , 4134.87179487 , 4135.38461538 , 4105.12820513 , 4135.8974359 , 4134.87179487 , 4135.38461538 , 4135.38461538 , 4133.84615385 , 4133.33333333 , 4144.61538462 , 4170.76923077 , 4572.30769231 , 4131.79487179 , 4134.35897436 , 2066.0 , 2022.0 , 7.06 , 0.0 , 0.0 , 0.0 , 0.0 , 

64.0 , 4135.38461538 , 4135.38461538 , 4106.15384615 , 4135.8974359 , 4134.87179487 , 4134.87179487 , 4135.38461538 , 4133.84615385 , 4137.43589744 , 4143.58974359 , 4165.64102564 , 4571.28205128 , 4133.33333333 , 4133.33333333 , 2065.0 , 2023.0 , 7.069 , 0.0 , 0.0 , 0.0 , 0.0 , 

65.0 , 4136.41025641 , 4135.38461538 , 4114.87179487 , 4135.8974359 , 4134.87179487 , 4135.38461538 , 4135.38461538 , 4134.87179487 , 4138.46153846 , 4144.61538462 , 4162.05128205 , 4570.76923077 , 4133.84615385 , 4135.8974359 , 2064.0 , 2025.0 , 7.077 , 0.0 , 0.0 , 0.0 , 0.0 , 

66.0 , 4136.92307692 , 4135.38461538 , 4130.76923077 , 4135.8974359 , 4134.87179487 , 4135.38461538 , 4135.38461538 , 4137.94871795 , 4137.94871795 , 4145.64102564 , 4167.17948718 , 4576.92307692 , 4133.33333333 , 4137.43589744 , 2062.0 , 2024.0 , 7.085 , 0.0 , 0.0 , 0.0 , 0.0 , 

67.0 , 4136.41025641 , 4134.35897436 , 4140.51282051 , 4135.8974359 , 4134.87179487 , 4135.38461538 , 4133.84615385 , 4141.02564103 , 4137.94871795 , 4145.64102564 , 4168.20512821 , 4580.51282051 , 4134.87179487 , 4136.41025641 , 2064.0 , 2025.0 , 7.091 , 0.0 , 0.0 , 0.0 , 0.0 , 

68.0 , 4135.8974359 , 4132.82051282 , 4131.28205128 , 4135.8974359 , 4134.87179487 , 4135.38461538 , 4132.82051282 , 4137.43589744 , 4137.94871795 , 4144.61538462 , 4164.1025641 , 4569.74358974 , 4133.84615385 , 4135.38461538 , 2063.0 , 2026.0 , 7.099 , 0.0 , 0.0 , 0.0 , 0.0 , 

69.0 , 4135.38461538 , 4132.30769231 , 4118.97435897 , 4135.8974359 , 4134.87179487 , 4135.38461538 , 4133.84615385 , 4134.35897436 , 4137.94871795 , 4144.61538462 , 4164.1025641 , 4564.61538462 , 4130.76923077 , 4134.87179487 , 2062.0 , 2025.0 , 7.107 , 0.0 , 0.0 , 0.0 , 0.0 , 

70.0 , 4134.87179487 , 4132.82051282 , 4129.23076923 , 4135.8974359 , 4134.87179487 , 4135.38461538 , 4134.35897436 , 4136.92307692 , 4138.46153846 , 4145.12820513 , 4165.64102564 , 4571.79487179 , 4130.25641026 , 4135.38461538 , 2061.0 , 2026.0 , 7.115 , 0.0 , 0.0 , 0.0 , 0.0 , 

71.0 , 4135.38461538 , 4134.87179487 , 4140.51282051 , 4135.8974359 , 4134.87179487 , 4135.38461538 , 4133.84615385 , 4137.94871795 , 4137.94871795 , 4145.12820513 , 4164.61538462 , 4572.30769231 , 4133.84615385 , 4136.41025641 , 2062.0 , 2026.0 , 7.123 , 0.0 , 0.0 , 0.0 , 0.0 , 

72.0 , 4136.41025641 , 4135.38461538 , 4131.79487179 , 4135.8974359 , 4134.87179487 , 4135.38461538 , 4134.35897436 , 4134.87179487 , 4136.92307692 , 4143.58974359 , 4163.58974359 , 4566.15384615 , 4134.35897436 , 4134.35897436 , 2061.0 , 2025.0 , 7.131 , 0.0 , 0.0 , 0.0 , 0.0 , 

73.0 , 4135.8974359 , 4134.87179487 , 4123.58974359 , 4135.8974359 , 4134.87179487 , 4135.38461538 , 4134.35897436 , 4133.84615385 , 4137.94871795 , 4141.53846154 , 4166.15384615 , 4568.71794872 , 4131.79487179 , 4133.84615385 , 2059.0 , 2026.0 , 7.14 , 0.0 , 0.0 , 0.0 , 0.0 , 

74.0 , 4136.41025641 , 4135.8974359 , 4127.17948718 , 4135.8974359 , 4134.87179487 , 4135.38461538 , 4134.35897436 , 4133.33333333 , 4136.92307692 , 4142.05128205 , 4166.66666667 , 4571.79487179 , 4132.30769231 , 4134.35897436 , 2056.0 , 2025.0 , 7.148 , 0.0 , 0.0 , 0.0 , 0.0 , 

75.0 , 4135.38461538 , 4136.92307692 , 4124.61538462 , 4135.8974359 , 4134.87179487 , 4135.38461538 , 4134.35897436 , 4133.84615385 , 4136.41025641 , 4142.05128205 , 4165.12820513 , 4568.71794872 , 4133.84615385 , 4134.87179487 , 2055.0 , 2025.0 , 7.154 , 0.0 , 0.0 , 0.0 , 0.0 , 

76.0 , 4133.84615385 , 4135.38461538 , 4110.76923077 , 4135.8974359 , 4134.87179487 , 4135.38461538 , 4134.35897436 , 4134.87179487 , 4134.87179487 , 4139.48717949 , 4164.1025641 , 4566.15384615 , 4129.74358974 , 4134.35897436 , 2053.0 , 2026.0 , 7.164 , 0.0 , 0.0 , 0.0 , 0.0 , 

77.0 , 4134.87179487 , 4135.38461538 , 4094.87179487 , 4135.8974359 , 4134.87179487 , 4135.38461538 , 4134.35897436 , 4132.30769231 , 4132.82051282 , 4138.46153846 , 4163.07692308 , 4565.64102564 , 4126.66666667 , 4134.35897436 , 2050.0 , 2028.0 , 7.17 , 0.0 , 0.0 , 0.0 , 0.0 , 

78.0 , 4135.38461538 , 4135.38461538 , 4075.38461538 , 4136.41025641 , 4134.87179487 , 4135.38461538 , 4133.84615385 , 4127.69230769 , 4133.84615385 , 4137.43589744 , 4162.05128205 , 4562.56410256 , 4125.64102564 , 4133.33333333 , 2050.0 , 2028.0 , 7.178 , 0.0 , 0.0 , 0.0 , 0.0 , 

79.0 , 4133.84615385 , 4134.87179487 , 4063.58974359 , 4135.8974359 , 4134.87179487 , 4135.38461538 , 4133.84615385 , 4128.71794872 , 4132.30769231 , 4139.48717949 , 4163.07692308 , 4562.05128205 , 4126.66666667 , 4131.79487179 , 2046.0 , 2028.0 , 7.186 , 0.0 , 0.0 , 0.0 , 0.0 , 

80.0 , 4133.84615385 , 4134.87179487 , 4066.15384615 , 4134.35897436 , 4134.87179487 , 4135.38461538 , 4135.38461538 , 4133.33333333 , 4129.74358974 , 4140.0 , 4164.61538462 , 4562.56410256 , 4128.71794872 , 4131.79487179 , 2045.0 , 2028.0 , 7.194 , 0.0 , 0.0 , 0.0 , 0.0 , 

81.0 , 4135.38461538 , 4133.33333333 , 4074.35897436 , 4133.84615385 , 4134.87179487 , 4135.38461538 , 4134.87179487 , 4136.41025641 , 4135.38461538 , 4139.48717949 , 4165.64102564 , 4563.07692308 , 4130.76923077 , 4134.35897436 , 2043.0 , 2028.0 , 7.202 , 0.0 , 0.0 , 0.0 , 0.0 , 

82.0 , 4136.92307692 , 4134.35897436 , 4083.58974359 , 4134.35897436 , 4134.87179487 , 4135.38461538 , 4133.33333333 , 4134.35897436 , 4139.48717949 , 4140.51282051 , 4166.15384615 , 4563.07692308 , 4131.28205128 , 4134.35897436 , 2042.0 , 2030.0 , 7.21 , 0.0 , 0.0 , 0.0 , 0.0 , 

83.0 , 4135.8974359 , 4135.8974359 , 4094.87179487 , 4134.35897436 , 4134.87179487 , 4135.38461538 , 4133.33333333 , 4134.35897436 , 4136.41025641 , 4143.58974359 , 4165.64102564 , 4563.07692308 , 4132.30769231 , 4135.8974359 , 2040.0 , 2033.0 , 7.218 , 0.0 , 0.0 , 0.0 , 0.0 , 

84.0 , 4134.35897436 , 4133.33333333 , 4103.58974359 , 4134.35897436 , 4134.87179487 , 4134.87179487 , 4134.35897436 , 4136.92307692 , 4135.38461538 , 4142.05128205 , 4166.15384615 , 4562.56410256 , 4132.30769231 , 4137.94871795 , 2041.0 , 2032.0 , 7.226 , 0.0 , 0.0 , 0.0 , 0.0 , 

85.0 , 4134.35897436 , 4131.79487179 , 4107.69230769 , 4135.38461538 , 4134.87179487 , 4135.38461538 , 4134.35897436 , 4134.87179487 , 4137.94871795 , 4139.48717949 , 4168.20512821 , 4561.02564103 , 4131.28205128 , 4135.8974359 , 2040.0 , 2031.0 , 7.233 , 0.0 , 0.0 , 0.0 , 0.0 , 

86.0 , 4134.35897436 , 4134.35897436 , 4108.71794872 , 4136.41025641 , 4134.87179487 , 4135.38461538 , 4133.84615385 , 4133.33333333 , 4136.92307692 , 4142.56410256 , 4167.17948718 , 4560.51282051 , 4132.30769231 , 4134.87179487 , 2038.0 , 2029.0 , 7.241 , 0.0 , 0.0 , 0.0 , 0.0 , 

87.0 , 4134.35897436 , 4135.8974359 , 4112.82051282 , 4136.41025641 , 4134.87179487 , 4134.87179487 , 4134.35897436 , 4135.38461538 , 4136.41025641 , 4145.64102564 , 4167.69230769 , 4561.02564103 , 4131.79487179 , 4136.41025641 , 2037.0 , 2029.0 , 7.249 , 0.0 , 0.0 , 0.0 , 0.0 , 

88.0 , 4136.41025641 , 4135.38461538 , 4122.56410256 , 4135.38461538 , 4134.87179487 , 4134.87179487 , 4134.35897436 , 4138.46153846 , 4138.97435897 , 4144.61538462 , 4169.74358974 , 4562.05128205 , 4131.79487179 , 4136.41025641 , 2035.0 , 2025.0 , 7.257 , 0.0 , 0.0 , 0.0 , 0.0 , 

89.0 , 4137.43589744 , 4135.38461538 , 4121.53846154 , 4134.87179487 , 4134.87179487 , 4135.38461538 , 4133.84615385 , 4135.8974359 , 4138.97435897 , 4141.02564103 , 4167.17948718 , 4557.94871795 , 4132.30769231 , 4133.84615385 , 2036.0 , 2024.0 , 7.265 , 0.0 , 0.0 , 0.0 , 0.0 , 

90.0 , 4136.41025641 , 4133.84615385 , 4110.76923077 , 4135.38461538 , 4134.87179487 , 4134.87179487 , 4134.87179487 , 4132.82051282 , 4137.43589744 , 4141.53846154 , 4163.58974359 , 4556.41025641 , 4131.28205128 , 4132.82051282 , 2033.0 , 2025.0 , 7.273 , 0.0 , 0.0 , 0.0 , 0.0 , 

91.0 , 4135.8974359 , 4133.84615385 , 4107.17948718 , 4136.41025641 , 4134.87179487 , 4134.35897436 , 4134.35897436 , 4132.30769231 , 4138.46153846 , 4141.53846154 , 4163.58974359 , 4556.92307692 , 4129.74358974 , 4134.35897436 , 2033.0 , 2026.0 , 7.281 , 0.0 , 0.0 , 0.0 , 0.0 , 

92.0 , 4136.41025641 , 4137.43589744 , 4106.15384615 , 4135.8974359 , 4134.87179487 , 4134.35897436 , 4130.76923077 , 4134.35897436 , 4140.0 , 4140.51282051 , 4165.64102564 , 4554.87179487 , 4129.23076923 , 4135.8974359 , 2033.0 , 2026.0 , 7.288 , 0.0 , 0.0 , 0.0 , 0.0 , 

93.0 , 4136.41025641 , 4134.87179487 , 4092.82051282 , 4135.8974359 , 4134.87179487 , 4136.41025641 , 4128.71794872 , 4133.84615385 , 4138.46153846 , 4141.02564103 , 4164.1025641 , 4551.79487179 , 4127.17948718 , 4133.84615385 , 2033.0 , 2027.0 , 7.296 , 0.0 , 0.0 , 0.0 , 0.0 , 

94.0 , 4135.38461538 , 4131.28205128 , 4086.66666667 , 4135.8974359 , 4134.87179487 , 4135.38461538 , 4131.28205128 , 4132.82051282 , 4137.43589744 , 4141.02564103 , 4163.58974359 , 4552.82051282 , 4129.23076923 , 4132.30769231 , 2033.0 , 2027.0 , 7.304 , 0.0 , 0.0 , 0.0 , 0.0 , 

95.0 , 4135.38461538 , 4134.35897436 , 4092.30769231 , 4135.8974359 , 4134.87179487 , 4130.76923077 , 4132.30769231 , 4133.33333333 , 4137.43589744 , 4139.48717949 , 4163.07692308 , 4552.82051282 , 4131.79487179 , 4135.38461538 , 2033.0 , 2029.0 , 7.312 , 0.0 , 0.0 , 0.0 , 0.0 , 

96.0 , 4134.87179487 , 4136.41025641 , 4094.87179487 , 4135.38461538 , 4134.87179487 , 4131.79487179 , 4130.25641026 , 4134.35897436 , 4137.94871795 , 4140.51282051 , 4164.1025641 , 4552.30769231 , 4129.74358974 , 4138.46153846 , 2033.0 , 2030.0 , 7.321 , 0.0 , 0.0 , 0.0 , 0.0 , 

97.0 , 4134.87179487 , 4134.87179487 , 4095.38461538 , 4134.87179487 , 4134.87179487 , 4135.38461538 , 4129.23076923 , 4132.30769231 , 4137.43589744 , 4141.53846154 , 4165.12820513 , 4553.84615385 , 4130.25641026 , 4136.92307692 , 2034.0 , 2033.0 , 7.328 , 0.0 , 0.0 , 0.0 , 0.0 , 

98.0 , 4135.38461538 , 4134.87179487 , 4100.0 , 4134.87179487 , 4134.87179487 , 4133.84615385 , 4130.25641026 , 4133.33333333 , 4136.41025641 , 4142.05128205 , 4163.58974359 , 4552.82051282 , 4133.33333333 , 4135.8974359 , 2034.0 , 2034.0 , 7.337 , 0.0 , 0.0 , 0.0 , 0.0 , 

99.0 , 4137.94871795 , 4136.41025641 , 4103.07692308 , 4135.38461538 , 4134.87179487 , 4134.35897436 , 4130.76923077 , 4135.38461538 , 4136.92307692 , 4143.58974359 , 4163.58974359 , 4549.74358974 , 4131.79487179 , 4135.38461538 , 2035.0 , 2036.0 , 7.344 , 0.0 , 0.0 , 0.0 , 0.0 , 

100.0 , 4136.92307692 , 4135.8974359 , 4105.64102564 , 4136.41025641 , 4134.87179487 , 4136.41025641 , 4129.23076923 , 4135.38461538 , 4138.97435897 , 4141.53846154 , 4165.12820513 , 4550.76923077 , 4131.28205128 , 4138.97435897 , 2033.0 , 2036.0 , 7.351 , 0.0 , 0.0 , 0.0 , 0.0 , 

101.0 , 4135.38461538 , 4135.8974359 , 4109.23076923 , 4135.38461538 , 4134.87179487 , 4132.82051282 , 4128.71794872 , 4133.33333333 , 4139.48717949 , 4138.97435897 , 4165.64102564 , 4548.71794872 , 4133.33333333 , 4141.02564103 , 2032.0 , 2036.0 , 7.36 , 0.0 , 0.0 , 0.0 , 0.0 , 

102.0 , 4135.8974359 , 4134.87179487 , 4111.79487179 , 4134.87179487 , 4134.87179487 , 4130.76923077 , 4130.25641026 , 4133.33333333 , 4138.97435897 , 4142.05128205 , 4165.12820513 , 4547.17948718 , 4132.30769231 , 4136.41025641 , 2031.0 , 2039.0 , 7.367 , 0.0 , 0.0 , 0.0 , 0.0 , 

103.0 , 4133.33333333 , 4134.87179487 , 4121.02564103 , 4136.92307692 , 4134.87179487 , 4134.35897436 , 4130.76923077 , 4136.92307692 , 4138.46153846 , 4145.12820513 , 4164.61538462 , 4549.23076923 , 4132.30769231 , 4133.33333333 , 2029.0 , 2040.0 , 7.376 , 0.0 , 0.0 , 0.0 , 0.0 , 

104.0 , 4131.79487179 , 4135.8974359 , 4137.43589744 , 4137.43589744 , 4134.87179487 , 4134.87179487 , 4129.74358974 , 4137.94871795 , 4138.46153846 , 4144.1025641 , 4165.12820513 , 4550.25641026 , 4133.84615385 , 4135.8974359 , 2025.0 , 2046.0 , 7.383 , 0.0 , 0.0 , 0.0 , 0.0 , 

105.0 , 4134.35897436 , 4135.38461538 , 4146.66666667 , 4135.8974359 , 4134.87179487 , 4133.84615385 , 4129.74358974 , 4136.92307692 , 4137.94871795 , 4144.1025641 , 4164.61538462 , 4547.17948718 , 4132.82051282 , 4136.41025641 , 2023.0 , 2047.0 , 7.392 , 0.0 , 0.0 , 0.0 , 0.0 , 

106.0 , 4135.8974359 , 4133.84615385 , 4151.79487179 , 4135.38461538 , 4134.87179487 , 4135.38461538 , 4130.25641026 , 4137.94871795 , 4137.43589744 , 4145.64102564 , 4163.58974359 , 4546.66666667 , 4133.84615385 , 4135.8974359 , 2020.0 , 2047.0 , 7.399 , 0.0 , 0.0 , 0.0 , 0.0 , 

107.0 , 4134.35897436 , 4133.84615385 , 4164.1025641 , 4136.41025641 , 4134.87179487 , 4135.8974359 , 4129.74358974 , 4140.0 , 4140.0 , 4145.64102564 , 4163.07692308 , 4548.71794872 , 4134.35897436 , 4138.97435897 , 2019.0 , 2047.0 , 7.407 , 0.0 , 0.0 , 0.0 , 0.0 , 

108.0 , 4133.33333333 , 4134.87179487 , 4189.74358974 , 4135.8974359 , 4134.87179487 , 4135.38461538 , 4130.25641026 , 4141.02564103 , 4138.46153846 , 4146.15384615 , 4166.15384615 , 4550.25641026 , 4135.38461538 , 4141.53846154 , 2020.0 , 2046.0 , 7.414 , 0.0 , 0.0 , 0.0 , 0.0 , 

109.0 , 4134.87179487 , 4136.41025641 , 4216.41025641 , 4135.8974359 , 4134.87179487 , 4135.38461538 , 4131.28205128 , 4142.56410256 , 4141.02564103 , 4147.17948718 , 4170.76923077 , 4551.28205128 , 4139.48717949 , 4141.53846154 , 2018.0 , 2051.0 , 7.422 , 0.0 , 0.0 , 0.0 , 0.0 , 

110.0 , 4134.87179487 , 4135.38461538 , 4239.48717949 , 4135.8974359 , 4134.87179487 , 4135.38461538 , 4130.76923077 , 4143.58974359 , 4144.61538462 , 4146.66666667 , 4172.30769231 , 4552.82051282 , 4141.02564103 , 4141.53846154 , 2019.0 , 2050.0 , 7.43 , 0.0 , 0.0 , 0.0 , 0.0 , 

111.0 , 4133.33333333 , 4134.35897436 , 4265.12820513 , 4135.8974359 , 4134.87179487 , 4135.8974359 , 4129.74358974 , 4144.1025641 , 4145.64102564 , 4148.71794872 , 4172.82051282 , 4557.94871795 , 4141.02564103 , 4141.53846154 , 2017.0 , 2052.0 , 7.438 , 0.0 , 0.0 , 0.0 , 0.0 , 

112.0 , 4133.84615385 , 4135.38461538 , 4305.64102564 , 4135.8974359 , 4134.87179487 , 4135.38461538 , 4130.76923077 , 4148.20512821 , 4146.66666667 , 4155.38461538 , 4175.38461538 , 4563.07692308 , 4144.1025641 , 4143.58974359 , 2015.0 , 2052.0 , 7.446 , 0.0 , 0.0 , 0.0 , 0.0 , 

113.0 , 4135.8974359 , 4134.35897436 , 4325.12820513 , 4135.8974359 , 4134.87179487 , 4134.87179487 , 4132.30769231 , 4149.23076923 , 4146.66666667 , 4151.79487179 , 4174.35897436 , 4563.58974359 , 4145.64102564 , 4142.56410256 , 2015.0 , 2052.0 , 7.454 , 0.0 , 0.0 , 0.0 , 0.0 , 

114.0 , 4137.94871795 , 4136.92307692 , 4343.07692308 , 4135.8974359 , 4134.87179487 , 4136.41025641 , 4131.28205128 , 4149.23076923 , 4148.20512821 , 4148.71794872 , 4173.33333333 , 4566.66666667 , 4146.66666667 , 4138.97435897 , 2014.0 , 2049.0 , 7.463 , 0.0 , 0.0 , 0.0 , 0.0 , 

115.0 , 4134.87179487 , 4136.41025641 , 4358.46153846 , 4135.8974359 , 4134.87179487 , 4134.87179487 , 4128.71794872 , 4148.20512821 , 4148.20512821 , 4154.87179487 , 4174.35897436 , 4566.15384615 , 4144.1025641 , 4140.0 , 2010.0 , 2043.0 , 7.469 , 0.0 , 0.0 , 0.0 , 0.0 , 

116.0 , 4132.82051282 , 4130.25641026 , 4312.30769231 , 4136.41025641 , 4134.87179487 , 4131.79487179 , 4131.79487179 , 4140.0 , 4141.02564103 , 4149.74358974 , 4170.25641026 , 4562.05128205 , 4134.87179487 , 4138.46153846 , 2011.0 , 2043.0 , 7.477 , 0.0 , 0.0 , 0.0 , 0.0 , 

117.0 , 4133.84615385 , 4130.25641026 , 4275.38461538 , 4135.38461538 , 4134.87179487 , 4132.30769231 , 4130.76923077 , 4135.8974359 , 4133.84615385 , 4137.94871795 , 4168.20512821 , 4567.69230769 , 4134.35897436 , 4136.92307692 , 2010.0 , 2042.0 , 7.485 , 0.0 , 0.0 , 0.0 , 0.0 , 

118.0 , 4131.28205128 , 4130.76923077 , 4269.74358974 , 4134.87179487 , 4134.87179487 , 4135.8974359 , 4123.58974359 , 4135.38461538 , 4135.38461538 , 4142.05128205 , 4169.23076923 , 4571.79487179 , 4137.94871795 , 4136.41025641 , 2010.0 , 2040.0 , 7.493 , 0.0 , 0.0 , 0.0 , 0.0 , 

119.0 , 4129.74358974 , 4127.69230769 , 4272.30769231 , 4135.38461538 , 4134.87179487 , 4135.8974359 , 4127.17948718 , 4137.43589744 , 4137.94871795 , 4148.71794872 , 4168.71794872 , 4571.79487179 , 4135.8974359 , 4138.97435897 , 2011.0 , 2038.0 , 7.501 , 0.0 , 0.0 , 0.0 , 0.0 , 

120.0 , 4133.33333333 , 4130.76923077 , 4252.82051282 , 4135.38461538 , 4134.87179487 , 4132.30769231 , 4135.38461538 , 4135.38461538 , 4134.87179487 , 4138.46153846 , 4165.64102564 , 4571.79487179 , 4132.30769231 , 4138.97435897 , 2010.0 , 2036.0 , 7.509 , 0.0 , 0.0 , 0.0 , 0.0 , 

121.0 , 4136.41025641 , 4135.8974359 , 4253.84615385 , 4134.87179487 , 4134.87179487 , 4131.79487179 , 4130.76923077 , 4135.8974359 , 4136.92307692 , 4135.38461538 , 4168.20512821 , 4574.35897436 , 4136.92307692 , 4138.97435897 , 2010.0 , 2031.0 , 7.517 , 0.0 , 0.0 , 0.0 , 0.0 , 

122.0 , 4134.35897436 , 4132.30769231 , 4245.64102564 , 4135.8974359 , 4134.87179487 , 4134.35897436 , 4126.66666667 , 4134.35897436 , 4135.8974359 , 4137.94871795 , 4169.23076923 , 4574.87179487 , 4136.92307692 , 4137.94871795 , 2011.0 , 2031.0 , 7.525 , 0.0 , 0.0 , 0.0 , 0.0 , 

123.0 , 4135.8974359 , 4134.87179487 , 4242.56410256 , 4136.41025641 , 4134.87179487 , 4135.38461538 , 4129.74358974 , 4135.38461538 , 4134.87179487 , 4137.94871795 , 4169.23076923 , 4578.46153846 , 4136.92307692 , 4136.41025641 , 2012.0 , 2029.0 , 7.533 , 0.0 , 0.0 , 0.0 , 0.0 , 

124.0 , 4134.87179487 , 4135.38461538 , 4253.33333333 , 4135.8974359 , 4134.87179487 , 4135.38461538 , 4129.23076923 , 4135.8974359 , 4135.38461538 , 4136.41025641 , 4169.23076923 , 4579.48717949 , 4137.43589744 , 4135.38461538 , 2012.0 , 2029.0 , 7.54 , 0.0 , 0.0 , 0.0 , 0.0 , 

125.0 , 4132.30769231 , 4129.74358974 , 4252.82051282 , 4136.41025641 , 4134.87179487 , 4132.82051282 , 4127.69230769 , 4133.84615385 , 4136.41025641 , 4136.92307692 , 4169.23076923 , 4580.0 , 4136.41025641 , 4136.92307692 , 2014.0 , 2031.0 , 7.548 , 0.0 , 0.0 , 0.0 , 0.0 , 

126.0 , 4132.82051282 , 4131.79487179 , 4252.30769231 , 4136.41025641 , 4134.87179487 , 4133.33333333 , 4126.66666667 , 4135.8974359 , 4137.43589744 , 4137.94871795 , 4168.71794872 , 4587.17948718 , 4135.8974359 , 4139.48717949 , 2015.0 , 2032.0 , 7.556 , 0.0 , 0.0 , 0.0 , 0.0 , 

127.0 , 4132.82051282 , 4135.8974359 , 4254.35897436 , 4134.87179487 , 4134.87179487 , 4136.41025641 , 4125.12820513 , 4136.41025641 , 4135.8974359 , 4136.92307692 , 4168.71794872 , 4585.64102564 , 4135.38461538 , 4138.97435897 , 2018.0 , 2031.0 , 7.564 , 0.0 , 0.0 , 0.0 , 0.0 , 

128.0 , 4131.79487179 , 4132.82051282 , 4265.64102564 , 4135.38461538 , 4134.87179487 , 4131.28205128 , 4125.12820513 , 4136.41025641 , 4135.38461538 , 4137.94871795 , 4169.23076923 , 4584.61538462 , 4136.41025641 , 4137.43589744 , 2023.0 , 2033.0 , 7.573 , 0.0 , 0.0 , 0.0 , 0.0 , 

0.0 , 4133.84615385 , 4131.28205128 , 4276.92307692 , 4136.92307692 , 4134.87179487 , 4124.1025641 , 4123.58974359 , 4135.38461538 , 4135.38461538 , 4141.02564103 , 4167.17948718 , 4591.79487179 , 4135.8974359 , 4137.43589744 , 2025.0 , 2034.0 , 7.58 , 0.0 , 0.0 , 0.0 , 0.0 , 

1.0 , 4132.82051282 , 4130.76923077 , 4272.82051282 , 4134.87179487 , 4134.87179487 , 4129.74358974 , 4122.05128205 , 4135.38461538 , 4136.41025641 , 4139.48717949 , 4166.66666667 , 4592.82051282 , 4135.8974359 , 4137.94871795 , 2028.0 , 2032.0 , 7.588 , 0.0 , 0.0 , 0.0 , 0.0 , 

2.0 , 4129.74358974 , 4127.69230769 , 4267.69230769 , 4133.84615385 , 4134.87179487 , 4137.94871795 , 4125.12820513 , 4135.8974359 , 4136.41025641 , 4138.46153846 , 4168.71794872 , 4590.25641026 , 4135.8974359 , 4137.94871795 , 2029.0 , 2032.0 , 7.596 , 0.0 , 0.0 , 0.0 , 0.0 , 

3.0 , 4129.74358974 , 4127.69230769 , 4266.15384615 , 4134.87179487 , 4134.87179487 , 4135.38461538 , 4126.66666667 , 4135.8974359 , 4134.87179487 , 4146.66666667 , 4169.74358974 , 4594.87179487 , 4135.8974359 , 4136.92307692 , 2031.0 , 2029.0 , 7.604 , 0.0 , 0.0 , 0.0 , 0.0 , 

4.0 , 4130.25641026 , 4128.20512821 , 4267.69230769 , 4135.38461538 , 4134.87179487 , 4130.25641026 , 4124.61538462 , 4135.8974359 , 4134.35897436 , 4153.33333333 , 4168.71794872 , 4597.43589744 , 4135.38461538 , 4135.38461538 , 2031.0 , 2028.0 , 7.612 , 0.0 , 0.0 , 0.0 , 0.0 , 

5.0 , 4129.74358974 , 4127.69230769 , 4261.53846154 , 4135.38461538 , 4134.87179487 , 4129.23076923 , 4129.23076923 , 4135.8974359 , 4134.87179487 , 4144.61538462 , 4168.71794872 , 4599.48717949 , 4135.38461538 , 4135.8974359 , 2032.0 , 2030.0 , 7.62 , 0.0 , 0.0 , 0.0 , 0.0 , 

6.0 , 4130.76923077 , 4131.79487179 , 4259.48717949 , 4136.41025641 , 4134.87179487 , 4130.25641026 , 4135.38461538 , 4135.8974359 , 4134.87179487 , 4135.8974359 , 4168.20512821 , 4603.58974359 , 4135.38461538 , 4137.43589744 , 2035.0 , 2032.0 , 7.627 , 0.0 , 0.0 , 0.0 , 0.0 , 

7.0 , 4129.23076923 , 4134.87179487 , 4256.92307692 , 4135.38461538 , 4134.87179487 , 4131.28205128 , 4131.79487179 , 4135.8974359 , 4134.87179487 , 4136.92307692 , 4167.69230769 , 4605.12820513 , 4135.38461538 , 4135.38461538 , 2036.0 , 2031.0 , 7.636 , 0.0 , 0.0 , 0.0 , 0.0 , 

8.0 , 4128.20512821 , 4131.28205128 , 4250.25641026 , 4135.8974359 , 4134.87179487 , 4129.23076923 , 4124.1025641 , 4135.8974359 , 4134.87179487 , 4137.94871795 , 4167.17948718 , 4605.12820513 , 4135.38461538 , 4134.35897436 , 2036.0 , 2028.0 , 7.643 , 0.0 , 0.0 , 0.0 , 0.0 , 

9.0 , 4131.79487179 , 4129.23076923 , 4238.46153846 , 4137.43589744 , 4134.87179487 , 4131.79487179 , 4127.17948718 , 4135.8974359 , 4134.87179487 , 4137.43589744 , 4167.17948718 , 4605.64102564 , 4135.38461538 , 4135.8974359 , 2038.0 , 2029.0 , 7.651 , 0.0 , 0.0 , 0.0 , 0.0 , 

10.0 , 4135.8974359 , 4129.23076923 , 4235.38461538 , 4136.92307692 , 4134.87179487 , 4136.41025641 , 4135.38461538 , 4135.8974359 , 4134.87179487 , 4137.94871795 , 4168.71794872 , 4605.64102564 , 4135.38461538 , 4138.46153846 , 2039.0 , 2031.0 , 7.659 , 0.0 , 0.0 , 0.0 , 0.0 , 

11.0 , 4134.87179487 , 4128.20512821 , 4238.97435897 , 4135.38461538 , 4134.87179487 , 4134.87179487 , 4132.30769231 , 4135.8974359 , 4134.87179487 , 4136.92307692 , 4169.23076923 , 4608.71794872 , 4135.38461538 , 4140.0 , 2040.0 , 2032.0 , 7.668 , 0.0 , 0.0 , 0.0 , 0.0 , 

11.0 , 4134.87179487 , 4128.20512821 , 4238.97435897 , 4135.38461538 , 4134.87179487 , 4134.87179487 , 4132.30769231 , 4135.8974359 , 4134.87179487 , 4136.92307692 , 4169.23076923 , 4608.71794872 , 4135.38461538 , 4140.0 , 2040.0 , 2032.0 , 7.676 , 0.0 , 0.0 , 0.0 , 0.0 , 

12.0 , 4131.79487179 , 4128.71794872 , 4235.38461538 , 4134.87179487 , 4134.87179487 , 4134.35897436 , 4123.58974359 , 4136.92307692 , 4134.87179487 , 4136.41025641 , 4168.20512821 , 4612.30769231 , 4135.38461538 , 4139.48717949 , 2040.0 , 2034.0 , 7.682 , 0.0 , 0.0 , 0.0 , 0.0 , 

13.0 , 4130.76923077 , 4131.28205128 , 4227.17948718 , 4134.87179487 , 4134.87179487 , 4135.38461538 , 4123.07692308 , 4136.92307692 , 4134.87179487 , 4137.43589744 , 4169.23076923 , 4613.84615385 , 4135.38461538 , 4136.41025641 , 2038.0 , 2035.0 , 7.691 , 0.0 , 0.0 , 0.0 , 0.0 , 

14.0 , 4133.84615385 , 4129.23076923 , 4222.56410256 , 4135.38461538 , 4134.87179487 , 4134.87179487 , 4126.15384615 , 4135.8974359 , 4134.87179487 , 4137.94871795 , 4170.25641026 , 4617.94871795 , 4135.38461538 , 4137.43589744 , 2037.0 , 2035.0 , 7.698 , 0.0 , 0.0 , 0.0 , 0.0 , 

15.0 , 4133.84615385 , 4127.17948718 , 4223.58974359 , 4136.41025641 , 4134.87179487 , 4133.84615385 , 4125.12820513 , 4135.8974359 , 4134.87179487 , 4135.8974359 , 4168.20512821 , 4621.02564103 , 4135.38461538 , 4141.02564103 , 2038.0 , 2032.0 , 7.706 , 0.0 , 0.0 , 0.0 , 0.0 , 

16.0 , 4132.30769231 , 4129.23076923 , 4221.02564103 , 4136.92307692 , 4134.87179487 , 4134.35897436 , 4122.05128205 , 4135.38461538 , 4134.87179487 , 4135.8974359 , 4167.69230769 , 4622.05128205 , 4135.38461538 , 4140.0 , 2038.0 , 2033.0 , 7.714 , 0.0 , 0.0 , 0.0 , 0.0 , 

17.0 , 4134.87179487 , 4132.30769231 , 4220.0 , 4135.8974359 , 4134.87179487 , 4134.35897436 , 4123.58974359 , 4135.8974359 , 4134.87179487 , 4136.41025641 , 4169.23076923 , 4623.58974359 , 4135.38461538 , 4136.92307692 , 2040.0 , 2032.0 , 7.722 , 0.0 , 0.0 , 0.0 , 0.0 , 

18.0 , 4133.33333333 , 4133.33333333 , 4218.97435897 , 4134.35897436 , 4134.87179487 , 4134.35897436 , 4131.28205128 , 4135.8974359 , 4134.87179487 , 4135.8974359 , 4169.23076923 , 4624.1025641 , 4135.38461538 , 4137.94871795 , 2040.0 , 2033.0 , 7.73 , 0.0 , 0.0 , 0.0 , 0.0 , 

19.0 , 4129.74358974 , 4129.74358974 , 4215.8974359 , 4134.35897436 , 4134.87179487 , 4134.35897436 , 4135.38461538 , 4134.87179487 , 4134.87179487 , 4135.8974359 , 4168.71794872 , 4623.07692308 , 4135.38461538 , 4140.0 , 2041.0 , 2034.0 , 7.738 , 0.0 , 0.0 , 0.0 , 0.0 , 

20.0 , 4130.76923077 , 4129.74358974 , 4212.82051282 , 4137.94871795 , 4134.87179487 , 4134.35897436 , 4132.82051282 , 4136.92307692 , 4134.87179487 , 4135.8974359 , 4169.23076923 , 4627.17948718 , 4135.38461538 , 4139.48717949 , 2042.0 , 2032.0 , 7.745 , 0.0 , 0.0 , 0.0 , 0.0 , 

21.0 , 4132.30769231 , 4136.41025641 , 4213.84615385 , 4137.94871795 , 4134.87179487 , 4134.35897436 , 4132.30769231 , 4140.51282051 , 4134.87179487 , 4135.8974359 , 4168.71794872 , 4630.25641026 , 4135.38461538 , 4137.94871795 , 2044.0 , 2032.0 , 7.753 , 0.0 , 0.0 , 0.0 , 0.0 , 

22.0 , 4130.76923077 , 4138.46153846 , 4212.30769231 , 4135.8974359 , 4134.87179487 , 4134.35897436 , 4134.35897436 , 4137.94871795 , 4134.87179487 , 4135.8974359 , 4168.71794872 , 4631.79487179 , 4135.38461538 , 4137.43589744 , 2046.0 , 2031.0 , 7.761 , 0.0 , 0.0 , 0.0 , 0.0 , 

23.0 , 4129.23076923 , 4134.87179487 , 4211.28205128 , 4137.43589744 , 4134.87179487 , 4134.35897436 , 4131.28205128 , 4133.84615385 , 4134.87179487 , 4135.8974359 , 4169.23076923 , 4632.30769231 , 4135.38461538 , 4137.94871795 , 2049.0 , 2029.0 , 7.769 , 0.0 , 0.0 , 0.0 , 0.0 , 

24.0 , 4130.76923077 , 4132.82051282 , 4211.28205128 , 4138.46153846 , 4134.87179487 , 4134.35897436 , 4130.76923077 , 4134.35897436 , 4134.87179487 , 4135.8974359 , 4169.74358974 , 4634.35897436 , 4135.38461538 , 4138.97435897 , 2052.0 , 2026.0 , 7.777 , 0.0 , 0.0 , 0.0 , 0.0 , 

25.0 , 4134.35897436 , 4133.84615385 , 4210.25641026 , 4137.43589744 , 4134.87179487 , 4134.35897436 , 4135.8974359 , 4135.38461538 , 4134.87179487 , 4135.8974359 , 4170.25641026 , 4637.94871795 , 4135.38461538 , 4137.43589744 , 2055.0 , 2026.0 , 7.788 , 0.0 , 0.0 , 0.0 , 0.0 , 

26.0 , 4136.41025641 , 4134.35897436 , 4206.66666667 , 4136.41025641 , 4134.87179487 , 4134.35897436 , 4135.38461538 , 4134.87179487 , 4134.87179487 , 4135.38461538 , 4170.25641026 , 4641.02564103 , 4135.38461538 , 4136.92307692 , 2058.0 , 2024.0 , 7.793 , 0.0 , 0.0 , 0.0 , 0.0 , 

27.0 , 4135.8974359 , 4136.41025641 , 4206.66666667 , 4136.92307692 , 4134.87179487 , 4134.35897436 , 4133.33333333 , 4135.38461538 , 4134.87179487 , 4136.41025641 , 4168.71794872 , 4640.51282051 , 4135.38461538 , 4138.97435897 , 2060.0 , 2025.0 , 7.801 , 0.0 , 0.0 , 0.0 , 0.0 , 

28.0 , 4134.87179487 , 4136.41025641 , 4207.17948718 , 4137.43589744 , 4134.87179487 , 4134.35897436 , 4134.35897436 , 4136.41025641 , 4134.87179487 , 4136.92307692 , 4169.23076923 , 4641.53846154 , 4135.38461538 , 4139.48717949 , 2062.0 , 2026.0 , 7.809 , 0.0 , 0.0 , 0.0 , 0.0 , 

29.0 , 4135.8974359 , 4136.41025641 , 4203.07692308 , 4137.94871795 , 4134.87179487 , 4134.87179487 , 4134.87179487 , 4135.8974359 , 4134.87179487 , 4135.8974359 , 4169.23076923 , 4645.64102564 , 4135.38461538 , 4136.92307692 , 2064.0 , 2027.0 , 7.816 , 0.0 , 0.0 , 0.0 , 0.0 , 

30.0 , 4133.84615385 , 4136.92307692 , 4199.48717949 , 4137.94871795 , 4134.87179487 , 4134.35897436 , 4131.79487179 , 4135.8974359 , 4134.87179487 , 4143.58974359 , 4167.69230769 , 4646.66666667 , 4135.38461538 , 4136.41025641 , 2064.0 , 2028.0 , 7.825 , 0.0 , 0.0 , 0.0 , 0.0 , 

31.0 , 4135.38461538 , 4133.84615385 , 4198.46153846 , 4137.94871795 , 4134.87179487 , 4134.35897436 , 4132.82051282 , 4135.8974359 , 4134.87179487 , 4153.33333333 , 4168.20512821 , 4644.61538462 , 4135.38461538 , 4140.0 , 2066.0 , 2028.0 , 7.844 , 0.0 , 0.0 , 0.0 , 0.0 , 

32.0 , 4137.94871795 , 4133.33333333 , 4203.07692308 , 4136.92307692 , 4134.87179487 , 4134.87179487 , 4135.38461538 , 4135.8974359 , 4134.87179487 , 4147.69230769 , 4169.74358974 , 4645.64102564 , 4135.38461538 , 4139.48717949 , 2068.0 , 2028.0 , 7.848 , 0.0 , 0.0 , 0.0 , 0.0 , 

33.0 , 4137.43589744 , 4132.30769231 , 4207.17948718 , 4135.38461538 , 4134.87179487 , 4133.33333333 , 4129.23076923 , 4136.41025641 , 4134.87179487 , 4137.94871795 , 4169.74358974 , 4648.71794872 , 4135.38461538 , 4138.46153846 , 2071.0 , 2024.0 , 7.857 , 0.0 , 0.0 , 0.0 , 0.0 , 

34.0 , 4136.41025641 , 4130.76923077 , 4209.23076923 , 4136.41025641 , 4134.87179487 , 4130.25641026 , 4125.12820513 , 4135.8974359 , 4134.87179487 , 4137.94871795 , 4169.23076923 , 4649.74358974 , 4135.38461538 , 4138.97435897 , 2071.0 , 2024.0 , 7.864 , 0.0 , 0.0 , 0.0 , 0.0 , 

35.0 , 4135.38461538 , 4130.76923077 , 4208.71794872 , 4138.97435897 , 4134.87179487 , 4129.23076923 , 4131.28205128 , 4134.87179487 , 4134.87179487 , 4138.46153846 , 4169.74358974 , 4650.76923077 , 4135.38461538 , 4138.97435897 , 2072.0 , 2024.0 , 7.872 , 0.0 , 0.0 , 0.0 , 0.0 , 

36.0 , 4134.35897436 , 4130.76923077 , 4210.76923077 , 4137.94871795 , 4134.87179487 , 4130.76923077 , 4132.82051282 , 4135.8974359 , 4134.87179487 , 4137.43589744 , 4170.25641026 , 4652.82051282 , 4135.38461538 , 4137.94871795 , 2073.0 , 2026.0 , 7.879 , 0.0 , 0.0 , 0.0 , 0.0 , 

37.0 , 4134.35897436 , 4128.71794872 , 4211.28205128 , 4136.92307692 , 4134.87179487 , 4130.76923077 , 4128.20512821 , 4136.92307692 , 4134.87179487 , 4138.97435897 , 4170.76923077 , 4654.35897436 , 4135.38461538 , 4139.48717949 , 2073.0 , 2026.0 , 7.887 , 0.0 , 0.0 , 0.0 , 0.0 , 

38.0 , 4137.43589744 , 4129.23076923 , 4208.71794872 , 4136.92307692 , 4134.87179487 , 4130.25641026 , 4128.20512821 , 4135.38461538 , 4134.87179487 , 4135.38461538 , 4169.23076923 , 4652.30769231 , 4135.38461538 , 4139.48717949 , 2074.0 , 2027.0 , 7.895 , 0.0 , 0.0 , 0.0 , 0.0 , 

39.0 , 4134.35897436 , 4130.25641026 , 4205.12820513 , 4136.92307692 , 4134.87179487 , 4133.33333333 , 4130.25641026 , 4134.35897436 , 4134.87179487 , 4138.97435897 , 4168.20512821 , 4654.87179487 , 4135.38461538 , 4137.43589744 , 2075.0 , 2030.0 , 7.903 , 0.0 , 0.0 , 0.0 , 0.0 , 

40.0 , 4128.71794872 , 4129.23076923 , 4206.15384615 , 4137.43589744 , 4134.87179487 , 4135.38461538 , 4130.76923077 , 4135.8974359 , 4134.87179487 , 4150.25641026 , 4170.25641026 , 4660.51282051 , 4135.38461538 , 4137.43589744 , 2076.0 , 2033.0 , 7.911 , 0.0 , 0.0 , 0.0 , 0.0 , 

41.0 , 4130.76923077 , 4130.25641026 , 4207.69230769 , 4138.46153846 , 4134.87179487 , 4134.35897436 , 4125.64102564 , 4136.41025641 , 4134.87179487 , 4146.15384615 , 4171.28205128 , 4662.05128205 , 4135.38461538 , 4139.48717949 , 2077.0 , 2035.0 , 7.92 , 0.0 , 0.0 , 0.0 , 0.0 , 

42.0 , 4135.38461538 , 4127.69230769 , 4204.61538462 , 4137.43589744 , 4134.87179487 , 4133.84615385 , 4121.53846154 , 4135.8974359 , 4134.87179487 , 4136.41025641 , 4169.74358974 , 4659.48717949 , 4135.38461538 , 4138.97435897 , 2077.0 , 2036.0 , 7.928 , 0.0 , 0.0 , 0.0 , 0.0 , 

43.0 , 4134.35897436 , 4126.66666667 , 4200.51282051 , 4135.8974359 , 4134.87179487 , 4135.8974359 , 4129.23076923 , 4136.41025641 , 4134.87179487 , 4137.94871795 , 4168.71794872 , 4661.02564103 , 4135.38461538 , 4137.94871795 , 2079.0 , 2036.0 , 7.935 , 0.0 , 0.0 , 0.0 , 0.0 , 

44.0 , 4132.82051282 , 4135.8974359 , 4201.53846154 , 4136.92307692 , 4134.87179487 , 4136.41025641 , 4133.33333333 , 4135.8974359 , 4134.87179487 , 4142.56410256 , 4168.71794872 , 4663.07692308 , 4135.38461538 , 4138.97435897 , 2081.0 , 2034.0 , 7.942 , 0.0 , 0.0 , 0.0 , 0.0 , 

45.0 , 4136.41025641 , 4138.46153846 , 4204.1025641 , 4137.94871795 , 4134.87179487 , 4135.38461538 , 4128.71794872 , 4135.38461538 , 4134.87179487 , 4142.05128205 , 4169.74358974 , 4664.1025641 , 4135.38461538 , 4138.46153846 , 2078.0 , 2032.0 , 7.95 , 0.0 , 0.0 , 0.0 , 0.0 , 

46.0 , 4136.41025641 , 4134.35897436 , 4205.64102564 , 4137.94871795 , 4134.87179487 , 4135.38461538 , 4133.33333333 , 4135.8974359 , 4134.87179487 , 4141.02564103 , 4169.23076923 , 4667.69230769 , 4135.38461538 , 4138.46153846 , 2077.0 , 2032.0 , 7.958 , 0.0 , 0.0 , 0.0 , 0.0 , 

47.0 , 4133.84615385 , 4134.35897436 , 4209.23076923 , 4137.94871795 , 4134.87179487 , 4135.38461538 , 4136.41025641 , 4135.8974359 , 4134.87179487 , 4138.97435897 , 4168.71794872 , 4669.74358974 , 4135.38461538 , 4138.97435897 , 2081.0 , 2029.0 , 7.966 , 0.0 , 0.0 , 0.0 , 0.0 , 

48.0 , 4135.8974359 , 4132.30769231 , 4208.20512821 , 4137.43589744 , 4134.87179487 , 4134.35897436 , 4128.20512821 , 4136.41025641 , 4134.87179487 , 4136.41025641 , 4169.23076923 , 4669.23076923 , 4135.38461538 , 4138.46153846 , 2079.0 , 2029.0 , 7.974 , 0.0 , 0.0 , 0.0 , 0.0 , 

49.0 , 4136.92307692 , 4128.20512821 , 4209.23076923 , 4136.92307692 , 4134.87179487 , 4133.84615385 , 4128.20512821 , 4135.38461538 , 4134.87179487 , 4137.94871795 , 4169.23076923 , 4668.71794872 , 4135.38461538 , 4136.92307692 , 2079.0 , 2030.0 , 7.982 , 0.0 , 0.0 , 0.0 , 0.0 , 

50.0 , 4136.92307692 , 4130.25641026 , 4209.74358974 , 4136.92307692 , 4134.87179487 , 4134.35897436 , 4136.92307692 , 4134.87179487 , 4134.87179487 , 4140.51282051 , 4169.74358974 , 4670.76923077 , 4135.38461538 , 4138.46153846 , 2076.0 , 2029.0 , 7.99 , 0.0 , 0.0 , 0.0 , 0.0 , 

51.0 , 4135.38461538 , 4131.28205128 , 4208.71794872 , 4136.92307692 , 4134.87179487 , 4134.35897436 , 4135.8974359 , 4135.8974359 , 4134.87179487 , 4139.48717949 , 4170.25641026 , 4673.33333333 , 4135.38461538 , 4140.51282051 , 2076.0 , 2028.0 , 7.998 , 0.0 , 0.0 , 0.0 , 0.0 , 

52.0 , 4135.8974359 , 4132.30769231 , 4204.1025641 , 4135.8974359 , 4134.87179487 , 4133.84615385 , 4128.20512821 , 4136.41025641 , 4134.87179487 , 4138.46153846 , 4171.28205128 , 4674.87179487 , 4135.38461538 , 4140.0 , 2074.0 , 2030.0 , 8.006 , 0.0 , 0.0 , 0.0 , 0.0 , 

53.0 , 4135.8974359 , 4135.38461538 , 4206.66666667 , 4136.41025641 , 4134.87179487 , 4134.35897436 , 4124.1025641 , 4135.38461538 , 4134.87179487 , 4139.48717949 , 4170.25641026 , 4673.84615385 , 4135.38461538 , 4138.46153846 , 2075.0 , 2031.0 , 8.013 , 0.0 , 0.0 , 0.0 , 0.0 , 

54.0 , 4135.38461538 , 4133.33333333 , 4206.15384615 , 4136.92307692 , 4134.87179487 , 4135.38461538 , 4123.58974359 , 4136.92307692 , 4134.87179487 , 4139.48717949 , 4169.74358974 , 4676.41025641 , 4135.38461538 , 4138.46153846 , 2072.0 , 2035.0 , 8.021 , 0.0 , 0.0 , 0.0 , 0.0 , 

55.0 , 4136.41025641 , 4132.30769231 , 4202.56410256 , 4136.92307692 , 4134.87179487 , 4134.87179487 , 4124.61538462 , 4137.94871795 , 4134.87179487 , 4138.97435897 , 4168.71794872 , 4681.53846154 , 4135.38461538 , 4140.51282051 , 2072.0 , 2034.0 , 8.029 , 0.0 , 0.0 , 0.0 , 0.0 , 

56.0 , 4135.38461538 , 4134.35897436 , 4199.48717949 , 4136.92307692 , 4134.87179487 , 4133.84615385 , 4131.79487179 , 4136.41025641 , 4134.87179487 , 4140.0 , 4169.23076923 , 4682.56410256 , 4135.38461538 , 4140.51282051 , 2070.0 , 2035.0 , 8.037 , 0.0 , 0.0 , 0.0 , 0.0 , 

57.0 , 4135.38461538 , 4133.33333333 , 4197.43589744 , 4135.8974359 , 4134.87179487 , 4135.8974359 , 4136.41025641 , 4135.8974359 , 4134.87179487 , 4137.43589744 , 4171.79487179 , 4681.53846154 , 4135.38461538 , 4136.92307692 , 2070.0 , 2036.0 , 8.045 , 0.0 , 0.0 , 0.0 , 0.0 , 

58.0 , 4135.38461538 , 4134.87179487 , 4197.43589744 , 4136.41025641 , 4134.87179487 , 4135.38461538 , 4134.35897436 , 4135.38461538 , 4134.87179487 , 4137.43589744 , 4171.79487179 , 4683.07692308 , 4135.38461538 , 4137.94871795 , 2069.0 , 2035.0 , 8.053 , 0.0 , 0.0 , 0.0 , 0.0 , 

59.0 , 4135.8974359 , 4135.8974359 , 4196.41025641 , 4137.43589744 , 4134.87179487 , 4132.82051282 , 4134.87179487 , 4134.87179487 , 4134.87179487 , 4142.56410256 , 4169.74358974 , 4683.07692308 , 4135.38461538 , 4140.0 , 2065.0 , 2035.0 , 8.061 , 0.0 , 0.0 , 0.0 , 0.0 , 

60.0 , 4137.43589744 , 4132.82051282 , 4193.33333333 , 4137.43589744 , 4134.87179487 , 4131.79487179 , 4136.92307692 , 4135.38461538 , 4134.87179487 , 4141.53846154 , 4168.71794872 , 4684.1025641 , 4135.38461538 , 4138.46153846 , 2064.0 , 2034.0 , 8.069 , 0.0 , 0.0 , 0.0 , 0.0 , 

61.0 , 4135.38461538 , 4135.8974359 , 4193.84615385 , 4137.43589744 , 4134.87179487 , 4134.35897436 , 4132.30769231 , 4135.8974359 , 4134.87179487 , 4139.48717949 , 4169.74358974 , 4687.69230769 , 4135.38461538 , 4137.43589744 , 2061.0 , 2032.0 , 8.077 , 0.0 , 0.0 , 0.0 , 0.0 , 

62.0 , 4132.30769231 , 4137.43589744 , 4196.92307692 , 4137.43589744 , 4134.87179487 , 4135.8974359 , 4127.17948718 , 4134.87179487 , 4134.87179487 , 4142.05128205 , 4170.25641026 , 4689.23076923 , 4135.38461538 , 4138.97435897 , 2059.0 , 2032.0 , 8.084 , 0.0 , 0.0 , 0.0 , 0.0 , 

63.0 , 4135.38461538 , 4133.33333333 , 4192.82051282 , 4137.94871795 , 4134.87179487 , 4132.82051282 , 4129.74358974 , 4134.87179487 , 4134.87179487 , 4140.51282051 , 4171.28205128 , 4689.74358974 , 4135.38461538 , 4137.94871795 , 2056.0 , 2033.0 , 8.092 , 0.0 , 0.0 , 0.0 , 0.0 , 

64.0 , 4137.94871795 , 4133.33333333 , 4191.28205128 , 4138.46153846 , 4134.87179487 , 4131.28205128 , 4133.33333333 , 4135.38461538 , 4134.87179487 , 4136.41025641 , 4170.25641026 , 4692.30769231 , 4135.38461538 , 4136.92307692 , 2055.0 , 2035.0 , 8.1 , 0.0 , 0.0 , 0.0 , 0.0 , 

65.0 , 4135.38461538 , 4137.43589744 , 4194.87179487 , 4139.48717949 , 4134.87179487 , 4133.84615385 , 4129.74358974 , 4135.8974359 , 4135.38461538 , 4137.94871795 , 4168.71794872 , 4694.87179487 , 4135.38461538 , 4138.46153846 , 2054.0 , 2035.0 , 8.108 , 0.0 , 0.0 , 0.0 , 0.0 , 

66.0 , 4135.8974359 , 4135.38461538 , 4196.92307692 , 4138.97435897 , 4134.87179487 , 4133.84615385 , 4127.17948718 , 4135.8974359 , 4134.35897436 , 4138.46153846 , 4169.74358974 , 4694.35897436 , 4135.38461538 , 4138.97435897 , 2051.0 , 2038.0 , 8.118 , 0.0 , 0.0 , 0.0 , 0.0 , 

67.0 , 4137.43589744 , 4131.79487179 , 4190.76923077 , 4138.46153846 , 4134.87179487 , 4131.28205128 , 4134.87179487 , 4135.8974359 , 4134.87179487 , 4138.97435897 , 4170.76923077 , 4694.87179487 , 4135.38461538 , 4138.97435897 , 2051.0 , 2039.0 , 8.125 , 0.0 , 0.0 , 0.0 , 0.0 , 

68.0 , 4136.41025641 , 4132.82051282 , 4191.28205128 , 4139.48717949 , 4134.87179487 , 4129.74358974 , 4136.41025641 , 4136.92307692 , 4137.43589744 , 4140.51282051 , 4169.74358974 , 4694.35897436 , 4135.38461538 , 4138.97435897 , 2050.0 , 2038.0 , 8.132 , 0.0 , 0.0 , 0.0 , 0.0 , 

69.0 , 4135.38461538 , 4132.82051282 , 4191.79487179 , 4139.48717949 , 4134.87179487 , 4130.76923077 , 4129.23076923 , 4137.43589744 , 4137.43589744 , 4143.07692308 , 4168.71794872 , 4694.87179487 , 4135.38461538 , 4138.46153846 , 2050.0 , 2038.0 , 8.139 , 0.0 , 0.0 , 0.0 , 0.0 , 

70.0 , 4134.35897436 , 4132.82051282 , 4188.20512821 , 4136.92307692 , 4134.87179487 , 4134.35897436 , 4129.74358974 , 4136.41025641 , 4135.38461538 , 4145.64102564 , 4169.74358974 , 4694.87179487 , 4135.38461538 , 4139.48717949 , 2049.0 , 2042.0 , 8.147 , 0.0 , 0.0 , 0.0 , 0.0 , 

71.0 , 4133.84615385 , 4133.84615385 , 4185.12820513 , 4136.41025641 , 4134.87179487 , 4135.8974359 , 4136.41025641 , 4136.41025641 , 4136.41025641 , 4142.05128205 , 4170.25641026 , 4695.38461538 , 4135.38461538 , 4138.97435897 , 2049.0 , 2042.0 , 8.155 , 0.0 , 0.0 , 0.0 , 0.0 , 

72.0 , 4134.87179487 , 4132.82051282 , 4185.64102564 , 4138.46153846 , 4134.87179487 , 4133.33333333 , 4135.38461538 , 4135.8974359 , 4137.43589744 , 4134.87179487 , 4170.25641026 , 4700.0 , 4135.38461538 , 4138.46153846 , 2049.0 , 2042.0 , 8.163 , 0.0 , 0.0 , 0.0 , 0.0 , 

73.0 , 4133.33333333 , 4133.84615385 , 4184.61538462 , 4137.43589744 , 4134.87179487 , 4133.33333333 , 4134.35897436 , 4134.35897436 , 4135.8974359 , 4135.38461538 , 4170.76923077 , 4703.07692308 , 4135.38461538 , 4139.48717949 , 2048.0 , 2041.0 , 8.171 , 0.0 , 0.0 , 0.0 , 0.0 , 

74.0 , 4132.30769231 , 4137.94871795 , 4185.64102564 , 4136.41025641 , 4134.87179487 , 4133.33333333 , 4133.84615385 , 4135.8974359 , 4135.8974359 , 4140.0 , 4169.74358974 , 4700.51282051 , 4135.38461538 , 4139.48717949 , 2048.0 , 2041.0 , 8.179 , 0.0 , 0.0 , 0.0 , 0.0 , 

75.0 , 4133.33333333 , 4136.41025641 , 4183.58974359 , 4138.97435897 , 4134.87179487 , 4133.33333333 , 4134.35897436 , 4137.43589744 , 4136.41025641 , 4134.35897436 , 4167.69230769 , 4703.58974359 , 4135.38461538 , 4138.46153846 , 2047.0 , 2038.0 , 8.188 , 0.0 , 0.0 , 0.0 , 0.0 , 

76.0 , 4136.41025641 , 4132.82051282 , 4181.53846154 , 4138.46153846 , 4134.87179487 , 4135.38461538 , 4134.87179487 , 4135.38461538 , 4135.8974359 , 4134.35897436 , 4170.76923077 , 4707.17948718 , 4135.38461538 , 4138.46153846 , 2046.0 , 2036.0 , 8.195 , 0.0 , 0.0 , 0.0 , 0.0 , 

77.0 , 4136.92307692 , 4133.84615385 , 4184.61538462 , 4135.38461538 , 4134.87179487 , 4135.8974359 , 4134.35897436 , 4134.35897436 , 4135.8974359 , 4148.20512821 , 4172.82051282 , 4706.15384615 , 4135.38461538 , 4138.97435897 , 2046.0 , 2036.0 , 8.203 , 0.0 , 0.0 , 0.0 , 0.0 , 

78.0 , 4133.84615385 , 4134.87179487 , 4187.17948718 , 4136.41025641 , 4134.87179487 , 4134.35897436 , 4135.8974359 , 4135.8974359 , 4135.8974359 , 4147.69230769 , 4169.74358974 , 4706.66666667 , 4135.38461538 , 4139.48717949 , 2045.0 , 2034.0 , 8.21 , 0.0 , 0.0 , 0.0 , 0.0 , 

79.0 , 4133.84615385 , 4134.35897436 , 4185.12820513 , 4138.97435897 , 4134.87179487 , 4135.38461538 , 4133.33333333 , 4136.41025641 , 4135.8974359 , 4136.41025641 , 4168.71794872 , 4710.25641026 , 4135.38461538 , 4138.97435897 , 2046.0 , 2036.0 , 8.218 , 0.0 , 0.0 , 0.0 , 0.0 , 

80.0 , 4136.92307692 , 4134.35897436 , 4184.1025641 , 4137.43589744 , 4134.87179487 , 4135.8974359 , 4126.15384615 , 4135.8974359 , 4135.8974359 , 4142.05128205 , 4170.76923077 , 4711.28205128 , 4135.38461538 , 4137.94871795 , 2047.0 , 2036.0 , 8.226 , 0.0 , 0.0 , 0.0 , 0.0 , 

81.0 , 4136.41025641 , 4133.84615385 , 4186.15384615 , 4135.8974359 , 4134.87179487 , 4134.87179487 , 4128.20512821 , 4135.8974359 , 4136.41025641 , 4149.23076923 , 4169.74358974 , 4709.74358974 , 4135.38461538 , 4137.94871795 , 2047.0 , 2037.0 , 8.234 , 0.0 , 0.0 , 0.0 , 0.0 , 

82.0 , 4135.8974359 , 4135.8974359 , 4183.07692308 , 4135.38461538 , 4134.87179487 , 4134.87179487 , 4135.8974359 , 4135.8974359 , 4137.43589744 , 4137.43589744 , 4169.23076923 , 4709.74358974 , 4135.38461538 , 4137.94871795 , 2048.0 , 2039.0 , 8.242 , 0.0 , 0.0 , 0.0 , 0.0 , 

83.0 , 4136.41025641 , 4136.92307692 , 4182.56410256 , 4136.41025641 , 4134.87179487 , 4134.35897436 , 4135.8974359 , 4135.8974359 , 4136.41025641 , 4132.82051282 , 4170.76923077 , 4708.71794872 , 4135.38461538 , 4138.46153846 , 2048.0 , 2039.0 , 8.25 , 0.0 , 0.0 , 0.0 , 0.0 , 

84.0 , 4136.92307692 , 4132.30769231 , 4180.0 , 4137.94871795 , 4134.87179487 , 4134.35897436 , 4133.84615385 , 4135.8974359 , 4134.87179487 , 4138.97435897 , 4170.76923077 , 4711.79487179 , 4135.38461538 , 4139.48717949 , 2049.0 , 2038.0 , 8.258 , 0.0 , 0.0 , 0.0 , 0.0 , 

85.0 , 4136.41025641 , 4132.82051282 , 4177.94871795 , 4137.94871795 , 4134.87179487 , 4134.35897436 , 4135.8974359 , 4135.8974359 , 4136.41025641 , 4136.92307692 , 4169.23076923 , 4714.35897436 , 4135.38461538 , 4137.94871795 , 2051.0 , 2037.0 , 8.266 , 0.0 , 0.0 , 0.0 , 0.0 , 

86.0 , 4135.8974359 , 4134.35897436 , 4175.8974359 , 4137.43589744 , 4134.87179487 , 4134.35897436 , 4135.38461538 , 4135.8974359 , 4136.92307692 , 4142.56410256 , 4169.23076923 , 4713.33333333 , 4135.38461538 , 4137.43589744 , 2051.0 , 2035.0 , 8.273 , 0.0 , 0.0 , 0.0 , 0.0 , 

87.0 , 4135.8974359 , 4129.23076923 , 4179.48717949 , 4137.94871795 , 4134.87179487 , 4134.35897436 , 4134.35897436 , 4135.8974359 , 4134.87179487 , 4152.82051282 , 4169.23076923 , 4713.33333333 , 4135.38461538 , 4140.0 , 2051.0 , 2035.0 , 8.282 , 0.0 , 0.0 , 0.0 , 0.0 , 

88.0 , 4135.38461538 , 4132.30769231 , 4176.41025641 , 4137.43589744 , 4134.87179487 , 4134.35897436 , 4136.41025641 , 4135.8974359 , 4135.38461538 , 4145.64102564 , 4170.25641026 , 4718.97435897 , 4135.8974359 , 4140.51282051 , 2052.0 , 2035.0 , 8.289 , 0.0 , 0.0 , 0.0 , 0.0 , 

89.0 , 4134.87179487 , 4138.46153846 , 4174.35897436 , 4136.92307692 , 4134.87179487 , 4134.35897436 , 4135.8974359 , 4134.87179487 , 4137.43589744 , 4135.38461538 , 4172.30769231 , 4725.12820513 , 4135.38461538 , 4139.48717949 , 2051.0 , 2035.0 , 8.297 , 0.0 , 0.0 , 0.0 , 0.0 , 

90.0 , 4136.92307692 , 4134.35897436 , 4175.38461538 , 4137.43589744 , 4134.87179487 , 4134.35897436 , 4134.87179487 , 4134.87179487 , 4136.41025641 , 4137.43589744 , 4170.76923077 , 4722.56410256 , 4135.38461538 , 4140.0 , 2049.0 , 2034.0 , 8.305 , 0.0 , 0.0 , 0.0 , 0.0 , 

91.0 , 4137.43589744 , 4135.38461538 , 4177.43589744 , 4135.8974359 , 4134.87179487 , 4134.35897436 , 4135.38461538 , 4134.87179487 , 4135.8974359 , 4139.48717949 , 4169.23076923 , 4718.97435897 , 4135.8974359 , 4138.46153846 , 2048.0 , 2033.0 , 8.312 , 0.0 , 0.0 , 0.0 , 0.0 , 

92.0 , 4135.38461538 , 4136.41025641 , 4179.48717949 , 4134.87179487 , 4134.87179487 , 4134.35897436 , 4135.8974359 , 4135.38461538 , 4137.43589744 , 4136.92307692 , 4169.74358974 , 4722.05128205 , 4135.8974359 , 4137.43589744 , 2046.0 , 2032.0 , 8.32 , 0.0 , 0.0 , 0.0 , 0.0 , 

93.0 , 4135.38461538 , 4127.17948718 , 4180.0 , 4136.92307692 , 4134.87179487 , 4134.35897436 , 4130.76923077 , 4135.8974359 , 4136.92307692 , 4135.8974359 , 4169.23076923 , 4724.61538462 , 4134.35897436 , 4139.48717949 , 2047.0 , 2030.0 , 8.329 , 0.0 , 0.0 , 0.0 , 0.0 , 

94.0 , 4136.41025641 , 4127.69230769 , 4178.97435897 , 4137.94871795 , 4134.87179487 , 4134.35897436 , 4127.17948718 , 4135.8974359 , 4135.8974359 , 4138.46153846 , 4168.71794872 , 4724.1025641 , 4134.87179487 , 4139.48717949 , 2047.0 , 2030.0 , 8.336 , 0.0 , 0.0 , 0.0 , 0.0 , 

95.0 , 4135.8974359 , 4138.46153846 , 4184.61538462 , 4137.43589744 , 4134.87179487 , 4134.35897436 , 4128.71794872 , 4134.87179487 , 4135.8974359 , 4142.05128205 , 4171.79487179 , 4725.12820513 , 4135.8974359 , 4137.43589744 , 2048.0 , 2027.0 , 8.344 , 0.0 , 0.0 , 0.0 , 0.0 , 

96.0 , 4135.38461538 , 4136.92307692 , 4186.66666667 , 4137.94871795 , 4134.87179487 , 4134.35897436 , 4129.23076923 , 4134.87179487 , 4135.8974359 , 4138.46153846 , 4171.79487179 , 4725.64102564 , 4135.8974359 , 4137.43589744 , 2047.0 , 2027.0 , 8.353 , 0.0 , 0.0 , 0.0 , 0.0 , 

97.0 , 4135.8974359 , 4130.76923077 , 4177.94871795 , 4137.94871795 , 4134.87179487 , 4134.35897436 , 4127.69230769 , 4136.92307692 , 4135.8974359 , 4136.41025641 , 4169.23076923 , 4724.61538462 , 4136.41025641 , 4137.94871795 , 2046.0 , 2026.0 , 8.36 , 0.0 , 0.0 , 0.0 , 0.0 , 

98.0 , 4136.41025641 , 4131.79487179 , 4177.94871795 , 4135.8974359 , 4134.87179487 , 4134.35897436 , 4128.20512821 , 4137.43589744 , 4135.8974359 , 4148.71794872 , 4169.74358974 , 4727.17948718 , 4135.8974359 , 4138.46153846 , 2045.0 , 2026.0 , 8.37 , 0.0 , 0.0 , 0.0 , 0.0 , 

99.0 , 4136.41025641 , 4135.38461538 , 4181.02564103 , 4135.8974359 , 4134.87179487 , 4134.35897436 , 4128.71794872 , 4134.87179487 , 4135.8974359 , 4152.82051282 , 4169.74358974 , 4730.25641026 , 4134.35897436 , 4139.48717949 , 2045.0 , 2027.0 , 8.377 , 0.0 , 0.0 , 0.0 , 0.0 , 

100.0 , 4134.87179487 , 4135.8974359 , 4175.38461538 , 4137.43589744 , 4134.87179487 , 4134.35897436 , 4128.20512821 , 4135.38461538 , 4136.41025641 , 4139.48717949 , 4169.23076923 , 4727.69230769 , 4136.41025641 , 4138.46153846 , 2043.0 , 2031.0 , 8.384 , 0.0 , 0.0 , 0.0 , 0.0 , 

101.0 , 4135.38461538 , 4135.38461538 , 4173.84615385 , 4136.92307692 , 4134.87179487 , 4134.35897436 , 4128.20512821 , 4135.38461538 , 4135.8974359 , 4136.92307692 , 4168.71794872 , 4727.69230769 , 4137.43589744 , 4137.94871795 , 2044.0 , 2032.0 , 8.392 , 0.0 , 0.0 , 0.0 , 0.0 , 

102.0 , 4136.41025641 , 4135.38461538 , 4162.05128205 , 4136.41025641 , 4134.87179487 , 4134.35897436 , 4128.20512821 , 4133.84615385 , 4134.87179487 , 4142.56410256 , 4167.69230769 , 4728.20512821 , 4130.76923077 , 4138.46153846 , 2044.0 , 2032.0 , 8.4 , 0.0 , 0.0 , 0.0 , 0.0 , 

103.0 , 4135.8974359 , 4135.8974359 , 4157.94871795 , 4137.43589744 , 4134.87179487 , 4134.35897436 , 4128.20512821 , 4136.41025641 , 4135.38461538 , 4140.0 , 4167.69230769 , 4727.69230769 , 4131.28205128 , 4138.46153846 , 2043.0 , 2036.0 , 8.407 , 0.0 , 0.0 , 0.0 , 0.0 , 

104.0 , 4134.87179487 , 4134.87179487 , 4160.51282051 , 4136.92307692 , 4134.87179487 , 4134.35897436 , 4128.20512821 , 4136.41025641 , 4135.8974359 , 4135.8974359 , 4169.74358974 , 4730.76923077 , 4132.30769231 , 4137.43589744 , 2043.0 , 2039.0 , 8.415 , 0.0 , 0.0 , 0.0 , 0.0 , 

105.0 , 4135.38461538 , 4134.87179487 , 4162.05128205 , 4135.8974359 , 4134.87179487 , 4134.35897436 , 4128.20512821 , 4134.87179487 , 4136.41025641 , 4138.97435897 , 4169.74358974 , 4735.38461538 , 4131.28205128 , 4137.43589744 , 2044.0 , 2040.0 , 8.423 , 0.0 , 0.0 , 0.0 , 0.0 , 

106.0 , 4135.8974359 , 4135.38461538 , 4168.71794872 , 4135.8974359 , 4134.87179487 , 4134.35897436 , 4128.20512821 , 4136.92307692 , 4137.94871795 , 4142.56410256 , 4167.69230769 , 4733.84615385 , 4129.74358974 , 4136.92307692 , 2043.0 , 2041.0 , 8.431 , 0.0 , 0.0 , 0.0 , 0.0 , 

107.0 , 4135.38461538 , 4135.38461538 , 4180.0 , 4136.41025641 , 4134.87179487 , 4134.35897436 , 4128.20512821 , 4138.97435897 , 4137.94871795 , 4143.07692308 , 4169.23076923 , 4732.30769231 , 4130.76923077 , 4136.41025641 , 2042.0 , 2040.0 , 8.439 , 0.0 , 0.0 , 0.0 , 0.0 , 

108.0 , 4136.92307692 , 4135.8974359 , 4183.07692308 , 4135.8974359 , 4134.87179487 , 4134.35897436 , 4128.20512821 , 4136.92307692 , 4134.87179487 , 4141.53846154 , 4171.79487179 , 4734.87179487 , 4130.76923077 , 4137.43589744 , 2040.0 , 2038.0 , 8.447 , 0.0 , 0.0 , 0.0 , 0.0 , 

109.0 , 4134.87179487 , 4136.41025641 , 4182.05128205 , 4135.8974359 , 4134.87179487 , 4134.35897436 , 4128.20512821 , 4137.43589744 , 4134.35897436 , 4142.56410256 , 4171.28205128 , 4735.8974359 , 4131.79487179 , 4139.48717949 , 2039.0 , 2036.0 , 8.455 , 0.0 , 0.0 , 0.0 , 0.0 , 

110.0 , 4131.28205128 , 4135.38461538 , 4182.56410256 , 4135.8974359 , 4134.87179487 , 4134.35897436 , 4127.69230769 , 4136.92307692 , 4134.87179487 , 4141.02564103 , 4169.23076923 , 4734.35897436 , 4133.33333333 , 4138.97435897 , 2038.0 , 2034.0 , 8.463 , 0.0 , 0.0 , 0.0 , 0.0 , 

111.0 , 4132.82051282 , 4134.35897436 , 4174.35897436 , 4136.92307692 , 4134.87179487 , 4134.35897436 , 4128.20512821 , 4136.41025641 , 4135.38461538 , 4139.48717949 , 4170.76923077 , 4736.92307692 , 4134.87179487 , 4137.94871795 , 2037.0 , 2034.0 , 8.47 , 0.0 , 0.0 , 0.0 , 0.0 , 

112.0 , 4136.41025641 , 4134.87179487 , 4169.74358974 , 4137.43589744 , 4134.87179487 , 4134.35897436 , 4128.71794872 , 4137.43589744 , 4135.8974359 , 4140.51282051 , 4171.28205128 , 4739.48717949 , 4134.35897436 , 4137.43589744 , 2035.0 , 2031.0 , 8.478 , 0.0 , 0.0 , 0.0 , 0.0 , 

113.0 , 4135.38461538 , 4133.84615385 , 4163.58974359 , 4136.92307692 , 4134.87179487 , 4134.35897436 , 4127.17948718 , 4133.84615385 , 4136.41025641 , 4142.05128205 , 4170.25641026 , 4738.97435897 , 4130.25641026 , 4138.46153846 , 2034.0 , 2029.0 , 8.486 , 0.0 , 0.0 , 0.0 , 0.0 , 

114.0 , 4132.30769231 , 4133.33333333 , 4161.53846154 , 4135.8974359 , 4134.87179487 , 4134.35897436 , 4129.74358974 , 4131.28205128 , 4137.94871795 , 4142.56410256 , 4170.76923077 , 4738.97435897 , 4130.76923077 , 4140.51282051 , 2033.0 , 2029.0 , 8.494 , 0.0 , 0.0 , 0.0 , 0.0 , 

115.0 , 4134.35897436 , 4134.87179487 , 4168.20512821 , 4135.8974359 , 4134.87179487 , 4134.35897436 , 4135.38461538 , 4134.87179487 , 4138.46153846 , 4143.58974359 , 4170.76923077 , 4742.05128205 , 4133.84615385 , 4141.02564103 , 2031.0 , 2030.0 , 8.502 , 0.0 , 0.0 , 0.0 , 0.0 , 

116.0 , 4136.92307692 , 4136.41025641 , 4165.64102564 , 4136.92307692 , 4134.87179487 , 4134.35897436 , 4136.92307692 , 4136.41025641 , 4136.41025641 , 4141.02564103 , 4170.25641026 , 4742.56410256 , 4131.28205128 , 4137.94871795 , 2030.0 , 2031.0 , 8.51 , 0.0 , 0.0 , 0.0 , 0.0 , 

117.0 , 4135.8974359 , 4134.87179487 , 4148.20512821 , 4136.92307692 , 4134.87179487 , 4134.35897436 , 4136.41025641 , 4130.76923077 , 4135.8974359 , 4139.48717949 , 4170.76923077 , 4740.51282051 , 4129.23076923 , 4135.38461538 , 2030.0 , 2032.0 , 8.518 , 0.0 , 0.0 , 0.0 , 0.0 , 

118.0 , 4134.35897436 , 4132.30769231 , 4146.15384615 , 4136.92307692 , 4134.87179487 , 4134.35897436 , 4135.8974359 , 4130.25641026 , 4138.97435897 , 4144.1025641 , 4170.76923077 , 4738.97435897 , 4130.25641026 , 4136.92307692 , 2030.0 , 2035.0 , 8.526 , 0.0 , 0.0 , 0.0 , 0.0 , 

119.0 , 4135.8974359 , 4132.30769231 , 4153.84615385 , 4137.43589744 , 4134.87179487 , 4134.35897436 , 4135.38461538 , 4133.84615385 , 4138.46153846 , 4144.1025641 , 4168.71794872 , 4740.51282051 , 4130.25641026 , 4138.46153846 , 2030.0 , 2037.0 , 8.534 , 0.0 , 0.0 , 0.0 , 0.0 , 

120.0 , 4136.41025641 , 4134.87179487 , 4161.02564103 , 4136.92307692 , 4134.87179487 , 4134.35897436 , 4134.87179487 , 4135.8974359 , 4135.8974359 , 4142.05128205 , 4168.71794872 , 4745.12820513 , 4131.79487179 , 4141.53846154 , 2030.0 , 2039.0 , 8.541 , 0.0 , 0.0 , 0.0 , 0.0 , 

121.0 , 4134.87179487 , 4134.87179487 , 4153.84615385 , 4136.41025641 , 4134.87179487 , 4134.35897436 , 4136.41025641 , 4132.82051282 , 4136.41025641 , 4142.56410256 , 4170.25641026 , 4744.61538462 , 4131.79487179 , 4137.94871795 , 2031.0 , 2039.0 , 8.549 , 0.0 , 0.0 , 0.0 , 0.0 , 

122.0 , 4135.8974359 , 4133.84615385 , 4152.30769231 , 4135.8974359 , 4134.87179487 , 4134.35897436 , 4135.8974359 , 4133.33333333 , 4138.97435897 , 4142.05128205 , 4170.25641026 , 4742.56410256 , 4130.25641026 , 4132.30769231 , 2031.0 , 2039.0 , 8.557 , 0.0 , 0.0 , 0.0 , 0.0 , 

123.0 , 4135.38461538 , 4135.38461538 , 4152.82051282 , 4135.8974359 , 4134.87179487 , 4134.35897436 , 4135.8974359 , 4132.82051282 , 4135.8974359 , 4140.0 , 4170.25641026 , 4743.58974359 , 4128.71794872 , 4134.35897436 , 2029.0 , 2036.0 , 8.565 , 0.0 , 0.0 , 0.0 , 0.0 , 

124.0 , 4135.8974359 , 4135.8974359 , 4149.23076923 , 4136.41025641 , 4134.87179487 , 4134.35897436 , 4135.8974359 , 4132.82051282 , 4134.87179487 , 4140.51282051 , 4171.79487179 , 4745.12820513 , 4129.23076923 , 4138.97435897 , 2030.0 , 2036.0 , 8.574 , 0.0 , 0.0 , 0.0 , 0.0 , 

125.0 , 4137.43589744 , 4135.38461538 , 4144.1025641 , 4136.92307692 , 4134.87179487 , 4134.35897436 , 4135.8974359 , 4133.84615385 , 4136.41025641 , 4138.46153846 , 4171.28205128 , 4743.58974359 , 4128.71794872 , 4136.92307692 , 2030.0 , 2033.0 , 8.582 , 0.0 , 0.0 , 0.0 , 0.0 , 

126.0 , 4136.41025641 , 4136.41025641 , 4145.64102564 , 4136.41025641 , 4134.87179487 , 4134.35897436 , 4135.8974359 , 4133.84615385 , 4134.87179487 , 4139.48717949 , 4169.74358974 , 4743.58974359 , 4129.74358974 , 4136.92307692 , 2031.0 , 2033.0 , 8.589 , 0.0 , 0.0 , 0.0 , 0.0 , 

127.0 , 4133.84615385 , 4133.33333333 , 4147.69230769 , 4136.41025641 , 4134.87179487 , 4134.35897436 , 4135.8974359 , 4131.28205128 , 4134.35897436 , 4145.12820513 , 4168.71794872 , 4745.12820513 , 4133.33333333 , 4138.97435897 , 2030.0 , 2032.0 , 8.597 , 0.0 , 0.0 , 0.0 , 0.0 , 

128.0 , 4135.38461538 , 4131.28205128 , 4135.38461538 , 4137.43589744 , 4134.87179487 , 4134.35897436 , 4135.8974359 , 4132.82051282 , 4137.94871795 , 4144.61538462 , 4172.30769231 , 4744.1025641 , 4132.30769231 , 4137.94871795 , 2030.0 , 2027.0 , 8.605 , 0.0 , 0.0 , 0.0 , 0.0 , 

0.0 , 4135.8974359 , 4133.84615385 , 4127.69230769 , 4136.41025641 , 4134.87179487 , 4134.35897436 , 4135.8974359 , 4133.84615385 , 4136.92307692 , 4137.94871795 , 4173.84615385 , 4743.07692308 , 4127.69230769 , 4137.94871795 , 2029.0 , 2026.0 , 8.613 , 0.0 , 0.0 , 0.0 , 0.0 , 

1.0 , 4133.84615385 , 4134.87179487 , 4131.79487179 , 4135.8974359 , 4134.87179487 , 4134.35897436 , 4135.8974359 , 4131.28205128 , 4135.38461538 , 4140.0 , 4172.30769231 , 4744.1025641 , 4127.69230769 , 4137.94871795 , 2027.0 , 2025.0 , 8.621 , 0.0 , 0.0 , 0.0 , 0.0 , 

2.0 , 4134.87179487 , 4133.84615385 , 4136.41025641 , 4135.8974359 , 4134.87179487 , 4134.35897436 , 4135.8974359 , 4132.82051282 , 4135.38461538 , 4144.1025641 , 4171.28205128 , 4744.1025641 , 4131.28205128 , 4137.43589744 , 2028.0 , 2024.0 , 8.628 , 0.0 , 0.0 , 0.0 , 0.0 , 

3.0 , 4136.92307692 , 4135.38461538 , 4128.20512821 , 4136.41025641 , 4134.87179487 , 4134.35897436 , 4135.8974359 , 4134.35897436 , 4130.76923077 , 4141.02564103 , 4171.28205128 , 4742.56410256 , 4130.25641026 , 4137.43589744 , 2026.0 , 2026.0 , 8.636 , 0.0 , 0.0 , 0.0 , 0.0 , 

4.0 , 4135.38461538 , 4134.35897436 , 4123.07692308 , 4135.8974359 , 4134.87179487 , 4134.35897436 , 4135.8974359 , 4131.79487179 , 4130.76923077 , 4137.94871795 , 4170.76923077 , 4741.53846154 , 4127.69230769 , 4135.8974359 , 2025.0 , 2028.0 , 8.644 , 0.0 , 0.0 , 0.0 , 0.0 , 

5.0 , 4133.84615385 , 4131.79487179 , 4128.20512821 , 4135.8974359 , 4134.87179487 , 4134.35897436 , 4135.8974359 , 4131.28205128 , 4135.38461538 , 4140.0 , 4170.76923077 , 4743.07692308 , 4130.25641026 , 4136.92307692 , 2025.0 , 2029.0 , 8.652 , 0.0 , 0.0 , 0.0 , 0.0 , 

6.0 , 4135.8974359 , 4133.84615385 , 4137.94871795 , 4136.41025641 , 4134.87179487 , 4134.35897436 , 4135.8974359 , 4133.33333333 , 4135.8974359 , 4141.53846154 , 4172.82051282 , 4745.64102564 , 4132.82051282 , 4137.94871795 , 2025.0 , 2031.0 , 8.66 , 0.0 , 0.0 , 0.0 , 0.0 , 

7.0 , 4135.8974359 , 4135.8974359 , 4144.1025641 , 4137.43589744 , 4134.87179487 , 4134.35897436 , 4135.8974359 , 4134.87179487 , 4135.8974359 , 4141.53846154 , 4171.79487179 , 4745.64102564 , 4132.30769231 , 4133.33333333 , 2026.0 , 2031.0 , 8.667 , 0.0 , 0.0 , 0.0 , 0.0 , 

8.0 , 4134.87179487 , 4134.35897436 , 4147.69230769 , 4137.43589744 , 4134.87179487 , 4134.35897436 , 4135.8974359 , 4135.8974359 , 4137.94871795 , 4142.56410256 , 4170.76923077 , 4745.12820513 , 4133.33333333 , 4134.87179487 , 2024.0 , 2033.0 , 8.675 , 0.0 , 0.0 , 0.0 , 0.0 , 

9.0 , 4134.87179487 , 4134.35897436 , 4158.97435897 , 4136.41025641 , 4134.87179487 , 4134.35897436 , 4135.8974359 , 4134.87179487 , 4137.94871795 , 4144.61538462 , 4171.79487179 , 4745.12820513 , 4133.33333333 , 4141.53846154 , 2024.0 , 2036.0 , 8.683 , 0.0 , 0.0 , 0.0 , 0.0 , 

10.0 , 4134.87179487 , 4136.41025641 , 4172.82051282 , 4136.92307692 , 4134.87179487 , 4134.35897436 , 4135.8974359 , 4134.35897436 , 4137.94871795 , 4146.15384615 , 4171.28205128 , 4748.71794872 , 4133.33333333 , 4139.48717949 , 2022.0 , 2038.0 , 8.691 , 0.0 , 0.0 , 0.0 , 0.0 , 

11.0 , 4134.35897436 , 4134.87179487 , 4176.92307692 , 4136.92307692 , 4134.87179487 , 4134.35897436 , 4135.8974359 , 4136.92307692 , 4139.48717949 , 4145.64102564 , 4171.28205128 , 4751.28205128 , 4136.41025641 , 4134.35897436 , 2020.0 , 2038.0 , 8.699 , 0.0 , 0.0 , 0.0 , 0.0 , 

12.0 , 4133.84615385 , 4134.35897436 , 4167.69230769 , 4136.92307692 , 4134.87179487 , 4134.35897436 , 4135.8974359 , 4137.94871795 , 4137.43589744 , 4145.12820513 , 4171.79487179 , 4750.25641026 , 4134.35897436 , 4134.87179487 , 2019.0 , 2040.0 , 8.707 , 0.0 , 0.0 , 0.0 , 0.0 , 

13.0 , 4134.35897436 , 4136.92307692 , 4154.35897436 , 4136.92307692 , 4134.87179487 , 4134.35897436 , 4135.8974359 , 4135.38461538 , 4136.92307692 , 4142.56410256 , 4171.28205128 , 4747.17948718 , 4128.71794872 , 4136.41025641 , 2020.0 , 2041.0 , 8.715 , 0.0 , 0.0 , 0.0 , 0.0 , 

14.0 , 4135.38461538 , 4137.94871795 , 4143.07692308 , 4136.92307692 , 4134.87179487 , 4134.35897436 , 4135.8974359 , 4131.79487179 , 4137.94871795 , 4142.56410256 , 4171.79487179 , 4746.66666667 , 4128.71794872 , 4133.84615385 , 2020.0 , 2041.0 , 8.723 , 0.0 , 0.0 , 0.0 , 0.0 , 

15.0 , 4134.87179487 , 4137.43589744 , 4140.51282051 , 4136.41025641 , 4134.87179487 , 4134.35897436 , 4135.8974359 , 4129.74358974 , 4137.43589744 , 4144.1025641 , 4170.76923077 , 4747.17948718 , 4130.76923077 , 4133.33333333 , 2020.0 , 2041.0 , 8.731 , 0.0 , 0.0 , 0.0 , 0.0 , 

16.0 , 4133.84615385 , 4137.94871795 , 4148.71794872 , 4136.41025641 , 4134.87179487 , 4134.35897436 , 4135.8974359 , 4132.30769231 , 4137.94871795 , 4144.1025641 , 4171.28205128 , 4747.69230769 , 4131.28205128 , 4136.92307692 , 2020.0 , 2040.0 , 8.738 , 0.0 , 0.0 , 0.0 , 0.0 , 

17.0 , 4134.35897436 , 4136.92307692 , 4160.0 , 4136.92307692 , 4134.87179487 , 4134.35897436 , 4135.8974359 , 4135.38461538 , 4137.94871795 , 4142.05128205 , 4172.82051282 , 4749.23076923 , 4133.84615385 , 4137.94871795 , 2018.0 , 2038.0 , 8.746 , 0.0 , 0.0 , 0.0 , 0.0 , 

18.0 , 4135.38461538 , 4134.35897436 , 4157.43589744 , 4135.8974359 , 4134.87179487 , 4134.35897436 , 4135.8974359 , 4132.30769231 , 4136.41025641 , 4141.53846154 , 4175.38461538 , 4749.74358974 , 4134.87179487 , 4136.41025641 , 2019.0 , 2037.0 , 8.754 , 0.0 , 0.0 , 0.0 , 0.0 , 

19.0 , 4136.41025641 , 4134.35897436 , 4157.94871795 , 4134.35897436 , 4134.87179487 , 4134.35897436 , 4135.8974359 , 4133.84615385 , 4136.92307692 , 4144.1025641 , 4174.87179487 , 4750.76923077 , 4133.33333333 , 4136.41025641 , 2018.0 , 2035.0 , 8.762 , 0.0 , 0.0 , 0.0 , 0.0 , 

20.0 , 4135.38461538 , 4135.38461538 , 4172.30769231 , 4135.38461538 , 4134.87179487 , 4134.35897436 , 4135.8974359 , 4138.97435897 , 4138.97435897 , 4143.07692308 , 4173.84615385 , 4755.38461538 , 4131.79487179 , 4134.87179487 , 2016.0 , 2034.0 , 8.77 , 0.0 , 0.0 , 0.0 , 0.0 , 

21.0 , 4134.35897436 , 4134.35897436 , 4183.07692308 , 4137.43589744 , 4134.87179487 , 4134.35897436 , 4135.8974359 , 4137.94871795 , 4138.46153846 , 4142.56410256 , 4175.38461538 , 4755.8974359 , 4131.28205128 , 4132.82051282 , 2016.0 , 2031.0 , 8.778 , 0.0 , 0.0 , 0.0 , 0.0 , 

22.0 , 4135.38461538 , 4133.84615385 , 4183.58974359 , 4136.92307692 , 4134.87179487 , 4134.35897436 , 4135.8974359 , 4138.46153846 , 4137.43589744 , 4145.64102564 , 4175.38461538 , 4752.82051282 , 4134.35897436 , 4136.92307692 , 2014.0 , 2035.0 , 8.786 , 0.0 , 0.0 , 0.0 , 0.0 , 

23.0 , 4134.87179487 , 4134.35897436 , 4180.0 , 4135.38461538 , 4134.87179487 , 4134.35897436 , 4135.8974359 , 4139.48717949 , 4137.94871795 , 4142.56410256 , 4170.76923077 , 4752.30769231 , 4134.35897436 , 4138.46153846 , 2013.0 , 2036.0 , 8.793 , 0.0 , 0.0 , 0.0 , 0.0 , 

24.0 , 4132.82051282 , 4133.84615385 , 4180.0 , 4135.8974359 , 4134.87179487 , 4134.35897436 , 4135.8974359 , 4134.87179487 , 4138.97435897 , 4139.48717949 , 4168.20512821 , 4754.87179487 , 4131.79487179 , 4135.8974359 , 2007.0 , 2037.0 , 8.801 , 0.0 , 0.0 , 0.0 , 0.0 , 

25.0 , 4132.82051282 , 4134.35897436 , 4172.82051282 , 4136.92307692 , 4134.87179487 , 4134.35897436 , 4135.8974359 , 4130.25641026 , 4138.46153846 , 4142.05128205 , 4170.25641026 , 4753.33333333 , 4131.79487179 , 4136.92307692 , 2007.0 , 2038.0 , 8.809 , 0.0 , 0.0 , 0.0 , 0.0 , 

26.0 , 4132.82051282 , 4135.38461538 , 4156.41025641 , 4136.92307692 , 4134.87179487 , 4134.35897436 , 4135.8974359 , 4133.84615385 , 4136.92307692 , 4143.07692308 , 4171.79487179 , 4753.84615385 , 4133.33333333 , 4135.8974359 , 2006.0 , 2038.0 , 8.818 , 0.0 , 0.0 , 0.0 , 0.0 , 

27.0 , 4132.82051282 , 4134.87179487 , 4145.12820513 , 4135.8974359 , 4134.87179487 , 4134.35897436 , 4135.8974359 , 4135.8974359 , 4135.8974359 , 4141.53846154 , 4168.71794872 , 4755.38461538 , 4130.25641026 , 4131.79487179 , 2003.0 , 2038.0 , 8.826 , 0.0 , 0.0 , 0.0 , 0.0 , 

28.0 , 4134.87179487 , 4133.33333333 , 4142.56410256 , 4135.8974359 , 4134.87179487 , 4134.35897436 , 4135.8974359 , 4133.84615385 , 4135.38461538 , 4142.05128205 , 4168.20512821 , 4754.87179487 , 4129.74358974 , 4131.28205128 , 2002.0 , 2038.0 , 8.834 , 0.0 , 0.0 , 0.0 , 0.0 , 

29.0 , 4136.41025641 , 4131.79487179 , 4140.51282051 , 4136.41025641 , 4134.87179487 , 4134.35897436 , 4135.8974359 , 4133.33333333 , 4133.84615385 , 4143.07692308 , 4170.76923077 , 4753.84615385 , 4130.76923077 , 4133.33333333 , 2000.0 , 2035.0 , 8.841 , 0.0 , 0.0 , 0.0 , 0.0 , 

30.0 , 4135.8974359 , 4132.82051282 , 4140.51282051 , 4135.8974359 , 4134.87179487 , 4134.35897436 , 4135.8974359 , 4132.30769231 , 4135.38461538 , 4140.51282051 , 4171.79487179 , 4755.8974359 , 4130.25641026 , 4132.82051282 , 2000.0 , 2035.0 , 8.849 , 0.0 , 0.0 , 0.0 , 0.0 , 

31.0 , 4134.87179487 , 4135.38461538 , 4151.79487179 , 4135.8974359 , 4134.87179487 , 4134.35897436 , 4135.8974359 , 4132.82051282 , 4137.94871795 , 4141.53846154 , 4171.28205128 , 4756.41025641 , 4131.79487179 , 4131.28205128 , 1997.0 , 2030.0 , 8.857 , 0.0 , 0.0 , 0.0 , 0.0 , 

32.0 , 4135.38461538 , 4136.41025641 , 4173.84615385 , 4135.8974359 , 4134.87179487 , 4134.35897436 , 4135.8974359 , 4136.92307692 , 4137.94871795 , 4145.12820513 , 4175.38461538 , 4756.92307692 , 4133.84615385 , 4134.35897436 , 1997.0 , 2030.0 , 8.864 , 0.0 , 0.0 , 0.0 , 0.0 , 

33.0 , 4135.38461538 , 4134.35897436 , 4181.02564103 , 4135.8974359 , 4134.87179487 , 4134.35897436 , 4135.8974359 , 4138.46153846 , 4137.94871795 , 4145.12820513 , 4176.41025641 , 4760.0 , 4132.82051282 , 4140.0 , 1997.0 , 2028.0 , 8.872 , 0.0 , 0.0 , 0.0 , 0.0 , 

34.0 , 4134.87179487 , 4133.33333333 , 4186.15384615 , 4135.8974359 , 4134.87179487 , 4134.35897436 , 4135.8974359 , 4138.46153846 , 4138.46153846 , 4143.07692308 , 4170.25641026 , 4761.53846154 , 4133.33333333 , 4137.94871795 , 1994.0 , 2027.0 , 8.88 , 0.0 , 0.0 , 0.0 , 0.0 , 

35.0 , 4132.30769231 , 4132.82051282 , 4192.30769231 , 4135.8974359 , 4134.87179487 , 4134.35897436 , 4135.8974359 , 4137.43589744 , 4138.46153846 , 4143.07692308 , 4170.76923077 , 4760.0 , 4133.84615385 , 4131.79487179 , 1993.0 , 2026.0 , 8.889 , 0.0 , 0.0 , 0.0 , 0.0 , 

36.0 , 4133.84615385 , 4130.76923077 , 4187.17948718 , 4135.8974359 , 4134.87179487 , 4134.35897436 , 4135.8974359 , 4136.92307692 , 4136.92307692 , 4144.1025641 , 4174.87179487 , 4758.97435897 , 4133.33333333 , 4132.82051282 , 1992.0 , 2023.0 , 8.896 , 0.0 , 0.0 , 0.0 , 0.0 , 

37.0 , 4135.38461538 , 4132.30769231 , 4172.30769231 , 4136.92307692 , 4134.87179487 , 4134.35897436 , 4136.41025641 , 4136.92307692 , 4136.41025641 , 4143.07692308 , 4173.84615385 , 4760.51282051 , 4137.43589744 , 4136.92307692 , 1991.0 , 2022.0 , 8.904 , 0.0 , 0.0 , 0.0 , 0.0 , 

38.0 , 4133.33333333 , 4136.41025641 , 4174.87179487 , 4136.92307692 , 4134.87179487 , 4134.35897436 , 4135.8974359 , 4137.94871795 , 4138.97435897 , 4143.58974359 , 4172.82051282 , 4760.51282051 , 4138.97435897 , 4135.38461538 , 1992.0 , 2024.0 , 8.912 , 0.0 , 0.0 , 0.0 , 0.0 , 

39.0 , 4131.79487179 , 4134.87179487 , 4179.48717949 , 4136.92307692 , 4134.87179487 , 4134.35897436 , 4135.38461538 , 4137.43589744 , 4140.51282051 , 4142.56410256 , 4175.38461538 , 4760.51282051 , 4131.28205128 , 4133.84615385 , 1993.0 , 2024.0 , 8.92 , 0.0 , 0.0 , 0.0 , 0.0 , 

40.0 , 4133.33333333 , 4135.38461538 , 4174.35897436 , 4136.92307692 , 4134.87179487 , 4134.35897436 , 4137.43589744 , 4135.8974359 , 4137.94871795 , 4138.97435897 , 4175.8974359 , 4763.07692308 , 4129.74358974 , 4134.35897436 , 1994.0 , 2027.0 , 8.927 , 0.0 , 0.0 , 0.0 , 0.0 , 

41.0 , 4132.82051282 , 4135.8974359 , 4188.71794872 , 4136.92307692 , 4134.87179487 , 4134.35897436 , 4135.38461538 , 4138.46153846 , 4136.41025641 , 4140.0 , 4172.82051282 , 4766.15384615 , 4136.92307692 , 4135.38461538 , 1996.0 , 2025.0 , 8.935 , 0.0 , 0.0 , 0.0 , 0.0 , 

42.0 , 4132.30769231 , 4133.33333333 , 4194.87179487 , 4136.92307692 , 4134.87179487 , 4134.35897436 , 4130.76923077 , 4137.94871795 , 4136.92307692 , 4144.1025641 , 4173.33333333 , 4766.66666667 , 4134.35897436 , 4134.87179487 , 2001.0 , 2025.0 , 8.944 , 0.0 , 0.0 , 0.0 , 0.0 , 

43.0 , 4133.84615385 , 4132.82051282 , 4193.84615385 , 4136.92307692 , 4134.87179487 , 4133.84615385 , 4132.30769231 , 4136.92307692 , 4137.94871795 , 4144.61538462 , 4174.87179487 , 4768.20512821 , 4131.28205128 , 4137.43589744 , 2004.0 , 2028.0 , 8.951 , 0.0 , 0.0 , 0.0 , 0.0 , 

44.0 , 4134.87179487 , 4131.28205128 , 4191.79487179 , 4135.38461538 , 4134.87179487 , 4134.35897436 , 4133.33333333 , 4135.8974359 , 4135.8974359 , 4140.51282051 , 4171.28205128 , 4767.17948718 , 4133.84615385 , 4137.94871795 , 2005.0 , 2028.0 , 8.96 , 0.0 , 0.0 , 0.0 , 0.0 , 

45.0 , 4134.35897436 , 4128.20512821 , 4205.12820513 , 4133.84615385 , 4134.87179487 , 4134.87179487 , 4127.17948718 , 4134.87179487 , 4135.38461538 , 4147.17948718 , 4171.28205128 , 4767.69230769 , 4137.43589744 , 4138.46153846 , 2009.0 , 2029.0 , 8.967 , 0.0 , 0.0 , 0.0 , 0.0 , 

46.0 , 4131.79487179 , 4132.30769231 , 4202.56410256 , 4134.87179487 , 4134.87179487 , 4132.30769231 , 4127.17948718 , 4134.35897436 , 4137.43589744 , 4152.82051282 , 4172.82051282 , 4766.66666667 , 4134.87179487 , 4137.43589744 , 2012.0 , 2029.0 , 8.975 , 0.0 , 0.0 , 0.0 , 0.0 , 

47.0 , 4130.25641026 , 4136.41025641 , 4194.87179487 , 4136.92307692 , 4134.87179487 , 4129.23076923 , 4133.33333333 , 4135.8974359 , 4140.0 , 4145.64102564 , 4170.25641026 , 4765.12820513 , 4134.87179487 , 4136.92307692 , 2012.0 , 2029.0 , 8.983 , 0.0 , 0.0 , 0.0 , 0.0 , 

48.0 , 4131.79487179 , 4129.23076923 , 4188.71794872 , 4136.41025641 , 4134.87179487 , 4130.76923077 , 4132.30769231 , 4136.92307692 , 4138.97435897 , 4135.38461538 , 4172.82051282 , 4768.71794872 , 4135.8974359 , 4136.92307692 , 2018.0 , 2028.0 , 8.991 , 0.0 , 0.0 , 0.0 , 0.0 , 

49.0 , 4133.33333333 , 4126.15384615 , 4187.69230769 , 4135.8974359 , 4134.87179487 , 4131.79487179 , 4130.76923077 , 4136.92307692 , 4138.97435897 , 4136.41025641 , 4178.97435897 , 4773.84615385 , 4135.38461538 , 4138.46153846 , 2021.0 , 2027.0 , 8.998 , 0.0 , 0.0 , 0.0 , 0.0 , 

50.0 , 4132.82051282 , 4132.30769231 , 4187.17948718 , 4136.92307692 , 4134.87179487 , 4130.25641026 , 4131.79487179 , 4137.43589744 , 4139.48717949 , 4140.51282051 , 4175.38461538 , 4774.35897436 , 4134.87179487 , 4137.94871795 , 2025.0 , 2027.0 , 9.006 , 0.0 , 0.0 , 0.0 , 0.0 , 

51.0 , 4132.82051282 , 4136.92307692 , 4192.30769231 , 4137.43589744 , 4134.87179487 , 4130.25641026 , 4131.79487179 , 4137.43589744 , 4138.97435897 , 4141.02564103 , 4170.25641026 , 4772.30769231 , 4135.8974359 , 4137.43589744 , 2027.0 , 2027.0 , 9.014 , 0.0 , 0.0 , 0.0 , 0.0 , 

52.0 , 4132.30769231 , 4131.79487179 , 4194.35897436 , 4137.43589744 , 4134.87179487 , 4130.76923077 , 4130.76923077 , 4136.92307692 , 4138.97435897 , 4138.97435897 , 4173.33333333 , 4772.30769231 , 4136.41025641 , 4138.97435897 , 2032.0 , 2030.0 , 9.023 , 0.0 , 0.0 , 0.0 , 0.0 , 

53.0 , 4132.30769231 , 4125.64102564 , 4188.20512821 , 4136.41025641 , 4134.87179487 , 4130.25641026 , 4131.28205128 , 4136.92307692 , 4138.97435897 , 4136.92307692 , 4174.35897436 , 4772.82051282 , 4136.41025641 , 4136.92307692 , 2034.0 , 2031.0 , 9.031 , 0.0 , 0.0 , 0.0 , 0.0 , 

54.0 , 4134.35897436 , 4128.20512821 , 4189.74358974 , 4134.87179487 , 4134.87179487 , 4132.30769231 , 4131.28205128 , 4136.92307692 , 4138.97435897 , 4136.92307692 , 4173.33333333 , 4772.82051282 , 4137.43589744 , 4135.8974359 , 2037.0 , 2037.0 , 9.038 , 0.0 , 0.0 , 0.0 , 0.0 , 

55.0 , 4134.35897436 , 4134.87179487 , 4187.17948718 , 4134.35897436 , 4134.87179487 , 4134.87179487 , 4130.76923077 , 4136.92307692 , 4138.97435897 , 4138.46153846 , 4174.35897436 , 4774.35897436 , 4134.87179487 , 4136.92307692 , 2042.0 , 2040.0 , 9.046 , 0.0 , 0.0 , 0.0 , 0.0 , 

56.0 , 4132.30769231 , 4134.35897436 , 4177.94871795 , 4134.87179487 , 4134.87179487 , 4134.35897436 , 4134.35897436 , 4136.92307692 , 4138.97435897 , 4140.51282051 , 4176.41025641 , 4775.38461538 , 4132.30769231 , 4138.97435897 , 2042.0 , 2043.0 , 9.054 , 0.0 , 0.0 , 0.0 , 0.0 , 

57.0 , 4132.30769231 , 4127.69230769 , 4178.97435897 , 4135.38461538 , 4134.87179487 , 4134.87179487 , 4135.8974359 , 4136.92307692 , 4138.97435897 , 4140.51282051 , 4176.92307692 , 4775.38461538 , 4132.82051282 , 4138.97435897 , 2045.0 , 2044.0 , 9.061 , 0.0 , 0.0 , 0.0 , 0.0 , 

58.0 , 4134.35897436 , 4126.15384615 , 4177.94871795 , 4135.8974359 , 4134.87179487 , 4135.8974359 , 4134.35897436 , 4136.92307692 , 4138.97435897 , 4138.97435897 , 4176.92307692 , 4778.46153846 , 4133.33333333 , 4137.94871795 , 2045.0 , 2045.0 , 9.069 , 0.0 , 0.0 , 0.0 , 0.0 , 

59.0 , 4136.41025641 , 4129.23076923 , 4175.38461538 , 4135.8974359 , 4134.87179487 , 4134.35897436 , 4133.84615385 , 4136.92307692 , 4138.97435897 , 4135.38461538 , 4176.92307692 , 4781.02564103 , 4132.30769231 , 4138.46153846 , 2045.0 , 2047.0 , 9.077 , 0.0 , 0.0 , 0.0 , 0.0 , 

60.0 , 4136.41025641 , 4131.79487179 , 4174.87179487 , 4137.43589744 , 4134.87179487 , 4133.84615385 , 4134.35897436 , 4136.41025641 , 4138.97435897 , 4138.97435897 , 4174.87179487 , 4781.02564103 , 4132.82051282 , 4140.0 , 2045.0 , 2047.0 , 9.085 , 0.0 , 0.0 , 0.0 , 0.0 , 

61.0 , 4133.84615385 , 4133.84615385 , 4175.38461538 , 4138.97435897 , 4134.87179487 , 4134.35897436 , 4133.84615385 , 4136.41025641 , 4138.97435897 , 4151.28205128 , 4175.8974359 , 4779.48717949 , 4132.82051282 , 4138.97435897 , 2044.0 , 2045.0 , 9.093 , 0.0 , 0.0 , 0.0 , 0.0 , 

62.0 , 4133.84615385 , 4134.35897436 , 4170.25641026 , 4134.87179487 , 4134.87179487 , 4134.35897436 , 4134.87179487 , 4134.87179487 , 4138.97435897 , 4148.20512821 , 4177.94871795 , 4783.07692308 , 4132.30769231 , 4137.43589744 , 2044.0 , 2043.0 , 9.101 , 0.0 , 0.0 , 0.0 , 0.0 , 

63.0 , 4136.92307692 , 4131.28205128 , 4167.69230769 , 4131.28205128 , 4134.87179487 , 4134.35897436 , 4135.8974359 , 4134.87179487 , 4138.97435897 , 4134.87179487 , 4176.92307692 , 4782.56410256 , 4133.84615385 , 4138.46153846 , 2044.0 , 2041.0 , 9.109 , 0.0 , 0.0 , 0.0 , 0.0 , 

64.0 , 4136.92307692 , 4129.23076923 , 4167.69230769 , 4134.35897436 , 4134.87179487 , 4134.35897436 , 4133.84615385 , 4135.8974359 , 4138.97435897 , 4142.05128205 , 4173.84615385 , 4781.02564103 , 4135.8974359 , 4138.46153846 , 2043.0 , 2037.0 , 9.117 , 0.0 , 0.0 , 0.0 , 0.0 , 

65.0 , 4135.38461538 , 4132.30769231 , 4167.69230769 , 4137.94871795 , 4134.87179487 , 4134.35897436 , 4134.35897436 , 4135.38461538 , 4138.97435897 , 4151.28205128 , 4176.41025641 , 4785.64102564 , 4135.8974359 , 4138.97435897 , 2044.0 , 2035.0 , 9.124 , 0.0 , 0.0 , 0.0 , 0.0 , 

66.0 , 4137.43589744 , 4133.33333333 , 4167.69230769 , 4135.8974359 , 4134.87179487 , 4134.87179487 , 4134.35897436 , 4134.35897436 , 4138.97435897 , 4140.0 , 4178.97435897 , 4788.20512821 , 4134.87179487 , 4141.02564103 , 2043.0 , 2036.0 , 9.132 , 0.0 , 0.0 , 0.0 , 0.0 , 

67.0 , 4135.8974359 , 4133.33333333 , 4164.61538462 , 4135.38461538 , 4134.87179487 , 4135.38461538 , 4134.35897436 , 4136.41025641 , 4138.97435897 , 4133.84615385 , 4175.38461538 , 4786.66666667 , 4135.38461538 , 4140.0 , 2042.0 , 2036.0 , 9.14 , 0.0 , 0.0 , 0.0 , 0.0 , 

68.0 , 4130.25641026 , 4133.33333333 , 4163.07692308 , 4138.46153846 , 4134.87179487 , 4134.87179487 , 4134.35897436 , 4137.94871795 , 4138.97435897 , 4140.0 , 4173.84615385 , 4785.12820513 , 4136.41025641 , 4137.94871795 , 2042.0 , 2035.0 , 9.148 , 0.0 , 0.0 , 0.0 , 0.0 , 

69.0 , 4131.79487179 , 4134.35897436 , 4161.02564103 , 4137.43589744 , 4134.87179487 , 4134.35897436 , 4134.35897436 , 4136.92307692 , 4138.97435897 , 4139.48717949 , 4177.94871795 , 4789.23076923 , 4136.92307692 , 4139.48717949 , 2043.0 , 2034.0 , 9.156 , 0.0 , 0.0 , 0.0 , 0.0 , 

70.0 , 4136.41025641 , 4137.43589744 , 4155.8974359 , 4136.92307692 , 4134.87179487 , 4133.84615385 , 4134.35897436 , 4135.8974359 , 4138.97435897 , 4138.46153846 , 4178.97435897 , 4788.71794872 , 4136.41025641 , 4140.51282051 , 2043.0 , 2036.0 , 9.164 , 0.0 , 0.0 , 0.0 , 0.0 , 

71.0 , 4137.43589744 , 4136.92307692 , 4150.25641026 , 4138.97435897 , 4134.87179487 , 4133.33333333 , 4134.35897436 , 4135.8974359 , 4138.97435897 , 4140.51282051 , 4175.8974359 , 4787.17948718 , 4135.38461538 , 4137.94871795 , 2045.0 , 2036.0 , 9.172 , 0.0 , 0.0 , 0.0 , 0.0 , 

72.0 , 4136.92307692 , 4129.74358974 , 4151.28205128 , 4138.97435897 , 4134.87179487 , 4134.35897436 , 4134.35897436 , 4137.43589744 , 4138.97435897 , 4138.97435897 , 4174.87179487 , 4790.76923077 , 4135.38461538 , 4137.94871795 , 2044.0 , 2034.0 , 9.18 , 0.0 , 0.0 , 0.0 , 0.0 , 

73.0 , 4136.92307692 , 4129.23076923 , 4156.92307692 , 4136.41025641 , 4134.87179487 , 4135.38461538 , 4134.35897436 , 4136.41025641 , 4139.48717949 , 4138.97435897 , 4176.41025641 , 4790.76923077 , 4135.8974359 , 4138.97435897 , 2045.0 , 2034.0 , 9.188 , 0.0 , 0.0 , 0.0 , 0.0 , 

74.0 , 4137.43589744 , 4136.41025641 , 4156.41025641 , 4136.92307692 , 4134.87179487 , 4134.87179487 , 4134.35897436 , 4134.87179487 , 4139.48717949 , 4138.46153846 , 4173.84615385 , 4786.66666667 , 4134.87179487 , 4137.94871795 , 2046.0 , 2031.0 , 9.195 , 0.0 , 0.0 , 0.0 , 0.0 , 

75.0 , 4137.43589744 , 4135.38461538 , 4150.76923077 , 4136.92307692 , 4134.87179487 , 4135.38461538 , 4134.35897436 , 4136.92307692 , 4138.97435897 , 4137.43589744 , 4170.25641026 , 4787.69230769 , 4135.38461538 , 4138.46153846 , 2045.0 , 2026.0 , 9.203 , 0.0 , 0.0 , 0.0 , 0.0 , 

76.0 , 4136.41025641 , 4129.74358974 , 4152.30769231 , 4135.38461538 , 4134.87179487 , 4135.38461538 , 4134.35897436 , 4136.92307692 , 4140.0 , 4141.02564103 , 4172.82051282 , 4790.76923077 , 4135.8974359 , 4138.46153846 , 2046.0 , 2025.0 , 9.211 , 0.0 , 0.0 , 0.0 , 0.0 , 

77.0 , 4135.38461538 , 4130.76923077 , 4150.25641026 , 4135.8974359 , 4134.87179487 , 4134.35897436 , 4134.35897436 , 4133.33333333 , 4138.97435897 , 4142.56410256 , 4177.43589744 , 4789.23076923 , 4134.87179487 , 4137.94871795 , 2046.0 , 2023.0 , 9.219 , 0.0 , 0.0 , 0.0 , 0.0 , 

78.0 , 4132.30769231 , 4136.41025641 , 4154.35897436 , 4137.94871795 , 4134.87179487 , 4133.84615385 , 4134.35897436 , 4133.84615385 , 4135.38461538 , 4137.94871795 , 4176.41025641 , 4788.71794872 , 4135.38461538 , 4138.97435897 , 2047.0 , 2021.0 , 9.227 , 0.0 , 0.0 , 0.0 , 0.0 , 

79.0 , 4129.23076923 , 4136.41025641 , 4146.15384615 , 4137.43589744 , 4134.87179487 , 4134.35897436 , 4134.35897436 , 4135.38461538 , 4134.35897436 , 4136.41025641 , 4173.84615385 , 4790.76923077 , 4130.76923077 , 4137.94871795 , 2046.0 , 2022.0 , 9.235 , 0.0 , 0.0 , 0.0 , 0.0 , 

80.0 , 4132.82051282 , 4134.87179487 , 4146.15384615 , 4136.41025641 , 4134.87179487 , 4134.87179487 , 4134.35897436 , 4136.92307692 , 4136.92307692 , 4140.51282051 , 4173.84615385 , 4791.79487179 , 4128.71794872 , 4136.92307692 , 2048.0 , 2022.0 , 9.243 , 0.0 , 0.0 , 0.0 , 0.0 , 

81.0 , 4135.38461538 , 4135.8974359 , 4143.07692308 , 4137.43589744 , 4134.87179487 , 4135.38461538 , 4134.35897436 , 4137.94871795 , 4136.41025641 , 4139.48717949 , 4172.82051282 , 4791.28205128 , 4128.20512821 , 4138.46153846 , 2049.0 , 2023.0 , 9.251 , 0.0 , 0.0 , 0.0 , 0.0 , 

82.0 , 4133.33333333 , 4136.92307692 , 4146.66666667 , 4138.46153846 , 4134.87179487 , 4135.38461538 , 4134.35897436 , 4137.94871795 , 4135.8974359 , 4138.46153846 , 4172.30769231 , 4791.79487179 , 4129.74358974 , 4138.97435897 , 2048.0 , 2026.0 , 9.258 , 0.0 , 0.0 , 0.0 , 0.0 , 

83.0 , 4133.84615385 , 4133.84615385 , 4145.12820513 , 4137.43589744 , 4134.87179487 , 4135.38461538 , 4134.35897436 , 4136.41025641 , 4136.41025641 , 4138.46153846 , 4173.84615385 , 4791.79487179 , 4127.17948718 , 4136.41025641 , 2050.0 , 2027.0 , 9.266 , 0.0 , 0.0 , 0.0 , 0.0 , 

84.0 , 4133.84615385 , 4131.79487179 , 4149.23076923 , 4136.92307692 , 4134.87179487 , 4135.38461538 , 4134.35897436 , 4139.48717949 , 4136.92307692 , 4138.97435897 , 4176.41025641 , 4791.79487179 , 4129.23076923 , 4137.94871795 , 2052.0 , 2028.0 , 9.275 , 0.0 , 0.0 , 0.0 , 0.0 , 

85.0 , 4132.30769231 , 4132.82051282 , 4151.79487179 , 4136.41025641 , 4134.87179487 , 4135.38461538 , 4134.35897436 , 4137.94871795 , 4136.41025641 , 4138.97435897 , 4175.38461538 , 4790.76923077 , 4131.28205128 , 4136.92307692 , 2054.0 , 2032.0 , 9.283 , 0.0 , 0.0 , 0.0 , 0.0 , 

86.0 , 4132.82051282 , 4133.84615385 , 4147.17948718 , 4134.87179487 , 4134.87179487 , 4135.38461538 , 4134.35897436 , 4133.84615385 , 4137.43589744 , 4138.97435897 , 4173.84615385 , 4792.30769231 , 4131.79487179 , 4133.33333333 , 2054.0 , 2032.0 , 9.29 , 0.0 , 0.0 , 0.0 , 0.0 , 

87.0 , 4132.30769231 , 4134.35897436 , 4146.66666667 , 4135.38461538 , 4134.87179487 , 4135.38461538 , 4134.35897436 , 4134.87179487 , 4136.92307692 , 4139.48717949 , 4173.84615385 , 4792.30769231 , 4130.76923077 , 4134.87179487 , 2056.0 , 2032.0 , 9.298 , 0.0 , 0.0 , 0.0 , 0.0 , 

88.0 , 4132.30769231 , 4133.33333333 , 4145.12820513 , 4136.92307692 , 4134.87179487 , 4135.38461538 , 4134.35897436 , 4138.46153846 , 4136.92307692 , 4141.53846154 , 4173.33333333 , 4791.28205128 , 4129.74358974 , 4138.46153846 , 2057.0 , 2031.0 , 9.306 , 0.0 , 0.0 , 0.0 , 0.0 , 

89.0 , 4135.38461538 , 4132.30769231 , 4147.69230769 , 4135.8974359 , 4134.87179487 , 4135.38461538 , 4134.35897436 , 4137.43589744 , 4136.92307692 , 4142.05128205 , 4173.33333333 , 4792.82051282 , 4130.25641026 , 4138.46153846 , 2060.0 , 2029.0 , 9.314 , 0.0 , 0.0 , 0.0 , 0.0 , 

90.0 , 4136.41025641 , 4132.30769231 , 4143.58974359 , 4134.35897436 , 4134.87179487 , 4135.38461538 , 4134.87179487 , 4134.87179487 , 4135.38461538 , 4141.53846154 , 4174.35897436 , 4794.87179487 , 4129.74358974 , 4136.41025641 , 2062.0 , 2028.0 , 9.322 , 0.0 , 0.0 , 0.0 , 0.0 , 

91.0 , 4134.35897436 , 4133.33333333 , 4147.69230769 , 4136.41025641 , 4134.87179487 , 4135.38461538 , 4133.84615385 , 4136.92307692 , 4134.87179487 , 4141.53846154 , 4172.82051282 , 4794.35897436 , 4129.23076923 , 4135.38461538 , 2063.0 , 2027.0 , 9.329 , 0.0 , 0.0 , 0.0 , 0.0 , 

92.0 , 4135.38461538 , 4133.84615385 , 4157.94871795 , 4137.43589744 , 4134.87179487 , 4135.38461538 , 4133.33333333 , 4136.41025641 , 4135.8974359 , 4141.53846154 , 4172.30769231 , 4792.30769231 , 4130.76923077 , 4136.41025641 , 2065.0 , 2026.0 , 9.338 , 0.0 , 0.0 , 0.0 , 0.0 , 

93.0 , 4136.92307692 , 4132.30769231 , 4163.58974359 , 4134.87179487 , 4134.87179487 , 4135.38461538 , 4136.41025641 , 4133.84615385 , 4137.43589744 , 4142.56410256 , 4175.8974359 , 4792.30769231 , 4132.30769231 , 4137.43589744 , 2067.0 , 2026.0 , 9.345 , 0.0 , 0.0 , 0.0 , 0.0 , 

94.0 , 4134.87179487 , 4134.35897436 , 4167.17948718 , 4135.8974359 , 4134.87179487 , 4135.38461538 , 4132.30769231 , 4136.41025641 , 4138.46153846 , 4146.15384615 , 4177.43589744 , 4797.94871795 , 4133.84615385 , 4136.92307692 , 2070.0 , 2027.0 , 9.354 , 0.0 , 0.0 , 0.0 , 0.0 , 

95.0 , 4133.33333333 , 4136.92307692 , 4164.1025641 , 4137.94871795 , 4134.87179487 , 4135.38461538 , 4124.61538462 , 4137.43589744 , 4138.46153846 , 4146.66666667 , 4175.38461538 , 4800.0 , 4131.28205128 , 4136.92307692 , 2070.0 , 2027.0 , 9.361 , 0.0 , 0.0 , 0.0 , 0.0 , 

96.0 , 4133.84615385 , 4131.28205128 , 4151.79487179 , 4136.41025641 , 4134.87179487 , 4135.38461538 , 4129.74358974 , 4137.43589744 , 4135.38461538 , 4143.07692308 , 4175.38461538 , 4798.46153846 , 4129.23076923 , 4137.94871795 , 2072.0 , 2031.0 , 9.37 , 0.0 , 0.0 , 0.0 , 0.0 , 

97.0 , 4134.87179487 , 4127.17948718 , 4142.05128205 , 4135.8974359 , 4134.87179487 , 4135.38461538 , 4136.41025641 , 4136.41025641 , 4134.35897436 , 4141.53846154 , 4174.87179487 , 4798.97435897 , 4131.79487179 , 4137.43589744 , 2072.0 , 2032.0 , 9.377 , 0.0 , 0.0 , 0.0 , 0.0 , 

98.0 , 4134.35897436 , 4133.33333333 , 4140.51282051 , 4136.41025641 , 4134.87179487 , 4135.38461538 , 4134.35897436 , 4133.84615385 , 4136.41025641 , 4142.56410256 , 4172.82051282 , 4799.48717949 , 4133.84615385 , 4137.94871795 , 2070.0 , 2034.0 , 9.385 , 0.0 , 0.0 , 0.0 , 0.0 , 

99.0 , 4131.79487179 , 4138.46153846 , 4138.97435897 , 4136.41025641 , 4134.87179487 , 4135.38461538 , 4133.33333333 , 4133.33333333 , 4136.41025641 , 4143.58974359 , 4173.33333333 , 4798.46153846 , 4130.76923077 , 4138.97435897 , 2070.0 , 2036.0 , 9.392 , 0.0 , 0.0 , 0.0 , 0.0 , 

