['COUNTER', 'AF3', 'F7', 'F3', 'FC5', 'T7', 'P7', 'O1', 'O2', 'P8', 'T8', 'FC6', 'F4', 'F8', 'AF4', 'GYROX', 'GYROY', 'TIMESTAMP', 'FUNC_ID', 'FUNC_VALUE', 'MARKER', 'SYNC_SIGNAL']
20.0 , 4135.38461538 , 4133.84615385 , 4246.15384615 , 4134.35897436 , 4134.87179487 , 4134.35897436 , 4134.35897436 , 4141.02564103 , 4140.51282051 , 4148.71794872 , 4178.97435897 , 4709.23076923 , 4136.41025641 , 4144.61538462 , 2026.0 , 2032.0 , 6.042 , 0.0 , 0.0 , 0.0 , 0.0 , 

21.0 , 4135.38461538 , 4135.38461538 , 4230.25641026 , 4134.35897436 , 4134.87179487 , 4134.35897436 , 4134.35897436 , 4140.51282051 , 4141.02564103 , 4145.64102564 , 4176.92307692 , 4709.23076923 , 4137.43589744 , 4137.43589744 , 2027.0 , 2032.0 , 6.05 , 0.0 , 0.0 , 0.0 , 0.0 , 

22.0 , 4133.33333333 , 4135.8974359 , 4216.92307692 , 4134.87179487 , 4134.87179487 , 4134.35897436 , 4134.35897436 , 4138.46153846 , 4141.53846154 , 4142.56410256 , 4177.94871795 , 4708.71794872 , 4135.8974359 , 4134.87179487 , 2026.0 , 2029.0 , 6.058 , 0.0 , 0.0 , 0.0 , 0.0 , 

23.0 , 4134.87179487 , 4133.33333333 , 4205.64102564 , 4134.35897436 , 4134.87179487 , 4134.35897436 , 4134.35897436 , 4135.8974359 , 4140.0 , 4140.51282051 , 4177.94871795 , 4707.17948718 , 4130.76923077 , 4138.46153846 , 2026.0 , 2028.0 , 6.066 , 0.0 , 0.0 , 0.0 , 0.0 , 

24.0 , 4138.46153846 , 4131.79487179 , 4211.79487179 , 4133.84615385 , 4134.87179487 , 4134.35897436 , 4134.35897436 , 4138.97435897 , 4138.97435897 , 4142.56410256 , 4178.46153846 , 4712.30769231 , 4133.84615385 , 4139.48717949 , 2026.0 , 2027.0 , 6.074 , 0.0 , 0.0 , 0.0 , 0.0 , 

25.0 , 4134.35897436 , 4133.33333333 , 4207.69230769 , 4134.35897436 , 4134.87179487 , 4134.35897436 , 4134.87179487 , 4137.43589744 , 4137.43589744 , 4144.1025641 , 4178.97435897 , 4714.35897436 , 4135.8974359 , 4138.46153846 , 2023.0 , 2027.0 , 6.082 , 0.0 , 0.0 , 0.0 , 0.0 , 

26.0 , 4130.25641026 , 4133.84615385 , 4206.66666667 , 4134.35897436 , 4134.87179487 , 4134.35897436 , 4134.35897436 , 4136.41025641 , 4137.43589744 , 4144.61538462 , 4178.46153846 , 4710.25641026 , 4135.38461538 , 4138.97435897 , 2023.0 , 2028.0 , 6.09 , 0.0 , 0.0 , 0.0 , 0.0 , 

27.0 , 4134.35897436 , 4132.30769231 , 4204.61538462 , 4134.35897436 , 4134.87179487 , 4133.84615385 , 4134.35897436 , 4136.41025641 , 4135.8974359 , 4144.61538462 , 4180.0 , 4710.25641026 , 4134.87179487 , 4138.46153846 , 2021.0 , 2029.0 , 6.097 , 0.0 , 0.0 , 0.0 , 0.0 , 

28.0 , 4136.92307692 , 4132.82051282 , 4197.43589744 , 4134.87179487 , 4134.87179487 , 4134.87179487 , 4134.87179487 , 4136.92307692 , 4135.8974359 , 4144.61538462 , 4180.51282051 , 4712.82051282 , 4135.8974359 , 4137.94871795 , 2020.0 , 2031.0 , 6.105 , 0.0 , 0.0 , 0.0 , 0.0 , 

29.0 , 4135.8974359 , 4134.35897436 , 4197.94871795 , 4135.8974359 , 4134.87179487 , 4135.38461538 , 4134.35897436 , 4135.8974359 , 4136.92307692 , 4143.07692308 , 4177.43589744 , 4711.79487179 , 4136.41025641 , 4136.92307692 , 2017.0 , 2031.0 , 6.114 , 0.0 , 0.0 , 0.0 , 0.0 , 

30.0 , 4135.8974359 , 4136.92307692 , 4196.92307692 , 4136.41025641 , 4134.87179487 , 4134.87179487 , 4133.33333333 , 4134.35897436 , 4136.41025641 , 4141.02564103 , 4176.41025641 , 4711.28205128 , 4134.87179487 , 4135.8974359 , 2015.0 , 2036.0 , 6.122 , 0.0 , 0.0 , 0.0 , 0.0 , 

31.0 , 4134.35897436 , 4135.38461538 , 4195.8974359 , 4135.8974359 , 4134.87179487 , 4133.84615385 , 4133.84615385 , 4136.41025641 , 4136.92307692 , 4141.53846154 , 4178.46153846 , 4714.87179487 , 4135.8974359 , 4137.43589744 , 2014.0 , 2036.0 , 6.129 , 0.0 , 0.0 , 0.0 , 0.0 , 

32.0 , 4135.8974359 , 4130.76923077 , 4194.87179487 , 4134.87179487 , 4134.87179487 , 4134.35897436 , 4134.35897436 , 4137.94871795 , 4136.92307692 , 4138.46153846 , 4179.48717949 , 4718.46153846 , 4135.8974359 , 4137.94871795 , 2012.0 , 2038.0 , 6.137 , 0.0 , 0.0 , 0.0 , 0.0 , 

33.0 , 4136.41025641 , 4133.84615385 , 4202.05128205 , 4134.35897436 , 4134.87179487 , 4134.35897436 , 4133.84615385 , 4137.94871795 , 4137.94871795 , 4138.46153846 , 4177.94871795 , 4723.07692308 , 4133.33333333 , 4139.48717949 , 2011.0 , 2039.0 , 6.145 , 0.0 , 0.0 , 0.0 , 0.0 , 

34.0 , 4130.25641026 , 4136.41025641 , 4204.1025641 , 4134.87179487 , 4134.87179487 , 4133.84615385 , 4134.87179487 , 4136.41025641 , 4137.94871795 , 4148.20512821 , 4176.92307692 , 4724.1025641 , 4132.30769231 , 4137.94871795 , 2011.0 , 2039.0 , 6.153 , 0.0 , 0.0 , 0.0 , 0.0 , 

35.0 , 4128.71794872 , 4129.74358974 , 4202.56410256 , 4135.8974359 , 4134.87179487 , 4134.35897436 , 4133.84615385 , 4136.41025641 , 4137.94871795 , 4149.23076923 , 4183.58974359 , 4723.07692308 , 4135.8974359 , 4136.92307692 , 2009.0 , 2041.0 , 6.16 , 0.0 , 0.0 , 0.0 , 0.0 , 

36.0 , 4135.38461538 , 4128.71794872 , 4202.05128205 , 4135.8974359 , 4134.87179487 , 4134.35897436 , 4130.76923077 , 4136.92307692 , 4136.92307692 , 4136.41025641 , 4185.64102564 , 4724.1025641 , 4137.43589744 , 4139.48717949 , 2008.0 , 2041.0 , 6.168 , 0.0 , 0.0 , 0.0 , 0.0 , 

37.0 , 4135.38461538 , 4130.25641026 , 4201.53846154 , 4135.38461538 , 4134.87179487 , 4134.35897436 , 4127.69230769 , 4136.41025641 , 4135.8974359 , 4135.38461538 , 4178.46153846 , 4725.12820513 , 4135.38461538 , 4142.05128205 , 2005.0 , 2042.0 , 6.176 , 0.0 , 0.0 , 0.0 , 0.0 , 

38.0 , 4131.28205128 , 4128.71794872 , 4199.48717949 , 4136.92307692 , 4134.87179487 , 4134.87179487 , 4128.20512821 , 4134.87179487 , 4135.8974359 , 4142.05128205 , 4176.92307692 , 4724.61538462 , 4135.8974359 , 4138.97435897 , 2005.0 , 2042.0 , 6.184 , 0.0 , 0.0 , 0.0 , 0.0 , 

39.0 , 4133.33333333 , 4131.79487179 , 4198.46153846 , 4136.92307692 , 4134.87179487 , 4133.84615385 , 4132.30769231 , 4134.87179487 , 4136.41025641 , 4137.94871795 , 4181.53846154 , 4726.66666667 , 4136.41025641 , 4136.92307692 , 2004.0 , 2039.0 , 6.192 , 0.0 , 0.0 , 0.0 , 0.0 , 

40.0 , 4136.92307692 , 4137.43589744 , 4195.38461538 , 4134.87179487 , 4134.87179487 , 4134.35897436 , 4135.38461538 , 4136.41025641 , 4135.8974359 , 4136.41025641 , 4177.94871795 , 4728.20512821 , 4135.38461538 , 4139.48717949 , 2005.0 , 2039.0 , 6.2 , 0.0 , 0.0 , 0.0 , 0.0 , 

41.0 , 4136.41025641 , 4137.43589744 , 4196.41025641 , 4134.87179487 , 4134.87179487 , 4134.87179487 , 4132.82051282 , 4136.41025641 , 4135.8974359 , 4150.76923077 , 4179.48717949 , 4727.69230769 , 4136.41025641 , 4140.0 , 2004.0 , 2037.0 , 6.208 , 0.0 , 0.0 , 0.0 , 0.0 , 

42.0 , 4135.8974359 , 4133.33333333 , 4196.92307692 , 4136.41025641 , 4134.87179487 , 4132.30769231 , 4133.84615385 , 4134.35897436 , 4135.8974359 , 4148.20512821 , 4186.66666667 , 4727.69230769 , 4135.8974359 , 4138.97435897 , 2006.0 , 2035.0 , 6.216 , 0.0 , 0.0 , 0.0 , 0.0 , 

43.0 , 4134.87179487 , 4131.28205128 , 4197.43589744 , 4134.87179487 , 4134.87179487 , 4128.20512821 , 4135.8974359 , 4134.87179487 , 4135.8974359 , 4133.84615385 , 4180.0 , 4730.76923077 , 4134.35897436 , 4140.51282051 , 2006.0 , 2033.0 , 6.223 , 0.0 , 0.0 , 0.0 , 0.0 , 

44.0 , 4135.38461538 , 4132.82051282 , 4197.43589744 , 4134.35897436 , 4134.87179487 , 4128.20512821 , 4128.20512821 , 4135.8974359 , 4135.8974359 , 4139.48717949 , 4172.30769231 , 4730.76923077 , 4135.38461538 , 4140.0 , 2009.0 , 2031.0 , 6.231 , 0.0 , 0.0 , 0.0 , 0.0 , 

45.0 , 4136.92307692 , 4136.92307692 , 4196.92307692 , 4136.41025641 , 4134.87179487 , 4132.82051282 , 4126.15384615 , 4136.41025641 , 4135.8974359 , 4146.66666667 , 4180.0 , 4729.74358974 , 4136.41025641 , 4138.46153846 , 2010.0 , 2032.0 , 6.239 , 0.0 , 0.0 , 0.0 , 0.0 , 

46.0 , 4132.82051282 , 4133.84615385 , 4195.38461538 , 4135.8974359 , 4134.87179487 , 4134.35897436 , 4136.41025641 , 4135.38461538 , 4135.8974359 , 4138.97435897 , 4183.07692308 , 4734.87179487 , 4135.8974359 , 4139.48717949 , 2012.0 , 2034.0 , 6.247 , 0.0 , 0.0 , 0.0 , 0.0 , 

47.0 , 4126.15384615 , 4131.28205128 , 4195.38461538 , 4134.35897436 , 4134.87179487 , 4132.82051282 , 4138.97435897 , 4134.87179487 , 4135.8974359 , 4136.41025641 , 4179.48717949 , 4738.97435897 , 4135.8974359 , 4139.48717949 , 2014.0 , 2035.0 , 6.255 , 0.0 , 0.0 , 0.0 , 0.0 , 

48.0 , 4130.25641026 , 4132.82051282 , 4191.79487179 , 4135.38461538 , 4134.87179487 , 4131.79487179 , 4135.38461538 , 4135.8974359 , 4135.8974359 , 4138.97435897 , 4182.56410256 , 4737.43589744 , 4135.38461538 , 4138.97435897 , 2015.0 , 2036.0 , 6.263 , 0.0 , 0.0 , 0.0 , 0.0 , 

49.0 , 4136.92307692 , 4133.84615385 , 4192.30769231 , 4138.46153846 , 4134.87179487 , 4132.82051282 , 4136.41025641 , 4134.87179487 , 4135.8974359 , 4141.53846154 , 4184.61538462 , 4737.43589744 , 4134.87179487 , 4138.46153846 , 2016.0 , 2035.0 , 6.271 , 0.0 , 0.0 , 0.0 , 0.0 , 

50.0 , 4135.8974359 , 4132.82051282 , 4191.28205128 , 4137.94871795 , 4134.35897436 , 4134.35897436 , 4138.46153846 , 4132.82051282 , 4135.8974359 , 4149.23076923 , 4181.02564103 , 4743.07692308 , 4135.8974359 , 4138.97435897 , 2018.0 , 2036.0 , 6.28 , 0.0 , 0.0 , 0.0 , 0.0 , 

51.0 , 4135.8974359 , 4133.84615385 , 4187.17948718 , 4135.38461538 , 4135.38461538 , 4135.38461538 , 4136.92307692 , 4132.30769231 , 4135.8974359 , 4152.82051282 , 4181.53846154 , 4742.05128205 , 4135.8974359 , 4140.0 , 2020.0 , 2037.0 , 6.287 , 0.0 , 0.0 , 0.0 , 0.0 , 

52.0 , 4137.43589744 , 4135.38461538 , 4183.58974359 , 4136.41025641 , 4135.8974359 , 4134.87179487 , 4136.41025641 , 4132.82051282 , 4135.8974359 , 4149.23076923 , 4184.1025641 , 4740.0 , 4134.87179487 , 4141.53846154 , 2021.0 , 2037.0 , 6.295 , 0.0 , 0.0 , 0.0 , 0.0 , 

53.0 , 4134.35897436 , 4133.84615385 , 4188.71794872 , 4137.43589744 , 4133.84615385 , 4132.82051282 , 4136.41025641 , 4133.84615385 , 4135.8974359 , 4150.25641026 , 4183.58974359 , 4742.05128205 , 4135.8974359 , 4140.51282051 , 2024.0 , 2037.0 , 6.303 , 0.0 , 0.0 , 0.0 , 0.0 , 

54.0 , 4133.84615385 , 4130.76923077 , 4191.28205128 , 4135.8974359 , 4133.33333333 , 4133.84615385 , 4135.38461538 , 4136.41025641 , 4135.8974359 , 4151.28205128 , 4184.1025641 , 4742.56410256 , 4136.41025641 , 4138.97435897 , 2026.0 , 2036.0 , 6.311 , 0.0 , 0.0 , 0.0 , 0.0 , 

55.0 , 4136.41025641 , 4131.28205128 , 4188.20512821 , 4135.8974359 , 4135.38461538 , 4135.38461538 , 4136.41025641 , 4136.41025641 , 4135.8974359 , 4149.23076923 , 4184.61538462 , 4741.53846154 , 4135.8974359 , 4138.46153846 , 2029.0 , 2034.0 , 6.319 , 0.0 , 0.0 , 0.0 , 0.0 , 

56.0 , 4136.41025641 , 4135.8974359 , 4187.17948718 , 4136.92307692 , 4135.38461538 , 4134.87179487 , 4136.92307692 , 4135.8974359 , 4135.8974359 , 4150.25641026 , 4183.07692308 , 4742.56410256 , 4135.8974359 , 4139.48717949 , 2029.0 , 2032.0 , 6.326 , 0.0 , 0.0 , 0.0 , 0.0 , 

57.0 , 4135.38461538 , 4134.87179487 , 4187.69230769 , 4135.8974359 , 4133.84615385 , 4135.8974359 , 4134.35897436 , 4136.92307692 , 4135.8974359 , 4150.25641026 , 4180.51282051 , 4743.58974359 , 4135.8974359 , 4139.48717949 , 2031.0 , 2033.0 , 6.335 , 0.0 , 0.0 , 0.0 , 0.0 , 

58.0 , 4135.8974359 , 4130.76923077 , 4186.66666667 , 4134.35897436 , 4134.35897436 , 4135.38461538 , 4131.79487179 , 4137.43589744 , 4135.8974359 , 4149.23076923 , 4182.05128205 , 4744.61538462 , 4135.8974359 , 4138.97435897 , 2034.0 , 2032.0 , 6.343 , 0.0 , 0.0 , 0.0 , 0.0 , 

59.0 , 4135.8974359 , 4134.35897436 , 4187.17948718 , 4135.38461538 , 4134.35897436 , 4134.35897436 , 4133.33333333 , 4136.92307692 , 4135.8974359 , 4149.23076923 , 4183.58974359 , 4746.66666667 , 4136.41025641 , 4137.94871795 , 2034.0 , 2030.0 , 6.35 , 0.0 , 0.0 , 0.0 , 0.0 , 

60.0 , 4134.87179487 , 4138.46153846 , 4187.17948718 , 4136.41025641 , 4134.35897436 , 4133.84615385 , 4135.38461538 , 4135.38461538 , 4135.8974359 , 4149.23076923 , 4181.02564103 , 4748.71794872 , 4135.38461538 , 4138.46153846 , 2037.0 , 2030.0 , 6.359 , 0.0 , 0.0 , 0.0 , 0.0 , 

61.0 , 4135.8974359 , 4134.35897436 , 4183.07692308 , 4135.8974359 , 4134.35897436 , 4134.35897436 , 4134.87179487 , 4135.8974359 , 4135.8974359 , 4149.23076923 , 4180.51282051 , 4747.69230769 , 4134.87179487 , 4138.97435897 , 2039.0 , 2030.0 , 6.366 , 0.0 , 0.0 , 0.0 , 0.0 , 

62.0 , 4136.41025641 , 4132.30769231 , 4183.07692308 , 4135.8974359 , 4134.35897436 , 4134.35897436 , 4133.84615385 , 4136.41025641 , 4135.8974359 , 4149.23076923 , 4184.1025641 , 4747.17948718 , 4135.8974359 , 4138.46153846 , 2040.0 , 2034.0 , 6.374 , 0.0 , 0.0 , 0.0 , 0.0 , 

63.0 , 4135.8974359 , 4135.8974359 , 4182.56410256 , 4135.8974359 , 4134.35897436 , 4134.35897436 , 4133.33333333 , 4135.8974359 , 4135.8974359 , 4149.23076923 , 4184.1025641 , 4748.71794872 , 4136.41025641 , 4138.97435897 , 2042.0 , 2035.0 , 6.382 , 0.0 , 0.0 , 0.0 , 0.0 , 

64.0 , 4135.8974359 , 4135.8974359 , 4184.61538462 , 4135.8974359 , 4134.35897436 , 4134.35897436 , 4134.87179487 , 4134.87179487 , 4135.8974359 , 4149.23076923 , 4183.07692308 , 4749.74358974 , 4135.38461538 , 4139.48717949 , 2044.0 , 2035.0 , 6.389 , 0.0 , 0.0 , 0.0 , 0.0 , 

65.0 , 4135.8974359 , 4129.74358974 , 4188.20512821 , 4135.8974359 , 4134.35897436 , 4134.35897436 , 4135.8974359 , 4136.41025641 , 4135.8974359 , 4149.23076923 , 4183.58974359 , 4750.76923077 , 4135.8974359 , 4137.94871795 , 2046.0 , 2037.0 , 6.397 , 0.0 , 0.0 , 0.0 , 0.0 , 

66.0 , 4136.41025641 , 4128.20512821 , 4189.23076923 , 4135.8974359 , 4134.35897436 , 4134.35897436 , 4134.35897436 , 4137.43589744 , 4135.8974359 , 4149.23076923 , 4181.53846154 , 4749.74358974 , 4135.8974359 , 4136.92307692 , 2049.0 , 2036.0 , 6.405 , 0.0 , 0.0 , 0.0 , 0.0 , 

67.0 , 4135.38461538 , 4131.28205128 , 4182.56410256 , 4135.8974359 , 4134.35897436 , 4134.35897436 , 4133.84615385 , 4135.8974359 , 4135.8974359 , 4149.23076923 , 4182.56410256 , 4751.28205128 , 4135.8974359 , 4138.97435897 , 2051.0 , 2033.0 , 6.413 , 0.0 , 0.0 , 0.0 , 0.0 , 

68.0 , 4134.35897436 , 4135.38461538 , 4181.53846154 , 4135.8974359 , 4134.35897436 , 4134.35897436 , 4134.35897436 , 4135.38461538 , 4135.8974359 , 4149.23076923 , 4184.1025641 , 4755.8974359 , 4135.8974359 , 4138.46153846 , 2051.0 , 2032.0 , 6.421 , 0.0 , 0.0 , 0.0 , 0.0 , 

69.0 , 4133.84615385 , 4132.30769231 , 4183.07692308 , 4135.8974359 , 4134.35897436 , 4134.35897436 , 4134.35897436 , 4136.41025641 , 4135.8974359 , 4149.23076923 , 4177.94871795 , 4760.0 , 4135.38461538 , 4137.43589744 , 2053.0 , 2030.0 , 6.429 , 0.0 , 0.0 , 0.0 , 0.0 , 

70.0 , 4133.84615385 , 4128.71794872 , 4185.12820513 , 4135.8974359 , 4134.87179487 , 4134.35897436 , 4134.35897436 , 4135.38461538 , 4135.8974359 , 4149.23076923 , 4177.43589744 , 4758.46153846 , 4135.8974359 , 4140.51282051 , 2054.0 , 2029.0 , 6.436 , 0.0 , 0.0 , 0.0 , 0.0 , 

71.0 , 4134.35897436 , 4133.33333333 , 4185.12820513 , 4135.8974359 , 4135.8974359 , 4134.35897436 , 4134.35897436 , 4134.87179487 , 4135.8974359 , 4149.23076923 , 4183.58974359 , 4755.8974359 , 4135.8974359 , 4141.53846154 , 2053.0 , 2027.0 , 6.444 , 0.0 , 0.0 , 0.0 , 0.0 , 

72.0 , 4133.33333333 , 4132.82051282 , 4182.56410256 , 4135.8974359 , 4136.41025641 , 4134.35897436 , 4134.35897436 , 4135.38461538 , 4135.8974359 , 4149.23076923 , 4185.12820513 , 4758.46153846 , 4135.8974359 , 4138.46153846 , 2054.0 , 2028.0 , 6.452 , 0.0 , 0.0 , 0.0 , 0.0 , 

73.0 , 4133.84615385 , 4129.23076923 , 4177.43589744 , 4135.8974359 , 4136.41025641 , 4134.35897436 , 4134.35897436 , 4136.41025641 , 4135.8974359 , 4149.23076923 , 4183.07692308 , 4758.46153846 , 4136.41025641 , 4137.43589744 , 2054.0 , 2027.0 , 6.46 , 0.0 , 0.0 , 0.0 , 0.0 , 

74.0 , 4135.8974359 , 4134.87179487 , 4177.94871795 , 4136.41025641 , 4135.38461538 , 4134.35897436 , 4134.35897436 , 4135.8974359 , 4135.8974359 , 4149.23076923 , 4184.61538462 , 4758.97435897 , 4136.92307692 , 4138.97435897 , 2056.0 , 2027.0 , 6.468 , 0.0 , 0.0 , 0.0 , 0.0 , 

75.0 , 4135.8974359 , 4137.43589744 , 4180.0 , 4135.8974359 , 4134.35897436 , 4133.84615385 , 4134.35897436 , 4135.8974359 , 4135.8974359 , 4149.23076923 , 4184.61538462 , 4764.1025641 , 4135.8974359 , 4138.97435897 , 2056.0 , 2028.0 , 6.476 , 0.0 , 0.0 , 0.0 , 0.0 , 

76.0 , 4134.35897436 , 4133.33333333 , 4176.92307692 , 4135.38461538 , 4133.84615385 , 4134.35897436 , 4134.35897436 , 4135.8974359 , 4135.8974359 , 4149.74358974 , 4182.56410256 , 4766.15384615 , 4135.8974359 , 4139.48717949 , 2057.0 , 2026.0 , 6.484 , 0.0 , 0.0 , 0.0 , 0.0 , 

77.0 , 4136.41025641 , 4133.84615385 , 4171.28205128 , 4136.92307692 , 4134.35897436 , 4134.87179487 , 4134.35897436 , 4135.8974359 , 4135.8974359 , 4149.74358974 , 4183.07692308 , 4764.1025641 , 4136.41025641 , 4137.94871795 , 2058.0 , 2026.0 , 6.491 , 0.0 , 0.0 , 0.0 , 0.0 , 

78.0 , 4136.92307692 , 4135.8974359 , 4173.84615385 , 4136.41025641 , 4134.87179487 , 4135.38461538 , 4134.35897436 , 4135.8974359 , 4135.8974359 , 4148.20512821 , 4182.56410256 , 4763.07692308 , 4135.8974359 , 4138.46153846 , 2058.0 , 2027.0 , 6.499 , 0.0 , 0.0 , 0.0 , 0.0 , 

79.0 , 4135.38461538 , 4132.30769231 , 4178.97435897 , 4134.87179487 , 4135.38461538 , 4135.38461538 , 4134.35897436 , 4135.8974359 , 4135.8974359 , 4149.23076923 , 4182.56410256 , 4765.64102564 , 4136.41025641 , 4142.05128205 , 2058.0 , 2025.0 , 6.507 , 0.0 , 0.0 , 0.0 , 0.0 , 

80.0 , 4136.41025641 , 4133.84615385 , 4173.84615385 , 4135.8974359 , 4135.38461538 , 4134.87179487 , 4134.35897436 , 4135.8974359 , 4135.8974359 , 4151.28205128 , 4181.53846154 , 4765.12820513 , 4137.43589744 , 4141.53846154 , 2059.0 , 2025.0 , 6.515 , 0.0 , 0.0 , 0.0 , 0.0 , 

81.0 , 4136.41025641 , 4137.43589744 , 4172.30769231 , 4138.46153846 , 4135.38461538 , 4135.38461538 , 4134.35897436 , 4136.41025641 , 4135.8974359 , 4144.61538462 , 4182.56410256 , 4764.1025641 , 4136.41025641 , 4137.94871795 , 2058.0 , 2024.0 , 6.523 , 0.0 , 0.0 , 0.0 , 0.0 , 

82.0 , 4135.8974359 , 4136.41025641 , 4172.30769231 , 4136.92307692 , 4135.38461538 , 4135.38461538 , 4134.35897436 , 4136.92307692 , 4135.8974359 , 4139.48717949 , 4184.61538462 , 4766.66666667 , 4135.8974359 , 4139.48717949 , 2058.0 , 2026.0 , 6.531 , 0.0 , 0.0 , 0.0 , 0.0 , 

83.0 , 4136.92307692 , 4134.87179487 , 4171.28205128 , 4135.38461538 , 4135.38461538 , 4134.87179487 , 4134.35897436 , 4136.92307692 , 4135.8974359 , 4146.15384615 , 4183.58974359 , 4769.23076923 , 4136.41025641 , 4141.53846154 , 2058.0 , 2025.0 , 6.539 , 0.0 , 0.0 , 0.0 , 0.0 , 

84.0 , 4135.8974359 , 4137.43589744 , 4169.74358974 , 4136.41025641 , 4135.38461538 , 4134.35897436 , 4134.35897436 , 4135.8974359 , 4135.8974359 , 4152.82051282 , 4182.56410256 , 4771.28205128 , 4135.8974359 , 4140.51282051 , 2058.0 , 2027.0 , 6.547 , 0.0 , 0.0 , 0.0 , 0.0 , 

85.0 , 4135.8974359 , 4136.92307692 , 4172.82051282 , 4135.38461538 , 4135.38461538 , 4135.38461538 , 4134.35897436 , 4135.38461538 , 4135.8974359 , 4151.28205128 , 4183.07692308 , 4768.71794872 , 4135.8974359 , 4138.97435897 , 2058.0 , 2030.0 , 6.555 , 0.0 , 0.0 , 0.0 , 0.0 , 

86.0 , 4136.41025641 , 4133.84615385 , 4169.74358974 , 4135.38461538 , 4135.38461538 , 4135.38461538 , 4134.35897436 , 4136.41025641 , 4135.8974359 , 4144.1025641 , 4184.1025641 , 4768.20512821 , 4136.41025641 , 4139.48717949 , 2057.0 , 2029.0 , 6.563 , 0.0 , 0.0 , 0.0 , 0.0 , 

87.0 , 4136.41025641 , 4135.38461538 , 4166.66666667 , 4137.94871795 , 4135.38461538 , 4135.38461538 , 4134.35897436 , 4137.43589744 , 4135.8974359 , 4139.48717949 , 4181.53846154 , 4772.82051282 , 4135.38461538 , 4138.97435897 , 2057.0 , 2031.0 , 6.571 , 0.0 , 0.0 , 0.0 , 0.0 , 

88.0 , 4135.8974359 , 4136.92307692 , 4168.71794872 , 4137.94871795 , 4135.38461538 , 4135.38461538 , 4134.35897436 , 4137.94871795 , 4135.8974359 , 4148.71794872 , 4183.07692308 , 4775.8974359 , 4134.87179487 , 4138.46153846 , 2060.0 , 2034.0 , 6.578 , 0.0 , 0.0 , 0.0 , 0.0 , 

89.0 , 4136.92307692 , 4131.28205128 , 4168.20512821 , 4135.8974359 , 4135.38461538 , 4134.35897436 , 4134.35897436 , 4136.92307692 , 4136.41025641 , 4153.33333333 , 4185.64102564 , 4774.35897436 , 4134.87179487 , 4140.0 , 2061.0 , 2034.0 , 6.586 , 0.0 , 0.0 , 0.0 , 0.0 , 

90.0 , 4136.41025641 , 4129.23076923 , 4164.1025641 , 4136.41025641 , 4135.38461538 , 4133.84615385 , 4134.35897436 , 4135.8974359 , 4136.41025641 , 4143.58974359 , 4178.46153846 , 4773.84615385 , 4134.87179487 , 4140.51282051 , 2062.0 , 2036.0 , 6.594 , 0.0 , 0.0 , 0.0 , 0.0 , 

91.0 , 4134.35897436 , 4134.87179487 , 4162.05128205 , 4137.94871795 , 4135.38461538 , 4134.87179487 , 4134.35897436 , 4135.38461538 , 4135.8974359 , 4141.02564103 , 4173.33333333 , 4773.84615385 , 4134.87179487 , 4137.43589744 , 2063.0 , 2035.0 , 6.602 , 0.0 , 0.0 , 0.0 , 0.0 , 

92.0 , 4133.33333333 , 4136.92307692 , 4159.48717949 , 4136.92307692 , 4135.38461538 , 4135.38461538 , 4134.35897436 , 4135.8974359 , 4136.41025641 , 4146.15384615 , 4180.51282051 , 4770.25641026 , 4135.8974359 , 4137.43589744 , 2064.0 , 2035.0 , 6.61 , 0.0 , 0.0 , 0.0 , 0.0 , 

93.0 , 4135.38461538 , 4134.87179487 , 4162.05128205 , 4135.38461538 , 4135.38461538 , 4135.38461538 , 4134.35897436 , 4135.8974359 , 4136.41025641 , 4143.07692308 , 4185.64102564 , 4770.76923077 , 4135.8974359 , 4138.97435897 , 2066.0 , 2035.0 , 6.618 , 0.0 , 0.0 , 0.0 , 0.0 , 

94.0 , 4136.92307692 , 4134.87179487 , 4162.05128205 , 4135.8974359 , 4135.38461538 , 4135.38461538 , 4134.35897436 , 4135.8974359 , 4135.38461538 , 4140.51282051 , 4179.48717949 , 4773.33333333 , 4132.30769231 , 4138.97435897 , 2066.0 , 2036.0 , 6.625 , 0.0 , 0.0 , 0.0 , 0.0 , 

95.0 , 4133.84615385 , 4135.8974359 , 4162.56410256 , 4137.43589744 , 4135.38461538 , 4134.35897436 , 4134.35897436 , 4136.92307692 , 4135.38461538 , 4143.07692308 , 4177.43589744 , 4772.82051282 , 4132.82051282 , 4138.97435897 , 2065.0 , 2036.0 , 6.633 , 0.0 , 0.0 , 0.0 , 0.0 , 

96.0 , 4132.82051282 , 4136.41025641 , 4160.0 , 4136.41025641 , 4135.38461538 , 4134.35897436 , 4134.35897436 , 4136.92307692 , 4135.8974359 , 4142.56410256 , 4177.94871795 , 4772.82051282 , 4134.35897436 , 4140.51282051 , 2066.0 , 2036.0 , 6.641 , 0.0 , 0.0 , 0.0 , 0.0 , 

97.0 , 4135.38461538 , 4134.35897436 , 4160.51282051 , 4136.41025641 , 4135.38461538 , 4134.35897436 , 4134.35897436 , 4136.92307692 , 4136.41025641 , 4143.07692308 , 4177.43589744 , 4776.92307692 , 4134.87179487 , 4140.0 , 2067.0 , 2038.0 , 6.649 , 0.0 , 0.0 , 0.0 , 0.0 , 

98.0 , 4135.8974359 , 4134.35897436 , 4152.30769231 , 4135.8974359 , 4135.38461538 , 4134.35897436 , 4134.35897436 , 4136.41025641 , 4136.92307692 , 4141.02564103 , 4175.8974359 , 4776.41025641 , 4130.76923077 , 4137.94871795 , 2068.0 , 2037.0 , 6.657 , 0.0 , 0.0 , 0.0 , 0.0 , 

99.0 , 4135.38461538 , 4136.41025641 , 4151.28205128 , 4135.38461538 , 4135.38461538 , 4134.35897436 , 4134.35897436 , 4136.92307692 , 4137.43589744 , 4141.02564103 , 4175.8974359 , 4773.33333333 , 4130.25641026 , 4137.43589744 , 2066.0 , 2035.0 , 6.665 , 0.0 , 0.0 , 0.0 , 0.0 , 

100.0 , 4135.38461538 , 4133.84615385 , 4153.84615385 , 4135.8974359 , 4135.38461538 , 4134.35897436 , 4134.35897436 , 4134.87179487 , 4137.43589744 , 4143.07692308 , 4178.46153846 , 4774.87179487 , 4130.76923077 , 4136.92307692 , 2068.0 , 2033.0 , 6.673 , 0.0 , 0.0 , 0.0 , 0.0 , 

101.0 , 4135.8974359 , 4132.30769231 , 4149.74358974 , 4137.43589744 , 4135.38461538 , 4134.35897436 , 4134.35897436 , 4134.87179487 , 4137.43589744 , 4145.12820513 , 4180.51282051 , 4778.97435897 , 4131.79487179 , 4137.43589744 , 2068.0 , 2034.0 , 6.681 , 0.0 , 0.0 , 0.0 , 0.0 , 

102.0 , 4135.8974359 , 4135.8974359 , 4156.92307692 , 4136.41025641 , 4135.38461538 , 4134.35897436 , 4134.35897436 , 4136.92307692 , 4136.41025641 , 4146.66666667 , 4178.97435897 , 4779.48717949 , 4129.74358974 , 4140.0 , 2067.0 , 2034.0 , 6.688 , 0.0 , 0.0 , 0.0 , 0.0 , 

103.0 , 4135.38461538 , 4135.38461538 , 4167.69230769 , 4135.8974359 , 4135.38461538 , 4134.35897436 , 4134.35897436 , 4135.8974359 , 4136.41025641 , 4144.61538462 , 4176.92307692 , 4777.43589744 , 4129.74358974 , 4140.51282051 , 2067.0 , 2034.0 , 6.696 , 0.0 , 0.0 , 0.0 , 0.0 , 

104.0 , 4134.87179487 , 4133.84615385 , 4166.66666667 , 4136.41025641 , 4135.38461538 , 4134.35897436 , 4134.35897436 , 4133.33333333 , 4136.92307692 , 4144.1025641 , 4176.41025641 , 4778.46153846 , 4132.82051282 , 4138.46153846 , 2066.0 , 2034.0 , 6.704 , 0.0 , 0.0 , 0.0 , 0.0 , 

105.0 , 4135.8974359 , 4134.87179487 , 4157.94871795 , 4136.41025641 , 4135.38461538 , 4134.35897436 , 4134.35897436 , 4136.92307692 , 4138.46153846 , 4145.64102564 , 4178.46153846 , 4783.58974359 , 4132.82051282 , 4137.94871795 , 2065.0 , 2035.0 , 6.712 , 0.0 , 0.0 , 0.0 , 0.0 , 

106.0 , 4136.41025641 , 4133.33333333 , 4150.76923077 , 4135.8974359 , 4135.38461538 , 4134.35897436 , 4134.35897436 , 4138.46153846 , 4138.97435897 , 4143.07692308 , 4181.53846154 , 4782.05128205 , 4131.28205128 , 4137.94871795 , 2066.0 , 2037.0 , 6.72 , 0.0 , 0.0 , 0.0 , 0.0 , 

107.0 , 4135.38461538 , 4131.28205128 , 4135.38461538 , 4135.8974359 , 4135.38461538 , 4134.35897436 , 4134.35897436 , 4133.33333333 , 4137.94871795 , 4138.97435897 , 4180.0 , 4777.94871795 , 4130.25641026 , 4137.43589744 , 2065.0 , 2036.0 , 6.728 , 0.0 , 0.0 , 0.0 , 0.0 , 

108.0 , 4135.38461538 , 4135.38461538 , 4136.41025641 , 4136.41025641 , 4135.38461538 , 4133.33333333 , 4134.35897436 , 4130.25641026 , 4137.43589744 , 4141.53846154 , 4177.94871795 , 4780.0 , 4130.76923077 , 4139.48717949 , 2066.0 , 2038.0 , 6.736 , 0.0 , 0.0 , 0.0 , 0.0 , 

109.0 , 4136.41025641 , 4136.92307692 , 4135.38461538 , 4136.41025641 , 4135.8974359 , 4133.33333333 , 4134.35897436 , 4131.79487179 , 4137.94871795 , 4143.58974359 , 4180.0 , 4783.07692308 , 4128.20512821 , 4140.0 , 2066.0 , 2039.0 , 6.744 , 0.0 , 0.0 , 0.0 , 0.0 , 

110.0 , 4136.41025641 , 4135.38461538 , 4128.20512821 , 4134.87179487 , 4135.8974359 , 4133.84615385 , 4134.35897436 , 4135.38461538 , 4137.94871795 , 4143.07692308 , 4178.97435897 , 4782.56410256 , 4127.17948718 , 4138.97435897 , 2067.0 , 2040.0 , 6.751 , 0.0 , 0.0 , 0.0 , 0.0 , 

111.0 , 4135.38461538 , 4135.38461538 , 4115.8974359 , 4135.38461538 , 4135.8974359 , 4133.33333333 , 4134.35897436 , 4133.33333333 , 4136.41025641 , 4142.05128205 , 4174.87179487 , 4781.53846154 , 4128.71794872 , 4140.51282051 , 2067.0 , 2041.0 , 6.759 , 0.0 , 0.0 , 0.0 , 0.0 , 

112.0 , 4134.35897436 , 4136.41025641 , 4111.79487179 , 4136.41025641 , 4135.8974359 , 4133.84615385 , 4134.35897436 , 4131.28205128 , 4135.38461538 , 4141.02564103 , 4176.41025641 , 4782.05128205 , 4129.23076923 , 4140.51282051 , 2067.0 , 2040.0 , 6.767 , 0.0 , 0.0 , 0.0 , 0.0 , 

113.0 , 4134.87179487 , 4135.8974359 , 4104.61538462 , 4135.38461538 , 4135.8974359 , 4134.35897436 , 4134.35897436 , 4134.35897436 , 4135.38461538 , 4143.07692308 , 4177.94871795 , 4780.0 , 4128.71794872 , 4136.41025641 , 2067.0 , 2038.0 , 6.775 , 0.0 , 0.0 , 0.0 , 0.0 , 

114.0 , 4134.87179487 , 4135.8974359 , 4102.05128205 , 4134.87179487 , 4136.41025641 , 4135.38461538 , 4134.35897436 , 4137.94871795 , 4137.43589744 , 4141.02564103 , 4174.87179487 , 4780.51282051 , 4129.74358974 , 4137.43589744 , 2068.0 , 2037.0 , 6.783 , 0.0 , 0.0 , 0.0 , 0.0 , 

115.0 , 4134.87179487 , 4134.87179487 , 4097.43589744 , 4137.43589744 , 4135.38461538 , 4135.38461538 , 4134.35897436 , 4132.30769231 , 4136.41025641 , 4137.43589744 , 4175.38461538 , 4780.51282051 , 4130.25641026 , 4135.38461538 , 2066.0 , 2034.0 , 6.791 , 0.0 , 0.0 , 0.0 , 0.0 , 

116.0 , 4134.35897436 , 4134.87179487 , 4092.82051282 , 4136.92307692 , 4134.35897436 , 4135.38461538 , 4134.35897436 , 4129.74358974 , 4134.87179487 , 4140.0 , 4177.94871795 , 4778.46153846 , 4128.71794872 , 4132.30769231 , 2065.0 , 2034.0 , 6.799 , 0.0 , 0.0 , 0.0 , 0.0 , 

117.0 , 4135.38461538 , 4135.8974359 , 4085.64102564 , 4135.8974359 , 4134.35897436 , 4135.38461538 , 4134.35897436 , 4132.30769231 , 4132.30769231 , 4140.51282051 , 4175.38461538 , 4777.43589744 , 4126.15384615 , 4132.82051282 , 2065.0 , 2034.0 , 6.807 , 0.0 , 0.0 , 0.0 , 0.0 , 

118.0 , 4136.41025641 , 4135.8974359 , 4067.17948718 , 4135.8974359 , 4134.35897436 , 4135.38461538 , 4134.35897436 , 4129.74358974 , 4132.30769231 , 4137.94871795 , 4174.35897436 , 4776.41025641 , 4126.66666667 , 4135.38461538 , 2064.0 , 2036.0 , 6.814 , 0.0 , 0.0 , 0.0 , 0.0 , 

119.0 , 4136.41025641 , 4135.8974359 , 4062.05128205 , 4136.41025641 , 4134.35897436 , 4135.38461538 , 4134.35897436 , 4127.17948718 , 4135.38461538 , 4141.53846154 , 4176.41025641 , 4775.8974359 , 4128.20512821 , 4135.38461538 , 2064.0 , 2034.0 , 6.822 , 0.0 , 0.0 , 0.0 , 0.0 , 

120.0 , 4135.38461538 , 4136.41025641 , 4067.17948718 , 4135.8974359 , 4134.35897436 , 4133.84615385 , 4134.35897436 , 4130.76923077 , 4136.92307692 , 4142.56410256 , 4175.8974359 , 4773.84615385 , 4127.69230769 , 4135.8974359 , 2064.0 , 2036.0 , 6.83 , 0.0 , 0.0 , 0.0 , 0.0 , 

121.0 , 4135.8974359 , 4135.38461538 , 4067.17948718 , 4136.41025641 , 4134.35897436 , 4132.82051282 , 4134.35897436 , 4133.84615385 , 4136.41025641 , 4139.48717949 , 4176.92307692 , 4772.30769231 , 4127.17948718 , 4137.94871795 , 2064.0 , 2037.0 , 6.838 , 0.0 , 0.0 , 0.0 , 0.0 , 

122.0 , 4135.8974359 , 4134.87179487 , 4066.15384615 , 4135.8974359 , 4134.35897436 , 4133.84615385 , 4134.35897436 , 4134.35897436 , 4137.43589744 , 4141.02564103 , 4181.02564103 , 4774.35897436 , 4128.71794872 , 4138.97435897 , 2062.0 , 2035.0 , 6.846 , 0.0 , 0.0 , 0.0 , 0.0 , 

123.0 , 4135.8974359 , 4134.87179487 , 4066.66666667 , 4134.87179487 , 4135.8974359 , 4135.38461538 , 4134.35897436 , 4133.33333333 , 4137.94871795 , 4140.0 , 4178.97435897 , 4773.33333333 , 4129.23076923 , 4138.97435897 , 2061.0 , 2035.0 , 6.854 , 0.0 , 0.0 , 0.0 , 0.0 , 

124.0 , 4134.87179487 , 4133.33333333 , 4063.58974359 , 4134.87179487 , 4136.41025641 , 4134.87179487 , 4134.35897436 , 4132.82051282 , 4135.8974359 , 4138.46153846 , 4175.38461538 , 4769.23076923 , 4130.76923077 , 4138.97435897 , 2061.0 , 2034.0 , 6.862 , 0.0 , 0.0 , 0.0 , 0.0 , 

125.0 , 4134.87179487 , 4133.84615385 , 4058.46153846 , 4134.87179487 , 4134.87179487 , 4134.87179487 , 4134.35897436 , 4132.82051282 , 4135.38461538 , 4138.97435897 , 4175.8974359 , 4768.20512821 , 4131.28205128 , 4138.46153846 , 2060.0 , 2033.0 , 6.87 , 0.0 , 0.0 , 0.0 , 0.0 , 

126.0 , 4136.41025641 , 4135.8974359 , 4060.0 , 4134.35897436 , 4134.35897436 , 4135.38461538 , 4134.35897436 , 4132.30769231 , 4136.41025641 , 4140.0 , 4177.43589744 , 4771.79487179 , 4129.23076923 , 4141.53846154 , 2059.0 , 2030.0 , 6.878 , 0.0 , 0.0 , 0.0 , 0.0 , 

127.0 , 4136.41025641 , 4136.92307692 , 4060.0 , 4135.8974359 , 4134.35897436 , 4135.38461538 , 4134.35897436 , 4131.79487179 , 4134.87179487 , 4141.02564103 , 4176.92307692 , 4769.74358974 , 4128.71794872 , 4142.05128205 , 2057.0 , 2030.0 , 6.885 , 0.0 , 0.0 , 0.0 , 0.0 , 

128.0 , 4134.87179487 , 4135.8974359 , 4051.79487179 , 4136.92307692 , 4134.35897436 , 4134.87179487 , 4134.35897436 , 4132.82051282 , 4135.8974359 , 4142.56410256 , 4176.41025641 , 4763.58974359 , 4131.28205128 , 4135.38461538 , 2055.0 , 2029.0 , 6.893 , 0.0 , 0.0 , 0.0 , 0.0 , 

0.0 , 4135.38461538 , 4134.35897436 , 4038.46153846 , 4135.38461538 , 4134.35897436 , 4135.38461538 , 4134.35897436 , 4130.25641026 , 4137.94871795 , 4141.02564103 , 4175.38461538 , 4762.05128205 , 4129.23076923 , 4131.28205128 , 2055.0 , 2031.0 , 6.902 , 0.0 , 0.0 , 0.0 , 0.0 , 

1.0 , 4136.41025641 , 4133.84615385 , 4025.64102564 , 4134.87179487 , 4134.35897436 , 4135.38461538 , 4134.35897436 , 4128.71794872 , 4133.84615385 , 4137.94871795 , 4176.41025641 , 4764.1025641 , 4125.64102564 , 4135.38461538 , 2056.0 , 2031.0 , 6.909 , 0.0 , 0.0 , 0.0 , 0.0 , 

2.0 , 4135.38461538 , 4133.84615385 , 4016.41025641 , 4137.43589744 , 4134.35897436 , 4135.38461538 , 4134.35897436 , 4131.79487179 , 4130.25641026 , 4137.43589744 , 4177.94871795 , 4759.48717949 , 4127.17948718 , 4137.43589744 , 2054.0 , 2030.0 , 6.917 , 0.0 , 0.0 , 0.0 , 0.0 , 

3.0 , 4134.87179487 , 4132.82051282 , 4016.92307692 , 4136.92307692 , 4135.38461538 , 4135.38461538 , 4134.35897436 , 4132.30769231 , 4133.33333333 , 4138.97435897 , 4176.92307692 , 4755.8974359 , 4130.25641026 , 4135.8974359 , 2054.0 , 2029.0 , 6.925 , 0.0 , 0.0 , 0.0 , 0.0 , 

4.0 , 4134.35897436 , 4133.33333333 , 4024.61538462 , 4135.8974359 , 4136.41025641 , 4135.38461538 , 4135.38461538 , 4130.25641026 , 4136.41025641 , 4142.05128205 , 4175.8974359 , 4758.97435897 , 4129.23076923 , 4136.92307692 , 2054.0 , 2029.0 , 6.933 , 0.0 , 0.0 , 0.0 , 0.0 , 

5.0 , 4134.35897436 , 4136.41025641 , 4029.74358974 , 4135.8974359 , 4135.8974359 , 4135.38461538 , 4136.41025641 , 4133.33333333 , 4133.84615385 , 4143.07692308 , 4177.43589744 , 4759.48717949 , 4128.71794872 , 4136.92307692 , 2051.0 , 2030.0 , 6.941 , 0.0 , 0.0 , 0.0 , 0.0 , 

6.0 , 4134.87179487 , 4136.41025641 , 4031.79487179 , 4136.41025641 , 4135.8974359 , 4135.38461538 , 4135.8974359 , 4136.41025641 , 4133.33333333 , 4144.1025641 , 4178.97435897 , 4754.35897436 , 4131.28205128 , 4136.92307692 , 2050.0 , 2030.0 , 6.948 , 0.0 , 0.0 , 0.0 , 0.0 , 

7.0 , 4134.87179487 , 4135.8974359 , 4037.94871795 , 4135.8974359 , 4135.8974359 , 4135.38461538 , 4135.8974359 , 4134.87179487 , 4134.35897436 , 4145.64102564 , 4176.92307692 , 4752.82051282 , 4130.25641026 , 4138.46153846 , 2051.0 , 2032.0 , 6.956 , 0.0 , 0.0 , 0.0 , 0.0 , 

8.0 , 4134.87179487 , 4135.38461538 , 4037.94871795 , 4135.8974359 , 4135.8974359 , 4135.38461538 , 4135.8974359 , 4132.30769231 , 4133.84615385 , 4144.1025641 , 4175.8974359 , 4752.82051282 , 4128.71794872 , 4134.35897436 , 2050.0 , 2033.0 , 6.964 , 0.0 , 0.0 , 0.0 , 0.0 , 

9.0 , 4135.8974359 , 4135.38461538 , 4024.61538462 , 4136.41025641 , 4135.8974359 , 4135.38461538 , 4135.8974359 , 4131.79487179 , 4134.87179487 , 4141.02564103 , 4177.43589744 , 4748.71794872 , 4127.69230769 , 4132.82051282 , 2049.0 , 2032.0 , 6.972 , 0.0 , 0.0 , 0.0 , 0.0 , 

10.0 , 4135.8974359 , 4134.87179487 , 4019.48717949 , 4135.8974359 , 4135.8974359 , 4135.38461538 , 4135.8974359 , 4135.38461538 , 4135.8974359 , 4141.02564103 , 4178.46153846 , 4744.61538462 , 4129.74358974 , 4140.0 , 2049.0 , 2033.0 , 6.981 , 0.0 , 0.0 , 0.0 , 0.0 , 

11.0 , 4134.87179487 , 4132.82051282 , 4025.12820513 , 4135.38461538 , 4135.8974359 , 4135.38461538 , 4135.8974359 , 4136.41025641 , 4134.87179487 , 4142.56410256 , 4176.92307692 , 4742.56410256 , 4132.82051282 , 4142.05128205 , 2049.0 , 2033.0 , 6.988 , 0.0 , 0.0 , 0.0 , 0.0 , 

12.0 , 4134.87179487 , 4133.84615385 , 4027.69230769 , 4134.87179487 , 4135.8974359 , 4135.38461538 , 4135.8974359 , 4134.87179487 , 4135.8974359 , 4143.58974359 , 4176.92307692 , 4743.58974359 , 4134.35897436 , 4139.48717949 , 2049.0 , 2033.0 , 6.996 , 0.0 , 0.0 , 0.0 , 0.0 , 

13.0 , 4135.8974359 , 4136.92307692 , 4025.12820513 , 4134.87179487 , 4135.8974359 , 4135.38461538 , 4135.8974359 , 4133.84615385 , 4138.46153846 , 4143.58974359 , 4177.94871795 , 4742.05128205 , 4130.25641026 , 4136.92307692 , 2048.0 , 2033.0 , 7.005 , 0.0 , 0.0 , 0.0 , 0.0 , 

14.0 , 4135.8974359 , 4135.8974359 , 4026.15384615 , 4134.87179487 , 4135.8974359 , 4135.38461538 , 4135.38461538 , 4133.84615385 , 4136.41025641 , 4143.07692308 , 4177.94871795 , 4739.48717949 , 4128.20512821 , 4134.87179487 , 2049.0 , 2031.0 , 7.012 , 0.0 , 0.0 , 0.0 , 0.0 , 

15.0 , 4135.8974359 , 4134.87179487 , 4018.97435897 , 4134.87179487 , 4135.8974359 , 4135.38461538 , 4134.35897436 , 4132.82051282 , 4133.33333333 , 4141.02564103 , 4176.41025641 , 4737.43589744 , 4129.74358974 , 4133.33333333 , 2046.0 , 2033.0 , 7.02 , 0.0 , 0.0 , 0.0 , 0.0 , 

16.0 , 4135.8974359 , 4135.8974359 , 4010.25641026 , 4134.87179487 , 4135.8974359 , 4135.38461538 , 4134.35897436 , 4133.33333333 , 4136.92307692 , 4141.02564103 , 4176.92307692 , 4734.87179487 , 4128.20512821 , 4134.35897436 , 2048.0 , 2016.0 , 7.027 , 0.0 , 0.0 , 0.0 , 0.0 , 

17.0 , 4135.8974359 , 4135.38461538 , 4008.71794872 , 4134.87179487 , 4135.8974359 , 4135.38461538 , 4134.87179487 , 4133.33333333 , 4137.94871795 , 4141.02564103 , 4177.94871795 , 4730.25641026 , 4127.69230769 , 4133.33333333 , 2047.0 , 2033.0 , 7.035 , 0.0 , 0.0 , 0.0 , 0.0 , 

18.0 , 4135.8974359 , 4135.38461538 , 4003.58974359 , 4134.87179487 , 4135.8974359 , 4135.38461538 , 4135.38461538 , 4131.79487179 , 4134.35897436 , 4141.02564103 , 4176.41025641 , 4727.69230769 , 4129.74358974 , 4131.79487179 , 2047.0 , 2036.0 , 7.043 , 0.0 , 0.0 , 0.0 , 0.0 , 

19.0 , 4135.8974359 , 4135.8974359 , 3995.38461538 , 4134.87179487 , 4135.8974359 , 4134.87179487 , 4135.38461538 , 4130.76923077 , 4133.84615385 , 4138.97435897 , 4176.41025641 , 4725.64102564 , 4128.20512821 , 4131.79487179 , 2048.0 , 2037.0 , 7.051 , 0.0 , 0.0 , 0.0 , 0.0 , 

20.0 , 4135.8974359 , 4135.38461538 , 3997.43589744 , 4134.87179487 , 4135.8974359 , 4135.38461538 , 4135.38461538 , 4131.79487179 , 4135.8974359 , 4137.94871795 , 4180.0 , 4722.05128205 , 4128.20512821 , 4136.41025641 , 2049.0 , 2037.0 , 7.059 , 0.0 , 0.0 , 0.0 , 0.0 , 

21.0 , 4135.8974359 , 4134.87179487 , 4005.64102564 , 4134.87179487 , 4135.8974359 , 4135.8974359 , 4135.38461538 , 4134.35897436 , 4136.41025641 , 4140.51282051 , 4179.48717949 , 4720.0 , 4132.30769231 , 4141.02564103 , 2048.0 , 2038.0 , 7.067 , 0.0 , 0.0 , 0.0 , 0.0 , 

22.0 , 4135.8974359 , 4134.87179487 , 4010.25641026 , 4134.87179487 , 4135.8974359 , 4136.41025641 , 4135.38461538 , 4135.8974359 , 4134.87179487 , 4143.07692308 , 4177.94871795 , 4720.0 , 4134.87179487 , 4135.8974359 , 2048.0 , 2041.0 , 7.075 , 0.0 , 0.0 , 0.0 , 0.0 , 

23.0 , 4135.8974359 , 4135.38461538 , 4017.94871795 , 4134.87179487 , 4135.8974359 , 4135.8974359 , 4135.38461538 , 4134.87179487 , 4138.97435897 , 4145.64102564 , 4180.0 , 4717.94871795 , 4134.87179487 , 4131.79487179 , 2048.0 , 2041.0 , 7.082 , 0.0 , 0.0 , 0.0 , 0.0 , 

24.0 , 4135.8974359 , 4135.38461538 , 4034.87179487 , 4134.87179487 , 4135.8974359 , 4135.8974359 , 4135.38461538 , 4137.43589744 , 4142.05128205 , 4146.66666667 , 4179.48717949 , 4714.87179487 , 4135.38461538 , 4138.46153846 , 2046.0 , 2042.0 , 7.09 , 0.0 , 0.0 , 0.0 , 0.0 , 

25.0 , 4135.8974359 , 4136.41025641 , 4048.71794872 , 4134.87179487 , 4135.8974359 , 4135.8974359 , 4135.38461538 , 4141.53846154 , 4139.48717949 , 4145.12820513 , 4177.43589744 , 4713.33333333 , 4134.35897436 , 4142.56410256 , 2043.0 , 2040.0 , 7.098 , 0.0 , 0.0 , 0.0 , 0.0 , 

26.0 , 4135.8974359 , 4135.8974359 , 4048.20512821 , 4134.87179487 , 4135.8974359 , 4134.87179487 , 4135.38461538 , 4138.97435897 , 4137.94871795 , 4144.61538462 , 4178.46153846 , 4710.25641026 , 4133.33333333 , 4137.94871795 , 2041.0 , 2036.0 , 7.106 , 0.0 , 0.0 , 0.0 , 0.0 , 

27.0 , 4135.8974359 , 4135.8974359 , 4033.33333333 , 4134.87179487 , 4135.8974359 , 4134.35897436 , 4135.38461538 , 4131.79487179 , 4138.97435897 , 4146.66666667 , 4177.43589744 , 4710.25641026 , 4130.76923077 , 4136.92307692 , 2040.0 , 2036.0 , 7.114 , 0.0 , 0.0 , 0.0 , 0.0 , 

28.0 , 4135.8974359 , 4135.8974359 , 4015.38461538 , 4134.87179487 , 4135.8974359 , 4134.35897436 , 4135.38461538 , 4129.74358974 , 4137.43589744 , 4143.58974359 , 4174.87179487 , 4709.23076923 , 4127.17948718 , 4137.94871795 , 2039.0 , 2034.0 , 7.122 , 0.0 , 0.0 , 0.0 , 0.0 , 

29.0 , 4135.8974359 , 4135.8974359 , 4007.17948718 , 4134.87179487 , 4135.8974359 , 4134.87179487 , 4135.38461538 , 4132.82051282 , 4135.38461538 , 4142.56410256 , 4177.43589744 , 4701.53846154 , 4128.71794872 , 4137.43589744 , 2039.0 , 2036.0 , 7.13 , 0.0 , 0.0 , 0.0 , 0.0 , 

30.0 , 4135.8974359 , 4135.8974359 , 4002.05128205 , 4134.87179487 , 4135.8974359 , 4134.35897436 , 4135.38461538 , 4130.25641026 , 4134.87179487 , 4145.12820513 , 4178.46153846 , 4696.92307692 , 4130.76923077 , 4134.87179487 , 2037.0 , 2036.0 , 7.138 , 0.0 , 0.0 , 0.0 , 0.0 , 

31.0 , 4135.8974359 , 4135.8974359 , 3991.28205128 , 4134.87179487 , 4135.8974359 , 4134.35897436 , 4135.38461538 , 4129.23076923 , 4136.41025641 , 4144.1025641 , 4174.87179487 , 4698.46153846 , 4129.74358974 , 4133.33333333 , 2038.0 , 2036.0 , 7.145 , 0.0 , 0.0 , 0.0 , 0.0 , 

32.0 , 4135.8974359 , 4135.8974359 , 3985.12820513 , 4134.87179487 , 4135.8974359 , 4134.35897436 , 4135.38461538 , 4133.33333333 , 4135.8974359 , 4142.56410256 , 4176.41025641 , 4695.38461538 , 4128.71794872 , 4133.33333333 , 2038.0 , 2036.0 , 7.153 , 0.0 , 0.0 , 0.0 , 0.0 , 

33.0 , 4135.8974359 , 4135.8974359 , 3985.64102564 , 4134.87179487 , 4135.8974359 , 4134.35897436 , 4135.38461538 , 4132.82051282 , 4134.35897436 , 4143.07692308 , 4180.0 , 4690.25641026 , 4130.25641026 , 4133.33333333 , 2039.0 , 2036.0 , 7.161 , 0.0 , 0.0 , 0.0 , 0.0 , 

34.0 , 4135.8974359 , 4135.8974359 , 3980.0 , 4134.35897436 , 4135.8974359 , 4134.35897436 , 4135.38461538 , 4130.25641026 , 4132.82051282 , 4139.48717949 , 4174.87179487 , 4687.69230769 , 4128.71794872 , 4134.35897436 , 2039.0 , 2035.0 , 7.169 , 0.0 , 0.0 , 0.0 , 0.0 , 

35.0 , 4135.8974359 , 4135.8974359 , 3975.8974359 , 4134.35897436 , 4135.8974359 , 4134.35897436 , 4135.38461538 , 4132.30769231 , 4131.28205128 , 4138.46153846 , 4172.30769231 , 4684.1025641 , 4127.17948718 , 4135.8974359 , 2039.0 , 2038.0 , 7.177 , 0.0 , 0.0 , 0.0 , 0.0 , 

36.0 , 4135.8974359 , 4135.8974359 , 3971.79487179 , 4135.38461538 , 4135.8974359 , 4134.35897436 , 4135.38461538 , 4132.30769231 , 4131.79487179 , 4141.02564103 , 4176.92307692 , 4677.94871795 , 4128.20512821 , 4136.92307692 , 2040.0 , 2040.0 , 7.185 , 0.0 , 0.0 , 0.0 , 0.0 , 

37.0 , 4135.8974359 , 4135.8974359 , 3956.41025641 , 4136.41025641 , 4135.8974359 , 4134.35897436 , 4135.38461538 , 4128.71794872 , 4135.38461538 , 4139.48717949 , 4177.43589744 , 4673.84615385 , 4129.23076923 , 4135.8974359 , 2040.0 , 2040.0 , 7.193 , 0.0 , 0.0 , 0.0 , 0.0 , 

38.0 , 4135.8974359 , 4135.8974359 , 3937.43589744 , 4135.8974359 , 4135.8974359 , 4134.35897436 , 4135.38461538 , 4130.76923077 , 4134.87179487 , 4134.87179487 , 4173.84615385 , 4671.79487179 , 4127.69230769 , 4134.35897436 , 2040.0 , 2040.0 , 7.201 , 0.0 , 0.0 , 0.0 , 0.0 , 

39.0 , 4135.8974359 , 4135.8974359 , 3931.28205128 , 4135.8974359 , 4135.8974359 , 4134.35897436 , 4135.38461538 , 4131.79487179 , 4129.23076923 , 4137.43589744 , 4173.33333333 , 4668.20512821 , 4128.20512821 , 4135.8974359 , 2041.0 , 2039.0 , 7.209 , 0.0 , 0.0 , 0.0 , 0.0 , 

40.0 , 4135.8974359 , 4135.8974359 , 3923.58974359 , 4136.41025641 , 4135.8974359 , 4134.35897436 , 4135.38461538 , 4126.66666667 , 4131.79487179 , 4140.0 , 4171.79487179 , 4663.07692308 , 4128.20512821 , 4137.43589744 , 2041.0 , 2036.0 , 7.216 , 0.0 , 0.0 , 0.0 , 0.0 , 

41.0 , 4135.8974359 , 4135.8974359 , 3906.66666667 , 4135.8974359 , 4135.8974359 , 4134.35897436 , 4135.38461538 , 4126.66666667 , 4133.84615385 , 4137.94871795 , 4170.25641026 , 4656.92307692 , 4127.17948718 , 4135.38461538 , 2041.0 , 2036.0 , 7.225 , 0.0 , 0.0 , 0.0 , 0.0 , 

42.0 , 4135.8974359 , 4136.41025641 , 3902.56410256 , 4135.8974359 , 4135.8974359 , 4134.35897436 , 4135.38461538 , 4131.79487179 , 4129.23076923 , 4138.46153846 , 4172.82051282 , 4651.79487179 , 4127.17948718 , 4133.33333333 , 2039.0 , 2034.0 , 7.232 , 0.0 , 0.0 , 0.0 , 0.0 , 

43.0 , 4135.8974359 , 4134.87179487 , 3914.87179487 , 4136.41025641 , 4135.8974359 , 4134.35897436 , 4134.87179487 , 4132.30769231 , 4133.33333333 , 4140.0 , 4174.87179487 , 4647.69230769 , 4128.20512821 , 4133.33333333 , 2039.0 , 2036.0 , 7.24 , 0.0 , 0.0 , 0.0 , 0.0 , 

44.0 , 4135.8974359 , 4133.33333333 , 3934.35897436 , 4135.8974359 , 4135.8974359 , 4134.35897436 , 4135.8974359 , 4131.79487179 , 4139.48717949 , 4142.56410256 , 4175.38461538 , 4647.17948718 , 4130.76923077 , 4136.41025641 , 2038.0 , 2034.0 , 7.248 , 0.0 , 0.0 , 0.0 , 0.0 , 

45.0 , 4135.8974359 , 4134.87179487 , 3952.30769231 , 4134.87179487 , 4135.8974359 , 4134.35897436 , 4134.87179487 , 4134.35897436 , 4136.92307692 , 4143.58974359 , 4175.38461538 , 4646.66666667 , 4132.30769231 , 4140.51282051 , 2036.0 , 2036.0 , 7.256 , 0.0 , 0.0 , 0.0 , 0.0 , 

46.0 , 4135.8974359 , 4135.8974359 , 3964.61538462 , 4136.41025641 , 4135.8974359 , 4134.35897436 , 4133.84615385 , 4135.38461538 , 4133.33333333 , 4143.07692308 , 4176.92307692 , 4643.07692308 , 4133.33333333 , 4139.48717949 , 2034.0 , 2034.0 , 7.263 , 0.0 , 0.0 , 0.0 , 0.0 , 

47.0 , 4135.8974359 , 4135.8974359 , 3973.84615385 , 4137.43589744 , 4135.8974359 , 4134.35897436 , 4133.84615385 , 4134.87179487 , 4135.8974359 , 4142.56410256 , 4175.8974359 , 4636.92307692 , 4134.35897436 , 4134.87179487 , 2033.0 , 2031.0 , 7.272 , 0.0 , 0.0 , 0.0 , 0.0 , 

48.0 , 4135.8974359 , 4134.35897436 , 3981.53846154 , 4136.41025641 , 4135.8974359 , 4134.35897436 , 4134.87179487 , 4137.94871795 , 4138.46153846 , 4145.64102564 , 4174.35897436 , 4634.35897436 , 4134.35897436 , 4137.43589744 , 2032.0 , 2029.0 , 7.28 , 0.0 , 0.0 , 0.0 , 0.0 , 

49.0 , 4135.8974359 , 4131.28205128 , 3989.23076923 , 4135.8974359 , 4135.8974359 , 4134.35897436 , 4135.38461538 , 4141.02564103 , 4138.97435897 , 4147.69230769 , 4176.92307692 , 4633.84615385 , 4134.87179487 , 4142.05128205 , 2031.0 , 2028.0 , 7.287 , 0.0 , 0.0 , 0.0 , 0.0 , 

50.0 , 4135.8974359 , 4132.82051282 , 4007.69230769 , 4135.8974359 , 4135.8974359 , 4134.87179487 , 4135.38461538 , 4139.48717949 , 4140.0 , 4146.66666667 , 4181.02564103 , 4631.28205128 , 4137.43589744 , 4140.51282051 , 2029.0 , 2028.0 , 7.296 , 0.0 , 0.0 , 0.0 , 0.0 , 

51.0 , 4135.8974359 , 4135.8974359 , 4037.43589744 , 4134.35897436 , 4135.8974359 , 4134.35897436 , 4134.87179487 , 4135.8974359 , 4140.0 , 4147.17948718 , 4178.97435897 , 4627.69230769 , 4141.02564103 , 4139.48717949 , 2028.0 , 2030.0 , 7.304 , 0.0 , 0.0 , 0.0 , 0.0 , 

52.0 , 4135.8974359 , 4134.87179487 , 4061.53846154 , 4133.84615385 , 4135.8974359 , 4134.35897436 , 4134.35897436 , 4138.46153846 , 4140.51282051 , 4150.25641026 , 4176.92307692 , 4630.25641026 , 4142.05128205 , 4143.07692308 , 2027.0 , 2030.0 , 7.312 , 0.0 , 0.0 , 0.0 , 0.0 , 

53.0 , 4135.8974359 , 4133.84615385 , 4075.38461538 , 4134.35897436 , 4135.8974359 , 4134.87179487 , 4134.35897436 , 4144.61538462 , 4141.02564103 , 4150.25641026 , 4178.97435897 , 4630.76923077 , 4141.02564103 , 4142.05128205 , 2025.0 , 2029.0 , 7.32 , 0.0 , 0.0 , 0.0 , 0.0 , 

54.0 , 4135.8974359 , 4136.41025641 , 4081.53846154 , 4134.35897436 , 4135.8974359 , 4135.38461538 , 4134.35897436 , 4144.61538462 , 4141.02564103 , 4149.23076923 , 4180.0 , 4626.15384615 , 4142.56410256 , 4138.46153846 , 2023.0 , 2032.0 , 7.327 , 0.0 , 0.0 , 0.0 , 0.0 , 

55.0 , 4135.8974359 , 4136.41025641 , 4078.46153846 , 4134.35897436 , 4135.8974359 , 4134.87179487 , 4133.84615385 , 4138.97435897 , 4138.46153846 , 4149.23076923 , 4179.48717949 , 4620.51282051 , 4141.53846154 , 4138.46153846 , 2023.0 , 2031.0 , 7.336 , 0.0 , 0.0 , 0.0 , 0.0 , 

56.0 , 4135.8974359 , 4134.87179487 , 4076.92307692 , 4134.35897436 , 4135.8974359 , 4134.87179487 , 4134.35897436 , 4140.0 , 4138.97435897 , 4148.71794872 , 4178.97435897 , 4621.02564103 , 4137.94871795 , 4139.48717949 , 2021.0 , 2032.0 , 7.343 , 0.0 , 0.0 , 0.0 , 0.0 , 

57.0 , 4135.8974359 , 4134.35897436 , 4091.28205128 , 4134.35897436 , 4135.8974359 , 4134.87179487 , 4134.35897436 , 4142.05128205 , 4143.58974359 , 4147.17948718 , 4178.46153846 , 4624.1025641 , 4135.8974359 , 4138.97435897 , 2020.0 , 2034.0 , 7.35 , 0.0 , 0.0 , 0.0 , 0.0 , 

58.0 , 4135.8974359 , 4134.87179487 , 4109.23076923 , 4134.35897436 , 4135.8974359 , 4134.35897436 , 4133.84615385 , 4140.0 , 4142.56410256 , 4146.66666667 , 4178.97435897 , 4620.0 , 4138.46153846 , 4143.07692308 , 2020.0 , 2033.0 , 7.358 , 0.0 , 0.0 , 0.0 , 0.0 , 

59.0 , 4135.8974359 , 4135.8974359 , 4119.48717949 , 4134.35897436 , 4135.8974359 , 4134.35897436 , 4134.87179487 , 4142.05128205 , 4140.51282051 , 4147.17948718 , 4180.0 , 4617.43589744 , 4141.53846154 , 4143.07692308 , 2020.0 , 2033.0 , 7.366 , 0.0 , 0.0 , 0.0 , 0.0 , 

60.0 , 4135.8974359 , 4135.8974359 , 4126.66666667 , 4134.35897436 , 4135.8974359 , 4134.35897436 , 4136.41025641 , 4144.61538462 , 4143.58974359 , 4148.71794872 , 4179.48717949 , 4617.94871795 , 4141.53846154 , 4135.8974359 , 2021.0 , 2033.0 , 7.374 , 0.0 , 0.0 , 0.0 , 0.0 , 

61.0 , 4135.8974359 , 4134.87179487 , 4133.84615385 , 4134.35897436 , 4135.8974359 , 4134.35897436 , 4135.8974359 , 4143.07692308 , 4143.58974359 , 4147.69230769 , 4178.97435897 , 4614.87179487 , 4140.51282051 , 4136.41025641 , 2020.0 , 2033.0 , 7.382 , 0.0 , 0.0 , 0.0 , 0.0 , 

62.0 , 4135.8974359 , 4135.38461538 , 4143.07692308 , 4134.35897436 , 4135.8974359 , 4134.35897436 , 4134.87179487 , 4143.07692308 , 4138.97435897 , 4147.17948718 , 4179.48717949 , 4611.28205128 , 4136.92307692 , 4142.05128205 , 2021.0 , 2030.0 , 7.39 , 0.0 , 0.0 , 0.0 , 0.0 , 

63.0 , 4135.8974359 , 4135.38461538 , 4153.33333333 , 4134.35897436 , 4135.8974359 , 4134.35897436 , 4134.87179487 , 4144.61538462 , 4138.46153846 , 4150.76923077 , 4179.48717949 , 4615.38461538 , 4133.84615385 , 4138.46153846 , 2018.0 , 2029.0 , 7.398 , 0.0 , 0.0 , 0.0 , 0.0 , 

64.0 , 4135.8974359 , 4134.87179487 , 4157.94871795 , 4134.35897436 , 4135.8974359 , 4134.35897436 , 4134.87179487 , 4138.97435897 , 4141.53846154 , 4149.74358974 , 4178.46153846 , 4616.92307692 , 4134.87179487 , 4136.41025641 , 2018.0 , 2030.0 , 7.406 , 0.0 , 0.0 , 0.0 , 0.0 , 

65.0 , 4135.8974359 , 4135.38461538 , 4157.43589744 , 4134.35897436 , 4135.8974359 , 4134.35897436 , 4134.35897436 , 4135.38461538 , 4141.02564103 , 4146.66666667 , 4177.94871795 , 4614.87179487 , 4137.94871795 , 4140.51282051 , 2018.0 , 2029.0 , 7.413 , 0.0 , 0.0 , 0.0 , 0.0 , 

66.0 , 4135.8974359 , 4134.87179487 , 4161.53846154 , 4134.35897436 , 4135.8974359 , 4134.35897436 , 4134.35897436 , 4137.94871795 , 4137.94871795 , 4147.69230769 , 4177.43589744 , 4615.38461538 , 4136.92307692 , 4139.48717949 , 2017.0 , 2028.0 , 7.421 , 0.0 , 0.0 , 0.0 , 0.0 , 

67.0 , 4135.8974359 , 4134.35897436 , 4174.35897436 , 4134.35897436 , 4135.8974359 , 4134.35897436 , 4134.35897436 , 4140.0 , 4138.97435897 , 4148.71794872 , 4177.43589744 , 4616.92307692 , 4136.92307692 , 4138.97435897 , 2015.0 , 2030.0 , 7.429 , 0.0 , 0.0 , 0.0 , 0.0 , 

68.0 , 4135.8974359 , 4134.35897436 , 4193.33333333 , 4134.35897436 , 4135.8974359 , 4134.35897436 , 4134.35897436 , 4141.02564103 , 4141.53846154 , 4146.15384615 , 4178.46153846 , 4614.87179487 , 4141.02564103 , 4139.48717949 , 2015.0 , 2029.0 , 7.438 , 0.0 , 0.0 , 0.0 , 0.0 , 

69.0 , 4135.8974359 , 4135.38461538 , 4205.64102564 , 4134.35897436 , 4135.8974359 , 4134.35897436 , 4134.35897436 , 4141.02564103 , 4143.07692308 , 4147.17948718 , 4181.02564103 , 4614.35897436 , 4143.07692308 , 4136.92307692 , 2013.0 , 2030.0 , 7.445 , 0.0 , 0.0 , 0.0 , 0.0 , 

70.0 , 4135.8974359 , 4135.38461538 , 4215.38461538 , 4134.35897436 , 4136.41025641 , 4134.35897436 , 4133.84615385 , 4140.0 , 4142.56410256 , 4149.23076923 , 4180.0 , 4614.87179487 , 4141.53846154 , 4136.92307692 , 2013.0 , 2030.0 , 7.453 , 0.0 , 0.0 , 0.0 , 0.0 , 

71.0 , 4135.8974359 , 4133.33333333 , 4233.33333333 , 4134.35897436 , 4135.38461538 , 4134.35897436 , 4133.84615385 , 4143.07692308 , 4142.56410256 , 4148.20512821 , 4180.0 , 4615.38461538 , 4141.02564103 , 4141.53846154 , 2012.0 , 2031.0 , 7.466 , 0.0 , 0.0 , 0.0 , 0.0 , 

72.0 , 4135.8974359 , 4131.79487179 , 4251.79487179 , 4134.35897436 , 4134.35897436 , 4134.35897436 , 4135.38461538 , 4145.12820513 , 4142.56410256 , 4149.23076923 , 4181.53846154 , 4617.43589744 , 4142.56410256 , 4140.0 , 2011.0 , 2033.0 , 7.469 , 0.0 , 0.0 , 0.0 , 0.0 , 

73.0 , 4135.8974359 , 4132.82051282 , 4258.97435897 , 4134.35897436 , 4134.35897436 , 4134.35897436 , 4135.8974359 , 4141.53846154 , 4143.58974359 , 4153.84615385 , 4182.05128205 , 4619.48717949 , 4142.56410256 , 4139.48717949 , 2010.0 , 2033.0 , 7.478 , 0.0 , 0.0 , 0.0 , 0.0 , 

74.0 , 4135.8974359 , 4135.38461538 , 4280.51282051 , 4134.35897436 , 4134.35897436 , 4134.35897436 , 4134.87179487 , 4144.1025641 , 4145.64102564 , 4154.87179487 , 4182.56410256 , 4622.05128205 , 4141.53846154 , 4143.58974359 , 2009.0 , 2031.0 , 7.485 , 0.0 , 0.0 , 0.0 , 0.0 , 

75.0 , 4135.8974359 , 4135.8974359 , 4302.05128205 , 4134.35897436 , 4134.35897436 , 4134.35897436 , 4133.84615385 , 4147.69230769 , 4144.1025641 , 4151.28205128 , 4182.56410256 , 4626.15384615 , 4141.53846154 , 4142.56410256 , 2007.0 , 2032.0 , 7.492 , 0.0 , 0.0 , 0.0 , 0.0 , 

76.0 , 4135.8974359 , 4131.79487179 , 4290.25641026 , 4134.87179487 , 4134.35897436 , 4134.35897436 , 4134.35897436 , 4142.56410256 , 4143.07692308 , 4148.71794872 , 4180.51282051 , 4626.15384615 , 4140.51282051 , 4138.46153846 , 2008.0 , 2034.0 , 7.5 , 0.0 , 0.0 , 0.0 , 0.0 , 

77.0 , 4135.8974359 , 4131.79487179 , 4291.28205128 , 4134.35897436 , 4134.35897436 , 4134.35897436 , 4134.35897436 , 4141.53846154 , 4145.12820513 , 4148.71794872 , 4178.46153846 , 4626.15384615 , 4138.97435897 , 4140.0 , 2008.0 , 2033.0 , 7.508 , 0.0 , 0.0 , 0.0 , 0.0 , 

78.0 , 4136.41025641 , 4135.38461538 , 4280.0 , 4134.35897436 , 4134.35897436 , 4134.35897436 , 4134.35897436 , 4140.51282051 , 4138.97435897 , 4145.64102564 , 4177.43589744 , 4628.71794872 , 4134.87179487 , 4138.97435897 , 2008.0 , 2032.0 , 7.516 , 0.0 , 0.0 , 0.0 , 0.0 , 

79.0 , 4135.8974359 , 4136.92307692 , 4263.07692308 , 4135.38461538 , 4134.35897436 , 4134.35897436 , 4134.35897436 , 4137.94871795 , 4134.87179487 , 4149.23076923 , 4174.87179487 , 4629.74358974 , 4135.8974359 , 4137.43589744 , 2008.0 , 2029.0 , 7.524 , 0.0 , 0.0 , 0.0 , 0.0 , 

80.0 , 4135.38461538 , 4135.38461538 , 4246.15384615 , 4135.8974359 , 4134.35897436 , 4134.35897436 , 4134.35897436 , 4135.8974359 , 4136.41025641 , 4148.20512821 , 4174.87179487 , 4625.12820513 , 4136.41025641 , 4136.92307692 , 2007.0 , 2027.0 , 7.532 , 0.0 , 0.0 , 0.0 , 0.0 , 

81.0 , 4137.43589744 , 4134.87179487 , 4248.71794872 , 4136.41025641 , 4134.35897436 , 4134.35897436 , 4133.84615385 , 4138.46153846 , 4138.97435897 , 4145.64102564 , 4179.48717949 , 4630.76923077 , 4136.92307692 , 4137.94871795 , 2011.0 , 2029.0 , 7.539 , 0.0 , 0.0 , 0.0 , 0.0 , 

82.0 , 4134.87179487 , 4136.92307692 , 4240.51282051 , 4135.8974359 , 4134.87179487 , 4134.87179487 , 4133.33333333 , 4135.8974359 , 4136.92307692 , 4143.07692308 , 4179.48717949 , 4636.92307692 , 4135.8974359 , 4136.92307692 , 2011.0 , 2028.0 , 7.547 , 0.0 , 0.0 , 0.0 , 0.0 , 

83.0 , 4131.79487179 , 4136.92307692 , 4235.38461538 , 4134.87179487 , 4134.35897436 , 4134.35897436 , 4132.82051282 , 4135.38461538 , 4137.43589744 , 4138.46153846 , 4174.87179487 , 4635.8974359 , 4136.41025641 , 4138.46153846 , 2010.0 , 2028.0 , 7.555 , 0.0 , 0.0 , 0.0 , 0.0 , 

84.0 , 4133.33333333 , 4134.87179487 , 4236.92307692 , 4134.35897436 , 4133.84615385 , 4133.33333333 , 4133.33333333 , 4136.41025641 , 4136.41025641 , 4135.8974359 , 4174.87179487 , 4634.87179487 , 4135.8974359 , 4139.48717949 , 2010.0 , 2028.0 , 7.564 , 0.0 , 0.0 , 0.0 , 0.0 , 

85.0 , 4134.35897436 , 4134.87179487 , 4232.30769231 , 4136.92307692 , 4136.41025641 , 4135.8974359 , 4133.84615385 , 4136.41025641 , 4135.38461538 , 4134.35897436 , 4176.92307692 , 4638.46153846 , 4134.87179487 , 4136.92307692 , 2013.0 , 2028.0 , 7.571 , 0.0 , 0.0 , 0.0 , 0.0 , 

86.0 , 4133.33333333 , 4134.87179487 , 4235.8974359 , 4134.87179487 , 4137.43589744 , 4132.82051282 , 4131.79487179 , 4137.43589744 , 4136.41025641 , 4136.41025641 , 4176.92307692 , 4642.05128205 , 4136.92307692 , 4137.94871795 , 2012.0 , 2028.0 , 7.58 , 0.0 , 0.0 , 0.0 , 0.0 , 

87.0 , 4136.41025641 , 4133.33333333 , 4229.23076923 , 4131.28205128 , 4135.38461538 , 4127.69230769 , 4129.23076923 , 4135.38461538 , 4135.8974359 , 4143.07692308 , 4175.8974359 , 4644.1025641 , 4135.8974359 , 4141.53846154 , 2012.0 , 2030.0 , 7.587 , 0.0 , 0.0 , 0.0 , 0.0 , 

88.0 , 4135.8974359 , 4131.79487179 , 4230.76923077 , 4133.33333333 , 4134.87179487 , 4131.79487179 , 4130.25641026 , 4134.87179487 , 4135.8974359 , 4146.15384615 , 4174.35897436 , 4645.64102564 , 4134.87179487 , 4141.02564103 , 2012.0 , 2032.0 , 7.595 , 0.0 , 0.0 , 0.0 , 0.0 , 

89.0 , 4133.33333333 , 4131.28205128 , 4233.84615385 , 4135.8974359 , 4135.38461538 , 4136.41025641 , 4133.33333333 , 4135.8974359 , 4135.8974359 , 4139.48717949 , 4175.38461538 , 4646.66666667 , 4135.38461538 , 4138.46153846 , 2013.0 , 2034.0 , 7.603 , 0.0 , 0.0 , 0.0 , 0.0 , 

90.0 , 4134.87179487 , 4131.79487179 , 4228.71794872 , 4133.84615385 , 4134.87179487 , 4133.84615385 , 4129.74358974 , 4135.8974359 , 4135.8974359 , 4137.94871795 , 4179.48717949 , 4650.76923077 , 4135.8974359 , 4138.97435897 , 2013.0 , 2036.0 , 7.61 , 0.0 , 0.0 , 0.0 , 0.0 , 

91.0 , 4134.35897436 , 4132.82051282 , 4227.17948718 , 4133.33333333 , 4134.35897436 , 4133.33333333 , 4124.61538462 , 4134.87179487 , 4135.8974359 , 4138.46153846 , 4179.48717949 , 4651.79487179 , 4135.8974359 , 4138.46153846 , 2011.0 , 2037.0 , 7.619 , 0.0 , 0.0 , 0.0 , 0.0 , 

92.0 , 4131.79487179 , 4133.84615385 , 4229.23076923 , 4135.8974359 , 4134.87179487 , 4135.38461538 , 4128.20512821 , 4135.8974359 , 4135.8974359 , 4136.41025641 , 4182.05128205 , 4649.74358974 , 4135.8974359 , 4137.94871795 , 2011.0 , 2036.0 , 7.626 , 0.0 , 0.0 , 0.0 , 0.0 , 

93.0 , 4133.33333333 , 4134.35897436 , 4232.30769231 , 4136.92307692 , 4134.35897436 , 4133.84615385 , 4132.82051282 , 4138.46153846 , 4135.8974359 , 4137.43589744 , 4184.1025641 , 4651.28205128 , 4135.8974359 , 4139.48717949 , 2011.0 , 2037.0 , 7.634 , 0.0 , 0.0 , 0.0 , 0.0 , 

94.0 , 4134.87179487 , 4137.43589744 , 4232.30769231 , 4135.38461538 , 4134.35897436 , 4134.87179487 , 4129.74358974 , 4136.92307692 , 4135.8974359 , 4138.46153846 , 4181.02564103 , 4653.84615385 , 4135.8974359 , 4138.97435897 , 2012.0 , 2037.0 , 7.642 , 0.0 , 0.0 , 0.0 , 0.0 , 

95.0 , 4133.84615385 , 4136.92307692 , 4233.84615385 , 4133.84615385 , 4134.35897436 , 4135.8974359 , 4128.20512821 , 4134.35897436 , 4135.8974359 , 4137.94871795 , 4180.0 , 4654.87179487 , 4135.8974359 , 4138.46153846 , 2013.0 , 2035.0 , 7.65 , 0.0 , 0.0 , 0.0 , 0.0 , 

96.0 , 4132.82051282 , 4133.33333333 , 4233.33333333 , 4134.87179487 , 4134.35897436 , 4133.84615385 , 4131.79487179 , 4135.8974359 , 4135.8974359 , 4140.51282051 , 4179.48717949 , 4655.38461538 , 4135.8974359 , 4140.51282051 , 2013.0 , 2035.0 , 7.658 , 0.0 , 0.0 , 0.0 , 0.0 , 

97.0 , 4134.35897436 , 4133.84615385 , 4232.30769231 , 4135.8974359 , 4134.87179487 , 4133.84615385 , 4131.28205128 , 4137.94871795 , 4135.8974359 , 4136.41025641 , 4174.87179487 , 4657.43589744 , 4134.87179487 , 4140.51282051 , 2011.0 , 2033.0 , 7.666 , 0.0 , 0.0 , 0.0 , 0.0 , 

98.0 , 4134.35897436 , 4135.38461538 , 4232.82051282 , 4135.38461538 , 4134.87179487 , 4134.35897436 , 4129.23076923 , 4137.43589744 , 4135.8974359 , 4137.43589744 , 4175.8974359 , 4657.94871795 , 4134.87179487 , 4138.97435897 , 2013.0 , 2032.0 , 7.673 , 0.0 , 0.0 , 0.0 , 0.0 , 

99.0 , 4130.25641026 , 4135.38461538 , 4228.20512821 , 4134.87179487 , 4133.33333333 , 4134.35897436 , 4129.23076923 , 4136.41025641 , 4135.8974359 , 4148.71794872 , 4180.0 , 4657.94871795 , 4135.38461538 , 4139.48717949 , 2014.0 , 2030.0 , 7.681 , 0.0 , 0.0 , 0.0 , 0.0 , 

100.0 , 4129.74358974 , 4135.38461538 , 4225.64102564 , 4134.87179487 , 4133.33333333 , 4134.35897436 , 4129.23076923 , 4136.41025641 , 4135.8974359 , 4147.17948718 , 4175.8974359 , 4661.53846154 , 4135.38461538 , 4138.46153846 , 2016.0 , 2031.0 , 7.689 , 0.0 , 0.0 , 0.0 , 0.0 , 

101.0 , 4133.33333333 , 4135.8974359 , 4225.64102564 , 4134.87179487 , 4135.38461538 , 4134.35897436 , 4129.74358974 , 4135.38461538 , 4135.8974359 , 4142.56410256 , 4174.35897436 , 4665.12820513 , 4135.38461538 , 4137.43589744 , 2017.0 , 2033.0 , 7.697 , 0.0 , 0.0 , 0.0 , 0.0 , 

102.0 , 4133.33333333 , 4132.82051282 , 4228.71794872 , 4134.87179487 , 4135.38461538 , 4134.35897436 , 4128.20512821 , 4134.35897436 , 4135.8974359 , 4149.23076923 , 4178.46153846 , 4666.15384615 , 4135.8974359 , 4137.43589744 , 2017.0 , 2037.0 , 7.705 , 0.0 , 0.0 , 0.0 , 0.0 , 

103.0 , 4131.79487179 , 4131.28205128 , 4223.58974359 , 4134.87179487 , 4133.84615385 , 4134.35897436 , 4128.20512821 , 4134.87179487 , 4135.8974359 , 4143.07692308 , 4178.46153846 , 4668.71794872 , 4136.41025641 , 4137.94871795 , 2018.0 , 2037.0 , 7.713 , 0.0 , 0.0 , 0.0 , 0.0 , 

104.0 , 4134.35897436 , 4135.8974359 , 4217.94871795 , 4135.38461538 , 4134.87179487 , 4134.35897436 , 4129.23076923 , 4135.8974359 , 4135.8974359 , 4133.84615385 , 4176.92307692 , 4670.25641026 , 4136.92307692 , 4138.46153846 , 2021.0 , 2036.0 , 7.722 , 0.0 , 0.0 , 0.0 , 0.0 , 

105.0 , 4134.35897436 , 4137.94871795 , 4217.94871795 , 4134.87179487 , 4136.92307692 , 4134.35897436 , 4129.74358974 , 4135.8974359 , 4135.8974359 , 4147.69230769 , 4182.56410256 , 4669.23076923 , 4135.8974359 , 4138.46153846 , 2021.0 , 2037.0 , 7.729 , 0.0 , 0.0 , 0.0 , 0.0 , 

106.0 , 4131.79487179 , 4133.84615385 , 4218.46153846 , 4134.87179487 , 4137.94871795 , 4134.35897436 , 4128.20512821 , 4135.8974359 , 4135.8974359 , 4151.79487179 , 4184.1025641 , 4670.76923077 , 4135.38461538 , 4138.46153846 , 2021.0 , 2037.0 , 7.736 , 0.0 , 0.0 , 0.0 , 0.0 , 

107.0 , 4134.87179487 , 4131.79487179 , 4212.82051282 , 4136.41025641 , 4136.41025641 , 4134.35897436 , 4130.76923077 , 4136.41025641 , 4135.8974359 , 4136.41025641 , 4179.48717949 , 4673.33333333 , 4136.41025641 , 4139.48717949 , 2025.0 , 2037.0 , 7.744 , 0.0 , 0.0 , 0.0 , 0.0 , 

108.0 , 4136.92307692 , 4135.38461538 , 4212.30769231 , 4137.43589744 , 4134.87179487 , 4134.35897436 , 4137.43589744 , 4136.41025641 , 4135.8974359 , 4134.35897436 , 4177.94871795 , 4670.25641026 , 4136.41025641 , 4138.97435897 , 2028.0 , 2037.0 , 7.752 , 0.0 , 0.0 , 0.0 , 0.0 , 

109.0 , 4135.8974359 , 4136.92307692 , 4212.82051282 , 4135.8974359 , 4135.38461538 , 4134.35897436 , 4130.25641026 , 4135.8974359 , 4135.8974359 , 4138.46153846 , 4180.0 , 4671.79487179 , 4135.8974359 , 4137.43589744 , 2030.0 , 2036.0 , 7.76 , 0.0 , 0.0 , 0.0 , 0.0 , 

110.0 , 4135.38461538 , 4133.84615385 , 4207.17948718 , 4135.38461538 , 4135.38461538 , 4134.35897436 , 4121.53846154 , 4135.38461538 , 4135.8974359 , 4141.02564103 , 4178.97435897 , 4680.0 , 4136.41025641 , 4139.48717949 , 2031.0 , 2036.0 , 7.768 , 0.0 , 0.0 , 0.0 , 0.0 , 

111.0 , 4135.8974359 , 4132.30769231 , 4203.58974359 , 4134.87179487 , 4134.35897436 , 4134.35897436 , 4129.74358974 , 4135.8974359 , 4135.8974359 , 4142.56410256 , 4177.43589744 , 4680.51282051 , 4135.8974359 , 4141.53846154 , 2033.0 , 2034.0 , 7.776 , 0.0 , 0.0 , 0.0 , 0.0 , 

112.0 , 4136.41025641 , 4133.84615385 , 4205.64102564 , 4134.87179487 , 4134.35897436 , 4134.35897436 , 4136.92307692 , 4135.38461538 , 4135.8974359 , 4138.46153846 , 4176.92307692 , 4676.92307692 , 4135.8974359 , 4140.0 , 2035.0 , 2034.0 , 7.784 , 0.0 , 0.0 , 0.0 , 0.0 , 

113.0 , 4135.8974359 , 4134.35897436 , 4204.61538462 , 4135.38461538 , 4134.87179487 , 4134.35897436 , 4130.25641026 , 4134.35897436 , 4135.8974359 , 4143.07692308 , 4178.46153846 , 4681.53846154 , 4136.41025641 , 4140.0 , 2036.0 , 2033.0 , 7.792 , 0.0 , 0.0 , 0.0 , 0.0 , 

114.0 , 4133.84615385 , 4133.33333333 , 4202.56410256 , 4136.41025641 , 4134.35897436 , 4133.84615385 , 4131.79487179 , 4134.87179487 , 4135.8974359 , 4152.82051282 , 4179.48717949 , 4684.61538462 , 4135.8974359 , 4141.02564103 , 2037.0 , 2034.0 , 7.8 , 0.0 , 0.0 , 0.0 , 0.0 , 

115.0 , 4131.28205128 , 4132.82051282 , 4203.58974359 , 4137.43589744 , 4134.35897436 , 4135.38461538 , 4136.92307692 , 4136.41025641 , 4135.8974359 , 4143.07692308 , 4177.94871795 , 4684.1025641 , 4134.87179487 , 4138.97435897 , 2038.0 , 2033.0 , 7.807 , 0.0 , 0.0 , 0.0 , 0.0 , 

116.0 , 4132.82051282 , 4134.35897436 , 4203.58974359 , 4136.92307692 , 4134.35897436 , 4135.8974359 , 4125.64102564 , 4135.38461538 , 4135.8974359 , 4133.33333333 , 4177.43589744 , 4689.23076923 , 4134.35897436 , 4139.48717949 , 2041.0 , 2035.0 , 7.815 , 0.0 , 0.0 , 0.0 , 0.0 , 

117.0 , 4134.87179487 , 4136.92307692 , 4203.58974359 , 4136.41025641 , 4134.35897436 , 4135.38461538 , 4121.02564103 , 4133.84615385 , 4135.8974359 , 4142.56410256 , 4176.41025641 , 4691.79487179 , 4134.87179487 , 4142.05128205 , 2043.0 , 2035.0 , 7.823 , 0.0 , 0.0 , 0.0 , 0.0 , 

118.0 , 4133.84615385 , 4136.41025641 , 4201.02564103 , 4135.38461538 , 4134.35897436 , 4133.84615385 , 4133.33333333 , 4135.38461538 , 4135.8974359 , 4151.79487179 , 4175.38461538 , 4690.25641026 , 4135.38461538 , 4139.48717949 , 2043.0 , 2038.0 , 7.831 , 0.0 , 0.0 , 0.0 , 0.0 , 

119.0 , 4132.82051282 , 4134.87179487 , 4200.51282051 , 4134.87179487 , 4134.35897436 , 4134.35897436 , 4137.43589744 , 4136.41025641 , 4136.41025641 , 4152.30769231 , 4177.94871795 , 4692.82051282 , 4134.35897436 , 4137.43589744 , 2043.0 , 2036.0 , 7.839 , 0.0 , 0.0 , 0.0 , 0.0 , 

120.0 , 4133.84615385 , 4134.87179487 , 4200.0 , 4135.38461538 , 4134.35897436 , 4134.35897436 , 4133.84615385 , 4135.38461538 , 4137.94871795 , 4147.17948718 , 4181.53846154 , 4694.35897436 , 4134.87179487 , 4139.48717949 , 2045.0 , 2036.0 , 7.848 , 0.0 , 0.0 , 0.0 , 0.0 , 

121.0 , 4135.8974359 , 4134.35897436 , 4197.43589744 , 4136.92307692 , 4134.35897436 , 4134.35897436 , 4134.35897436 , 4135.38461538 , 4137.94871795 , 4136.92307692 , 4179.48717949 , 4692.30769231 , 4136.41025641 , 4137.43589744 , 2046.0 , 2035.0 , 7.855 , 0.0 , 0.0 , 0.0 , 0.0 , 

122.0 , 4135.8974359 , 4133.84615385 , 4193.84615385 , 4137.43589744 , 4134.35897436 , 4134.35897436 , 4136.41025641 , 4136.41025641 , 4137.94871795 , 4137.43589744 , 4175.8974359 , 4694.87179487 , 4136.41025641 , 4136.41025641 , 2046.0 , 2033.0 , 7.863 , 0.0 , 0.0 , 0.0 , 0.0 , 

123.0 , 4134.87179487 , 4133.33333333 , 4194.35897436 , 4136.41025641 , 4134.35897436 , 4134.35897436 , 4136.41025641 , 4135.8974359 , 4137.94871795 , 4147.69230769 , 4174.87179487 , 4696.41025641 , 4134.35897436 , 4141.53846154 , 2047.0 , 2030.0 , 7.87 , 0.0 , 0.0 , 0.0 , 0.0 , 

124.0 , 4135.38461538 , 4133.84615385 , 4191.79487179 , 4136.41025641 , 4134.35897436 , 4134.35897436 , 4134.35897436 , 4135.38461538 , 4137.43589744 , 4152.82051282 , 4177.43589744 , 4693.33333333 , 4135.38461538 , 4141.53846154 , 2048.0 , 2028.0 , 7.878 , 0.0 , 0.0 , 0.0 , 0.0 , 

125.0 , 4136.41025641 , 4135.38461538 , 4191.28205128 , 4136.92307692 , 4134.35897436 , 4134.35897436 , 4130.25641026 , 4136.92307692 , 4137.94871795 , 4150.76923077 , 4177.94871795 , 4695.38461538 , 4136.41025641 , 4138.46153846 , 2048.0 , 2028.0 , 7.886 , 0.0 , 0.0 , 0.0 , 0.0 , 

126.0 , 4136.92307692 , 4136.92307692 , 4191.28205128 , 4137.43589744 , 4134.87179487 , 4134.35897436 , 4132.30769231 , 4137.43589744 , 4137.43589744 , 4147.17948718 , 4175.8974359 , 4700.0 , 4135.8974359 , 4138.97435897 , 2048.0 , 2028.0 , 7.895 , 0.0 , 0.0 , 0.0 , 0.0 , 

127.0 , 4136.41025641 , 4136.92307692 , 4191.28205128 , 4136.41025641 , 4134.35897436 , 4134.35897436 , 4136.41025641 , 4136.41025641 , 4135.8974359 , 4145.12820513 , 4177.43589744 , 4701.02564103 , 4135.8974359 , 4139.48717949 , 2047.0 , 2029.0 , 7.902 , 0.0 , 0.0 , 0.0 , 0.0 , 

128.0 , 4136.41025641 , 4134.87179487 , 4188.71794872 , 4134.87179487 , 4134.35897436 , 4134.35897436 , 4134.87179487 , 4136.41025641 , 4136.41025641 , 4148.71794872 , 4182.05128205 , 4700.0 , 4136.41025641 , 4138.46153846 , 2047.0 , 2031.0 , 7.91 , 0.0 , 0.0 , 0.0 , 0.0 , 

0.0 , 4137.43589744 , 4133.84615385 , 4188.71794872 , 4135.8974359 , 4135.38461538 , 4134.35897436 , 4134.35897436 , 4135.8974359 , 4137.43589744 , 4152.82051282 , 4182.56410256 , 4698.97435897 , 4135.8974359 , 4138.97435897 , 2047.0 , 2030.0 , 7.918 , 0.0 , 0.0 , 0.0 , 0.0 , 

1.0 , 4135.8974359 , 4136.41025641 , 4189.23076923 , 4137.43589744 , 4135.8974359 , 4134.35897436 , 4135.8974359 , 4134.87179487 , 4136.41025641 , 4150.25641026 , 4177.94871795 , 4702.56410256 , 4136.41025641 , 4138.97435897 , 2048.0 , 2032.0 , 7.927 , 0.0 , 0.0 , 0.0 , 0.0 , 

2.0 , 4134.35897436 , 4135.38461538 , 4185.12820513 , 4136.41025641 , 4136.41025641 , 4134.35897436 , 4134.35897436 , 4136.41025641 , 4135.8974359 , 4146.66666667 , 4175.8974359 , 4706.66666667 , 4137.94871795 , 4138.46153846 , 2049.0 , 2033.0 , 7.934 , 0.0 , 0.0 , 0.0 , 0.0 , 

3.0 , 4135.8974359 , 4130.76923077 , 4182.05128205 , 4134.35897436 , 4135.8974359 , 4134.35897436 , 4135.38461538 , 4137.43589744 , 4135.8974359 , 4142.56410256 , 4176.41025641 , 4707.17948718 , 4137.94871795 , 4139.48717949 , 2050.0 , 2034.0 , 7.941 , 0.0 , 0.0 , 0.0 , 0.0 , 

4.0 , 4136.41025641 , 4132.82051282 , 4180.0 , 4133.84615385 , 4135.8974359 , 4133.84615385 , 4136.92307692 , 4135.38461538 , 4136.41025641 , 4136.92307692 , 4175.8974359 , 4708.20512821 , 4135.8974359 , 4138.97435897 , 2051.0 , 2035.0 , 7.949 , 0.0 , 0.0 , 0.0 , 0.0 , 

5.0 , 4136.41025641 , 4137.43589744 , 4179.48717949 , 4135.8974359 , 4136.41025641 , 4134.87179487 , 4135.38461538 , 4134.87179487 , 4135.8974359 , 4135.38461538 , 4177.43589744 , 4712.30769231 , 4136.41025641 , 4138.46153846 , 2052.0 , 2038.0 , 7.957 , 0.0 , 0.0 , 0.0 , 0.0 , 

6.0 , 4136.92307692 , 4135.8974359 , 4177.43589744 , 4137.43589744 , 4135.8974359 , 4135.8974359 , 4134.87179487 , 4137.43589744 , 4135.8974359 , 4136.41025641 , 4181.53846154 , 4711.79487179 , 4138.46153846 , 4140.0 , 2055.0 , 2036.0 , 7.965 , 0.0 , 0.0 , 0.0 , 0.0 , 

7.0 , 4137.43589744 , 4132.82051282 , 4180.0 , 4135.38461538 , 4134.87179487 , 4134.35897436 , 4135.38461538 , 4137.43589744 , 4136.41025641 , 4136.92307692 , 4179.48717949 , 4708.71794872 , 4136.92307692 , 4139.48717949 , 2057.0 , 2036.0 , 7.974 , 0.0 , 0.0 , 0.0 , 0.0 , 

8.0 , 4136.92307692 , 4134.35897436 , 4180.51282051 , 4133.84615385 , 4135.38461538 , 4132.82051282 , 4134.35897436 , 4135.8974359 , 4136.92307692 , 4136.41025641 , 4175.38461538 , 4713.33333333 , 4134.87179487 , 4138.97435897 , 2059.0 , 2036.0 , 7.981 , 0.0 , 0.0 , 0.0 , 0.0 , 

9.0 , 4135.8974359 , 4137.43589744 , 4182.05128205 , 4134.87179487 , 4135.8974359 , 4134.87179487 , 4133.84615385 , 4135.38461538 , 4136.41025641 , 4136.92307692 , 4175.8974359 , 4714.87179487 , 4135.8974359 , 4138.97435897 , 2058.0 , 2037.0 , 7.989 , 0.0 , 0.0 , 0.0 , 0.0 , 

10.0 , 4135.38461538 , 4132.30769231 , 4183.58974359 , 4134.87179487 , 4135.8974359 , 4136.41025641 , 4134.35897436 , 4135.8974359 , 4136.92307692 , 4138.46153846 , 4178.97435897 , 4710.25641026 , 4135.8974359 , 4139.48717949 , 2061.0 , 2034.0 , 7.997 , 0.0 , 0.0 , 0.0 , 0.0 , 

11.0 , 4136.41025641 , 4127.69230769 , 4185.12820513 , 4135.38461538 , 4136.41025641 , 4134.87179487 , 4134.35897436 , 4136.41025641 , 4137.94871795 , 4135.38461538 , 4181.02564103 , 4711.79487179 , 4134.87179487 , 4140.0 , 2060.0 , 2033.0 , 8.005 , 0.0 , 0.0 , 0.0 , 0.0 , 

12.0 , 4135.38461538 , 4133.33333333 , 4184.61538462 , 4135.8974359 , 4135.8974359 , 4133.84615385 , 4134.35897436 , 4136.41025641 , 4137.94871795 , 4135.38461538 , 4180.51282051 , 4718.97435897 , 4135.8974359 , 4140.51282051 , 2060.0 , 2033.0 , 8.012 , 0.0 , 0.0 , 0.0 , 0.0 , 

13.0 , 4135.38461538 , 4137.94871795 , 4183.58974359 , 4135.38461538 , 4134.87179487 , 4134.35897436 , 4134.35897436 , 4135.38461538 , 4137.43589744 , 4149.74358974 , 4177.43589744 , 4720.0 , 4136.92307692 , 4140.0 , 2060.0 , 2034.0 , 8.02 , 0.0 , 0.0 , 0.0 , 0.0 , 

14.0 , 4136.92307692 , 4135.38461538 , 4180.0 , 4135.8974359 , 4134.35897436 , 4134.87179487 , 4134.35897436 , 4134.87179487 , 4137.94871795 , 4155.38461538 , 4178.97435897 , 4717.43589744 , 4134.87179487 , 4139.48717949 , 2060.0 , 2033.0 , 8.028 , 0.0 , 0.0 , 0.0 , 0.0 , 

15.0 , 4136.92307692 , 4135.38461538 , 4177.94871795 , 4136.41025641 , 4134.35897436 , 4135.38461538 , 4134.87179487 , 4136.41025641 , 4137.94871795 , 4139.48717949 , 4181.53846154 , 4717.94871795 , 4133.84615385 , 4140.0 , 2059.0 , 2035.0 , 8.036 , 0.0 , 0.0 , 0.0 , 0.0 , 

16.0 , 4136.92307692 , 4137.43589744 , 4179.48717949 , 4135.8974359 , 4134.35897436 , 4134.87179487 , 4133.84615385 , 4136.92307692 , 4137.94871795 , 4136.92307692 , 4178.97435897 , 4720.51282051 , 4134.87179487 , 4141.53846154 , 2060.0 , 2036.0 , 8.044 , 0.0 , 0.0 , 0.0 , 0.0 , 

17.0 , 4136.92307692 , 4136.41025641 , 4176.92307692 , 4136.41025641 , 4134.35897436 , 4134.35897436 , 4134.35897436 , 4134.87179487 , 4137.94871795 , 4150.25641026 , 4173.84615385 , 4718.97435897 , 4135.38461538 , 4141.53846154 , 2060.0 , 2039.0 , 8.052 , 0.0 , 0.0 , 0.0 , 0.0 , 

18.0 , 4134.87179487 , 4135.8974359 , 4173.84615385 , 4136.41025641 , 4134.35897436 , 4135.38461538 , 4136.41025641 , 4134.87179487 , 4137.94871795 , 4150.25641026 , 4174.35897436 , 4720.0 , 4136.92307692 , 4139.48717949 , 2061.0 , 2040.0 , 8.06 , 0.0 , 0.0 , 0.0 , 0.0 , 

19.0 , 4135.8974359 , 4133.84615385 , 4173.84615385 , 4135.8974359 , 4134.35897436 , 4135.8974359 , 4135.8974359 , 4136.92307692 , 4137.94871795 , 4141.53846154 , 4175.38461538 , 4724.1025641 , 4136.41025641 , 4137.43589744 , 2063.0 , 2042.0 , 8.067 , 0.0 , 0.0 , 0.0 , 0.0 , 

20.0 , 4139.48717949 , 4132.82051282 , 4169.74358974 , 4135.8974359 , 4134.35897436 , 4134.87179487 , 4134.35897436 , 4136.92307692 , 4137.43589744 , 4138.97435897 , 4173.84615385 , 4725.12820513 , 4136.41025641 , 4138.97435897 , 2063.0 , 2043.0 , 8.075 , 0.0 , 0.0 , 0.0 , 0.0 , 

21.0 , 4138.46153846 , 4135.8974359 , 4171.28205128 , 4136.41025641 , 4134.35897436 , 4134.35897436 , 4135.38461538 , 4135.8974359 , 4137.94871795 , 4140.0 , 4174.35897436 , 4725.64102564 , 4137.43589744 , 4138.46153846 , 2063.0 , 2043.0 , 8.084 , 0.0 , 0.0 , 0.0 , 0.0 , 

22.0 , 4135.38461538 , 4135.8974359 , 4157.43589744 , 4136.92307692 , 4134.35897436 , 4134.35897436 , 4135.8974359 , 4134.87179487 , 4137.43589744 , 4140.0 , 4176.41025641 , 4724.61538462 , 4131.28205128 , 4135.8974359 , 2066.0 , 2044.0 , 8.091 , 0.0 , 0.0 , 0.0 , 0.0 , 

23.0 , 4135.8974359 , 4134.87179487 , 4156.41025641 , 4137.43589744 , 4134.35897436 , 4134.35897436 , 4134.87179487 , 4136.92307692 , 4136.92307692 , 4140.0 , 4173.84615385 , 4725.12820513 , 4129.74358974 , 4137.43589744 , 2067.0 , 2044.0 , 8.099 , 0.0 , 0.0 , 0.0 , 0.0 , 

24.0 , 4136.41025641 , 4135.38461538 , 4146.15384615 , 4136.92307692 , 4134.35897436 , 4134.35897436 , 4134.35897436 , 4134.35897436 , 4135.38461538 , 4137.43589744 , 4170.76923077 , 4724.61538462 , 4131.79487179 , 4138.97435897 , 2070.0 , 2042.0 , 8.107 , 0.0 , 0.0 , 0.0 , 0.0 , 

25.0 , 4134.87179487 , 4135.8974359 , 4140.0 , 4136.41025641 , 4134.35897436 , 4134.35897436 , 4134.35897436 , 4133.84615385 , 4137.94871795 , 4140.0 , 4171.28205128 , 4726.15384615 , 4132.30769231 , 4138.97435897 , 2071.0 , 2043.0 , 8.115 , 0.0 , 0.0 , 0.0 , 0.0 , 

26.0 , 4134.87179487 , 4134.87179487 , 4141.02564103 , 4134.87179487 , 4134.35897436 , 4134.35897436 , 4134.35897436 , 4129.74358974 , 4137.94871795 , 4141.02564103 , 4171.28205128 , 4724.61538462 , 4128.20512821 , 4136.41025641 , 2070.0 , 2040.0 , 8.123 , 0.0 , 0.0 , 0.0 , 0.0 , 

27.0 , 4135.8974359 , 4135.38461538 , 4142.56410256 , 4134.35897436 , 4134.35897436 , 4134.35897436 , 4134.35897436 , 4129.74358974 , 4135.8974359 , 4139.48717949 , 4172.30769231 , 4725.12820513 , 4129.23076923 , 4135.8974359 , 2072.0 , 2042.0 , 8.131 , 0.0 , 0.0 , 0.0 , 0.0 , 

28.0 , 4135.8974359 , 4135.8974359 , 4134.35897436 , 4136.41025641 , 4134.35897436 , 4134.35897436 , 4134.35897436 , 4132.30769231 , 4134.35897436 , 4139.48717949 , 4173.33333333 , 4726.66666667 , 4130.25641026 , 4133.84615385 , 2073.0 , 2040.0 , 8.138 , 0.0 , 0.0 , 0.0 , 0.0 , 

29.0 , 4135.8974359 , 4135.38461538 , 4117.43589744 , 4137.43589744 , 4134.35897436 , 4134.35897436 , 4134.35897436 , 4132.30769231 , 4135.38461538 , 4140.0 , 4173.33333333 , 4726.66666667 , 4128.71794872 , 4133.84615385 , 2073.0 , 2039.0 , 8.146 , 0.0 , 0.0 , 0.0 , 0.0 , 

30.0 , 4135.38461538 , 4135.38461538 , 4112.30769231 , 4136.41025641 , 4134.35897436 , 4134.35897436 , 4134.35897436 , 4129.74358974 , 4134.87179487 , 4137.94871795 , 4173.33333333 , 4726.66666667 , 4127.17948718 , 4136.92307692 , 2073.0 , 2038.0 , 8.154 , 0.0 , 0.0 , 0.0 , 0.0 , 

31.0 , 4135.38461538 , 4136.92307692 , 4088.71794872 , 4135.8974359 , 4134.35897436 , 4134.35897436 , 4134.35897436 , 4130.25641026 , 4130.25641026 , 4134.35897436 , 4173.84615385 , 4724.1025641 , 4126.66666667 , 4142.05128205 , 2073.0 , 2039.0 , 8.162 , 0.0 , 0.0 , 0.0 , 0.0 , 

32.0 , 4136.41025641 , 4136.92307692 , 4076.41025641 , 4136.41025641 , 4134.35897436 , 4134.35897436 , 4134.35897436 , 4130.76923077 , 4128.20512821 , 4135.8974359 , 4173.84615385 , 4722.05128205 , 4128.20512821 , 4140.51282051 , 2073.0 , 2038.0 , 8.172 , 0.0 , 0.0 , 0.0 , 0.0 , 

33.0 , 4137.43589744 , 4133.33333333 , 4075.8974359 , 4135.8974359 , 4134.35897436 , 4134.35897436 , 4134.35897436 , 4130.76923077 , 4131.79487179 , 4138.97435897 , 4172.82051282 , 4725.12820513 , 4127.17948718 , 4133.84615385 , 2071.0 , 2038.0 , 8.177 , 0.0 , 0.0 , 0.0 , 0.0 , 

34.0 , 4137.43589744 , 4133.33333333 , 4078.97435897 , 4135.8974359 , 4135.38461538 , 4134.35897436 , 4134.35897436 , 4133.33333333 , 4135.38461538 , 4137.94871795 , 4172.82051282 , 4725.12820513 , 4125.12820513 , 4131.79487179 , 2070.0 , 2037.0 , 8.188 , 0.0 , 0.0 , 0.0 , 0.0 , 

35.0 , 4136.92307692 , 4135.8974359 , 4064.61538462 , 4135.8974359 , 4136.41025641 , 4134.35897436 , 4134.35897436 , 4128.20512821 , 4131.79487179 , 4136.41025641 , 4171.79487179 , 4720.0 , 4126.15384615 , 4135.38461538 , 2069.0 , 2040.0 , 8.194 , 0.0 , 0.0 , 0.0 , 0.0 , 

36.0 , 4137.94871795 , 4135.8974359 , 4052.82051282 , 4135.8974359 , 4136.41025641 , 4134.35897436 , 4134.35897436 , 4125.64102564 , 4131.79487179 , 4137.94871795 , 4172.30769231 , 4718.97435897 , 4128.20512821 , 4136.41025641 , 2069.0 , 2040.0 , 8.201 , 0.0 , 0.0 , 0.0 , 0.0 , 

37.0 , 4137.43589744 , 4135.38461538 , 4068.20512821 , 4135.8974359 , 4135.8974359 , 4134.35897436 , 4134.35897436 , 4131.28205128 , 4137.43589744 , 4139.48717949 , 4175.8974359 , 4722.05128205 , 4130.25641026 , 4134.87179487 , 2069.0 , 2041.0 , 8.209 , 0.0 , 0.0 , 0.0 , 0.0 , 

38.0 , 4135.8974359 , 4136.41025641 , 4082.56410256 , 4135.8974359 , 4135.8974359 , 4134.35897436 , 4134.35897436 , 4134.35897436 , 4137.94871795 , 4141.02564103 , 4175.8974359 , 4720.0 , 4130.25641026 , 4135.8974359 , 2069.0 , 2044.0 , 8.217 , 0.0 , 0.0 , 0.0 , 0.0 , 

39.0 , 4135.38461538 , 4135.8974359 , 4080.0 , 4135.8974359 , 4136.41025641 , 4134.35897436 , 4134.35897436 , 4133.33333333 , 4133.84615385 , 4142.05128205 , 4170.76923077 , 4718.46153846 , 4129.23076923 , 4138.46153846 , 2068.0 , 2044.0 , 8.225 , 0.0 , 0.0 , 0.0 , 0.0 , 

40.0 , 4135.38461538 , 4134.87179487 , 4070.76923077 , 4135.8974359 , 4135.8974359 , 4134.35897436 , 4134.35897436 , 4131.79487179 , 4131.28205128 , 4140.51282051 , 4172.30769231 , 4721.53846154 , 4130.25641026 , 4137.43589744 , 2067.0 , 2045.0 , 8.233 , 0.0 , 0.0 , 0.0 , 0.0 , 

41.0 , 4134.87179487 , 4134.35897436 , 4067.17948718 , 4135.8974359 , 4134.87179487 , 4134.35897436 , 4134.35897436 , 4132.82051282 , 4134.87179487 , 4138.46153846 , 4177.94871795 , 4718.97435897 , 4129.23076923 , 4134.87179487 , 2067.0 , 2044.0 , 8.241 , 0.0 , 0.0 , 0.0 , 0.0 , 

42.0 , 4134.87179487 , 4134.35897436 , 4061.53846154 , 4136.41025641 , 4134.35897436 , 4134.35897436 , 4134.35897436 , 4133.84615385 , 4136.41025641 , 4141.53846154 , 4175.8974359 , 4715.8974359 , 4128.20512821 , 4133.84615385 , 2048.0 , 2046.0 , 8.249 , 0.0 , 0.0 , 0.0 , 0.0 , 

43.0 , 4136.41025641 , 4136.41025641 , 4058.46153846 , 4135.8974359 , 4134.35897436 , 4134.35897436 , 4134.35897436 , 4132.82051282 , 4135.8974359 , 4144.61538462 , 4171.28205128 , 4718.97435897 , 4128.71794872 , 4136.92307692 , 2060.0 , 2046.0 , 8.257 , 0.0 , 0.0 , 0.0 , 0.0 , 

44.0 , 4136.92307692 , 4135.8974359 , 4062.56410256 , 4135.38461538 , 4134.35897436 , 4134.35897436 , 4134.35897436 , 4132.30769231 , 4137.94871795 , 4143.07692308 , 4173.84615385 , 4717.43589744 , 4128.71794872 , 4138.46153846 , 2057.0 , 2043.0 , 8.265 , 0.0 , 0.0 , 0.0 , 0.0 , 

45.0 , 4135.38461538 , 4133.33333333 , 4056.92307692 , 4134.87179487 , 4134.35897436 , 4134.35897436 , 4134.35897436 , 4133.33333333 , 4136.41025641 , 4139.48717949 , 4174.87179487 , 4710.25641026 , 4128.20512821 , 4136.41025641 , 2056.0 , 2040.0 , 8.272 , 0.0 , 0.0 , 0.0 , 0.0 , 

46.0 , 4135.38461538 , 4134.35897436 , 4043.07692308 , 4134.87179487 , 4134.35897436 , 4134.35897436 , 4134.35897436 , 4132.30769231 , 4134.35897436 , 4137.94871795 , 4175.8974359 , 4709.74358974 , 4129.23076923 , 4139.48717949 , 2054.0 , 2038.0 , 8.28 , 0.0 , 0.0 , 0.0 , 0.0 , 

47.0 , 4135.38461538 , 4137.43589744 , 4031.79487179 , 4134.87179487 , 4134.35897436 , 4134.35897436 , 4134.35897436 , 4130.25641026 , 4133.84615385 , 4140.0 , 4175.8974359 , 4710.25641026 , 4127.17948718 , 4143.07692308 , 2055.0 , 2037.0 , 8.288 , 0.0 , 0.0 , 0.0 , 0.0 , 

48.0 , 4134.35897436 , 4136.41025641 , 4026.15384615 , 4134.87179487 , 4134.35897436 , 4134.35897436 , 4134.35897436 , 4132.82051282 , 4132.30769231 , 4140.0 , 4173.84615385 , 4708.20512821 , 4125.64102564 , 4138.46153846 , 2054.0 , 2037.0 , 8.297 , 0.0 , 0.0 , 0.0 , 0.0 , 

49.0 , 4134.35897436 , 4134.35897436 , 4019.48717949 , 4134.35897436 , 4134.35897436 , 4134.35897436 , 4134.35897436 , 4132.82051282 , 4129.74358974 , 4136.92307692 , 4171.79487179 , 4705.12820513 , 4128.71794872 , 4134.35897436 , 2057.0 , 2036.0 , 8.304 , 0.0 , 0.0 , 0.0 , 0.0 , 

50.0 , 4135.8974359 , 4135.8974359 , 4014.35897436 , 4133.84615385 , 4134.35897436 , 4134.35897436 , 4134.35897436 , 4130.76923077 , 4131.28205128 , 4137.43589744 , 4173.33333333 , 4704.61538462 , 4128.71794872 , 4137.94871795 , 2057.0 , 2035.0 , 8.313 , 0.0 , 0.0 , 0.0 , 0.0 , 

51.0 , 4136.41025641 , 4136.41025641 , 4002.56410256 , 4134.35897436 , 4134.35897436 , 4134.35897436 , 4134.35897436 , 4129.74358974 , 4131.28205128 , 4137.94871795 , 4175.38461538 , 4702.05128205 , 4126.15384615 , 4137.43589744 , 2058.0 , 2034.0 , 8.32 , 0.0 , 0.0 , 0.0 , 0.0 , 

52.0 , 4135.8974359 , 4133.84615385 , 3987.17948718 , 4135.8974359 , 4134.35897436 , 4134.35897436 , 4134.35897436 , 4128.20512821 , 4130.25641026 , 4134.35897436 , 4174.35897436 , 4699.48717949 , 4126.66666667 , 4134.35897436 , 2060.0 , 2034.0 , 8.327 , 0.0 , 0.0 , 0.0 , 0.0 , 

53.0 , 4135.38461538 , 4134.35897436 , 3975.38461538 , 4137.43589744 , 4135.38461538 , 4134.35897436 , 4134.35897436 , 4127.17948718 , 4131.28205128 , 4135.38461538 , 4173.84615385 , 4697.43589744 , 4127.17948718 , 4132.82051282 , 2061.0 , 2036.0 , 8.335 , 0.0 , 0.0 , 0.0 , 0.0 , 

54.0 , 4135.8974359 , 4135.8974359 , 3965.12820513 , 4136.41025641 , 4136.41025641 , 4134.35897436 , 4134.35897436 , 4129.74358974 , 4130.76923077 , 4136.41025641 , 4173.84615385 , 4695.38461538 , 4125.12820513 , 4132.82051282 , 2061.0 , 2037.0 , 8.343 , 0.0 , 0.0 , 0.0 , 0.0 , 

55.0 , 4136.41025641 , 4136.41025641 , 3951.28205128 , 4135.8974359 , 4136.41025641 , 4134.35897436 , 4134.35897436 , 4130.25641026 , 4131.79487179 , 4131.79487179 , 4173.33333333 , 4690.76923077 , 4123.58974359 , 4135.38461538 , 2062.0 , 2036.0 , 8.351 , 0.0 , 0.0 , 0.0 , 0.0 , 

56.0 , 4135.8974359 , 4134.35897436 , 3938.97435897 , 4136.41025641 , 4135.8974359 , 4134.35897436 , 4134.35897436 , 4127.69230769 , 4131.28205128 , 4130.76923077 , 4173.33333333 , 4686.15384615 , 4123.58974359 , 4135.8974359 , 2059.0 , 2037.0 , 8.359 , 0.0 , 0.0 , 0.0 , 0.0 , 

57.0 , 4135.38461538 , 4134.35897436 , 3930.25641026 , 4136.41025641 , 4135.8974359 , 4134.35897436 , 4134.35897436 , 4127.17948718 , 4129.74358974 , 4134.35897436 , 4170.25641026 , 4683.58974359 , 4123.07692308 , 4131.79487179 , 2057.0 , 2037.0 , 8.367 , 0.0 , 0.0 , 0.0 , 0.0 , 

58.0 , 4136.41025641 , 4136.92307692 , 3923.07692308 , 4135.8974359 , 4136.41025641 , 4134.35897436 , 4134.35897436 , 4128.20512821 , 4130.25641026 , 4134.87179487 , 4168.20512821 , 4680.51282051 , 4124.61538462 , 4133.84615385 , 2057.0 , 2035.0 , 8.376 , 0.0 , 0.0 , 0.0 , 0.0 , 

59.0 , 4135.8974359 , 4134.35897436 , 3921.53846154 , 4136.41025641 , 4135.38461538 , 4134.35897436 , 4134.35897436 , 4127.69230769 , 4130.76923077 , 4138.97435897 , 4169.23076923 , 4674.87179487 , 4127.69230769 , 4139.48717949 , 2057.0 , 2035.0 , 8.384 , 0.0 , 0.0 , 0.0 , 0.0 , 

60.0 , 4134.87179487 , 4132.30769231 , 3929.74358974 , 4136.41025641 , 4134.35897436 , 4134.35897436 , 4134.35897436 , 4130.76923077 , 4134.35897436 , 4141.53846154 , 4172.30769231 , 4670.25641026 , 4128.20512821 , 4133.84615385 , 2055.0 , 2035.0 , 8.391 , 0.0 , 0.0 , 0.0 , 0.0 , 

61.0 , 4136.41025641 , 4134.87179487 , 3942.56410256 , 4135.38461538 , 4134.35897436 , 4134.35897436 , 4134.35897436 , 4133.84615385 , 4137.43589744 , 4137.94871795 , 4171.79487179 , 4666.15384615 , 4128.71794872 , 4132.30769231 , 2051.0 , 2035.0 , 8.398 , 0.0 , 0.0 , 0.0 , 0.0 , 

62.0 , 4136.41025641 , 4135.8974359 , 3951.79487179 , 4134.87179487 , 4134.35897436 , 4134.35897436 , 4134.35897436 , 4133.84615385 , 4136.41025641 , 4136.41025641 , 4169.74358974 , 4661.53846154 , 4130.25641026 , 4140.51282051 , 2050.0 , 2033.0 , 8.406 , 0.0 , 0.0 , 0.0 , 0.0 , 

63.0 , 4135.38461538 , 4133.84615385 , 3960.0 , 4134.87179487 , 4134.35897436 , 4134.35897436 , 4134.35897436 , 4134.87179487 , 4135.38461538 , 4141.53846154 , 4172.30769231 , 4662.05128205 , 4133.33333333 , 4140.51282051 , 2048.0 , 2033.0 , 8.414 , 0.0 , 0.0 , 0.0 , 0.0 , 

64.0 , 4136.92307692 , 4134.87179487 , 3974.35897436 , 4134.35897436 , 4134.35897436 , 4134.35897436 , 4134.35897436 , 4137.94871795 , 4138.46153846 , 4143.58974359 , 4173.84615385 , 4663.07692308 , 4134.35897436 , 4135.38461538 , 2047.0 , 2037.0 , 8.422 , 0.0 , 0.0 , 0.0 , 0.0 , 

65.0 , 4137.43589744 , 4136.41025641 , 3985.12820513 , 4134.35897436 , 4134.35897436 , 4134.35897436 , 4134.35897436 , 4135.8974359 , 4138.97435897 , 4141.53846154 , 4173.33333333 , 4659.48717949 , 4134.35897436 , 4140.0 , 2047.0 , 2037.0 , 8.43 , 0.0 , 0.0 , 0.0 , 0.0 , 

66.0 , 4134.87179487 , 4135.8974359 , 3978.97435897 , 4134.35897436 , 4134.35897436 , 4133.84615385 , 4134.35897436 , 4132.82051282 , 4136.92307692 , 4142.05128205 , 4173.84615385 , 4655.38461538 , 4132.30769231 , 4141.53846154 , 2045.0 , 2037.0 , 8.438 , 0.0 , 0.0 , 0.0 , 0.0 , 

67.0 , 4134.87179487 , 4135.38461538 , 3971.79487179 , 4134.87179487 , 4134.35897436 , 4134.35897436 , 4134.35897436 , 4135.8974359 , 4138.46153846 , 4144.1025641 , 4177.43589744 , 4651.79487179 , 4130.25641026 , 4136.92307692 , 2044.0 , 2037.0 , 8.446 , 0.0 , 0.0 , 0.0 , 0.0 , 

68.0 , 4135.8974359 , 4133.84615385 , 3972.82051282 , 4134.35897436 , 4134.35897436 , 4134.35897436 , 4134.35897436 , 4135.38461538 , 4138.46153846 , 4140.51282051 , 4174.87179487 , 4644.1025641 , 4129.74358974 , 4137.43589744 , 2043.0 , 2035.0 , 8.454 , 0.0 , 0.0 , 0.0 , 0.0 , 

69.0 , 4135.8974359 , 4132.30769231 , 3968.71794872 , 4134.87179487 , 4134.35897436 , 4133.84615385 , 4134.35897436 , 4131.79487179 , 4136.92307692 , 4138.46153846 , 4170.76923077 , 4640.0 , 4130.25641026 , 4140.51282051 , 2042.0 , 2035.0 , 8.462 , 0.0 , 0.0 , 0.0 , 0.0 , 

70.0 , 4135.38461538 , 4132.30769231 , 3954.87179487 , 4134.87179487 , 4135.8974359 , 4134.87179487 , 4134.35897436 , 4133.33333333 , 4135.8974359 , 4140.51282051 , 4171.28205128 , 4637.94871795 , 4130.25641026 , 4136.92307692 , 2041.0 , 2035.0 , 8.469 , 0.0 , 0.0 , 0.0 , 0.0 , 

71.0 , 4135.38461538 , 4132.30769231 , 3944.1025641 , 4134.35897436 , 4136.41025641 , 4134.87179487 , 4134.35897436 , 4134.35897436 , 4135.8974359 , 4140.0 , 4173.33333333 , 4631.79487179 , 4129.74358974 , 4131.79487179 , 2042.0 , 2035.0 , 8.477 , 0.0 , 0.0 , 0.0 , 0.0 , 

72.0 , 4135.8974359 , 4134.35897436 , 3934.87179487 , 4135.38461538 , 4135.8974359 , 4133.84615385 , 4134.35897436 , 4130.76923077 , 4135.38461538 , 4137.43589744 , 4171.79487179 , 4627.17948718 , 4127.69230769 , 4132.82051282 , 2042.0 , 2035.0 , 8.485 , 0.0 , 0.0 , 0.0 , 0.0 , 

73.0 , 4135.8974359 , 4136.41025641 , 3924.1025641 , 4136.41025641 , 4135.8974359 , 4133.33333333 , 4134.35897436 , 4129.74358974 , 4133.33333333 , 4138.97435897 , 4169.23076923 , 4625.64102564 , 4129.23076923 , 4137.94871795 , 2042.0 , 2035.0 , 8.493 , 0.0 , 0.0 , 0.0 , 0.0 , 

74.0 , 4135.8974359 , 4135.8974359 , 3925.12820513 , 4135.8974359 , 4135.8974359 , 4132.82051282 , 4134.35897436 , 4133.33333333 , 4133.84615385 , 4142.05128205 , 4171.28205128 , 4621.53846154 , 4132.82051282 , 4138.97435897 , 2043.0 , 2037.0 , 8.501 , 0.0 , 0.0 , 0.0 , 0.0 , 

75.0 , 4136.41025641 , 4134.87179487 , 3946.66666667 , 4134.35897436 , 4135.8974359 , 4133.33333333 , 4134.35897436 , 4139.48717949 , 4136.92307692 , 4143.07692308 , 4173.33333333 , 4618.46153846 , 4131.79487179 , 4137.94871795 , 2040.0 , 2039.0 , 8.51 , 0.0 , 0.0 , 0.0 , 0.0 , 

76.0 , 4136.92307692 , 4134.87179487 , 3965.12820513 , 4135.38461538 , 4135.8974359 , 4134.35897436 , 4134.35897436 , 4138.97435897 , 4140.0 , 4143.58974359 , 4172.82051282 , 4614.35897436 , 4132.30769231 , 4140.51282051 , 2036.0 , 2039.0 , 8.517 , 0.0 , 0.0 , 0.0 , 0.0 , 

77.0 , 4136.92307692 , 4135.38461538 , 3960.51282051 , 4136.41025641 , 4135.8974359 , 4135.38461538 , 4134.35897436 , 4130.76923077 , 4137.43589744 , 4143.58974359 , 4174.87179487 , 4608.71794872 , 4135.8974359 , 4139.48717949 , 2032.0 , 2039.0 , 8.525 , 0.0 , 0.0 , 0.0 , 0.0 , 

78.0 , 4136.92307692 , 4136.41025641 , 3944.1025641 , 4135.8974359 , 4135.8974359 , 4134.87179487 , 4134.35897436 , 4128.71794872 , 4134.35897436 , 4141.02564103 , 4173.84615385 , 4605.64102564 , 4132.82051282 , 4134.87179487 , 2028.0 , 2038.0 , 8.532 , 0.0 , 0.0 , 0.0 , 0.0 , 

79.0 , 4136.41025641 , 4135.8974359 , 3921.02564103 , 4135.8974359 , 4135.8974359 , 4134.87179487 , 4134.35897436 , 4132.82051282 , 4135.8974359 , 4137.94871795 , 4169.23076923 , 4600.51282051 , 4126.15384615 , 4133.84615385 , 2025.0 , 2037.0 , 8.54 , 0.0 , 0.0 , 0.0 , 0.0 , 

80.0 , 4135.38461538 , 4134.87179487 , 3893.33333333 , 4136.41025641 , 4135.8974359 , 4135.38461538 , 4134.35897436 , 4129.23076923 , 4135.8974359 , 4137.43589744 , 4169.74358974 , 4593.33333333 , 4126.15384615 , 4133.84615385 , 2023.0 , 2038.0 , 8.548 , 0.0 , 0.0 , 0.0 , 0.0 , 

81.0 , 4135.8974359 , 4135.8974359 , 3886.15384615 , 4136.41025641 , 4136.41025641 , 4135.38461538 , 4134.35897436 , 4126.15384615 , 4134.35897436 , 4137.94871795 , 4172.82051282 , 4588.71794872 , 4128.71794872 , 4132.30769231 , 2023.0 , 2038.0 , 8.556 , 0.0 , 0.0 , 0.0 , 0.0 , 

82.0 , 4135.8974359 , 4135.8974359 , 3906.15384615 , 4134.87179487 , 4135.38461538 , 4134.87179487 , 4134.35897436 , 4131.79487179 , 4135.8974359 , 4141.53846154 , 4174.35897436 , 4585.12820513 , 4130.25641026 , 4136.41025641 , 2024.0 , 2040.0 , 8.564 , 0.0 , 0.0 , 0.0 , 0.0 , 

83.0 , 4136.41025641 , 4134.87179487 , 3924.1025641 , 4134.35897436 , 4134.35897436 , 4135.38461538 , 4134.35897436 , 4137.94871795 , 4137.94871795 , 4144.1025641 , 4173.33333333 , 4579.48717949 , 4130.25641026 , 4142.05128205 , 2024.0 , 2040.0 , 8.572 , 0.0 , 0.0 , 0.0 , 0.0 , 

84.0 , 4135.38461538 , 4134.87179487 , 3934.35897436 , 4134.35897436 , 4134.35897436 , 4135.38461538 , 4134.35897436 , 4140.0 , 4138.97435897 , 4145.12820513 , 4174.35897436 , 4577.94871795 , 4131.79487179 , 4140.51282051 , 2026.0 , 2042.0 , 8.581 , 0.0 , 0.0 , 0.0 , 0.0 , 

85.0 , 4134.35897436 , 4135.38461538 , 3939.48717949 , 4134.35897436 , 4134.35897436 , 4135.38461538 , 4134.35897436 , 4136.41025641 , 4136.41025641 , 4143.07692308 , 4175.8974359 , 4575.38461538 , 4134.87179487 , 4135.8974359 , 2027.0 , 2043.0 , 8.588 , 0.0 , 0.0 , 0.0 , 0.0 , 

86.0 , 4135.38461538 , 4134.87179487 , 3937.43589744 , 4134.35897436 , 4134.35897436 , 4135.38461538 , 4134.35897436 , 4132.82051282 , 4137.94871795 , 4144.1025641 , 4175.38461538 , 4568.71794872 , 4136.41025641 , 4135.8974359 , 2030.0 , 2042.0 , 8.595 , 0.0 , 0.0 , 0.0 , 0.0 , 

87.0 , 4134.87179487 , 4135.38461538 , 3941.53846154 , 4134.35897436 , 4134.35897436 , 4135.38461538 , 4134.35897436 , 4135.38461538 , 4143.07692308 , 4146.15384615 , 4174.35897436 , 4563.58974359 , 4133.84615385 , 4138.46153846 , 2032.0 , 2043.0 , 8.603 , 0.0 , 0.0 , 0.0 , 0.0 , 

88.0 , 4134.35897436 , 4135.8974359 , 3950.25641026 , 4134.35897436 , 4134.35897436 , 4135.38461538 , 4134.35897436 , 4137.94871795 , 4143.07692308 , 4145.12820513 , 4175.38461538 , 4562.05128205 , 4133.84615385 , 4141.53846154 , 2033.0 , 2044.0 , 8.611 , 0.0 , 0.0 , 0.0 , 0.0 , 

89.0 , 4136.92307692 , 4135.38461538 , 3947.17948718 , 4134.35897436 , 4134.35897436 , 4135.38461538 , 4134.35897436 , 4135.38461538 , 4136.41025641 , 4142.56410256 , 4174.87179487 , 4558.97435897 , 4134.35897436 , 4140.51282051 , 2036.0 , 2046.0 , 8.619 , 0.0 , 0.0 , 0.0 , 0.0 , 

90.0 , 4140.0 , 4135.38461538 , 3932.30769231 , 4134.35897436 , 4134.35897436 , 4135.38461538 , 4134.35897436 , 4133.84615385 , 4135.38461538 , 4142.05128205 , 4173.84615385 , 4551.79487179 , 4132.30769231 , 4136.41025641 , 2036.0 , 2045.0 , 8.628 , 0.0 , 0.0 , 0.0 , 0.0 , 

91.0 , 4139.48717949 , 4135.38461538 , 3917.94871795 , 4134.35897436 , 4134.35897436 , 4135.38461538 , 4134.35897436 , 4132.82051282 , 4137.94871795 , 4141.02564103 , 4174.35897436 , 4544.61538462 , 4129.23076923 , 4133.84615385 , 2036.0 , 2041.0 , 8.636 , 0.0 , 0.0 , 0.0 , 0.0 , 

92.0 , 4138.97435897 , 4135.38461538 , 3900.0 , 4134.35897436 , 4134.35897436 , 4135.38461538 , 4134.35897436 , 4132.30769231 , 4135.38461538 , 4138.97435897 , 4171.79487179 , 4542.05128205 , 4128.71794872 , 4135.8974359 , 2035.0 , 2037.0 , 8.643 , 0.0 , 0.0 , 0.0 , 0.0 , 

93.0 , 4139.48717949 , 4135.38461538 , 3881.02564103 , 4134.35897436 , 4134.35897436 , 4135.38461538 , 4134.35897436 , 4133.84615385 , 4133.33333333 , 4136.41025641 , 4166.66666667 , 4538.97435897 , 4130.76923077 , 4137.94871795 , 2036.0 , 2037.0 , 8.651 , 0.0 , 0.0 , 0.0 , 0.0 , 

94.0 , 4139.48717949 , 4135.38461538 , 3875.8974359 , 4134.35897436 , 4134.35897436 , 4135.38461538 , 4134.35897436 , 4132.82051282 , 4134.87179487 , 4136.92307692 , 4168.71794872 , 4530.76923077 , 4131.28205128 , 4136.92307692 , 2035.0 , 2036.0 , 8.659 , 0.0 , 0.0 , 0.0 , 0.0 , 

95.0 , 4138.97435897 , 4134.87179487 , 3885.12820513 , 4134.35897436 , 4134.35897436 , 4135.38461538 , 4134.35897436 , 4132.82051282 , 4136.92307692 , 4141.02564103 , 4170.76923077 , 4526.66666667 , 4131.28205128 , 4135.38461538 , 2035.0 , 2037.0 , 8.666 , 0.0 , 0.0 , 0.0 , 0.0 , 

96.0 , 4138.97435897 , 4134.35897436 , 3897.43589744 , 4134.35897436 , 4134.35897436 , 4135.38461538 , 4134.35897436 , 4134.35897436 , 4137.94871795 , 4145.12820513 , 4170.25641026 , 4525.64102564 , 4131.28205128 , 4137.94871795 , 2033.0 , 2037.0 , 8.674 , 0.0 , 0.0 , 0.0 , 0.0 , 

97.0 , 4138.97435897 , 4135.8974359 , 3905.64102564 , 4134.35897436 , 4134.35897436 , 4135.38461538 , 4134.35897436 , 4136.41025641 , 4137.43589744 , 4144.61538462 , 4172.30769231 , 4517.43589744 , 4133.84615385 , 4140.51282051 , 2032.0 , 2037.0 , 8.682 , 0.0 , 0.0 , 0.0 , 0.0 , 

98.0 , 4138.97435897 , 4135.38461538 , 3915.8974359 , 4134.35897436 , 4134.35897436 , 4135.38461538 , 4134.35897436 , 4139.48717949 , 4137.94871795 , 4144.1025641 , 4173.84615385 , 4512.30769231 , 4134.87179487 , 4138.46153846 , 2032.0 , 2036.0 , 8.69 , 0.0 , 0.0 , 0.0 , 0.0 , 

99.0 , 4139.48717949 , 4135.8974359 , 3922.56410256 , 4134.35897436 , 4134.35897436 , 4135.38461538 , 4134.35897436 , 4139.48717949 , 4136.92307692 , 4144.61538462 , 4173.84615385 , 4512.30769231 , 4136.41025641 , 4136.92307692 , 2032.0 , 2037.0 , 8.698 , 0.0 , 0.0 , 0.0 , 0.0 , 

100.0 , 4138.97435897 , 4137.94871795 , 3915.8974359 , 4134.35897436 , 4133.84615385 , 4135.38461538 , 4134.35897436 , 4134.87179487 , 4135.38461538 , 4141.02564103 , 4174.87179487 , 4506.15384615 , 4134.35897436 , 4137.43589744 , 2033.0 , 2040.0 , 8.706 , 0.0 , 0.0 , 0.0 , 0.0 , 

101.0 , 4138.97435897 , 4134.35897436 , 3908.20512821 , 4134.35897436 , 4134.35897436 , 4135.38461538 , 4134.35897436 , 4134.35897436 , 4136.41025641 , 4141.02564103 , 4172.82051282 , 4500.0 , 4132.30769231 , 4138.97435897 , 2032.0 , 2040.0 , 8.714 , 0.0 , 0.0 , 0.0 , 0.0 , 

102.0 , 4140.0 , 4131.28205128 , 3907.69230769 , 4134.35897436 , 4135.8974359 , 4135.38461538 , 4134.35897436 , 4135.38461538 , 4139.48717949 , 4143.07692308 , 4167.69230769 , 4496.92307692 , 4132.82051282 , 4140.51282051 , 2031.0 , 2041.0 , 8.722 , 0.0 , 0.0 , 0.0 , 0.0 , 

103.0 , 4137.94871795 , 4134.87179487 , 3909.23076923 , 4134.35897436 , 4136.41025641 , 4135.38461538 , 4134.35897436 , 4134.35897436 , 4138.97435897 , 4142.56410256 , 4170.76923077 , 4490.25641026 , 4130.25641026 , 4140.0 , 2030.0 , 2039.0 , 8.729 , 0.0 , 0.0 , 0.0 , 0.0 , 

104.0 , 4134.87179487 , 4136.92307692 , 3904.61538462 , 4134.35897436 , 4135.8974359 , 4135.38461538 , 4134.35897436 , 4133.84615385 , 4135.8974359 , 4140.51282051 , 4175.8974359 , 4484.1025641 , 4129.23076923 , 4137.43589744 , 2030.0 , 2036.0 , 8.737 , 0.0 , 0.0 , 0.0 , 0.0 , 

105.0 , 4134.87179487 , 4133.84615385 , 3902.05128205 , 4134.35897436 , 4135.8974359 , 4135.38461538 , 4134.35897436 , 4133.33333333 , 4137.94871795 , 4141.53846154 , 4173.33333333 , 4482.05128205 , 4133.33333333 , 4135.38461538 , 2028.0 , 2031.0 , 8.745 , 0.0 , 0.0 , 0.0 , 0.0 , 

106.0 , 4134.87179487 , 4134.35897436 , 3906.15384615 , 4134.35897436 , 4135.8974359 , 4135.38461538 , 4134.35897436 , 4132.30769231 , 4137.94871795 , 4143.07692308 , 4170.25641026 , 4474.35897436 , 4133.84615385 , 4132.82051282 , 2027.0 , 2029.0 , 8.753 , 0.0 , 0.0 , 0.0 , 0.0 , 

107.0 , 4134.87179487 , 4135.38461538 , 3917.94871795 , 4134.35897436 , 4135.8974359 , 4135.38461538 , 4134.35897436 , 4135.8974359 , 4137.94871795 , 4143.07692308 , 4173.33333333 , 4468.20512821 , 4134.35897436 , 4136.92307692 , 2026.0 , 2025.0 , 8.761 , 0.0 , 0.0 , 0.0 , 0.0 , 

108.0 , 4135.8974359 , 4135.8974359 , 3946.15384615 , 4134.35897436 , 4135.8974359 , 4135.38461538 , 4134.35897436 , 4141.02564103 , 4141.02564103 , 4143.58974359 , 4171.79487179 , 4468.20512821 , 4138.46153846 , 4143.07692308 , 2024.0 , 2025.0 , 8.769 , 0.0 , 0.0 , 0.0 , 0.0 , 

109.0 , 4136.41025641 , 4134.87179487 , 3980.0 , 4134.35897436 , 4135.38461538 , 4135.38461538 , 4134.35897436 , 4143.07692308 , 4142.05128205 , 4145.12820513 , 4169.23076923 , 4469.23076923 , 4140.51282051 , 4142.56410256 , 2024.0 , 2025.0 , 8.777 , 0.0 , 0.0 , 0.0 , 0.0 , 

110.0 , 4134.87179487 , 4131.79487179 , 4002.56410256 , 4134.35897436 , 4134.35897436 , 4135.38461538 , 4134.35897436 , 4142.56410256 , 4143.07692308 , 4148.20512821 , 4174.35897436 , 4466.66666667 , 4140.0 , 4139.48717949 , 2020.0 , 2025.0 , 8.785 , 0.0 , 0.0 , 0.0 , 0.0 , 

111.0 , 4134.87179487 , 4133.33333333 , 4013.33333333 , 4134.35897436 , 4134.35897436 , 4135.38461538 , 4134.35897436 , 4141.02564103 , 4144.61538462 , 4149.74358974 , 4177.94871795 , 4465.64102564 , 4143.07692308 , 4140.0 , 2021.0 , 2024.0 , 8.792 , 0.0 , 0.0 , 0.0 , 0.0 , 

112.0 , 4135.38461538 , 4135.8974359 , 4023.07692308 , 4134.35897436 , 4135.38461538 , 4135.38461538 , 4134.35897436 , 4140.51282051 , 4147.17948718 , 4148.20512821 , 4175.8974359 , 4463.58974359 , 4141.53846154 , 4143.07692308 , 2019.0 , 2025.0 , 8.8 , 0.0 , 0.0 , 0.0 , 0.0 , 

113.0 , 4136.41025641 , 4135.38461538 , 4043.07692308 , 4134.35897436 , 4136.41025641 , 4135.38461538 , 4134.35897436 , 4143.58974359 , 4145.64102564 , 4150.25641026 , 4175.38461538 , 4458.46153846 , 4137.43589744 , 4145.64102564 , 2018.0 , 2026.0 , 8.808 , 0.0 , 0.0 , 0.0 , 0.0 , 

114.0 , 4135.8974359 , 4134.87179487 , 4072.30769231 , 4134.35897436 , 4135.8974359 , 4135.38461538 , 4134.35897436 , 4147.69230769 , 4145.64102564 , 4151.28205128 , 4177.94871795 , 4458.97435897 , 4141.02564103 , 4145.12820513 , 2017.0 , 2027.0 , 8.816 , 0.0 , 0.0 , 0.0 , 0.0 , 

115.0 , 4134.87179487 , 4134.87179487 , 4095.38461538 , 4133.84615385 , 4135.8974359 , 4135.38461538 , 4134.35897436 , 4148.71794872 , 4143.58974359 , 4152.30769231 , 4175.8974359 , 4461.02564103 , 4146.66666667 , 4141.53846154 , 2015.0 , 2026.0 , 8.825 , 0.0 , 0.0 , 0.0 , 0.0 , 

116.0 , 4134.87179487 , 4134.87179487 , 4109.23076923 , 4134.35897436 , 4136.41025641 , 4135.38461538 , 4134.35897436 , 4148.20512821 , 4144.61538462 , 4154.87179487 , 4175.38461538 , 4458.46153846 , 4145.12820513 , 4142.56410256 , 2014.0 , 2027.0 , 8.833 , 0.0 , 0.0 , 0.0 , 0.0 , 

117.0 , 4135.8974359 , 4135.8974359 , 4126.15384615 , 4135.38461538 , 4135.8974359 , 4135.38461538 , 4134.35897436 , 4146.15384615 , 4147.17948718 , 4154.87179487 , 4177.43589744 , 4455.38461538 , 4141.53846154 , 4145.64102564 , 2015.0 , 2026.0 , 8.84 , 0.0 , 0.0 , 0.0 , 0.0 , 

118.0 , 4136.41025641 , 4133.33333333 , 4146.66666667 , 4135.38461538 , 4134.87179487 , 4135.38461538 , 4134.35897436 , 4144.1025641 , 4148.20512821 , 4153.33333333 , 4178.46153846 , 4455.8974359 , 4141.53846154 , 4144.61538462 , 2014.0 , 2027.0 , 8.848 , 0.0 , 0.0 , 0.0 , 0.0 , 

119.0 , 4134.87179487 , 4131.28205128 , 4160.51282051 , 4134.87179487 , 4135.8974359 , 4135.38461538 , 4134.35897436 , 4144.61538462 , 4145.64102564 , 4154.87179487 , 4178.97435897 , 4453.84615385 , 4143.07692308 , 4141.53846154 , 2015.0 , 2029.0 , 8.856 , 0.0 , 0.0 , 0.0 , 0.0 , 

120.0 , 4134.35897436 , 4135.8974359 , 4172.30769231 , 4134.35897436 , 4135.8974359 , 4135.38461538 , 4134.35897436 , 4147.69230769 , 4145.64102564 , 4154.35897436 , 4180.0 , 4451.79487179 , 4143.07692308 , 4142.56410256 , 2015.0 , 2028.0 , 8.863 , 0.0 , 0.0 , 0.0 , 0.0 , 

121.0 , 4135.38461538 , 4137.43589744 , 4189.74358974 , 4132.82051282 , 4134.87179487 , 4135.38461538 , 4134.35897436 , 4147.69230769 , 4148.20512821 , 4151.28205128 , 4180.0 , 4456.41025641 , 4142.05128205 , 4144.1025641 , 2014.0 , 2029.0 , 8.871 , 0.0 , 0.0 , 0.0 , 0.0 , 

122.0 , 4135.8974359 , 4134.87179487 , 4207.69230769 , 4133.33333333 , 4135.38461538 , 4135.38461538 , 4134.35897436 , 4146.15384615 , 4148.71794872 , 4153.84615385 , 4180.0 , 4463.07692308 , 4141.53846154 , 4144.61538462 , 2016.0 , 2030.0 , 8.879 , 0.0 , 0.0 , 0.0 , 0.0 , 

123.0 , 4135.38461538 , 4133.84615385 , 4217.94871795 , 4133.84615385 , 4135.38461538 , 4135.38461538 , 4134.35897436 , 4146.15384615 , 4145.12820513 , 4155.8974359 , 4177.94871795 , 4460.51282051 , 4142.05128205 , 4142.05128205 , 2016.0 , 2031.0 , 8.887 , 0.0 , 0.0 , 0.0 , 0.0 , 

124.0 , 4134.87179487 , 4134.35897436 , 4216.41025641 , 4129.74358974 , 4134.35897436 , 4135.38461538 , 4134.35897436 , 4147.17948718 , 4144.61538462 , 4154.35897436 , 4177.43589744 , 4455.38461538 , 4141.53846154 , 4140.51282051 , 2016.0 , 2029.0 , 8.896 , 0.0 , 0.0 , 0.0 , 0.0 , 

125.0 , 4134.35897436 , 4134.87179487 , 4218.46153846 , 4129.74358974 , 4134.35897436 , 4134.87179487 , 4134.35897436 , 4145.64102564 , 4145.12820513 , 4151.79487179 , 4176.92307692 , 4456.92307692 , 4137.94871795 , 4142.05128205 , 2016.0 , 2030.0 , 8.903 , 0.0 , 0.0 , 0.0 , 0.0 , 

126.0 , 4133.84615385 , 4135.8974359 , 4224.61538462 , 4134.35897436 , 4134.35897436 , 4133.84615385 , 4134.35897436 , 4143.07692308 , 4145.64102564 , 4150.25641026 , 4176.92307692 , 4461.02564103 , 4137.43589744 , 4144.1025641 , 2017.0 , 2030.0 , 8.911 , 0.0 , 0.0 , 0.0 , 0.0 , 

127.0 , 4135.8974359 , 4135.38461538 , 4231.79487179 , 4135.8974359 , 4134.35897436 , 4132.82051282 , 4134.35897436 , 4141.53846154 , 4145.64102564 , 4147.69230769 , 4177.94871795 , 4458.97435897 , 4141.02564103 , 4141.53846154 , 2018.0 , 2029.0 , 8.919 , 0.0 , 0.0 , 0.0 , 0.0 , 

128.0 , 4134.87179487 , 4135.38461538 , 4245.12820513 , 4134.87179487 , 4134.35897436 , 4133.33333333 , 4134.35897436 , 4143.07692308 , 4143.58974359 , 4147.17948718 , 4177.43589744 , 4457.43589744 , 4143.58974359 , 4141.02564103 , 2017.0 , 2030.0 , 8.926 , 0.0 , 0.0 , 0.0 , 0.0 , 

0.0 , 4130.76923077 , 4135.8974359 , 4263.58974359 , 4135.8974359 , 4134.35897436 , 4134.87179487 , 4134.35897436 , 4144.61538462 , 4143.07692308 , 4150.25641026 , 4176.41025641 , 4459.48717949 , 4141.02564103 , 4142.56410256 , 2018.0 , 2032.0 , 8.934 , 0.0 , 0.0 , 0.0 , 0.0 , 

1.0 , 4132.82051282 , 4134.35897436 , 4278.97435897 , 4135.8974359 , 4134.87179487 , 4135.38461538 , 4134.35897436 , 4145.12820513 , 4146.15384615 , 4153.84615385 , 4177.94871795 , 4464.1025641 , 4140.51282051 , 4142.05128205 , 2020.0 , 2034.0 , 8.942 , 0.0 , 0.0 , 0.0 , 0.0 , 

2.0 , 4136.41025641 , 4134.35897436 , 4304.1025641 , 4134.87179487 , 4135.38461538 , 4135.38461538 , 4134.35897436 , 4145.64102564 , 4146.66666667 , 4155.38461538 , 4179.48717949 , 4469.74358974 , 4142.56410256 , 4142.05128205 , 2019.0 , 2032.0 , 8.95 , 0.0 , 0.0 , 0.0 , 0.0 , 

3.0 , 4134.35897436 , 4135.8974359 , 4332.82051282 , 4135.38461538 , 4135.38461538 , 4135.38461538 , 4134.35897436 , 4146.66666667 , 4145.12820513 , 4155.8974359 , 4176.92307692 , 4471.79487179 , 4142.56410256 , 4143.58974359 , 2019.0 , 2034.0 , 8.958 , 0.0 , 0.0 , 0.0 , 0.0 , 

4.0 , 4131.79487179 , 4134.87179487 , 4353.33333333 , 4134.35897436 , 4135.38461538 , 4134.87179487 , 4134.35897436 , 4147.17948718 , 4147.69230769 , 4154.87179487 , 4176.92307692 , 4474.35897436 , 4143.58974359 , 4143.07692308 , 2018.0 , 2031.0 , 8.966 , 0.0 , 0.0 , 0.0 , 0.0 , 

5.0 , 4133.33333333 , 4134.35897436 , 4373.84615385 , 4133.84615385 , 4135.38461538 , 4133.84615385 , 4133.84615385 , 4147.17948718 , 4149.74358974 , 4154.35897436 , 4180.51282051 , 4480.51282051 , 4144.1025641 , 4142.56410256 , 2018.0 , 2031.0 , 8.974 , 0.0 , 0.0 , 0.0 , 0.0 , 

6.0 , 4132.82051282 , 4134.35897436 , 4357.94871795 , 4134.35897436 , 4135.38461538 , 4134.35897436 , 4134.35897436 , 4144.1025641 , 4145.64102564 , 4149.23076923 , 4176.41025641 , 4482.05128205 , 4136.92307692 , 4141.02564103 , 2018.0 , 2031.0 , 8.983 , 0.0 , 0.0 , 0.0 , 0.0 , 

7.0 , 4131.28205128 , 4136.41025641 , 4343.07692308 , 4134.35897436 , 4135.38461538 , 4134.35897436 , 4134.87179487 , 4144.1025641 , 4146.66666667 , 4149.23076923 , 4174.35897436 , 4483.07692308 , 4134.87179487 , 4141.53846154 , 2016.0 , 2030.0 , 8.989 , 0.0 , 0.0 , 0.0 , 0.0 , 

8.0 , 4133.84615385 , 4132.82051282 , 4327.69230769 , 4134.35897436 , 4135.38461538 , 4133.84615385 , 4131.79487179 , 4142.05128205 , 4143.07692308 , 4152.82051282 , 4171.28205128 , 4483.07692308 , 4137.94871795 , 4139.48717949 , 2017.0 , 2028.0 , 8.997 , 0.0 , 0.0 , 0.0 , 0.0 , 

9.0 , 4136.92307692 , 4127.17948718 , 4304.61538462 , 4134.35897436 , 4135.38461538 , 4133.84615385 , 4129.23076923 , 4137.94871795 , 4135.38461538 , 4148.20512821 , 4169.23076923 , 4485.64102564 , 4137.43589744 , 4137.43589744 , 2018.0 , 2028.0 , 9.005 , 0.0 , 0.0 , 0.0 , 0.0 , 

10.0 , 4135.38461538 , 4130.76923077 , 4283.07692308 , 4133.33333333 , 4135.38461538 , 4134.35897436 , 4130.25641026 , 4136.92307692 , 4134.35897436 , 4139.48717949 , 4169.74358974 , 4489.23076923 , 4134.35897436 , 4137.94871795 , 2018.0 , 2027.0 , 9.013 , 0.0 , 0.0 , 0.0 , 0.0 , 

11.0 , 4132.30769231 , 4135.38461538 , 4283.07692308 , 4134.87179487 , 4135.38461538 , 4134.35897436 , 4131.28205128 , 4137.43589744 , 4138.46153846 , 4136.41025641 , 4170.76923077 , 4489.74358974 , 4135.8974359 , 4138.97435897 , 2020.0 , 2025.0 , 9.021 , 0.0 , 0.0 , 0.0 , 0.0 , 

12.0 , 4133.84615385 , 4132.82051282 , 4287.69230769 , 4135.8974359 , 4135.38461538 , 4133.84615385 , 4130.25641026 , 4133.84615385 , 4136.92307692 , 4140.51282051 , 4170.76923077 , 4489.23076923 , 4136.92307692 , 4138.46153846 , 2019.0 , 2024.0 , 9.029 , 0.0 , 0.0 , 0.0 , 0.0 , 

13.0 , 4135.8974359 , 4133.84615385 , 4278.97435897 , 4132.30769231 , 4135.38461538 , 4134.35897436 , 4129.74358974 , 4131.28205128 , 4134.35897436 , 4145.64102564 , 4171.28205128 , 4492.30769231 , 4134.35897436 , 4138.46153846 , 2022.0 , 2021.0 , 9.037 , 0.0 , 0.0 , 0.0 , 0.0 , 

14.0 , 4133.84615385 , 4136.41025641 , 4284.1025641 , 4132.30769231 , 4135.38461538 , 4135.38461538 , 4130.76923077 , 4135.8974359 , 4136.92307692 , 4143.07692308 , 4171.79487179 , 4496.92307692 , 4134.87179487 , 4139.48717949 , 2023.0 , 2021.0 , 9.045 , 0.0 , 0.0 , 0.0 , 0.0 , 

15.0 , 4135.38461538 , 4131.79487179 , 4276.92307692 , 4135.8974359 , 4135.38461538 , 4135.38461538 , 4129.74358974 , 4137.43589744 , 4136.41025641 , 4137.43589744 , 4171.79487179 , 4498.97435897 , 4134.87179487 , 4136.92307692 , 2024.0 , 2022.0 , 9.053 , 0.0 , 0.0 , 0.0 , 0.0 , 

16.0 , 4136.41025641 , 4130.76923077 , 4277.94871795 , 4135.38461538 , 4135.38461538 , 4133.84615385 , 4129.74358974 , 4136.41025641 , 4136.92307692 , 4141.02564103 , 4173.33333333 , 4502.56410256 , 4136.41025641 , 4137.94871795 , 2025.0 , 2022.0 , 9.06 , 0.0 , 0.0 , 0.0 , 0.0 , 

17.0 , 4132.82051282 , 4137.43589744 , 4274.35897436 , 4134.87179487 , 4135.38461538 , 4133.84615385 , 4130.25641026 , 4136.41025641 , 4135.8974359 , 4143.07692308 , 4169.74358974 , 4502.56410256 , 4135.8974359 , 4139.48717949 , 2025.0 , 2023.0 , 9.068 , 0.0 , 0.0 , 0.0 , 0.0 , 

18.0 , 4132.30769231 , 4136.41025641 , 4274.35897436 , 4136.41025641 , 4135.38461538 , 4133.33333333 , 4130.25641026 , 4136.92307692 , 4135.8974359 , 4135.8974359 , 4170.25641026 , 4505.64102564 , 4135.38461538 , 4137.43589744 , 2027.0 , 2025.0 , 9.077 , 0.0 , 0.0 , 0.0 , 0.0 , 

19.0 , 4133.33333333 , 4132.82051282 , 4275.38461538 , 4135.38461538 , 4135.38461538 , 4130.25641026 , 4130.76923077 , 4134.87179487 , 4136.41025641 , 4134.87179487 , 4173.33333333 , 4510.25641026 , 4135.8974359 , 4137.43589744 , 2027.0 , 2025.0 , 9.085 , 0.0 , 0.0 , 0.0 , 0.0 , 

20.0 , 4133.33333333 , 4133.84615385 , 4265.64102564 , 4135.38461538 , 4135.38461538 , 4128.71794872 , 4130.76923077 , 4136.41025641 , 4135.8974359 , 4145.64102564 , 4170.25641026 , 4509.23076923 , 4136.41025641 , 4140.0 , 2028.0 , 2026.0 , 9.093 , 0.0 , 0.0 , 0.0 , 0.0 , 

21.0 , 4135.38461538 , 4132.82051282 , 4261.53846154 , 4135.8974359 , 4135.38461538 , 4131.79487179 , 4130.76923077 , 4137.94871795 , 4135.8974359 , 4151.28205128 , 4169.23076923 , 4509.23076923 , 4135.8974359 , 4140.51282051 , 2029.0 , 2026.0 , 9.1 , 0.0 , 0.0 , 0.0 , 0.0 , 

22.0 , 4136.41025641 , 4130.25641026 , 4263.07692308 , 4129.23076923 , 4135.38461538 , 4131.79487179 , 4131.28205128 , 4136.41025641 , 4135.8974359 , 4150.76923077 , 4172.30769231 , 4516.92307692 , 4135.8974359 , 4139.48717949 , 2028.0 , 2025.0 , 9.108 , 0.0 , 0.0 , 0.0 , 0.0 , 

23.0 , 4134.35897436 , 4132.82051282 , 4266.15384615 , 4126.15384615 , 4135.38461538 , 4129.74358974 , 4131.28205128 , 4136.41025641 , 4135.8974359 , 4150.76923077 , 4171.79487179 , 4521.53846154 , 4135.8974359 , 4139.48717949 , 2028.0 , 2027.0 , 9.116 , 0.0 , 0.0 , 0.0 , 0.0 , 

24.0 , 4133.33333333 , 4135.38461538 , 4267.17948718 , 4133.33333333 , 4135.38461538 , 4132.30769231 , 4130.25641026 , 4136.92307692 , 4135.8974359 , 4147.17948718 , 4169.74358974 , 4520.51282051 , 4135.8974359 , 4138.46153846 , 2029.0 , 2026.0 , 9.123 , 0.0 , 0.0 , 0.0 , 0.0 , 

25.0 , 4132.30769231 , 4132.82051282 , 4265.64102564 , 4137.43589744 , 4135.38461538 , 4136.41025641 , 4130.76923077 , 4136.92307692 , 4135.8974359 , 4138.97435897 , 4170.76923077 , 4522.05128205 , 4135.8974359 , 4138.46153846 , 2030.0 , 2027.0 , 9.131 , 0.0 , 0.0 , 0.0 , 0.0 , 

26.0 , 4132.82051282 , 4134.87179487 , 4264.1025641 , 4134.87179487 , 4135.8974359 , 4137.43589744 , 4132.30769231 , 4137.43589744 , 4135.8974359 , 4136.92307692 , 4169.74358974 , 4524.1025641 , 4135.8974359 , 4140.0 , 2029.0 , 2027.0 , 9.139 , 0.0 , 0.0 , 0.0 , 0.0 , 

27.0 , 4133.33333333 , 4132.30769231 , 4265.64102564 , 4134.35897436 , 4134.87179487 , 4132.30769231 , 4130.25641026 , 4135.8974359 , 4135.8974359 , 4138.97435897 , 4169.23076923 , 4525.12820513 , 4135.8974359 , 4138.97435897 , 2028.0 , 2028.0 , 9.147 , 0.0 , 0.0 , 0.0 , 0.0 , 

28.0 , 4133.33333333 , 4129.23076923 , 4266.66666667 , 4135.38461538 , 4132.82051282 , 4130.76923077 , 4129.23076923 , 4134.87179487 , 4135.8974359 , 4139.48717949 , 4171.28205128 , 4530.25641026 , 4136.41025641 , 4137.43589744 , 2028.0 , 2029.0 , 9.155 , 0.0 , 0.0 , 0.0 , 0.0 , 

29.0 , 4129.74358974 , 4131.79487179 , 4260.0 , 4133.84615385 , 4133.33333333 , 4132.30769231 , 4132.82051282 , 4137.94871795 , 4135.8974359 , 4148.71794872 , 4171.79487179 , 4534.35897436 , 4137.43589744 , 4137.94871795 , 2030.0 , 2031.0 , 9.163 , 0.0 , 0.0 , 0.0 , 0.0 , 

30.0 , 4127.17948718 , 4130.76923077 , 4260.0 , 4133.84615385 , 4134.35897436 , 4133.33333333 , 4134.35897436 , 4140.0 , 4135.8974359 , 4151.28205128 , 4169.74358974 , 4535.38461538 , 4136.41025641 , 4137.43589744 , 2028.0 , 2030.0 , 9.171 , 0.0 , 0.0 , 0.0 , 0.0 , 

31.0 , 4131.79487179 , 4129.23076923 , 4259.48717949 , 4136.92307692 , 4134.35897436 , 4133.84615385 , 4132.82051282 , 4138.97435897 , 4135.8974359 , 4140.0 , 4170.76923077 , 4538.46153846 , 4134.87179487 , 4138.46153846 , 2027.0 , 2035.0 , 9.179 , 0.0 , 0.0 , 0.0 , 0.0 , 

32.0 , 4134.87179487 , 4136.41025641 , 4257.43589744 , 4136.41025641 , 4133.84615385 , 4134.35897436 , 4134.35897436 , 4138.97435897 , 4135.8974359 , 4136.92307692 , 4171.79487179 , 4538.97435897 , 4135.38461538 , 4139.48717949 , 2027.0 , 2037.0 , 9.187 , 0.0 , 0.0 , 0.0 , 0.0 , 

33.0 , 4133.84615385 , 4138.46153846 , 4255.8974359 , 4135.38461538 , 4134.35897436 , 4134.87179487 , 4131.79487179 , 4140.0 , 4135.8974359 , 4141.02564103 , 4171.28205128 , 4538.97435897 , 4135.8974359 , 4138.46153846 , 2027.0 , 2038.0 , 9.194 , 0.0 , 0.0 , 0.0 , 0.0 , 

34.0 , 4135.38461538 , 4128.20512821 , 4257.43589744 , 4134.87179487 , 4134.35897436 , 4134.87179487 , 4126.66666667 , 4139.48717949 , 4135.8974359 , 4139.48717949 , 4171.28205128 , 4543.07692308 , 4135.8974359 , 4135.38461538 , 2027.0 , 2039.0 , 9.202 , 0.0 , 0.0 , 0.0 , 0.0 , 

35.0 , 4137.94871795 , 4126.66666667 , 4255.38461538 , 4134.35897436 , 4133.84615385 , 4134.87179487 , 4130.25641026 , 4138.97435897 , 4135.8974359 , 4136.92307692 , 4172.30769231 , 4543.58974359 , 4136.41025641 , 4135.8974359 , 2027.0 , 2039.0 , 9.21 , 0.0 , 0.0 , 0.0 , 0.0 , 

36.0 , 4133.33333333 , 4134.87179487 , 4254.87179487 , 4136.41025641 , 4134.35897436 , 4134.35897436 , 4136.92307692 , 4140.0 , 4135.8974359 , 4137.94871795 , 4172.30769231 , 4541.53846154 , 4135.38461538 , 4137.94871795 , 2027.0 , 2038.0 , 9.218 , 0.0 , 0.0 , 0.0 , 0.0 , 

37.0 , 4133.33333333 , 4136.92307692 , 4254.35897436 , 4137.43589744 , 4135.38461538 , 4135.38461538 , 4133.33333333 , 4138.97435897 , 4135.8974359 , 4144.1025641 , 4171.28205128 , 4548.71794872 , 4135.38461538 , 4138.46153846 , 2026.0 , 2037.0 , 9.226 , 0.0 , 0.0 , 0.0 , 0.0 , 

38.0 , 4137.43589744 , 4133.84615385 , 4251.28205128 , 4135.38461538 , 4134.87179487 , 4135.38461538 , 4131.79487179 , 4135.38461538 , 4135.8974359 , 4151.79487179 , 4170.25641026 , 4554.87179487 , 4136.41025641 , 4137.43589744 , 2028.0 , 2036.0 , 9.234 , 0.0 , 0.0 , 0.0 , 0.0 , 

39.0 , 4134.35897436 , 4133.33333333 , 4250.25641026 , 4135.38461538 , 4133.84615385 , 4133.84615385 , 4134.35897436 , 4133.84615385 , 4135.8974359 , 4150.76923077 , 4170.25641026 , 4552.82051282 , 4136.41025641 , 4136.92307692 , 2030.0 , 2037.0 , 9.242 , 0.0 , 0.0 , 0.0 , 0.0 , 

40.0 , 4134.35897436 , 4134.35897436 , 4250.76923077 , 4136.92307692 , 4133.84615385 , 4134.87179487 , 4133.33333333 , 4134.87179487 , 4135.8974359 , 4149.23076923 , 4170.25641026 , 4554.87179487 , 4135.38461538 , 4138.97435897 , 2030.0 , 2038.0 , 9.25 , 0.0 , 0.0 , 0.0 , 0.0 , 

41.0 , 4136.92307692 , 4132.82051282 , 4249.23076923 , 4135.8974359 , 4134.35897436 , 4134.35897436 , 4129.23076923 , 4134.87179487 , 4135.8974359 , 4151.79487179 , 4169.74358974 , 4558.46153846 , 4134.87179487 , 4140.51282051 , 2030.0 , 2037.0 , 9.257 , 0.0 , 0.0 , 0.0 , 0.0 , 

42.0 , 4135.38461538 , 4133.33333333 , 4245.12820513 , 4135.38461538 , 4133.84615385 , 4133.33333333 , 4128.71794872 , 4135.38461538 , 4135.8974359 , 4145.64102564 , 4169.74358974 , 4561.02564103 , 4134.35897436 , 4139.48717949 , 2031.0 , 2039.0 , 9.265 , 0.0 , 0.0 , 0.0 , 0.0 , 

43.0 , 4133.33333333 , 4134.35897436 , 4243.07692308 , 4136.92307692 , 4133.84615385 , 4135.38461538 , 4133.84615385 , 4137.43589744 , 4135.8974359 , 4138.46153846 , 4171.28205128 , 4563.07692308 , 4135.38461538 , 4138.46153846 , 2034.0 , 2039.0 , 9.273 , 0.0 , 0.0 , 0.0 , 0.0 , 

44.0 , 4134.87179487 , 4132.82051282 , 4240.0 , 4135.8974359 , 4134.35897436 , 4134.35897436 , 4135.38461538 , 4137.43589744 , 4135.8974359 , 4139.48717949 , 4170.76923077 , 4561.53846154 , 4136.41025641 , 4140.51282051 , 2035.0 , 2039.0 , 9.282 , 0.0 , 0.0 , 0.0 , 0.0 , 

45.0 , 4136.41025641 , 4133.33333333 , 4240.0 , 4135.38461538 , 4133.84615385 , 4131.28205128 , 4131.79487179 , 4135.8974359 , 4135.8974359 , 4138.46153846 , 4169.23076923 , 4563.07692308 , 4135.8974359 , 4140.0 , 2036.0 , 2043.0 , 9.29 , 0.0 , 0.0 , 0.0 , 0.0 , 

46.0 , 4135.38461538 , 4134.87179487 , 4239.48717949 , 4135.8974359 , 4134.35897436 , 4133.84615385 , 4131.79487179 , 4135.8974359 , 4135.8974359 , 4137.94871795 , 4170.25641026 , 4570.25641026 , 4136.41025641 , 4138.46153846 , 2038.0 , 2041.0 , 9.297 , 0.0 , 0.0 , 0.0 , 0.0 , 

47.0 , 4137.43589744 , 4134.87179487 , 4239.48717949 , 4136.41025641 , 4135.38461538 , 4136.92307692 , 4136.41025641 , 4135.38461538 , 4135.8974359 , 4141.02564103 , 4172.30769231 , 4570.76923077 , 4135.8974359 , 4138.97435897 , 2039.0 , 2039.0 , 9.305 , 0.0 , 0.0 , 0.0 , 0.0 , 

48.0 , 4137.43589744 , 4133.84615385 , 4236.92307692 , 4135.8974359 , 4135.8974359 , 4134.87179487 , 4134.87179487 , 4136.41025641 , 4135.8974359 , 4138.46153846 , 4171.28205128 , 4569.23076923 , 4134.87179487 , 4138.97435897 , 2041.0 , 2037.0 , 9.313 , 0.0 , 0.0 , 0.0 , 0.0 , 

49.0 , 4134.35897436 , 4135.38461538 , 4236.92307692 , 4135.8974359 , 4134.87179487 , 4133.84615385 , 4130.76923077 , 4136.92307692 , 4135.8974359 , 4135.8974359 , 4169.23076923 , 4571.28205128 , 4135.8974359 , 4137.94871795 , 2042.0 , 2038.0 , 9.321 , 0.0 , 0.0 , 0.0 , 0.0 , 

50.0 , 4133.84615385 , 4133.33333333 , 4232.30769231 , 4134.87179487 , 4133.84615385 , 4135.38461538 , 4133.84615385 , 4135.8974359 , 4135.8974359 , 4140.51282051 , 4170.25641026 , 4572.82051282 , 4135.8974359 , 4138.46153846 , 2044.0 , 2039.0 , 9.328 , 0.0 , 0.0 , 0.0 , 0.0 , 

51.0 , 4135.8974359 , 4132.30769231 , 4229.23076923 , 4135.38461538 , 4134.35897436 , 4134.35897436 , 4135.8974359 , 4135.8974359 , 4135.8974359 , 4139.48717949 , 4171.28205128 , 4576.41025641 , 4134.87179487 , 4137.94871795 , 2045.0 , 2038.0 , 9.336 , 0.0 , 0.0 , 0.0 , 0.0 , 

52.0 , 4136.41025641 , 4132.82051282 , 4230.76923077 , 4136.92307692 , 4134.35897436 , 4133.84615385 , 4133.84615385 , 4136.92307692 , 4135.8974359 , 4141.53846154 , 4171.28205128 , 4582.05128205 , 4135.8974359 , 4136.92307692 , 2044.0 , 2033.0 , 9.344 , 0.0 , 0.0 , 0.0 , 0.0 , 

53.0 , 4134.35897436 , 4134.35897436 , 4231.28205128 , 4135.38461538 , 4134.35897436 , 4134.35897436 , 4134.35897436 , 4136.92307692 , 4135.8974359 , 4150.76923077 , 4171.79487179 , 4583.07692308 , 4136.41025641 , 4136.41025641 , 2046.0 , 2033.0 , 9.352 , 0.0 , 0.0 , 0.0 , 0.0 , 

54.0 , 4134.35897436 , 4133.84615385 , 4225.64102564 , 4134.35897436 , 4134.35897436 , 4134.35897436 , 4135.8974359 , 4137.43589744 , 4135.8974359 , 4145.12820513 , 4170.76923077 , 4585.64102564 , 4134.87179487 , 4137.94871795 , 2047.0 , 2028.0 , 9.36 , 0.0 , 0.0 , 0.0 , 0.0 , 

55.0 , 4135.8974359 , 4130.25641026 , 4220.51282051 , 4135.8974359 , 4134.35897436 , 4134.35897436 , 4135.38461538 , 4136.92307692 , 4135.8974359 , 4133.84615385 , 4170.25641026 , 4589.23076923 , 4134.35897436 , 4138.46153846 , 2048.0 , 2029.0 , 9.368 , 0.0 , 0.0 , 0.0 , 0.0 , 

56.0 , 4135.8974359 , 4129.23076923 , 4222.56410256 , 4136.92307692 , 4134.35897436 , 4134.35897436 , 4134.87179487 , 4137.43589744 , 4135.8974359 , 4144.61538462 , 4171.79487179 , 4589.23076923 , 4135.8974359 , 4137.43589744 , 2049.0 , 2030.0 , 9.376 , 0.0 , 0.0 , 0.0 , 0.0 , 

57.0 , 4136.92307692 , 4135.38461538 , 4226.66666667 , 4136.41025641 , 4134.87179487 , 4134.35897436 , 4132.30769231 , 4135.38461538 , 4135.8974359 , 4154.87179487 , 4171.28205128 , 4589.23076923 , 4137.43589744 , 4138.46153846 , 2052.0 , 2033.0 , 9.384 , 0.0 , 0.0 , 0.0 , 0.0 , 

58.0 , 4138.46153846 , 4137.94871795 , 4227.69230769 , 4136.41025641 , 4135.38461538 , 4134.35897436 , 4128.20512821 , 4132.82051282 , 4135.8974359 , 4142.05128205 , 4169.74358974 , 4589.23076923 , 4136.92307692 , 4139.48717949 , 2054.0 , 2033.0 , 9.391 , 0.0 , 0.0 , 0.0 , 0.0 , 

59.0 , 4135.8974359 , 4134.35897436 , 4225.12820513 , 4135.8974359 , 4134.87179487 , 4134.35897436 , 4128.20512821 , 4132.82051282 , 4135.8974359 , 4134.87179487 , 4170.76923077 , 4590.25641026 , 4134.87179487 , 4139.48717949 , 2056.0 , 2037.0 , 9.399 , 0.0 , 0.0 , 0.0 , 0.0 , 

60.0 , 4131.79487179 , 4133.84615385 , 4223.07692308 , 4135.8974359 , 4134.35897436 , 4134.35897436 , 4129.23076923 , 4135.8974359 , 4135.8974359 , 4142.56410256 , 4171.28205128 , 4593.33333333 , 4135.38461538 , 4140.0 , 2058.0 , 2036.0 , 9.407 , 0.0 , 0.0 , 0.0 , 0.0 , 

