['COUNTER', 'AF3', 'F7', 'F3', 'FC5', 'T7', 'P7', 'O1', 'O2', 'P8', 'T8', 'FC6', 'F4', 'F8', 'AF4', 'GYROX', 'GYROY', 'TIMESTAMP', 'FUNC_ID', 'FUNC_VALUE', 'MARKER', 'SYNC_SIGNAL']
55.0 , 4122.56410256 , 4115.8974359 , 4123.07692308 , 4122.05128205 , 4118.97435897 , 4118.46153846 , 4112.82051282 , 4115.38461538 , 4115.38461538 , 4127.69230769 , 4182.56410256 , 4901.53846154 , 4123.07692308 , 4129.23076923 , 2046.0 , 2032.0 , 56.298 , 0.0 , 0.0 , 0.0 , 0.0 , 

56.0 , 4119.48717949 , 4118.97435897 , 4123.07692308 , 4121.53846154 , 4118.97435897 , 4118.46153846 , 4115.8974359 , 4115.8974359 , 4114.87179487 , 4126.15384615 , 4173.33333333 , 4900.51282051 , 4121.02564103 , 4129.74358974 , 2046.0 , 2033.0 , 56.307 , 0.0 , 0.0 , 0.0 , 0.0 , 

57.0 , 4118.46153846 , 4119.48717949 , 4123.07692308 , 4120.51282051 , 4116.92307692 , 4113.33333333 , 4113.33333333 , 4116.92307692 , 4119.48717949 , 4127.17948718 , 4173.84615385 , 4897.43589744 , 4125.64102564 , 4127.17948718 , 2044.0 , 2035.0 , 56.315 , 0.0 , 0.0 , 0.0 , 0.0 , 

58.0 , 4123.07692308 , 4116.92307692 , 4117.43589744 , 4121.53846154 , 4118.97435897 , 4112.30769231 , 4107.69230769 , 4112.82051282 , 4114.87179487 , 4127.17948718 , 4180.51282051 , 4895.38461538 , 4126.15384615 , 4128.71794872 , 2045.0 , 2036.0 , 56.323 , 0.0 , 0.0 , 0.0 , 0.0 , 

59.0 , 4121.02564103 , 4118.97435897 , 4112.30769231 , 4123.07692308 , 4118.46153846 , 4115.8974359 , 4112.82051282 , 4125.64102564 , 4121.53846154 , 4127.17948718 , 4181.53846154 , 4897.43589744 , 4126.15384615 , 4128.71794872 , 2045.0 , 2038.0 , 56.33 , 0.0 , 0.0 , 0.0 , 0.0 , 

60.0 , 4120.51282051 , 4119.48717949 , 4122.56410256 , 4120.0 , 4117.43589744 , 4114.87179487 , 4113.84615385 , 4123.58974359 , 4120.51282051 , 4126.15384615 , 4175.8974359 , 4902.05128205 , 4117.43589744 , 4127.17948718 , 2044.0 , 2037.0 , 56.338 , 0.0 , 0.0 , 0.0 , 0.0 , 

61.0 , 4119.48717949 , 4118.46153846 , 4121.02564103 , 4124.61538462 , 4117.94871795 , 4115.8974359 , 4115.8974359 , 4124.61538462 , 4122.56410256 , 4125.64102564 , 4178.97435897 , 4899.48717949 , 4126.15384615 , 4128.71794872 , 2044.0 , 2037.0 , 56.346 , 0.0 , 0.0 , 0.0 , 0.0 , 

62.0 , 4120.51282051 , 4111.28205128 , 4119.48717949 , 4119.48717949 , 4118.46153846 , 4111.28205128 , 4109.74358974 , 4116.92307692 , 4117.43589744 , 4124.61538462 , 4176.41025641 , 4898.46153846 , 4121.02564103 , 4130.76923077 , 2045.0 , 2036.0 , 56.353 , 0.0 , 0.0 , 0.0 , 0.0 , 

63.0 , 4118.46153846 , 4112.82051282 , 4117.94871795 , 4118.97435897 , 4117.94871795 , 4113.33333333 , 4115.38461538 , 4128.20512821 , 4125.64102564 , 4129.74358974 , 4179.48717949 , 4900.51282051 , 4122.56410256 , 4130.25641026 , 2045.0 , 2036.0 , 56.425 , 0.0 , 0.0 , 0.0 , 0.0 , 

64.0 , 4120.51282051 , 4113.33333333 , 4123.58974359 , 4119.48717949 , 4118.46153846 , 4111.79487179 , 4112.30769231 , 4120.0 , 4118.97435897 , 4129.74358974 , 4178.97435897 , 4903.58974359 , 4116.92307692 , 4128.71794872 , 2043.0 , 2034.0 , 56.426 , 0.0 , 0.0 , 0.0 , 0.0 , 

65.0 , 4119.48717949 , 4117.43589744 , 4121.02564103 , 4123.58974359 , 4118.97435897 , 4115.8974359 , 4115.38461538 , 4125.64102564 , 4123.07692308 , 4127.17948718 , 4177.94871795 , 4896.92307692 , 4122.56410256 , 4126.66666667 , 2041.0 , 2035.0 , 56.426 , 0.0 , 0.0 , 0.0 , 0.0 , 

66.0 , 4118.97435897 , 4114.35897436 , 4126.15384615 , 4115.8974359 , 4119.48717949 , 4113.33333333 , 4111.28205128 , 4121.02564103 , 4120.0 , 4126.66666667 , 4175.8974359 , 4898.97435897 , 4115.8974359 , 4126.15384615 , 2042.0 , 2035.0 , 56.426 , 0.0 , 0.0 , 0.0 , 0.0 , 

67.0 , 4118.97435897 , 4118.97435897 , 4122.05128205 , 4123.58974359 , 4120.0 , 4117.94871795 , 4115.8974359 , 4127.69230769 , 4123.07692308 , 4129.23076923 , 4181.02564103 , 4903.58974359 , 4122.56410256 , 4128.20512821 , 2042.0 , 2034.0 , 56.426 , 0.0 , 0.0 , 0.0 , 0.0 , 

68.0 , 4119.48717949 , 4117.43589744 , 4121.02564103 , 4123.58974359 , 4118.46153846 , 4117.94871795 , 4110.76923077 , 4117.94871795 , 4117.94871795 , 4127.17948718 , 4177.94871795 , 4904.61538462 , 4120.51282051 , 4129.23076923 , 2042.0 , 2033.0 , 56.426 , 0.0 , 0.0 , 0.0 , 0.0 , 

69.0 , 4121.02564103 , 4118.46153846 , 4118.97435897 , 4123.58974359 , 4118.46153846 , 4118.97435897 , 4112.30769231 , 4115.8974359 , 4121.02564103 , 4126.66666667 , 4178.46153846 , 4897.94871795 , 4123.07692308 , 4129.23076923 , 2041.0 , 2037.0 , 56.426 , 0.0 , 0.0 , 0.0 , 0.0 , 

70.0 , 4120.51282051 , 4116.92307692 , 4122.56410256 , 4121.53846154 , 4119.48717949 , 4114.35897436 , 4111.79487179 , 4112.30769231 , 4116.92307692 , 4126.66666667 , 4178.46153846 , 4899.48717949 , 4121.02564103 , 4128.71794872 , 2042.0 , 2035.0 , 56.426 , 0.0 , 0.0 , 0.0 , 0.0 , 

71.0 , 4118.97435897 , 4119.48717949 , 4121.02564103 , 4123.58974359 , 4118.97435897 , 4112.30769231 , 4111.79487179 , 4117.43589744 , 4115.38461538 , 4127.17948718 , 4178.46153846 , 4901.02564103 , 4124.61538462 , 4128.71794872 , 2041.0 , 2034.0 , 56.426 , 0.0 , 0.0 , 0.0 , 0.0 , 

72.0 , 4121.02564103 , 4116.92307692 , 4123.58974359 , 4118.46153846 , 4116.92307692 , 4111.28205128 , 4105.64102564 , 4115.8974359 , 4117.43589744 , 4125.12820513 , 4173.84615385 , 4900.0 , 4123.58974359 , 4127.69230769 , 2041.0 , 2034.0 , 56.433 , 0.0 , 0.0 , 0.0 , 0.0 , 

73.0 , 4124.61538462 , 4116.92307692 , 4123.58974359 , 4120.0 , 4119.48717949 , 4112.82051282 , 4109.23076923 , 4114.87179487 , 4118.97435897 , 4125.12820513 , 4174.87179487 , 4897.94871795 , 4119.48717949 , 4130.25641026 , 2043.0 , 2034.0 , 56.44 , 0.0 , 0.0 , 0.0 , 0.0 , 

74.0 , 4119.48717949 , 4116.92307692 , 4121.53846154 , 4123.07692308 , 4120.0 , 4112.82051282 , 4113.33333333 , 4121.02564103 , 4123.07692308 , 4126.66666667 , 4177.43589744 , 4899.48717949 , 4118.97435897 , 4130.25641026 , 2042.0 , 2033.0 , 56.448 , 0.0 , 0.0 , 0.0 , 0.0 , 

75.0 , 4118.46153846 , 4117.94871795 , 4124.1025641 , 4120.0 , 4117.94871795 , 4114.87179487 , 4110.25641026 , 4117.94871795 , 4121.53846154 , 4127.69230769 , 4178.46153846 , 4897.94871795 , 4121.02564103 , 4128.20512821 , 2043.0 , 2034.0 , 56.457 , 0.0 , 0.0 , 0.0 , 0.0 , 

76.0 , 4120.0 , 4118.97435897 , 4120.51282051 , 4119.48717949 , 4116.41025641 , 4117.43589744 , 4112.30769231 , 4117.94871795 , 4121.02564103 , 4128.71794872 , 4179.48717949 , 4894.87179487 , 4128.71794872 , 4128.71794872 , 2043.0 , 2033.0 , 56.465 , 0.0 , 0.0 , 0.0 , 0.0 , 

77.0 , 4122.56410256 , 4118.46153846 , 4119.48717949 , 4122.05128205 , 4117.43589744 , 4114.87179487 , 4116.92307692 , 4116.92307692 , 4115.8974359 , 4127.69230769 , 4178.46153846 , 4897.94871795 , 4121.53846154 , 4131.79487179 , 2042.0 , 2034.0 , 56.472 , 0.0 , 0.0 , 0.0 , 0.0 , 

78.0 , 4120.51282051 , 4121.02564103 , 4120.51282051 , 4124.61538462 , 4116.92307692 , 4120.0 , 4120.51282051 , 4122.05128205 , 4122.56410256 , 4128.20512821 , 4181.02564103 , 4899.48717949 , 4122.05128205 , 4130.25641026 , 2043.0 , 2036.0 , 56.48 , 0.0 , 0.0 , 0.0 , 0.0 , 

79.0 , 4119.48717949 , 4120.0 , 4123.58974359 , 4117.94871795 , 4116.41025641 , 4120.51282051 , 4112.82051282 , 4111.28205128 , 4117.43589744 , 4127.17948718 , 4177.94871795 , 4899.48717949 , 4120.0 , 4126.66666667 , 2044.0 , 2036.0 , 56.488 , 0.0 , 0.0 , 0.0 , 0.0 , 

80.0 , 4117.43589744 , 4120.0 , 4119.48717949 , 4118.97435897 , 4117.94871795 , 4117.94871795 , 4116.92307692 , 4118.46153846 , 4122.05128205 , 4128.71794872 , 4177.43589744 , 4897.94871795 , 4126.15384615 , 4128.71794872 , 2043.0 , 2035.0 , 56.496 , 0.0 , 0.0 , 0.0 , 0.0 , 

81.0 , 4121.53846154 , 4115.38461538 , 4126.66666667 , 4116.92307692 , 4120.0 , 4113.33333333 , 4115.38461538 , 4111.28205128 , 4116.92307692 , 4126.66666667 , 4173.33333333 , 4901.02564103 , 4117.43589744 , 4128.20512821 , 2044.0 , 2036.0 , 56.504 , 0.0 , 0.0 , 0.0 , 0.0 , 

82.0 , 4121.02564103 , 4117.94871795 , 4123.07692308 , 4122.05128205 , 4119.48717949 , 4120.0 , 4116.41025641 , 4118.46153846 , 4118.97435897 , 4125.64102564 , 4176.92307692 , 4900.0 , 4122.56410256 , 4124.1025641 , 2044.0 , 2033.0 , 56.512 , 0.0 , 0.0 , 0.0 , 0.0 , 

83.0 , 4120.0 , 4116.41025641 , 4121.53846154 , 4121.02564103 , 4118.46153846 , 4115.8974359 , 4109.74358974 , 4114.35897436 , 4115.38461538 , 4124.61538462 , 4176.41025641 , 4901.53846154 , 4117.94871795 , 4125.12820513 , 2045.0 , 2033.0 , 56.519 , 0.0 , 0.0 , 0.0 , 0.0 , 

84.0 , 4120.51282051 , 4118.97435897 , 4119.48717949 , 4123.07692308 , 4117.94871795 , 4116.41025641 , 4116.92307692 , 4119.48717949 , 4123.07692308 , 4127.17948718 , 4181.53846154 , 4899.48717949 , 4122.56410256 , 4128.20512821 , 2046.0 , 2033.0 , 56.528 , 0.0 , 0.0 , 0.0 , 0.0 , 

85.0 , 4121.02564103 , 4116.92307692 , 4123.07692308 , 4122.05128205 , 4117.94871795 , 4113.33333333 , 4112.30769231 , 4109.74358974 , 4117.43589744 , 4125.12820513 , 4178.97435897 , 4901.53846154 , 4119.48717949 , 4127.17948718 , 2046.0 , 2035.0 , 56.534 , 0.0 , 0.0 , 0.0 , 0.0 , 

86.0 , 4119.48717949 , 4123.07692308 , 4117.94871795 , 4127.17948718 , 4117.43589744 , 4115.38461538 , 4110.25641026 , 4121.53846154 , 4122.56410256 , 4123.58974359 , 4178.97435897 , 4900.51282051 , 4127.17948718 , 4128.20512821 , 2044.0 , 2033.0 , 56.542 , 0.0 , 0.0 , 0.0 , 0.0 , 

87.0 , 4121.53846154 , 4118.97435897 , 4121.53846154 , 4118.46153846 , 4118.46153846 , 4113.84615385 , 4109.74358974 , 4120.51282051 , 4123.58974359 , 4125.12820513 , 4177.43589744 , 4900.51282051 , 4123.07692308 , 4131.28205128 , 2045.0 , 2033.0 , 56.55 , 0.0 , 0.0 , 0.0 , 0.0 , 

88.0 , 4123.58974359 , 4113.84615385 , 4121.02564103 , 4119.48717949 , 4118.97435897 , 4116.41025641 , 4116.92307692 , 4118.97435897 , 4122.56410256 , 4128.20512821 , 4178.46153846 , 4900.0 , 4126.15384615 , 4130.76923077 , 2045.0 , 2033.0 , 56.558 , 0.0 , 0.0 , 0.0 , 0.0 , 

89.0 , 4120.51282051 , 4112.82051282 , 4121.02564103 , 4123.07692308 , 4116.41025641 , 4111.28205128 , 4109.23076923 , 4116.41025641 , 4118.97435897 , 4124.61538462 , 4175.8974359 , 4902.56410256 , 4123.07692308 , 4127.69230769 , 2044.0 , 2032.0 , 56.566 , 0.0 , 0.0 , 0.0 , 0.0 , 

90.0 , 4119.48717949 , 4117.43589744 , 4120.51282051 , 4120.51282051 , 4118.46153846 , 4111.79487179 , 4109.23076923 , 4123.07692308 , 4122.05128205 , 4125.12820513 , 4178.46153846 , 4901.53846154 , 4120.0 , 4127.17948718 , 2046.0 , 2032.0 , 56.574 , 0.0 , 0.0 , 0.0 , 0.0 , 

91.0 , 4121.53846154 , 4113.33333333 , 4122.56410256 , 4115.38461538 , 4119.48717949 , 4113.84615385 , 4116.41025641 , 4122.05128205 , 4123.58974359 , 4129.23076923 , 4180.0 , 4901.53846154 , 4120.0 , 4127.69230769 , 2044.0 , 2032.0 , 56.582 , 0.0 , 0.0 , 0.0 , 0.0 , 

92.0 , 4123.58974359 , 4116.41025641 , 4121.53846154 , 4120.51282051 , 4118.46153846 , 4114.87179487 , 4117.94871795 , 4117.94871795 , 4118.97435897 , 4127.17948718 , 4176.92307692 , 4902.05128205 , 4121.02564103 , 4128.71794872 , 2044.0 , 2033.0 , 56.59 , 0.0 , 0.0 , 0.0 , 0.0 , 

93.0 , 4120.0 , 4121.02564103 , 4120.51282051 , 4122.05128205 , 4116.92307692 , 4117.43589744 , 4114.87179487 , 4121.53846154 , 4121.02564103 , 4125.12820513 , 4176.41025641 , 4901.02564103 , 4119.48717949 , 4129.23076923 , 2043.0 , 2034.0 , 56.597 , 0.0 , 0.0 , 0.0 , 0.0 , 

94.0 , 4120.51282051 , 4117.94871795 , 4123.07692308 , 4118.46153846 , 4117.94871795 , 4118.97435897 , 4114.35897436 , 4121.53846154 , 4119.48717949 , 4129.23076923 , 4176.41025641 , 4898.97435897 , 4117.94871795 , 4129.23076923 , 2044.0 , 2034.0 , 56.606 , 0.0 , 0.0 , 0.0 , 0.0 , 

95.0 , 4121.02564103 , 4117.43589744 , 4119.48717949 , 4123.07692308 , 4117.94871795 , 4120.51282051 , 4115.38461538 , 4125.64102564 , 4122.05128205 , 4130.25641026 , 4175.38461538 , 4897.94871795 , 4127.17948718 , 4127.17948718 , 2043.0 , 2035.0 , 56.613 , 0.0 , 0.0 , 0.0 , 0.0 , 

96.0 , 4121.53846154 , 4119.48717949 , 4122.05128205 , 4122.05128205 , 4117.94871795 , 4119.48717949 , 4110.25641026 , 4115.38461538 , 4115.38461538 , 4126.15384615 , 4172.82051282 , 4900.0 , 4122.05128205 , 4126.66666667 , 2043.0 , 2033.0 , 56.623 , 0.0 , 0.0 , 0.0 , 0.0 , 

97.0 , 4117.94871795 , 4120.51282051 , 4123.07692308 , 4124.1025641 , 4116.92307692 , 4120.0 , 4113.84615385 , 4117.43589744 , 4120.0 , 4127.17948718 , 4175.8974359 , 4902.56410256 , 4125.12820513 , 4127.69230769 , 2044.0 , 2031.0 , 56.629 , 0.0 , 0.0 , 0.0 , 0.0 , 

98.0 , 4121.53846154 , 4116.92307692 , 4124.1025641 , 4123.58974359 , 4117.94871795 , 4112.82051282 , 4109.74358974 , 4110.25641026 , 4113.84615385 , 4126.66666667 , 4174.87179487 , 4902.56410256 , 4126.15384615 , 4128.71794872 , 2044.0 , 2033.0 , 56.639 , 0.0 , 0.0 , 0.0 , 0.0 , 

99.0 , 4122.56410256 , 4120.51282051 , 4117.94871795 , 4124.1025641 , 4120.0 , 4113.33333333 , 4109.23076923 , 4117.43589744 , 4115.38461538 , 4123.07692308 , 4177.94871795 , 4896.92307692 , 4130.25641026 , 4130.25641026 , 2044.0 , 2033.0 , 56.646 , 0.0 , 0.0 , 0.0 , 0.0 , 

100.0 , 4120.51282051 , 4115.38461538 , 4123.07692308 , 4121.02564103 , 4119.48717949 , 4112.30769231 , 4104.61538462 , 4111.79487179 , 4110.76923077 , 4123.07692308 , 4176.41025641 , 4898.97435897 , 4116.92307692 , 4130.25641026 , 2044.0 , 2033.0 , 56.655 , 0.0 , 0.0 , 0.0 , 0.0 , 

101.0 , 4118.46153846 , 4116.92307692 , 4119.48717949 , 4128.20512821 , 4118.97435897 , 4113.84615385 , 4113.33333333 , 4121.53846154 , 4120.0 , 4127.69230769 , 4177.43589744 , 4900.51282051 , 4123.58974359 , 4128.71794872 , 2045.0 , 2033.0 , 56.66 , 0.0 , 0.0 , 0.0 , 0.0 , 

102.0 , 4122.05128205 , 4116.92307692 , 4118.97435897 , 4122.05128205 , 4121.02564103 , 4109.23076923 , 4111.28205128 , 4114.87179487 , 4120.0 , 4126.66666667 , 4175.38461538 , 4901.53846154 , 4124.1025641 , 4127.69230769 , 2043.0 , 2033.0 , 56.668 , 0.0 , 0.0 , 0.0 , 0.0 , 

103.0 , 4121.02564103 , 4118.97435897 , 4116.92307692 , 4122.05128205 , 4118.97435897 , 4113.33333333 , 4112.82051282 , 4123.07692308 , 4127.17948718 , 4127.69230769 , 4180.0 , 4898.46153846 , 4128.71794872 , 4128.71794872 , 2043.0 , 2032.0 , 56.676 , 0.0 , 0.0 , 0.0 , 0.0 , 

104.0 , 4117.94871795 , 4113.84615385 , 4123.58974359 , 4119.48717949 , 4116.92307692 , 4111.28205128 , 4108.20512821 , 4122.05128205 , 4124.1025641 , 4127.17948718 , 4176.41025641 , 4901.02564103 , 4121.02564103 , 4127.69230769 , 2045.0 , 2031.0 , 56.685 , 0.0 , 0.0 , 0.0 , 0.0 , 

105.0 , 4118.46153846 , 4116.41025641 , 4123.07692308 , 4118.46153846 , 4120.0 , 4114.87179487 , 4115.38461538 , 4127.69230769 , 4125.12820513 , 4126.66666667 , 4177.43589744 , 4899.48717949 , 4122.56410256 , 4125.64102564 , 2044.0 , 2029.0 , 56.693 , 0.0 , 0.0 , 0.0 , 0.0 , 

106.0 , 4119.48717949 , 4113.84615385 , 4124.1025641 , 4114.35897436 , 4120.51282051 , 4116.92307692 , 4115.38461538 , 4118.46153846 , 4119.48717949 , 4125.12820513 , 4180.0 , 4898.46153846 , 4118.46153846 , 4126.15384615 , 2044.0 , 2031.0 , 56.7 , 0.0 , 0.0 , 0.0 , 0.0 , 

107.0 , 4122.05128205 , 4115.8974359 , 4121.53846154 , 4119.48717949 , 4117.94871795 , 4120.0 , 4115.38461538 , 4117.94871795 , 4119.48717949 , 4128.71794872 , 4177.94871795 , 4897.94871795 , 4122.56410256 , 4128.20512821 , 2044.0 , 2032.0 , 56.708 , 0.0 , 0.0 , 0.0 , 0.0 , 

108.0 , 4122.05128205 , 4116.41025641 , 4125.12820513 , 4116.41025641 , 4116.92307692 , 4116.92307692 , 4109.74358974 , 4115.38461538 , 4118.97435897 , 4128.71794872 , 4169.74358974 , 4902.05128205 , 4121.02564103 , 4127.69230769 , 2043.0 , 2033.0 , 56.717 , 0.0 , 0.0 , 0.0 , 0.0 , 

109.0 , 4121.53846154 , 4120.51282051 , 4125.12820513 , 4117.94871795 , 4118.46153846 , 4116.92307692 , 4110.25641026 , 4111.79487179 , 4116.92307692 , 4124.61538462 , 4173.84615385 , 4902.05128205 , 4118.97435897 , 4128.71794872 , 2043.0 , 2033.0 , 56.724 , 0.0 , 0.0 , 0.0 , 0.0 , 

110.0 , 4121.53846154 , 4120.0 , 4119.48717949 , 4125.12820513 , 4115.8974359 , 4117.94871795 , 4110.76923077 , 4110.76923077 , 4116.92307692 , 4124.1025641 , 4176.41025641 , 4901.02564103 , 4122.56410256 , 4130.25641026 , 2042.0 , 2032.0 , 56.732 , 0.0 , 0.0 , 0.0 , 0.0 , 

111.0 , 4123.58974359 , 4115.8974359 , 4116.92307692 , 4125.12820513 , 4115.8974359 , 4118.97435897 , 4111.79487179 , 4113.33333333 , 4118.46153846 , 4126.66666667 , 4171.79487179 , 4902.56410256 , 4123.58974359 , 4129.23076923 , 2042.0 , 2034.0 , 56.74 , 0.0 , 0.0 , 0.0 , 0.0 , 

112.0 , 4120.0 , 4116.41025641 , 4118.97435897 , 4122.56410256 , 4117.43589744 , 4122.56410256 , 4114.35897436 , 4116.92307692 , 4122.56410256 , 4125.12820513 , 4176.41025641 , 4903.07692308 , 4125.64102564 , 4127.17948718 , 2042.0 , 2033.0 , 56.749 , 0.0 , 0.0 , 0.0 , 0.0 , 

113.0 , 4120.0 , 4120.51282051 , 4121.53846154 , 4121.02564103 , 4117.43589744 , 4118.97435897 , 4111.79487179 , 4111.79487179 , 4115.38461538 , 4123.58974359 , 4183.07692308 , 4901.53846154 , 4124.1025641 , 4128.71794872 , 2041.0 , 2036.0 , 56.756 , 0.0 , 0.0 , 0.0 , 0.0 , 

114.0 , 4120.0 , 4122.05128205 , 4118.97435897 , 4122.56410256 , 4116.92307692 , 4115.8974359 , 4113.33333333 , 4123.58974359 , 4119.48717949 , 4127.17948718 , 4181.53846154 , 4898.46153846 , 4127.69230769 , 4130.76923077 , 2041.0 , 2037.0 , 56.764 , 0.0 , 0.0 , 0.0 , 0.0 , 

115.0 , 4120.0 , 4114.87179487 , 4122.05128205 , 4121.53846154 , 4116.92307692 , 4114.35897436 , 4111.79487179 , 4121.02564103 , 4119.48717949 , 4126.15384615 , 4176.41025641 , 4898.97435897 , 4119.48717949 , 4129.74358974 , 2041.0 , 2037.0 , 56.772 , 0.0 , 0.0 , 0.0 , 0.0 , 

116.0 , 4117.94871795 , 4114.35897436 , 4119.48717949 , 4125.64102564 , 4116.41025641 , 4116.92307692 , 4114.87179487 , 4123.58974359 , 4124.61538462 , 4123.58974359 , 4182.56410256 , 4899.48717949 , 4122.56410256 , 4128.20512821 , 2041.0 , 2037.0 , 56.781 , 0.0 , 0.0 , 0.0 , 0.0 , 

117.0 , 4123.07692308 , 4113.33333333 , 4123.07692308 , 4117.43589744 , 4118.46153846 , 4112.82051282 , 4112.82051282 , 4115.38461538 , 4121.02564103 , 4126.15384615 , 4179.48717949 , 4901.53846154 , 4116.41025641 , 4128.20512821 , 2041.0 , 2038.0 , 56.787 , 0.0 , 0.0 , 0.0 , 0.0 , 

118.0 , 4124.1025641 , 4116.92307692 , 4121.53846154 , 4116.92307692 , 4117.94871795 , 4115.8974359 , 4118.46153846 , 4121.02564103 , 4128.20512821 , 4128.71794872 , 4178.97435897 , 4898.97435897 , 4122.05128205 , 4128.71794872 , 2043.0 , 2036.0 , 56.796 , 0.0 , 0.0 , 0.0 , 0.0 , 

119.0 , 4120.51282051 , 4113.33333333 , 4124.1025641 , 4115.8974359 , 4114.87179487 , 4114.35897436 , 4112.30769231 , 4110.76923077 , 4120.0 , 4126.15384615 , 4176.41025641 , 4901.02564103 , 4117.94871795 , 4128.71794872 , 2043.0 , 2037.0 , 56.802 , 0.0 , 0.0 , 0.0 , 0.0 , 

120.0 , 4116.92307692 , 4117.43589744 , 4119.48717949 , 4119.48717949 , 4115.8974359 , 4117.94871795 , 4116.41025641 , 4121.53846154 , 4123.58974359 , 4129.23076923 , 4177.94871795 , 4900.51282051 , 4122.56410256 , 4128.71794872 , 2044.0 , 2036.0 , 56.81 , 0.0 , 0.0 , 0.0 , 0.0 , 

121.0 , 4120.51282051 , 4117.94871795 , 4125.12820513 , 4113.84615385 , 4117.43589744 , 4116.41025641 , 4115.8974359 , 4116.92307692 , 4121.02564103 , 4128.71794872 , 4175.8974359 , 4901.02564103 , 4116.92307692 , 4128.20512821 , 2045.0 , 2036.0 , 56.818 , 0.0 , 0.0 , 0.0 , 0.0 , 

122.0 , 4122.56410256 , 4121.02564103 , 4122.56410256 , 4120.51282051 , 4117.43589744 , 4118.46153846 , 4117.94871795 , 4122.05128205 , 4125.12820513 , 4128.71794872 , 4181.02564103 , 4899.48717949 , 4123.07692308 , 4127.69230769 , 2045.0 , 2035.0 , 56.826 , 0.0 , 0.0 , 0.0 , 0.0 , 

123.0 , 4121.02564103 , 4116.41025641 , 4125.12820513 , 4122.05128205 , 4116.92307692 , 4116.41025641 , 4111.28205128 , 4120.0 , 4120.51282051 , 4128.20512821 , 4178.46153846 , 4902.05128205 , 4119.48717949 , 4127.69230769 , 2046.0 , 2036.0 , 56.834 , 0.0 , 0.0 , 0.0 , 0.0 , 

124.0 , 4120.51282051 , 4120.51282051 , 4124.61538462 , 4124.61538462 , 4117.43589744 , 4119.48717949 , 4116.92307692 , 4121.53846154 , 4119.48717949 , 4128.20512821 , 4178.46153846 , 4901.53846154 , 4123.58974359 , 4128.71794872 , 2046.0 , 2037.0 , 56.843 , 0.0 , 0.0 , 0.0 , 0.0 , 

125.0 , 4120.0 , 4119.48717949 , 4123.07692308 , 4122.05128205 , 4117.94871795 , 4114.35897436 , 4115.38461538 , 4111.79487179 , 4112.82051282 , 4124.1025641 , 4176.92307692 , 4903.07692308 , 4124.1025641 , 4128.20512821 , 2046.0 , 2037.0 , 56.851 , 0.0 , 0.0 , 0.0 , 0.0 , 

126.0 , 4118.46153846 , 4117.94871795 , 4120.0 , 4121.53846154 , 4118.46153846 , 4114.87179487 , 4111.79487179 , 4114.35897436 , 4114.35897436 , 4124.1025641 , 4175.8974359 , 4902.56410256 , 4124.61538462 , 4127.69230769 , 2046.0 , 2039.0 , 56.857 , 0.0 , 0.0 , 0.0 , 0.0 , 

127.0 , 4118.46153846 , 4117.43589744 , 4125.64102564 , 4118.46153846 , 4117.43589744 , 4116.41025641 , 4110.25641026 , 4115.8974359 , 4115.8974359 , 4124.61538462 , 4173.84615385 , 4902.56410256 , 4121.02564103 , 4127.69230769 , 2048.0 , 2036.0 , 56.865 , 0.0 , 0.0 , 0.0 , 0.0 , 

128.0 , 4120.0 , 4121.02564103 , 4122.56410256 , 4121.02564103 , 4117.94871795 , 4115.38461538 , 4113.84615385 , 4114.87179487 , 4115.8974359 , 4124.61538462 , 4174.87179487 , 4900.51282051 , 4123.07692308 , 4128.71794872 , 2048.0 , 2033.0 , 56.874 , 0.0 , 0.0 , 0.0 , 0.0 , 

0.0 , 4117.43589744 , 4118.97435897 , 4115.8974359 , 4123.07692308 , 4117.43589744 , 4112.30769231 , 4114.35897436 , 4118.97435897 , 4122.05128205 , 4125.64102564 , 4174.35897436 , 4902.05128205 , 4124.61538462 , 4126.66666667 , 2047.0 , 2031.0 , 56.881 , 0.0 , 0.0 , 0.0 , 0.0 , 

1.0 , 4118.97435897 , 4116.41025641 , 4122.05128205 , 4121.53846154 , 4120.51282051 , 4113.84615385 , 4113.33333333 , 4121.53846154 , 4120.0 , 4126.66666667 , 4174.35897436 , 4902.05128205 , 4118.97435897 , 4126.66666667 , 2049.0 , 2033.0 , 56.89 , 0.0 , 0.0 , 0.0 , 0.0 , 

2.0 , 4118.46153846 , 4114.87179487 , 4122.05128205 , 4120.51282051 , 4121.02564103 , 4115.8974359 , 4114.87179487 , 4127.17948718 , 4123.07692308 , 4129.74358974 , 4178.97435897 , 4897.94871795 , 4123.07692308 , 4129.23076923 , 2047.0 , 2033.0 , 56.897 , 0.0 , 0.0 , 0.0 , 0.0 , 

3.0 , 4117.94871795 , 4113.33333333 , 4117.94871795 , 4118.97435897 , 4117.94871795 , 4113.84615385 , 4113.33333333 , 4120.51282051 , 4124.61538462 , 4126.66666667 , 4179.48717949 , 4896.92307692 , 4122.56410256 , 4128.71794872 , 2047.0 , 2034.0 , 56.906 , 0.0 , 0.0 , 0.0 , 0.0 , 

4.0 , 4117.43589744 , 4116.41025641 , 4117.94871795 , 4121.02564103 , 4116.41025641 , 4119.48717949 , 4117.43589744 , 4123.58974359 , 4128.71794872 , 4122.56410256 , 4180.51282051 , 4899.48717949 , 4122.56410256 , 4127.17948718 , 2047.0 , 2035.0 , 56.913 , 0.0 , 0.0 , 0.0 , 0.0 , 

5.0 , 4121.53846154 , 4115.38461538 , 4125.64102564 , 4118.46153846 , 4118.46153846 , 4119.48717949 , 4114.87179487 , 4116.92307692 , 4118.97435897 , 4124.61538462 , 4177.43589744 , 4901.53846154 , 4115.38461538 , 4128.20512821 , 2046.0 , 2037.0 , 56.922 , 0.0 , 0.0 , 0.0 , 0.0 , 

6.0 , 4118.97435897 , 4117.43589744 , 4123.58974359 , 4119.48717949 , 4116.92307692 , 4120.0 , 4115.8974359 , 4121.53846154 , 4124.1025641 , 4128.20512821 , 4175.8974359 , 4900.51282051 , 4123.58974359 , 4129.23076923 , 2045.0 , 2037.0 , 56.928 , 0.0 , 0.0 , 0.0 , 0.0 , 

7.0 , 4119.48717949 , 4115.8974359 , 4127.69230769 , 4118.46153846 , 4117.94871795 , 4115.8974359 , 4109.23076923 , 4110.76923077 , 4117.43589744 , 4124.1025641 , 4173.33333333 , 4904.1025641 , 4119.48717949 , 4129.74358974 , 2045.0 , 2036.0 , 56.936 , 0.0 , 0.0 , 0.0 , 0.0 , 

8.0 , 4120.0 , 4120.0 , 4122.56410256 , 4123.58974359 , 4121.53846154 , 4118.97435897 , 4113.84615385 , 4119.48717949 , 4120.0 , 4125.64102564 , 4177.43589744 , 4901.53846154 , 4123.58974359 , 4129.23076923 , 2045.0 , 2036.0 , 56.944 , 0.0 , 0.0 , 0.0 , 0.0 , 

9.0 , 4118.97435897 , 4117.43589744 , 4123.07692308 , 4116.92307692 , 4118.46153846 , 4113.33333333 , 4110.76923077 , 4115.8974359 , 4116.92307692 , 4128.20512821 , 4176.92307692 , 4900.0 , 4116.41025641 , 4127.69230769 , 2044.0 , 2035.0 , 56.952 , 0.0 , 0.0 , 0.0 , 0.0 , 

10.0 , 4117.94871795 , 4121.53846154 , 4119.48717949 , 4118.97435897 , 4116.92307692 , 4115.8974359 , 4115.38461538 , 4121.02564103 , 4120.0 , 4127.17948718 , 4180.51282051 , 4897.94871795 , 4122.05128205 , 4128.71794872 , 2045.0 , 2034.0 , 56.96 , 0.0 , 0.0 , 0.0 , 0.0 , 

11.0 , 4120.51282051 , 4117.94871795 , 4120.51282051 , 4120.0 , 4119.48717949 , 4117.43589744 , 4111.28205128 , 4114.35897436 , 4112.82051282 , 4125.64102564 , 4176.92307692 , 4902.56410256 , 4118.97435897 , 4127.69230769 , 2043.0 , 2034.0 , 56.968 , 0.0 , 0.0 , 0.0 , 0.0 , 

12.0 , 4118.46153846 , 4121.02564103 , 4115.38461538 , 4123.07692308 , 4120.0 , 4118.97435897 , 4114.87179487 , 4124.1025641 , 4120.0 , 4128.20512821 , 4176.41025641 , 4902.56410256 , 4125.12820513 , 4125.12820513 , 2042.0 , 2033.0 , 56.977 , 0.0 , 0.0 , 0.0 , 0.0 , 

13.0 , 4117.94871795 , 4120.51282051 , 4118.97435897 , 4117.94871795 , 4118.46153846 , 4115.8974359 , 4111.79487179 , 4117.43589744 , 4118.97435897 , 4126.15384615 , 4175.38461538 , 4900.51282051 , 4121.02564103 , 4127.17948718 , 2042.0 , 2033.0 , 56.984 , 0.0 , 0.0 , 0.0 , 0.0 , 

14.0 , 4121.53846154 , 4120.51282051 , 4120.0 , 4121.53846154 , 4118.46153846 , 4117.94871795 , 4113.84615385 , 4118.46153846 , 4120.51282051 , 4128.20512821 , 4179.48717949 , 4898.46153846 , 4122.05128205 , 4129.74358974 , 2041.0 , 2034.0 , 56.991 , 0.0 , 0.0 , 0.0 , 0.0 , 

15.0 , 4120.0 , 4115.38461538 , 4123.07692308 , 4118.97435897 , 4117.94871795 , 4112.82051282 , 4112.30769231 , 4119.48717949 , 4120.51282051 , 4130.25641026 , 4176.41025641 , 4902.05128205 , 4120.0 , 4125.64102564 , 2041.0 , 2033.0 , 56.999 , 0.0 , 0.0 , 0.0 , 0.0 , 

16.0 , 4117.43589744 , 4115.38461538 , 4123.07692308 , 4115.8974359 , 4120.51282051 , 4113.33333333 , 4114.87179487 , 4122.05128205 , 4122.56410256 , 4130.25641026 , 4174.35897436 , 4900.0 , 4121.02564103 , 4125.12820513 , 2041.0 , 2034.0 , 57.007 , 0.0 , 0.0 , 0.0 , 0.0 , 

17.0 , 4119.48717949 , 4112.30769231 , 4122.56410256 , 4114.87179487 , 4119.48717949 , 4116.41025641 , 4112.30769231 , 4121.02564103 , 4125.12820513 , 4128.71794872 , 4175.8974359 , 4896.92307692 , 4120.51282051 , 4128.20512821 , 2042.0 , 2034.0 , 57.016 , 0.0 , 0.0 , 0.0 , 0.0 , 

18.0 , 4121.53846154 , 4113.33333333 , 4120.51282051 , 4116.92307692 , 4117.94871795 , 4118.46153846 , 4109.23076923 , 4121.02564103 , 4123.58974359 , 4128.71794872 , 4178.46153846 , 4900.0 , 4118.46153846 , 4128.71794872 , 2041.0 , 2032.0 , 57.023 , 0.0 , 0.0 , 0.0 , 0.0 , 

19.0 , 4117.43589744 , 4116.41025641 , 4120.51282051 , 4117.94871795 , 4118.46153846 , 4117.43589744 , 4111.28205128 , 4121.53846154 , 4121.02564103 , 4128.71794872 , 4180.51282051 , 4902.05128205 , 4118.46153846 , 4127.17948718 , 2043.0 , 2032.0 , 57.032 , 0.0 , 0.0 , 0.0 , 0.0 , 

20.0 , 4121.53846154 , 4118.46153846 , 4123.58974359 , 4117.43589744 , 4121.02564103 , 4115.38461538 , 4112.82051282 , 4115.38461538 , 4118.97435897 , 4126.66666667 , 4179.48717949 , 4899.48717949 , 4115.38461538 , 4127.69230769 , 2043.0 , 2033.0 , 57.04 , 0.0 , 0.0 , 0.0 , 0.0 , 

21.0 , 4123.58974359 , 4118.97435897 , 4119.48717949 , 4121.02564103 , 4120.51282051 , 4116.92307692 , 4114.87179487 , 4121.53846154 , 4126.66666667 , 4128.71794872 , 4177.43589744 , 4898.97435897 , 4122.56410256 , 4129.74358974 , 2043.0 , 2033.0 , 57.047 , 0.0 , 0.0 , 0.0 , 0.0 , 

22.0 , 4121.53846154 , 4118.46153846 , 4121.02564103 , 4122.56410256 , 4120.0 , 4117.94871795 , 4111.79487179 , 4115.38461538 , 4118.97435897 , 4128.71794872 , 4173.84615385 , 4901.02564103 , 4120.51282051 , 4130.25641026 , 2043.0 , 2034.0 , 57.056 , 0.0 , 0.0 , 0.0 , 0.0 , 

23.0 , 4117.94871795 , 4123.07692308 , 4121.02564103 , 4125.12820513 , 4117.94871795 , 4122.05128205 , 4116.41025641 , 4119.48717949 , 4118.46153846 , 4128.71794872 , 4176.92307692 , 4900.0 , 4122.56410256 , 4128.20512821 , 2045.0 , 2035.0 , 57.064 , 0.0 , 0.0 , 0.0 , 0.0 , 

24.0 , 4121.53846154 , 4120.51282051 , 4124.61538462 , 4118.46153846 , 4117.43589744 , 4115.38461538 , 4112.82051282 , 4113.33333333 , 4115.8974359 , 4129.74358974 , 4173.84615385 , 4901.02564103 , 4116.92307692 , 4126.15384615 , 2045.0 , 2036.0 , 57.07 , 0.0 , 0.0 , 0.0 , 0.0 , 

25.0 , 4119.48717949 , 4117.94871795 , 4120.0 , 4121.02564103 , 4116.92307692 , 4114.87179487 , 4111.79487179 , 4118.97435897 , 4125.64102564 , 4131.28205128 , 4175.8974359 , 4898.46153846 , 4124.61538462 , 4126.66666667 , 2045.0 , 2037.0 , 57.078 , 0.0 , 0.0 , 0.0 , 0.0 , 

26.0 , 4118.97435897 , 4114.87179487 , 4124.1025641 , 4121.53846154 , 4119.48717949 , 4111.79487179 , 4105.64102564 , 4111.28205128 , 4119.48717949 , 4127.69230769 , 4176.41025641 , 4898.97435897 , 4122.05128205 , 4127.69230769 , 2044.0 , 2036.0 , 57.086 , 0.0 , 0.0 , 0.0 , 0.0 , 

27.0 , 4118.46153846 , 4118.46153846 , 4122.05128205 , 4126.15384615 , 4122.56410256 , 4113.33333333 , 4110.76923077 , 4121.02564103 , 4121.02564103 , 4126.66666667 , 4180.0 , 4898.97435897 , 4126.15384615 , 4128.71794872 , 2045.0 , 2036.0 , 57.094 , 0.0 , 0.0 , 0.0 , 0.0 , 

28.0 , 4119.48717949 , 4114.87179487 , 4125.12820513 , 4123.58974359 , 4118.46153846 , 4109.74358974 , 4107.17948718 , 4117.43589744 , 4118.46153846 , 4125.12820513 , 4177.94871795 , 4902.05128205 , 4117.43589744 , 4128.71794872 , 2045.0 , 2037.0 , 57.102 , 0.0 , 0.0 , 0.0 , 0.0 , 

29.0 , 4117.94871795 , 4119.48717949 , 4120.51282051 , 4125.12820513 , 4113.33333333 , 4114.35897436 , 4112.82051282 , 4125.64102564 , 4125.64102564 , 4127.17948718 , 4180.0 , 4900.0 , 4124.61538462 , 4128.20512821 , 2046.0 , 2035.0 , 57.111 , 0.0 , 0.0 , 0.0 , 0.0 , 

30.0 , 4116.92307692 , 4118.46153846 , 4121.53846154 , 4121.02564103 , 4116.92307692 , 4112.82051282 , 4111.79487179 , 4120.51282051 , 4121.02564103 , 4128.71794872 , 4175.8974359 , 4900.51282051 , 4124.1025641 , 4127.17948718 , 2047.0 , 2033.0 , 57.119 , 0.0 , 0.0 , 0.0 , 0.0 , 

31.0 , 4118.46153846 , 4118.97435897 , 4121.02564103 , 4123.58974359 , 4122.05128205 , 4116.41025641 , 4116.41025641 , 4121.02564103 , 4122.56410256 , 4127.17948718 , 4177.43589744 , 4897.94871795 , 4125.12820513 , 4127.17948718 , 2047.0 , 2034.0 , 57.128 , 0.0 , 0.0 , 0.0 , 0.0 , 

32.0 , 4120.0 , 4115.8974359 , 4124.1025641 , 4118.46153846 , 4118.97435897 , 4117.43589744 , 4113.84615385 , 4113.84615385 , 4122.56410256 , 4124.1025641 , 4177.43589744 , 4901.53846154 , 4118.97435897 , 4127.69230769 , 2047.0 , 2031.0 , 57.134 , 0.0 , 0.0 , 0.0 , 0.0 , 

33.0 , 4119.48717949 , 4117.43589744 , 4121.53846154 , 4118.46153846 , 4115.8974359 , 4118.97435897 , 4114.35897436 , 4120.0 , 4123.07692308 , 4128.71794872 , 4178.46153846 , 4902.05128205 , 4121.53846154 , 4128.71794872 , 2047.0 , 2031.0 , 57.142 , 0.0 , 0.0 , 0.0 , 0.0 , 

34.0 , 4119.48717949 , 4117.43589744 , 4126.15384615 , 4120.0 , 4116.92307692 , 4115.8974359 , 4110.76923077 , 4117.94871795 , 4117.94871795 , 4129.74358974 , 4177.43589744 , 4901.02564103 , 4120.0 , 4126.66666667 , 2045.0 , 2031.0 , 57.149 , 0.0 , 0.0 , 0.0 , 0.0 , 

35.0 , 4123.58974359 , 4121.53846154 , 4128.71794872 , 4121.53846154 , 4122.05128205 , 4119.48717949 , 4115.38461538 , 4113.84615385 , 4117.43589744 , 4126.66666667 , 4176.41025641 , 4903.07692308 , 4121.02564103 , 4126.15384615 , 2046.0 , 2033.0 , 57.158 , 0.0 , 0.0 , 0.0 , 0.0 , 

36.0 , 4122.05128205 , 4118.46153846 , 4124.1025641 , 4120.51282051 , 4121.53846154 , 4118.46153846 , 4116.41025641 , 4113.84615385 , 4120.0 , 4125.64102564 , 4172.82051282 , 4906.15384615 , 4122.56410256 , 4128.20512821 , 2046.0 , 2034.0 , 57.165 , 0.0 , 0.0 , 0.0 , 0.0 , 

37.0 , 4117.94871795 , 4114.35897436 , 4121.02564103 , 4122.05128205 , 4117.43589744 , 4113.84615385 , 4114.35897436 , 4113.33333333 , 4116.41025641 , 4126.66666667 , 4173.33333333 , 4902.05128205 , 4120.51282051 , 4129.23076923 , 2045.0 , 2034.0 , 57.174 , 0.0 , 0.0 , 0.0 , 0.0 , 

38.0 , 4118.46153846 , 4116.41025641 , 4123.07692308 , 4123.58974359 , 4117.94871795 , 4117.43589744 , 4116.41025641 , 4115.8974359 , 4116.41025641 , 4128.20512821 , 4175.8974359 , 4899.48717949 , 4124.61538462 , 4128.20512821 , 2043.0 , 2034.0 , 57.181 , 0.0 , 0.0 , 0.0 , 0.0 , 

39.0 , 4124.61538462 , 4116.41025641 , 4124.61538462 , 4122.05128205 , 4120.51282051 , 4119.48717949 , 4114.35897436 , 4110.76923077 , 4117.43589744 , 4128.71794872 , 4175.8974359 , 4903.07692308 , 4123.58974359 , 4128.20512821 , 2043.0 , 2033.0 , 57.19 , 0.0 , 0.0 , 0.0 , 0.0 , 

40.0 , 4120.51282051 , 4117.43589744 , 4119.48717949 , 4123.07692308 , 4117.43589744 , 4118.46153846 , 4115.38461538 , 4120.51282051 , 4124.1025641 , 4126.66666667 , 4179.48717949 , 4901.53846154 , 4126.15384615 , 4128.71794872 , 2043.0 , 2033.0 , 57.196 , 0.0 , 0.0 , 0.0 , 0.0 , 

41.0 , 4117.43589744 , 4116.41025641 , 4124.1025641 , 4120.51282051 , 4120.0 , 4115.8974359 , 4113.33333333 , 4118.46153846 , 4116.92307692 , 4125.64102564 , 4177.94871795 , 4900.0 , 4119.48717949 , 4128.20512821 , 2043.0 , 2032.0 , 57.205 , 0.0 , 0.0 , 0.0 , 0.0 , 

42.0 , 4116.92307692 , 4115.8974359 , 4122.05128205 , 4123.58974359 , 4122.56410256 , 4117.43589744 , 4116.41025641 , 4125.12820513 , 4123.07692308 , 4128.71794872 , 4177.43589744 , 4898.97435897 , 4122.05128205 , 4126.15384615 , 2043.0 , 2032.0 , 57.213 , 0.0 , 0.0 , 0.0 , 0.0 , 

43.0 , 4122.05128205 , 4113.33333333 , 4122.05128205 , 4119.48717949 , 4119.48717949 , 4110.25641026 , 4110.76923077 , 4116.41025641 , 4121.53846154 , 4127.69230769 , 4174.35897436 , 4901.53846154 , 4116.41025641 , 4126.66666667 , 2043.0 , 2033.0 , 57.222 , 0.0 , 0.0 , 0.0 , 0.0 , 

44.0 , 4121.53846154 , 4117.43589744 , 4121.02564103 , 4120.0 , 4116.92307692 , 4114.87179487 , 4116.41025641 , 4120.51282051 , 4126.15384615 , 4129.23076923 , 4178.97435897 , 4899.48717949 , 4122.56410256 , 4128.20512821 , 2041.0 , 2031.0 , 57.229 , 0.0 , 0.0 , 0.0 , 0.0 , 

45.0 , 4120.0 , 4113.33333333 , 4128.20512821 , 4116.41025641 , 4117.43589744 , 4116.92307692 , 4116.41025641 , 4114.35897436 , 4120.51282051 , 4126.15384615 , 4175.38461538 , 4901.02564103 , 4115.8974359 , 4127.17948718 , 2042.0 , 2031.0 , 57.236 , 0.0 , 0.0 , 0.0 , 0.0 , 

46.0 , 4118.97435897 , 4115.8974359 , 4123.07692308 , 4120.0 , 4118.46153846 , 4116.92307692 , 4120.51282051 , 4126.15384615 , 4126.66666667 , 4125.12820513 , 4177.43589744 , 4900.51282051 , 4122.56410256 , 4127.17948718 , 2043.0 , 2033.0 , 57.245 , 0.0 , 0.0 , 0.0 , 0.0 , 

47.0 , 4121.02564103 , 4116.41025641 , 4126.15384615 , 4115.38461538 , 4119.48717949 , 4114.35897436 , 4114.87179487 , 4118.97435897 , 4120.0 , 4126.66666667 , 4179.48717949 , 4902.05128205 , 4121.02564103 , 4128.71794872 , 2042.0 , 2032.0 , 57.254 , 0.0 , 0.0 , 0.0 , 0.0 , 

48.0 , 4119.48717949 , 4120.51282051 , 4124.61538462 , 4120.0 , 4118.97435897 , 4122.56410256 , 4117.43589744 , 4120.51282051 , 4121.53846154 , 4131.28205128 , 4179.48717949 , 4901.02564103 , 4125.12820513 , 4127.69230769 , 2043.0 , 2030.0 , 57.259 , 0.0 , 0.0 , 0.0 , 0.0 , 

49.0 , 4120.51282051 , 4115.8974359 , 4121.02564103 , 4122.05128205 , 4117.94871795 , 4120.0 , 4114.87179487 , 4116.92307692 , 4118.97435897 , 4128.20512821 , 4173.33333333 , 4904.1025641 , 4121.02564103 , 4126.66666667 , 2044.0 , 2032.0 , 57.27 , 0.0 , 0.0 , 0.0 , 0.0 , 

50.0 , 4123.07692308 , 4118.46153846 , 4115.38461538 , 4127.17948718 , 4120.0 , 4119.48717949 , 4117.43589744 , 4121.02564103 , 4118.46153846 , 4125.64102564 , 4178.97435897 , 4902.05128205 , 4128.71794872 , 4129.23076923 , 2044.0 , 2031.0 , 57.275 , 0.0 , 0.0 , 0.0 , 0.0 , 

51.0 , 4120.51282051 , 4118.97435897 , 4123.58974359 , 4123.58974359 , 4118.97435897 , 4115.38461538 , 4111.28205128 , 4114.35897436 , 4115.38461538 , 4126.66666667 , 4178.46153846 , 4901.02564103 , 4125.64102564 , 4128.71794872 , 2044.0 , 2031.0 , 57.283 , 0.0 , 0.0 , 0.0 , 0.0 , 

52.0 , 4120.0 , 4122.05128205 , 4124.1025641 , 4122.56410256 , 4116.41025641 , 4115.8974359 , 4110.76923077 , 4116.92307692 , 4118.46153846 , 4128.20512821 , 4175.38461538 , 4900.0 , 4122.56410256 , 4126.15384615 , 2045.0 , 2033.0 , 57.291 , 0.0 , 0.0 , 0.0 , 0.0 , 

53.0 , 4122.56410256 , 4118.97435897 , 4120.51282051 , 4119.48717949 , 4116.41025641 , 4116.41025641 , 4110.25641026 , 4114.35897436 , 4116.41025641 , 4126.15384615 , 4177.94871795 , 4901.53846154 , 4122.56410256 , 4127.17948718 , 2043.0 , 2032.0 , 57.299 , 0.0 , 0.0 , 0.0 , 0.0 , 

54.0 , 4120.0 , 4117.43589744 , 4121.53846154 , 4117.94871795 , 4117.94871795 , 4113.84615385 , 4112.82051282 , 4112.30769231 , 4114.35897436 , 4122.56410256 , 4181.02564103 , 4901.02564103 , 4125.64102564 , 4129.23076923 , 2044.0 , 2031.0 , 57.307 , 0.0 , 0.0 , 0.0 , 0.0 , 

55.0 , 4116.41025641 , 4116.41025641 , 4123.58974359 , 4118.46153846 , 4118.46153846 , 4111.79487179 , 4113.33333333 , 4119.48717949 , 4120.0 , 4123.07692308 , 4177.43589744 , 4899.48717949 , 4122.56410256 , 4129.23076923 , 2044.0 , 2032.0 , 57.315 , 0.0 , 0.0 , 0.0 , 0.0 , 

56.0 , 4121.53846154 , 4114.87179487 , 4124.1025641 , 4118.97435897 , 4120.51282051 , 4115.8974359 , 4112.30769231 , 4121.53846154 , 4120.51282051 , 4128.20512821 , 4175.8974359 , 4899.48717949 , 4118.97435897 , 4129.23076923 , 2044.0 , 2032.0 , 57.323 , 0.0 , 0.0 , 0.0 , 0.0 , 

57.0 , 4121.02564103 , 4116.41025641 , 4122.56410256 , 4121.53846154 , 4120.51282051 , 4117.43589744 , 4111.79487179 , 4123.07692308 , 4124.1025641 , 4130.25641026 , 4180.51282051 , 4901.53846154 , 4127.17948718 , 4128.20512821 , 2044.0 , 2034.0 , 57.33 , 0.0 , 0.0 , 0.0 , 0.0 , 

58.0 , 4119.48717949 , 4115.8974359 , 4124.61538462 , 4120.0 , 4119.48717949 , 4114.35897436 , 4112.82051282 , 4116.92307692 , 4122.56410256 , 4125.64102564 , 4178.46153846 , 4902.05128205 , 4122.56410256 , 4128.71794872 , 2043.0 , 2035.0 , 57.339 , 0.0 , 0.0 , 0.0 , 0.0 , 

59.0 , 4117.43589744 , 4114.35897436 , 4122.05128205 , 4120.0 , 4118.97435897 , 4119.48717949 , 4118.97435897 , 4125.12820513 , 4123.58974359 , 4123.58974359 , 4175.8974359 , 4898.97435897 , 4122.56410256 , 4128.20512821 , 2044.0 , 2035.0 , 57.347 , 0.0 , 0.0 , 0.0 , 0.0 , 

60.0 , 4120.51282051 , 4111.79487179 , 4124.1025641 , 4116.92307692 , 4122.05128205 , 4117.94871795 , 4112.30769231 , 4120.51282051 , 4116.92307692 , 4126.66666667 , 4172.82051282 , 4902.05128205 , 4119.48717949 , 4128.20512821 , 2044.0 , 2036.0 , 57.355 , 0.0 , 0.0 , 0.0 , 0.0 , 

61.0 , 4119.48717949 , 4118.46153846 , 4121.53846154 , 4121.02564103 , 4122.56410256 , 4117.43589744 , 4113.33333333 , 4123.58974359 , 4122.05128205 , 4130.76923077 , 4176.41025641 , 4902.05128205 , 4125.64102564 , 4127.69230769 , 2044.0 , 2037.0 , 57.363 , 0.0 , 0.0 , 0.0 , 0.0 , 

62.0 , 4120.0 , 4118.46153846 , 4127.69230769 , 4118.46153846 , 4121.53846154 , 4116.41025641 , 4110.25641026 , 4109.23076923 , 4114.87179487 , 4127.17948718 , 4176.41025641 , 4904.61538462 , 4115.38461538 , 4127.69230769 , 2044.0 , 2037.0 , 57.371 , 0.0 , 0.0 , 0.0 , 0.0 , 

63.0 , 4116.92307692 , 4118.46153846 , 4124.61538462 , 4121.02564103 , 4121.02564103 , 4120.51282051 , 4113.84615385 , 4117.94871795 , 4122.05128205 , 4126.66666667 , 4180.51282051 , 4903.07692308 , 4122.56410256 , 4128.71794872 , 2044.0 , 2039.0 , 57.379 , 0.0 , 0.0 , 0.0 , 0.0 , 

64.0 , 4118.46153846 , 4115.38461538 , 4125.64102564 , 4121.02564103 , 4118.97435897 , 4114.87179487 , 4108.20512821 , 4115.38461538 , 4120.51282051 , 4127.17948718 , 4176.41025641 , 4901.02564103 , 4118.97435897 , 4127.17948718 , 2045.0 , 2038.0 , 57.385 , 0.0 , 0.0 , 0.0 , 0.0 , 

65.0 , 4120.0 , 4117.94871795 , 4121.02564103 , 4126.15384615 , 4117.94871795 , 4116.92307692 , 4114.35897436 , 4120.0 , 4122.56410256 , 4129.74358974 , 4177.43589744 , 4899.48717949 , 4123.07692308 , 4127.17948718 , 2044.0 , 2039.0 , 57.393 , 0.0 , 0.0 , 0.0 , 0.0 , 

66.0 , 4120.51282051 , 4115.38461538 , 4124.1025641 , 4121.02564103 , 4119.48717949 , 4113.33333333 , 4111.79487179 , 4113.84615385 , 4118.97435897 , 4127.17948718 , 4176.41025641 , 4904.1025641 , 4118.97435897 , 4129.23076923 , 2044.0 , 2040.0 , 57.402 , 0.0 , 0.0 , 0.0 , 0.0 , 

67.0 , 4120.0 , 4117.94871795 , 4121.02564103 , 4123.58974359 , 4118.97435897 , 4117.43589744 , 4114.87179487 , 4124.61538462 , 4125.12820513 , 4124.1025641 , 4178.97435897 , 4897.94871795 , 4125.64102564 , 4128.20512821 , 2044.0 , 2037.0 , 57.411 , 0.0 , 0.0 , 0.0 , 0.0 , 

68.0 , 4118.46153846 , 4117.43589744 , 4122.56410256 , 4122.56410256 , 4117.43589744 , 4117.94871795 , 4113.33333333 , 4121.02564103 , 4120.51282051 , 4123.07692308 , 4177.43589744 , 4896.92307692 , 4125.12820513 , 4126.15384615 , 2046.0 , 2036.0 , 57.418 , 0.0 , 0.0 , 0.0 , 0.0 , 

69.0 , 4117.43589744 , 4118.97435897 , 4122.05128205 , 4124.1025641 , 4120.51282051 , 4117.94871795 , 4115.38461538 , 4122.56410256 , 4123.07692308 , 4128.71794872 , 4177.94871795 , 4901.53846154 , 4126.66666667 , 4128.71794872 , 2045.0 , 2035.0 , 57.425 , 0.0 , 0.0 , 0.0 , 0.0 , 

70.0 , 4119.48717949 , 4115.38461538 , 4125.64102564 , 4121.53846154 , 4121.02564103 , 4115.38461538 , 4110.76923077 , 4120.0 , 4123.58974359 , 4126.66666667 , 4173.33333333 , 4901.02564103 , 4118.46153846 , 4129.74358974 , 2045.0 , 2034.0 , 57.434 , 0.0 , 0.0 , 0.0 , 0.0 , 

71.0 , 4122.05128205 , 4114.35897436 , 4126.66666667 , 4120.51282051 , 4118.97435897 , 4117.94871795 , 4113.84615385 , 4118.97435897 , 4122.05128205 , 4125.12820513 , 4173.33333333 , 4896.92307692 , 4115.38461538 , 4126.66666667 , 2046.0 , 2034.0 , 57.443 , 0.0 , 0.0 , 0.0 , 0.0 , 

72.0 , 4118.46153846 , 4109.74358974 , 4126.66666667 , 4115.8974359 , 4117.43589744 , 4114.87179487 , 4114.87179487 , 4116.92307692 , 4124.61538462 , 4130.25641026 , 4175.38461538 , 4899.48717949 , 4118.46153846 , 4127.17948718 , 2046.0 , 2036.0 , 57.449 , 0.0 , 0.0 , 0.0 , 0.0 , 

73.0 , 4118.97435897 , 4113.33333333 , 4125.64102564 , 4115.38461538 , 4118.97435897 , 4112.82051282 , 4113.84615385 , 4117.94871795 , 4125.12820513 , 4130.25641026 , 4176.41025641 , 4899.48717949 , 4120.51282051 , 4128.71794872 , 2047.0 , 2036.0 , 57.457 , 0.0 , 0.0 , 0.0 , 0.0 , 

74.0 , 4118.97435897 , 4117.43589744 , 4125.64102564 , 4117.94871795 , 4120.0 , 4117.43589744 , 4114.87179487 , 4123.07692308 , 4125.64102564 , 4126.66666667 , 4177.94871795 , 4897.94871795 , 4123.58974359 , 4126.66666667 , 2047.0 , 2035.0 , 57.465 , 0.0 , 0.0 , 0.0 , 0.0 , 

75.0 , 4118.46153846 , 4115.8974359 , 4127.17948718 , 4116.41025641 , 4121.53846154 , 4118.46153846 , 4114.87179487 , 4119.48717949 , 4121.53846154 , 4129.23076923 , 4174.35897436 , 4900.0 , 4120.51282051 , 4126.66666667 , 2048.0 , 2035.0 , 57.473 , 0.0 , 0.0 , 0.0 , 0.0 , 

76.0 , 4118.46153846 , 4117.43589744 , 4120.0 , 4116.41025641 , 4120.51282051 , 4117.43589744 , 4114.87179487 , 4124.1025641 , 4123.07692308 , 4129.74358974 , 4172.82051282 , 4898.46153846 , 4121.53846154 , 4127.17948718 , 2048.0 , 2032.0 , 57.481 , 0.0 , 0.0 , 0.0 , 0.0 , 

77.0 , 4123.07692308 , 4120.0 , 4118.97435897 , 4117.94871795 , 4121.02564103 , 4117.94871795 , 4110.76923077 , 4117.43589744 , 4115.8974359 , 4124.1025641 , 4174.87179487 , 4900.51282051 , 4118.97435897 , 4126.66666667 , 2047.0 , 2031.0 , 57.489 , 0.0 , 0.0 , 0.0 , 0.0 , 

78.0 , 4120.51282051 , 4118.46153846 , 4117.94871795 , 4125.12820513 , 4120.51282051 , 4121.53846154 , 4113.84615385 , 4120.0 , 4121.02564103 , 4125.12820513 , 4179.48717949 , 4904.1025641 , 4128.71794872 , 4127.17948718 , 2047.0 , 2031.0 , 57.497 , 0.0 , 0.0 , 0.0 , 0.0 , 

79.0 , 4120.0 , 4112.82051282 , 4120.51282051 , 4123.58974359 , 4119.48717949 , 4113.33333333 , 4109.23076923 , 4112.30769231 , 4118.97435897 , 4126.15384615 , 4174.87179487 , 4903.07692308 , 4123.58974359 , 4127.69230769 , 2045.0 , 2030.0 , 57.506 , 0.0 , 0.0 , 0.0 , 0.0 , 

80.0 , 4120.0 , 4117.43589744 , 4117.94871795 , 4124.1025641 , 4117.94871795 , 4115.8974359 , 4110.76923077 , 4116.92307692 , 4121.02564103 , 4127.69230769 , 4178.46153846 , 4898.46153846 , 4126.66666667 , 4127.17948718 , 2045.0 , 2033.0 , 57.512 , 0.0 , 0.0 , 0.0 , 0.0 , 

81.0 , 4120.51282051 , 4115.38461538 , 4124.1025641 , 4120.0 , 4117.43589744 , 4118.46153846 , 4107.17948718 , 4106.66666667 , 4112.82051282 , 4127.17948718 , 4176.41025641 , 4903.07692308 , 4122.56410256 , 4127.17948718 , 2045.0 , 2036.0 , 57.52 , 0.0 , 0.0 , 0.0 , 0.0 , 

82.0 , 4120.0 , 4118.97435897 , 4121.53846154 , 4124.1025641 , 4116.92307692 , 4117.43589744 , 4112.82051282 , 4118.97435897 , 4120.0 , 4124.61538462 , 4176.92307692 , 4902.56410256 , 4129.23076923 , 4128.71794872 , 2045.0 , 2036.0 , 57.528 , 0.0 , 0.0 , 0.0 , 0.0 , 

83.0 , 4121.53846154 , 4117.43589744 , 4124.1025641 , 4119.48717949 , 4118.97435897 , 4109.23076923 , 4108.71794872 , 4120.0 , 4116.41025641 , 4123.07692308 , 4175.38461538 , 4899.48717949 , 4121.02564103 , 4128.71794872 , 2045.0 , 2037.0 , 57.537 , 0.0 , 0.0 , 0.0 , 0.0 , 

84.0 , 4119.48717949 , 4116.92307692 , 4120.0 , 4120.0 , 4120.0 , 4115.38461538 , 4112.30769231 , 4125.64102564 , 4121.02564103 , 4127.69230769 , 4178.97435897 , 4895.8974359 , 4127.69230769 , 4127.69230769 , 2043.0 , 2035.0 , 57.544 , 0.0 , 0.0 , 0.0 , 0.0 , 

85.0 , 4119.48717949 , 4110.76923077 , 4120.0 , 4114.87179487 , 4117.43589744 , 4115.8974359 , 4112.82051282 , 4118.97435897 , 4121.02564103 , 4127.69230769 , 4177.43589744 , 4900.0 , 4126.66666667 , 4127.69230769 , 2044.0 , 2035.0 , 57.552 , 0.0 , 0.0 , 0.0 , 0.0 , 

86.0 , 4120.51282051 , 4112.82051282 , 4117.94871795 , 4115.8974359 , 4118.97435897 , 4117.94871795 , 4118.97435897 , 4128.20512821 , 4126.66666667 , 4126.15384615 , 4178.97435897 , 4901.02564103 , 4127.69230769 , 4129.23076923 , 2044.0 , 2035.0 , 57.559 , 0.0 , 0.0 , 0.0 , 0.0 , 

87.0 , 4120.51282051 , 4112.30769231 , 4121.53846154 , 4115.38461538 , 4118.97435897 , 4117.43589744 , 4113.33333333 , 4124.1025641 , 4122.56410256 , 4125.64102564 , 4178.46153846 , 4902.56410256 , 4120.0 , 4128.71794872 , 2043.0 , 2034.0 , 57.567 , 0.0 , 0.0 , 0.0 , 0.0 , 

88.0 , 4119.48717949 , 4118.46153846 , 4120.51282051 , 4121.02564103 , 4117.94871795 , 4121.02564103 , 4112.30769231 , 4123.07692308 , 4123.58974359 , 4129.23076923 , 4178.46153846 , 4900.51282051 , 4120.0 , 4128.71794872 , 2042.0 , 2034.0 , 57.575 , 0.0 , 0.0 , 0.0 , 0.0 , 

89.0 , 4119.48717949 , 4117.94871795 , 4124.1025641 , 4118.97435897 , 4118.46153846 , 4117.94871795 , 4111.28205128 , 4120.0 , 4121.53846154 , 4128.20512821 , 4174.87179487 , 4899.48717949 , 4117.94871795 , 4128.20512821 , 2041.0 , 2036.0 , 57.583 , 0.0 , 0.0 , 0.0 , 0.0 , 

90.0 , 4122.05128205 , 4115.8974359 , 4126.15384615 , 4118.97435897 , 4120.0 , 4118.46153846 , 4113.84615385 , 4120.51282051 , 4118.46153846 , 4127.17948718 , 4174.87179487 , 4898.97435897 , 4118.46153846 , 4128.71794872 , 2040.0 , 2036.0 , 57.591 , 0.0 , 0.0 , 0.0 , 0.0 , 

91.0 , 4121.02564103 , 4118.46153846 , 4125.12820513 , 4120.51282051 , 4119.48717949 , 4116.92307692 , 4112.82051282 , 4121.02564103 , 4119.48717949 , 4127.17948718 , 4175.8974359 , 4901.02564103 , 4120.0 , 4127.17948718 , 2040.0 , 2034.0 , 57.599 , 0.0 , 0.0 , 0.0 , 0.0 , 

92.0 , 4122.05128205 , 4122.05128205 , 4122.05128205 , 4121.53846154 , 4120.51282051 , 4113.33333333 , 4113.84615385 , 4115.8974359 , 4116.41025641 , 4126.15384615 , 4178.97435897 , 4901.02564103 , 4122.56410256 , 4126.66666667 , 2039.0 , 2034.0 , 57.607 , 0.0 , 0.0 , 0.0 , 0.0 , 

93.0 , 4120.0 , 4118.46153846 , 4120.0 , 4122.56410256 , 4118.97435897 , 4115.38461538 , 4118.46153846 , 4116.92307692 , 4118.97435897 , 4125.64102564 , 4178.97435897 , 4900.0 , 4127.69230769 , 4128.20512821 , 2040.0 , 2034.0 , 57.614 , 0.0 , 0.0 , 0.0 , 0.0 , 

94.0 , 4118.97435897 , 4118.46153846 , 4121.02564103 , 4119.48717949 , 4117.43589744 , 4117.94871795 , 4115.38461538 , 4114.87179487 , 4119.48717949 , 4125.64102564 , 4174.35897436 , 4898.97435897 , 4122.05128205 , 4129.23076923 , 2041.0 , 2033.0 , 57.623 , 0.0 , 0.0 , 0.0 , 0.0 , 

95.0 , 4119.48717949 , 4123.58974359 , 4118.97435897 , 4120.51282051 , 4117.94871795 , 4118.97435897 , 4114.35897436 , 4124.1025641 , 4124.1025641 , 4126.15384615 , 4177.94871795 , 4896.92307692 , 4125.12820513 , 4127.69230769 , 2041.0 , 2030.0 , 57.631 , 0.0 , 0.0 , 0.0 , 0.0 , 

96.0 , 4123.07692308 , 4117.94871795 , 4120.51282051 , 4120.0 , 4118.46153846 , 4115.38461538 , 4111.79487179 , 4118.46153846 , 4119.48717949 , 4126.15384615 , 4177.43589744 , 4897.94871795 , 4122.05128205 , 4128.20512821 , 2042.0 , 2032.0 , 57.639 , 0.0 , 0.0 , 0.0 , 0.0 , 

97.0 , 4118.97435897 , 4113.84615385 , 4118.46153846 , 4123.07692308 , 4117.43589744 , 4117.43589744 , 4113.33333333 , 4125.64102564 , 4126.66666667 , 4129.74358974 , 4175.8974359 , 4896.92307692 , 4124.1025641 , 4128.20512821 , 2044.0 , 2033.0 , 57.646 , 0.0 , 0.0 , 0.0 , 0.0 , 

98.0 , 4116.92307692 , 4112.30769231 , 4124.1025641 , 4116.41025641 , 4118.97435897 , 4112.82051282 , 4105.64102564 , 4117.94871795 , 4122.05128205 , 4129.23076923 , 4174.35897436 , 4897.94871795 , 4115.8974359 , 4127.17948718 , 2044.0 , 2033.0 , 57.654 , 0.0 , 0.0 , 0.0 , 0.0 , 

99.0 , 4116.92307692 , 4114.87179487 , 4121.53846154 , 4120.51282051 , 4120.51282051 , 4114.87179487 , 4112.82051282 , 4122.05128205 , 4126.15384615 , 4127.17948718 , 4180.0 , 4898.97435897 , 4122.05128205 , 4126.15384615 , 2046.0 , 2036.0 , 57.663 , 0.0 , 0.0 , 0.0 , 0.0 , 

100.0 , 4117.94871795 , 4110.25641026 , 4124.61538462 , 4120.0 , 4119.48717949 , 4112.30769231 , 4111.79487179 , 4115.8974359 , 4122.56410256 , 4125.12820513 , 4175.8974359 , 4904.1025641 , 4117.94871795 , 4126.15384615 , 2045.0 , 2037.0 , 57.669 , 0.0 , 0.0 , 0.0 , 0.0 , 

101.0 , 4118.46153846 , 4113.84615385 , 4121.02564103 , 4121.53846154 , 4118.46153846 , 4114.35897436 , 4113.84615385 , 4125.64102564 , 4126.66666667 , 4126.66666667 , 4178.46153846 , 4900.0 , 4124.1025641 , 4127.17948718 , 2044.0 , 2036.0 , 57.677 , 0.0 , 0.0 , 0.0 , 0.0 , 

102.0 , 4121.53846154 , 4115.38461538 , 4123.58974359 , 4117.43589744 , 4119.48717949 , 4114.87179487 , 4111.28205128 , 4117.94871795 , 4118.97435897 , 4124.1025641 , 4179.48717949 , 4901.02564103 , 4118.46153846 , 4127.69230769 , 2044.0 , 2037.0 , 57.686 , 0.0 , 0.0 , 0.0 , 0.0 , 

103.0 , 4118.97435897 , 4120.51282051 , 4117.94871795 , 4120.51282051 , 4120.0 , 4121.02564103 , 4118.46153846 , 4123.07692308 , 4125.12820513 , 4125.12820513 , 4178.97435897 , 4901.53846154 , 4122.05128205 , 4127.69230769 , 2044.0 , 2036.0 , 57.694 , 0.0 , 0.0 , 0.0 , 0.0 , 

104.0 , 4117.94871795 , 4117.94871795 , 4117.43589744 , 4120.0 , 4117.43589744 , 4115.38461538 , 4114.87179487 , 4118.97435897 , 4123.07692308 , 4126.15384615 , 4175.8974359 , 4902.05128205 , 4118.46153846 , 4128.20512821 , 2044.0 , 2035.0 , 57.701 , 0.0 , 0.0 , 0.0 , 0.0 , 

105.0 , 4120.51282051 , 4119.48717949 , 4116.92307692 , 4126.15384615 , 4116.92307692 , 4116.41025641 , 4115.8974359 , 4120.51282051 , 4121.53846154 , 4127.69230769 , 4177.94871795 , 4901.53846154 , 4124.61538462 , 4128.20512821 , 2046.0 , 2035.0 , 57.709 , 0.0 , 0.0 , 0.0 , 0.0 , 

106.0 , 4121.53846154 , 4116.92307692 , 4121.53846154 , 4122.56410256 , 4117.43589744 , 4116.41025641 , 4110.25641026 , 4113.33333333 , 4117.43589744 , 4125.64102564 , 4172.82051282 , 4903.07692308 , 4123.58974359 , 4128.20512821 , 2045.0 , 2033.0 , 57.72 , 0.0 , 0.0 , 0.0 , 0.0 , 

107.0 , 4120.0 , 4118.46153846 , 4120.51282051 , 4120.51282051 , 4117.94871795 , 4117.43589744 , 4108.20512821 , 4114.87179487 , 4115.8974359 , 4125.64102564 , 4174.35897436 , 4900.51282051 , 4125.12820513 , 4130.76923077 , 2044.0 , 2034.0 , 57.728 , 0.0 , 0.0 , 0.0 , 0.0 , 

108.0 , 4118.46153846 , 4115.8974359 , 4119.48717949 , 4121.02564103 , 4117.43589744 , 4115.38461538 , 4107.17948718 , 4115.8974359 , 4113.33333333 , 4126.66666667 , 4176.92307692 , 4902.05128205 , 4123.58974359 , 4129.23076923 , 2046.0 , 2034.0 , 57.732 , 0.0 , 0.0 , 0.0 , 0.0 , 

109.0 , 4118.46153846 , 4116.92307692 , 4120.51282051 , 4123.58974359 , 4118.97435897 , 4113.33333333 , 4109.74358974 , 4117.43589744 , 4117.43589744 , 4126.66666667 , 4175.8974359 , 4902.05128205 , 4123.58974359 , 4126.15384615 , 2047.0 , 2033.0 , 57.741 , 0.0 , 0.0 , 0.0 , 0.0 , 

110.0 , 4117.43589744 , 4116.41025641 , 4120.0 , 4120.51282051 , 4119.48717949 , 4113.84615385 , 4111.79487179 , 4121.02564103 , 4122.56410256 , 4126.15384615 , 4176.41025641 , 4900.0 , 4123.07692308 , 4126.66666667 , 2046.0 , 2032.0 , 57.749 , 0.0 , 0.0 , 0.0 , 0.0 , 

111.0 , 4121.02564103 , 4114.35897436 , 4119.48717949 , 4117.94871795 , 4120.51282051 , 4116.41025641 , 4112.82051282 , 4120.0 , 4116.92307692 , 4128.20512821 , 4180.0 , 4900.0 , 4118.97435897 , 4129.23076923 , 2045.0 , 2033.0 , 57.758 , 0.0 , 0.0 , 0.0 , 0.0 , 

112.0 , 4120.51282051 , 4115.8974359 , 4117.94871795 , 4122.56410256 , 4118.97435897 , 4115.38461538 , 4115.8974359 , 4126.15384615 , 4122.05128205 , 4131.79487179 , 4179.48717949 , 4901.53846154 , 4124.61538462 , 4128.20512821 , 2043.0 , 2032.0 , 57.764 , 0.0 , 0.0 , 0.0 , 0.0 , 

113.0 , 4122.05128205 , 4119.48717949 , 4122.05128205 , 4124.1025641 , 4118.97435897 , 4109.23076923 , 4114.35897436 , 4122.56410256 , 4124.1025641 , 4129.74358974 , 4173.33333333 , 4901.02564103 , 4121.53846154 , 4126.66666667 , 2045.0 , 2033.0 , 57.773 , 0.0 , 0.0 , 0.0 , 0.0 , 

114.0 , 4120.0 , 4121.02564103 , 4120.0 , 4123.07692308 , 4118.97435897 , 4113.33333333 , 4118.46153846 , 4125.64102564 , 4126.66666667 , 4129.23076923 , 4176.92307692 , 4898.97435897 , 4123.07692308 , 4127.69230769 , 2045.0 , 2033.0 , 57.78 , 0.0 , 0.0 , 0.0 , 0.0 , 

115.0 , 4120.0 , 4115.8974359 , 4122.56410256 , 4116.41025641 , 4121.53846154 , 4116.41025641 , 4115.8974359 , 4115.8974359 , 4117.43589744 , 4128.71794872 , 4176.41025641 , 4903.07692308 , 4117.43589744 , 4129.23076923 , 2044.0 , 2033.0 , 57.789 , 0.0 , 0.0 , 0.0 , 0.0 , 

116.0 , 4118.46153846 , 4117.43589744 , 4121.02564103 , 4118.46153846 , 4121.02564103 , 4116.92307692 , 4117.94871795 , 4120.0 , 4123.58974359 , 4126.15384615 , 4176.92307692 , 4903.58974359 , 4121.53846154 , 4127.17948718 , 2045.0 , 2032.0 , 57.796 , 0.0 , 0.0 , 0.0 , 0.0 , 

117.0 , 4120.51282051 , 4115.8974359 , 4125.12820513 , 4116.41025641 , 4118.97435897 , 4113.33333333 , 4110.76923077 , 4111.28205128 , 4117.94871795 , 4122.05128205 , 4176.41025641 , 4903.58974359 , 4113.84615385 , 4125.64102564 , 2045.0 , 2034.0 , 57.803 , 0.0 , 0.0 , 0.0 , 0.0 , 

118.0 , 4118.46153846 , 4120.51282051 , 4118.97435897 , 4121.53846154 , 4119.48717949 , 4119.48717949 , 4113.84615385 , 4120.0 , 4122.05128205 , 4125.64102564 , 4182.05128205 , 4902.05128205 , 4118.97435897 , 4128.20512821 , 2044.0 , 2034.0 , 57.811 , 0.0 , 0.0 , 0.0 , 0.0 , 

119.0 , 4117.43589744 , 4120.0 , 4122.56410256 , 4120.51282051 , 4120.51282051 , 4119.48717949 , 4111.28205128 , 4112.82051282 , 4116.92307692 , 4125.12820513 , 4180.0 , 4902.56410256 , 4117.43589744 , 4129.23076923 , 2043.0 , 2034.0 , 57.819 , 0.0 , 0.0 , 0.0 , 0.0 , 

120.0 , 4117.43589744 , 4121.02564103 , 4121.02564103 , 4125.64102564 , 4120.0 , 4121.02564103 , 4115.8974359 , 4117.94871795 , 4120.51282051 , 4126.15384615 , 4180.51282051 , 4898.97435897 , 4126.66666667 , 4127.69230769 , 2044.0 , 2032.0 , 57.827 , 0.0 , 0.0 , 0.0 , 0.0 , 

121.0 , 4118.97435897 , 4116.92307692 , 4121.53846154 , 4122.56410256 , 4116.92307692 , 4113.84615385 , 4111.79487179 , 4114.35897436 , 4116.41025641 , 4129.74358974 , 4178.46153846 , 4900.51282051 , 4122.56410256 , 4127.69230769 , 2044.0 , 2032.0 , 57.835 , 0.0 , 0.0 , 0.0 , 0.0 , 

122.0 , 4117.94871795 , 4120.51282051 , 4118.46153846 , 4123.58974359 , 4116.92307692 , 4115.8974359 , 4115.8974359 , 4120.51282051 , 4120.51282051 , 4129.23076923 , 4182.05128205 , 4897.94871795 , 4126.15384615 , 4129.23076923 , 2043.0 , 2031.0 , 57.842 , 0.0 , 0.0 , 0.0 , 0.0 , 

123.0 , 4116.92307692 , 4117.94871795 , 4123.58974359 , 4119.48717949 , 4119.48717949 , 4118.97435897 , 4112.82051282 , 4113.33333333 , 4117.94871795 , 4124.1025641 , 4182.05128205 , 4896.41025641 , 4124.1025641 , 4128.20512821 , 2042.0 , 2032.0 , 57.85 , 0.0 , 0.0 , 0.0 , 0.0 , 

124.0 , 4118.46153846 , 4116.41025641 , 4120.51282051 , 4124.61538462 , 4120.51282051 , 4118.46153846 , 4114.35897436 , 4118.46153846 , 4121.53846154 , 4127.69230769 , 4180.51282051 , 4899.48717949 , 4126.66666667 , 4126.66666667 , 2042.0 , 2031.0 , 57.858 , 0.0 , 0.0 , 0.0 , 0.0 , 

125.0 , 4117.94871795 , 4113.33333333 , 4119.48717949 , 4123.07692308 , 4118.97435897 , 4112.30769231 , 4111.28205128 , 4117.43589744 , 4121.53846154 , 4127.69230769 , 4176.41025641 , 4902.05128205 , 4121.53846154 , 4127.69230769 , 2043.0 , 2031.0 , 57.866 , 0.0 , 0.0 , 0.0 , 0.0 , 

126.0 , 4117.43589744 , 4116.41025641 , 4119.48717949 , 4119.48717949 , 4118.46153846 , 4115.8974359 , 4113.84615385 , 4118.97435897 , 4120.51282051 , 4123.58974359 , 4177.94871795 , 4896.41025641 , 4121.53846154 , 4129.23076923 , 2043.0 , 2030.0 , 57.875 , 0.0 , 0.0 , 0.0 , 0.0 , 

127.0 , 4119.48717949 , 4114.35897436 , 4124.1025641 , 4118.46153846 , 4119.48717949 , 4115.38461538 , 4114.35897436 , 4122.56410256 , 4121.53846154 , 4125.64102564 , 4179.48717949 , 4898.97435897 , 4122.56410256 , 4128.20512821 , 2043.0 , 2032.0 , 57.883 , 0.0 , 0.0 , 0.0 , 0.0 , 

128.0 , 4122.05128205 , 4114.87179487 , 4125.64102564 , 4120.51282051 , 4121.53846154 , 4112.82051282 , 4113.84615385 , 4121.53846154 , 4120.51282051 , 4129.74358974 , 4180.51282051 , 4901.02564103 , 4118.97435897 , 4128.20512821 , 2043.0 , 2032.0 , 57.891 , 0.0 , 0.0 , 0.0 , 0.0 , 

0.0 , 4117.94871795 , 4114.87179487 , 4122.05128205 , 4118.97435897 , 4120.51282051 , 4116.92307692 , 4116.41025641 , 4121.53846154 , 4122.56410256 , 4130.25641026 , 4180.0 , 4897.94871795 , 4118.46153846 , 4128.20512821 , 2044.0 , 2034.0 , 57.898 , 0.0 , 0.0 , 0.0 , 0.0 , 

1.0 , 4119.48717949 , 4115.38461538 , 4123.07692308 , 4115.8974359 , 4118.46153846 , 4118.97435897 , 4118.97435897 , 4120.0 , 4122.05128205 , 4128.20512821 , 4178.97435897 , 4898.46153846 , 4118.46153846 , 4127.69230769 , 2044.0 , 2034.0 , 57.907 , 0.0 , 0.0 , 0.0 , 0.0 , 

2.0 , 4122.56410256 , 4117.43589744 , 4121.53846154 , 4118.46153846 , 4117.94871795 , 4118.46153846 , 4118.46153846 , 4126.15384615 , 4124.61538462 , 4126.15384615 , 4181.53846154 , 4900.0 , 4124.61538462 , 4128.20512821 , 2046.0 , 2035.0 , 57.916 , 0.0 , 0.0 , 0.0 , 0.0 , 

3.0 , 4125.64102564 , 4116.41025641 , 4123.07692308 , 4119.48717949 , 4121.02564103 , 4117.94871795 , 4112.82051282 , 4114.35897436 , 4114.87179487 , 4126.66666667 , 4179.48717949 , 4900.0 , 4119.48717949 , 4129.23076923 , 2046.0 , 2035.0 , 57.922 , 0.0 , 0.0 , 0.0 , 0.0 , 

4.0 , 4120.0 , 4117.94871795 , 4118.97435897 , 4126.15384615 , 4119.48717949 , 4120.0 , 4115.38461538 , 4116.92307692 , 4119.48717949 , 4129.23076923 , 4176.92307692 , 4898.97435897 , 4124.61538462 , 4128.71794872 , 2045.0 , 2035.0 , 57.93 , 0.0 , 0.0 , 0.0 , 0.0 , 

5.0 , 4121.02564103 , 4117.43589744 , 4121.53846154 , 4123.58974359 , 4116.92307692 , 4112.30769231 , 4109.74358974 , 4109.74358974 , 4117.43589744 , 4127.17948718 , 4172.30769231 , 4902.05128205 , 4122.56410256 , 4126.66666667 , 2044.0 , 2034.0 , 57.938 , 0.0 , 0.0 , 0.0 , 0.0 , 

6.0 , 4121.02564103 , 4120.51282051 , 4119.48717949 , 4124.1025641 , 4116.92307692 , 4114.35897436 , 4114.35897436 , 4115.8974359 , 4118.97435897 , 4127.69230769 , 4177.94871795 , 4902.05128205 , 4128.71794872 , 4126.15384615 , 2045.0 , 2034.0 , 57.946 , 0.0 , 0.0 , 0.0 , 0.0 , 

7.0 , 4122.56410256 , 4117.43589744 , 4122.56410256 , 4122.05128205 , 4117.94871795 , 4114.87179487 , 4113.33333333 , 4110.76923077 , 4113.84615385 , 4127.17948718 , 4177.43589744 , 4905.12820513 , 4120.51282051 , 4129.23076923 , 2046.0 , 2034.0 , 57.954 , 0.0 , 0.0 , 0.0 , 0.0 , 

8.0 , 4120.51282051 , 4120.51282051 , 4119.48717949 , 4125.12820513 , 4118.97435897 , 4116.92307692 , 4113.84615385 , 4124.1025641 , 4123.58974359 , 4125.12820513 , 4181.02564103 , 4902.05128205 , 4125.12820513 , 4130.25641026 , 2045.0 , 2036.0 , 57.962 , 0.0 , 0.0 , 0.0 , 0.0 , 

9.0 , 4118.97435897 , 4117.43589744 , 4124.1025641 , 4120.51282051 , 4117.43589744 , 4109.74358974 , 4107.17948718 , 4118.97435897 , 4119.48717949 , 4123.07692308 , 4178.97435897 , 4900.0 , 4121.02564103 , 4127.69230769 , 2045.0 , 2036.0 , 57.97 , 0.0 , 0.0 , 0.0 , 0.0 , 

10.0 , 4116.92307692 , 4116.92307692 , 4118.46153846 , 4124.61538462 , 4116.41025641 , 4113.33333333 , 4115.8974359 , 4125.64102564 , 4122.56410256 , 4127.69230769 , 4181.02564103 , 4898.46153846 , 4124.61538462 , 4126.66666667 , 2045.0 , 2037.0 , 57.977 , 0.0 , 0.0 , 0.0 , 0.0 , 

11.0 , 4118.46153846 , 4111.79487179 , 4119.48717949 , 4121.53846154 , 4117.94871795 , 4115.8974359 , 4114.35897436 , 4125.12820513 , 4122.56410256 , 4128.71794872 , 4176.92307692 , 4900.0 , 4117.94871795 , 4128.20512821 , 2046.0 , 2037.0 , 57.984 , 0.0 , 0.0 , 0.0 , 0.0 , 

12.0 , 4121.53846154 , 4114.35897436 , 4120.0 , 4121.02564103 , 4120.51282051 , 4117.94871795 , 4115.8974359 , 4128.71794872 , 4126.66666667 , 4128.20512821 , 4177.43589744 , 4899.48717949 , 4122.56410256 , 4128.20512821 , 2045.0 , 2039.0 , 57.994 , 0.0 , 0.0 , 0.0 , 0.0 , 

13.0 , 4120.51282051 , 4114.87179487 , 4121.53846154 , 4120.0 , 4120.0 , 4115.8974359 , 4113.84615385 , 4115.8974359 , 4119.48717949 , 4125.12820513 , 4176.41025641 , 4903.07692308 , 4121.02564103 , 4126.15384615 , 2046.0 , 2039.0 , 58.001 , 0.0 , 0.0 , 0.0 , 0.0 , 

14.0 , 4119.48717949 , 4118.97435897 , 4120.0 , 4121.02564103 , 4120.0 , 4118.46153846 , 4118.97435897 , 4117.94871795 , 4119.48717949 , 4126.66666667 , 4176.92307692 , 4901.53846154 , 4120.51282051 , 4126.15384615 , 2044.0 , 2039.0 , 58.008 , 0.0 , 0.0 , 0.0 , 0.0 , 

15.0 , 4120.0 , 4115.8974359 , 4123.58974359 , 4116.92307692 , 4119.48717949 , 4115.8974359 , 4115.38461538 , 4121.02564103 , 4121.02564103 , 4129.23076923 , 4175.8974359 , 4899.48717949 , 4116.92307692 , 4127.17948718 , 2044.0 , 2040.0 , 58.017 , 0.0 , 0.0 , 0.0 , 0.0 , 

16.0 , 4121.02564103 , 4115.8974359 , 4123.58974359 , 4119.48717949 , 4118.97435897 , 4117.43589744 , 4112.82051282 , 4119.48717949 , 4121.02564103 , 4127.69230769 , 4176.92307692 , 4900.0 , 4118.46153846 , 4128.20512821 , 2046.0 , 2038.0 , 58.025 , 0.0 , 0.0 , 0.0 , 0.0 , 

17.0 , 4121.02564103 , 4116.92307692 , 4123.58974359 , 4122.05128205 , 4118.97435897 , 4119.48717949 , 4112.82051282 , 4117.43589744 , 4122.56410256 , 4126.66666667 , 4176.41025641 , 4903.58974359 , 4121.53846154 , 4127.17948718 , 2044.0 , 2037.0 , 58.033 , 0.0 , 0.0 , 0.0 , 0.0 , 

18.0 , 4121.53846154 , 4119.48717949 , 4123.58974359 , 4124.61538462 , 4120.0 , 4119.48717949 , 4113.33333333 , 4113.84615385 , 4117.94871795 , 4130.76923077 , 4174.87179487 , 4902.56410256 , 4121.53846154 , 4127.17948718 , 2044.0 , 2037.0 , 58.041 , 0.0 , 0.0 , 0.0 , 0.0 , 

19.0 , 4118.97435897 , 4118.46153846 , 4116.92307692 , 4128.20512821 , 4118.46153846 , 4118.46153846 , 4112.30769231 , 4116.41025641 , 4118.97435897 , 4129.74358974 , 4178.97435897 , 4902.56410256 , 4122.56410256 , 4126.15384615 , 2043.0 , 2034.0 , 58.048 , 0.0 , 0.0 , 0.0 , 0.0 , 

20.0 , 4121.53846154 , 4116.92307692 , 4117.43589744 , 4126.15384615 , 4117.94871795 , 4116.41025641 , 4108.20512821 , 4113.84615385 , 4118.46153846 , 4124.61538462 , 4182.56410256 , 4905.12820513 , 4118.97435897 , 4126.66666667 , 2044.0 , 2034.0 , 58.056 , 0.0 , 0.0 , 0.0 , 0.0 , 

21.0 , 4122.05128205 , 4120.0 , 4117.94871795 , 4124.61538462 , 4117.94871795 , 4118.97435897 , 4111.28205128 , 4119.48717949 , 4123.58974359 , 4125.64102564 , 4181.53846154 , 4900.51282051 , 4126.66666667 , 4128.71794872 , 2045.0 , 2034.0 , 58.063 , 0.0 , 0.0 , 0.0 , 0.0 , 

22.0 , 4122.56410256 , 4117.43589744 , 4120.0 , 4122.56410256 , 4117.94871795 , 4116.41025641 , 4111.28205128 , 4112.82051282 , 4115.8974359 , 4127.17948718 , 4175.8974359 , 4897.94871795 , 4126.15384615 , 4129.23076923 , 2044.0 , 2035.0 , 58.071 , 0.0 , 0.0 , 0.0 , 0.0 , 

23.0 , 4119.48717949 , 4115.8974359 , 4116.92307692 , 4124.61538462 , 4116.92307692 , 4115.8974359 , 4113.33333333 , 4120.51282051 , 4121.53846154 , 4129.23076923 , 4177.94871795 , 4902.56410256 , 4125.64102564 , 4126.66666667 , 2044.0 , 2033.0 , 58.079 , 0.0 , 0.0 , 0.0 , 0.0 , 

24.0 , 4122.56410256 , 4112.30769231 , 4122.05128205 , 4116.92307692 , 4121.53846154 , 4112.30769231 , 4106.66666667 , 4118.46153846 , 4118.97435897 , 4130.76923077 , 4177.94871795 , 4904.61538462 , 4114.35897436 , 4126.15384615 , 2047.0 , 2033.0 , 58.087 , 0.0 , 0.0 , 0.0 , 0.0 , 

25.0 , 4118.46153846 , 4114.87179487 , 4117.94871795 , 4120.51282051 , 4123.07692308 , 4115.38461538 , 4111.28205128 , 4128.71794872 , 4122.56410256 , 4129.74358974 , 4181.53846154 , 4897.43589744 , 4123.07692308 , 4127.69230769 , 2048.0 , 2032.0 , 58.095 , 0.0 , 0.0 , 0.0 , 0.0 , 

26.0 , 4116.92307692 , 4111.28205128 , 4119.48717949 , 4122.56410256 , 4117.43589744 , 4112.30769231 , 4110.76923077 , 4121.53846154 , 4119.48717949 , 4127.17948718 , 4177.94871795 , 4899.48717949 , 4118.46153846 , 4128.20512821 , 2046.0 , 2029.0 , 58.103 , 0.0 , 0.0 , 0.0 , 0.0 , 

27.0 , 4120.0 , 4114.35897436 , 4116.41025641 , 4125.12820513 , 4116.92307692 , 4115.38461538 , 4115.38461538 , 4126.15384615 , 4127.17948718 , 4129.74358974 , 4181.02564103 , 4898.97435897 , 4120.51282051 , 4128.20512821 , 2046.0 , 2030.0 , 58.111 , 0.0 , 0.0 , 0.0 , 0.0 , 

28.0 , 4121.02564103 , 4113.84615385 , 4121.02564103 , 4118.46153846 , 4120.51282051 , 4113.33333333 , 4111.28205128 , 4118.46153846 , 4120.51282051 , 4127.17948718 , 4178.46153846 , 4897.94871795 , 4118.46153846 , 4128.71794872 , 2044.0 , 2033.0 , 58.118 , 0.0 , 0.0 , 0.0 , 0.0 , 

29.0 , 4117.94871795 , 4117.94871795 , 4118.97435897 , 4122.05128205 , 4120.51282051 , 4115.8974359 , 4114.35897436 , 4124.1025641 , 4123.07692308 , 4126.15384615 , 4179.48717949 , 4895.38461538 , 4126.15384615 , 4127.17948718 , 2044.0 , 2034.0 , 58.126 , 0.0 , 0.0 , 0.0 , 0.0 , 

30.0 , 4120.0 , 4118.97435897 , 4118.97435897 , 4118.97435897 , 4117.94871795 , 4115.38461538 , 4110.25641026 , 4117.94871795 , 4122.05128205 , 4128.71794872 , 4178.97435897 , 4899.48717949 , 4118.97435897 , 4125.12820513 , 2042.0 , 2037.0 , 58.134 , 0.0 , 0.0 , 0.0 , 0.0 , 

31.0 , 4123.07692308 , 4122.56410256 , 4116.41025641 , 4123.58974359 , 4117.94871795 , 4119.48717949 , 4115.38461538 , 4120.0 , 4123.58974359 , 4128.71794872 , 4182.05128205 , 4901.53846154 , 4123.07692308 , 4127.69230769 , 2043.0 , 2038.0 , 58.142 , 0.0 , 0.0 , 0.0 , 0.0 , 

32.0 , 4122.56410256 , 4117.43589744 , 4121.02564103 , 4125.64102564 , 4116.92307692 , 4115.8974359 , 4112.82051282 , 4114.87179487 , 4117.43589744 , 4125.12820513 , 4176.41025641 , 4904.1025641 , 4125.12820513 , 4130.25641026 , 2044.0 , 2039.0 , 58.15 , 0.0 , 0.0 , 0.0 , 0.0 , 

33.0 , 4124.1025641 , 4116.41025641 , 4119.48717949 , 4127.69230769 , 4118.46153846 , 4116.92307692 , 4112.30769231 , 4114.87179487 , 4116.92307692 , 4125.12820513 , 4174.87179487 , 4901.53846154 , 4125.64102564 , 4129.23076923 , 2044.0 , 2035.0 , 58.158 , 0.0 , 0.0 , 0.0 , 0.0 , 

34.0 , 4122.05128205 , 4114.87179487 , 4117.94871795 , 4122.56410256 , 4119.48717949 , 4115.8974359 , 4110.25641026 , 4114.35897436 , 4116.92307692 , 4125.12820513 , 4177.94871795 , 4900.51282051 , 4122.56410256 , 4127.69230769 , 2044.0 , 2035.0 , 58.166 , 0.0 , 0.0 , 0.0 , 0.0 , 

35.0 , 4120.0 , 4116.41025641 , 4121.02564103 , 4121.02564103 , 4117.94871795 , 4112.82051282 , 4109.74358974 , 4117.43589744 , 4114.87179487 , 4125.64102564 , 4177.94871795 , 4901.53846154 , 4121.53846154 , 4128.71794872 , 2044.0 , 2034.0 , 58.174 , 0.0 , 0.0 , 0.0 , 0.0 , 

36.0 , 4118.97435897 , 4116.41025641 , 4123.07692308 , 4123.58974359 , 4117.94871795 , 4112.30769231 , 4108.71794872 , 4122.56410256 , 4117.43589744 , 4127.69230769 , 4175.8974359 , 4903.58974359 , 4122.05128205 , 4128.71794872 , 2045.0 , 2034.0 , 58.181 , 0.0 , 0.0 , 0.0 , 0.0 , 

37.0 , 4121.53846154 , 4116.41025641 , 4118.97435897 , 4123.58974359 , 4119.48717949 , 4113.33333333 , 4108.20512821 , 4121.02564103 , 4117.43589744 , 4129.23076923 , 4177.43589744 , 4903.07692308 , 4122.05128205 , 4128.20512821 , 2043.0 , 2032.0 , 58.19 , 0.0 , 0.0 , 0.0 , 0.0 , 

38.0 , 4118.46153846 , 4117.94871795 , 4115.8974359 , 4124.61538462 , 4117.94871795 , 4113.84615385 , 4113.33333333 , 4126.66666667 , 4123.07692308 , 4130.76923077 , 4180.51282051 , 4898.46153846 , 4128.20512821 , 4126.66666667 , 2042.0 , 2032.0 , 58.198 , 0.0 , 0.0 , 0.0 , 0.0 , 

39.0 , 4117.94871795 , 4118.46153846 , 4123.58974359 , 4122.56410256 , 4118.97435897 , 4112.82051282 , 4113.33333333 , 4121.53846154 , 4120.51282051 , 4130.25641026 , 4176.92307692 , 4898.97435897 , 4124.61538462 , 4127.69230769 , 2042.0 , 2032.0 , 58.206 , 0.0 , 0.0 , 0.0 , 0.0 , 

40.0 , 4118.46153846 , 4117.43589744 , 4122.56410256 , 4123.58974359 , 4121.53846154 , 4118.46153846 , 4115.38461538 , 4125.64102564 , 4125.64102564 , 4129.74358974 , 4177.43589744 , 4901.02564103 , 4125.64102564 , 4129.23076923 , 2041.0 , 2036.0 , 58.213 , 0.0 , 0.0 , 0.0 , 0.0 , 

41.0 , 4124.1025641 , 4113.84615385 , 4121.53846154 , 4121.53846154 , 4123.07692308 , 4114.87179487 , 4114.87179487 , 4118.97435897 , 4121.53846154 , 4130.76923077 , 4177.43589744 , 4901.53846154 , 4117.43589744 , 4128.71794872 , 2042.0 , 2034.0 , 58.222 , 0.0 , 0.0 , 0.0 , 0.0 , 

42.0 , 4121.53846154 , 4118.46153846 , 4121.02564103 , 4124.61538462 , 4121.02564103 , 4115.38461538 , 4120.0 , 4123.07692308 , 4126.15384615 , 4131.79487179 , 4178.97435897 , 4899.48717949 , 4121.53846154 , 4127.17948718 , 2041.0 , 2035.0 , 58.23 , 0.0 , 0.0 , 0.0 , 0.0 , 

43.0 , 4118.46153846 , 4116.41025641 , 4125.64102564 , 4118.97435897 , 4120.0 , 4115.8974359 , 4111.28205128 , 4112.82051282 , 4116.92307692 , 4128.20512821 , 4178.46153846 , 4903.07692308 , 4118.46153846 , 4127.69230769 , 2041.0 , 2034.0 , 58.237 , 0.0 , 0.0 , 0.0 , 0.0 , 

44.0 , 4121.02564103 , 4117.94871795 , 4119.48717949 , 4121.53846154 , 4120.51282051 , 4118.97435897 , 4112.82051282 , 4122.56410256 , 4118.97435897 , 4129.23076923 , 4181.02564103 , 4901.02564103 , 4124.1025641 , 4127.69230769 , 2042.0 , 2035.0 , 58.244 , 0.0 , 0.0 , 0.0 , 0.0 , 

45.0 , 4123.07692308 , 4115.8974359 , 4124.61538462 , 4120.51282051 , 4120.51282051 , 4114.87179487 , 4111.28205128 , 4114.87179487 , 4113.33333333 , 4127.17948718 , 4172.82051282 , 4900.51282051 , 4117.94871795 , 4126.15384615 , 2043.0 , 2035.0 , 58.252 , 0.0 , 0.0 , 0.0 , 0.0 , 

46.0 , 4115.8974359 , 4120.0 , 4121.53846154 , 4124.61538462 , 4119.48717949 , 4118.97435897 , 4116.41025641 , 4118.97435897 , 4117.94871795 , 4128.20512821 , 4172.82051282 , 4900.51282051 , 4125.12820513 , 4127.17948718 , 2045.0 , 2035.0 , 58.262 , 0.0 , 0.0 , 0.0 , 0.0 , 

47.0 , 4118.46153846 , 4117.94871795 , 4117.43589744 , 4122.05128205 , 4117.94871795 , 4116.92307692 , 4113.33333333 , 4115.8974359 , 4116.92307692 , 4129.74358974 , 4176.92307692 , 4903.58974359 , 4121.02564103 , 4130.25641026 , 2044.0 , 2035.0 , 58.269 , 0.0 , 0.0 , 0.0 , 0.0 , 

48.0 , 4123.58974359 , 4120.51282051 , 4114.87179487 , 4124.61538462 , 4119.48717949 , 4118.97435897 , 4116.41025641 , 4123.07692308 , 4122.05128205 , 4128.71794872 , 4182.05128205 , 4899.48717949 , 4125.12820513 , 4129.74358974 , 2043.0 , 2035.0 , 58.276 , 0.0 , 0.0 , 0.0 , 0.0 , 

49.0 , 4116.92307692 , 4115.8974359 , 4122.05128205 , 4120.51282051 , 4120.51282051 , 4115.8974359 , 4110.25641026 , 4116.41025641 , 4118.97435897 , 4124.1025641 , 4177.43589744 , 4898.46153846 , 4123.07692308 , 4126.15384615 , 2044.0 , 2033.0 , 58.285 , 0.0 , 0.0 , 0.0 , 0.0 , 

50.0 , 4113.33333333 , 4117.43589744 , 4120.0 , 4124.1025641 , 4122.56410256 , 4114.87179487 , 4112.30769231 , 4119.48717949 , 4120.51282051 , 4128.20512821 , 4176.92307692 , 4897.43589744 , 4125.12820513 , 4128.71794872 , 2044.0 , 2034.0 , 58.293 , 0.0 , 0.0 , 0.0 , 0.0 , 

51.0 , 4118.97435897 , 4117.43589744 , 4117.94871795 , 4122.56410256 , 4122.05128205 , 4112.30769231 , 4113.33333333 , 4118.97435897 , 4120.51282051 , 4128.71794872 , 4175.8974359 , 4898.46153846 , 4119.48717949 , 4130.25641026 , 2043.0 , 2034.0 , 58.3 , 0.0 , 0.0 , 0.0 , 0.0 , 

52.0 , 4121.02564103 , 4115.38461538 , 4118.97435897 , 4122.05128205 , 4119.48717949 , 4113.33333333 , 4115.38461538 , 4121.02564103 , 4121.02564103 , 4123.58974359 , 4177.94871795 , 4898.46153846 , 4121.53846154 , 4127.69230769 , 2045.0 , 2035.0 , 58.307 , 0.0 , 0.0 , 0.0 , 0.0 , 

53.0 , 4116.41025641 , 4110.25641026 , 4122.05128205 , 4121.02564103 , 4118.46153846 , 4110.25641026 , 4112.30769231 , 4121.02564103 , 4121.02564103 , 4125.64102564 , 4178.97435897 , 4901.02564103 , 4123.07692308 , 4127.17948718 , 2046.0 , 2034.0 , 58.315 , 0.0 , 0.0 , 0.0 , 0.0 , 

54.0 , 4117.94871795 , 4113.33333333 , 4122.05128205 , 4121.53846154 , 4122.56410256 , 4110.25641026 , 4112.82051282 , 4119.48717949 , 4118.97435897 , 4130.25641026 , 4179.48717949 , 4900.51282051 , 4119.48717949 , 4130.25641026 , 2044.0 , 2035.0 , 58.324 , 0.0 , 0.0 , 0.0 , 0.0 , 

55.0 , 4119.48717949 , 4116.41025641 , 4118.46153846 , 4121.02564103 , 4121.02564103 , 4114.35897436 , 4117.43589744 , 4123.58974359 , 4121.02564103 , 4127.69230769 , 4182.56410256 , 4900.51282051 , 4122.05128205 , 4130.25641026 , 2044.0 , 2034.0 , 58.331 , 0.0 , 0.0 , 0.0 , 0.0 , 

56.0 , 4122.05128205 , 4115.38461538 , 4121.53846154 , 4117.43589744 , 4116.41025641 , 4116.92307692 , 4115.38461538 , 4122.56410256 , 4119.48717949 , 4126.15384615 , 4181.53846154 , 4902.56410256 , 4121.53846154 , 4127.69230769 , 2046.0 , 2034.0 , 58.34 , 0.0 , 0.0 , 0.0 , 0.0 , 

57.0 , 4120.51282051 , 4118.46153846 , 4122.56410256 , 4118.46153846 , 4117.94871795 , 4119.48717949 , 4113.84615385 , 4126.15384615 , 4125.64102564 , 4129.23076923 , 4178.46153846 , 4901.02564103 , 4123.07692308 , 4126.15384615 , 2047.0 , 2033.0 , 58.347 , 0.0 , 0.0 , 0.0 , 0.0 , 

58.0 , 4121.02564103 , 4120.0 , 4124.1025641 , 4120.51282051 , 4121.53846154 , 4116.92307692 , 4115.38461538 , 4117.43589744 , 4119.48717949 , 4128.71794872 , 4176.92307692 , 4900.51282051 , 4116.92307692 , 4127.17948718 , 2045.0 , 2033.0 , 58.356 , 0.0 , 0.0 , 0.0 , 0.0 , 

59.0 , 4121.02564103 , 4122.05128205 , 4118.97435897 , 4127.17948718 , 4118.46153846 , 4118.46153846 , 4118.97435897 , 4120.51282051 , 4121.53846154 , 4127.69230769 , 4181.53846154 , 4900.0 , 4123.58974359 , 4129.74358974 , 2045.0 , 2033.0 , 58.364 , 0.0 , 0.0 , 0.0 , 0.0 , 

60.0 , 4121.02564103 , 4118.97435897 , 4120.51282051 , 4123.58974359 , 4115.38461538 , 4114.87179487 , 4109.23076923 , 4110.25641026 , 4115.38461538 , 4127.69230769 , 4176.41025641 , 4902.05128205 , 4118.97435897 , 4129.23076923 , 2045.0 , 2034.0 , 58.372 , 0.0 , 0.0 , 0.0 , 0.0 , 

61.0 , 4117.94871795 , 4119.48717949 , 4118.46153846 , 4123.07692308 , 4118.46153846 , 4115.8974359 , 4113.84615385 , 4115.38461538 , 4118.97435897 , 4128.20512821 , 4176.41025641 , 4902.05128205 , 4124.61538462 , 4128.20512821 , 2044.0 , 2032.0 , 58.378 , 0.0 , 0.0 , 0.0 , 0.0 , 

62.0 , 4121.02564103 , 4115.38461538 , 4123.58974359 , 4118.46153846 , 4121.02564103 , 4111.28205128 , 4112.82051282 , 4111.79487179 , 4114.35897436 , 4124.61538462 , 4177.94871795 , 4902.56410256 , 4121.02564103 , 4130.76923077 , 2044.0 , 2031.0 , 58.386 , 0.0 , 0.0 , 0.0 , 0.0 , 

63.0 , 4121.02564103 , 4120.0 , 4118.97435897 , 4124.1025641 , 4118.97435897 , 4115.38461538 , 4113.33333333 , 4121.53846154 , 4122.05128205 , 4127.17948718 , 4181.02564103 , 4897.94871795 , 4126.66666667 , 4131.28205128 , 2044.0 , 2032.0 , 58.395 , 0.0 , 0.0 , 0.0 , 0.0 , 

64.0 , 4119.48717949 , 4117.94871795 , 4121.02564103 , 4123.58974359 , 4116.92307692 , 4115.38461538 , 4108.71794872 , 4113.33333333 , 4117.43589744 , 4129.23076923 , 4175.8974359 , 4898.46153846 , 4121.02564103 , 4126.66666667 , 2043.0 , 2033.0 , 58.403 , 0.0 , 0.0 , 0.0 , 0.0 , 

65.0 , 4121.53846154 , 4118.97435897 , 4118.97435897 , 4127.17948718 , 4118.46153846 , 4116.92307692 , 4115.8974359 , 4121.02564103 , 4121.02564103 , 4131.28205128 , 4180.0 , 4895.8974359 , 4127.69230769 , 4126.15384615 , 2043.0 , 2032.0 , 58.411 , 0.0 , 0.0 , 0.0 , 0.0 , 

66.0 , 4122.56410256 , 4117.43589744 , 4122.56410256 , 4122.56410256 , 4120.0 , 4112.82051282 , 4111.79487179 , 4119.48717949 , 4122.56410256 , 4129.74358974 , 4178.46153846 , 4897.94871795 , 4125.12820513 , 4128.20512821 , 2044.0 , 2033.0 , 58.419 , 0.0 , 0.0 , 0.0 , 0.0 , 

67.0 , 4118.97435897 , 4122.05128205 , 4118.46153846 , 4123.58974359 , 4120.51282051 , 4115.8974359 , 4113.33333333 , 4123.07692308 , 4126.15384615 , 4130.25641026 , 4177.94871795 , 4899.48717949 , 4128.71794872 , 4128.20512821 , 2043.0 , 2033.0 , 58.426 , 0.0 , 0.0 , 0.0 , 0.0 , 

68.0 , 4119.48717949 , 4118.46153846 , 4120.51282051 , 4119.48717949 , 4119.48717949 , 4113.84615385 , 4112.30769231 , 4117.94871795 , 4120.51282051 , 4130.25641026 , 4175.38461538 , 4901.53846154 , 4121.53846154 , 4128.71794872 , 2044.0 , 2032.0 , 58.434 , 0.0 , 0.0 , 0.0 , 0.0 , 

69.0 , 4122.56410256 , 4117.43589744 , 4121.53846154 , 4117.43589744 , 4118.97435897 , 4114.87179487 , 4117.94871795 , 4122.05128205 , 4123.07692308 , 4130.25641026 , 4178.46153846 , 4900.0 , 4116.92307692 , 4130.25641026 , 2044.0 , 2032.0 , 58.442 , 0.0 , 0.0 , 0.0 , 0.0 , 

70.0 , 4121.02564103 , 4115.8974359 , 4122.05128205 , 4114.87179487 , 4118.46153846 , 4118.46153846 , 4115.38461538 , 4116.41025641 , 4121.02564103 , 4125.12820513 , 4177.94871795 , 4901.53846154 , 4115.8974359 , 4128.20512821 , 2044.0 , 2033.0 , 58.45 , 0.0 , 0.0 , 0.0 , 0.0 , 

71.0 , 4121.53846154 , 4118.46153846 , 4119.48717949 , 4118.97435897 , 4120.0 , 4121.02564103 , 4112.82051282 , 4113.84615385 , 4118.46153846 , 4126.66666667 , 4176.92307692 , 4900.51282051 , 4120.51282051 , 4127.17948718 , 2044.0 , 2034.0 , 58.458 , 0.0 , 0.0 , 0.0 , 0.0 , 

72.0 , 4122.56410256 , 4119.48717949 , 4122.56410256 , 4116.92307692 , 4117.94871795 , 4116.41025641 , 4113.33333333 , 4120.0 , 4121.53846154 , 4130.76923077 , 4174.35897436 , 4902.05128205 , 4119.48717949 , 4127.69230769 , 2043.0 , 2033.0 , 58.466 , 0.0 , 0.0 , 0.0 , 0.0 , 

73.0 , 4122.05128205 , 4120.0 , 4125.12820513 , 4115.38461538 , 4117.43589744 , 4116.92307692 , 4113.84615385 , 4118.46153846 , 4118.97435897 , 4126.66666667 , 4176.92307692 , 4903.07692308 , 4116.41025641 , 4127.17948718 , 2043.0 , 2035.0 , 58.474 , 0.0 , 0.0 , 0.0 , 0.0 , 

74.0 , 4118.97435897 , 4119.48717949 , 4121.02564103 , 4124.61538462 , 4121.53846154 , 4118.97435897 , 4112.82051282 , 4119.48717949 , 4117.43589744 , 4122.56410256 , 4180.51282051 , 4899.48717949 , 4123.07692308 , 4126.66666667 , 2044.0 , 2035.0 , 58.482 , 0.0 , 0.0 , 0.0 , 0.0 , 

75.0 , 4122.56410256 , 4119.48717949 , 4122.56410256 , 4125.12820513 , 4121.02564103 , 4114.35897436 , 4111.79487179 , 4113.84615385 , 4114.35897436 , 4127.17948718 , 4175.8974359 , 4901.53846154 , 4120.51282051 , 4128.20512821 , 2043.0 , 2035.0 , 58.491 , 0.0 , 0.0 , 0.0 , 0.0 , 

76.0 , 4122.56410256 , 4122.05128205 , 4118.97435897 , 4121.02564103 , 4116.41025641 , 4114.87179487 , 4112.30769231 , 4117.94871795 , 4118.97435897 , 4130.76923077 , 4178.46153846 , 4903.07692308 , 4124.61538462 , 4127.69230769 , 2043.0 , 2035.0 , 58.497 , 0.0 , 0.0 , 0.0 , 0.0 , 

77.0 , 4123.58974359 , 4121.53846154 , 4116.92307692 , 4121.02564103 , 4122.56410256 , 4113.84615385 , 4106.66666667 , 4111.79487179 , 4112.82051282 , 4127.17948718 , 4181.02564103 , 4900.51282051 , 4122.56410256 , 4127.69230769 , 2043.0 , 2035.0 , 58.505 , 0.0 , 0.0 , 0.0 , 0.0 , 

78.0 , 4122.05128205 , 4120.0 , 4117.94871795 , 4125.64102564 , 4125.64102564 , 4115.8974359 , 4114.35897436 , 4118.46153846 , 4118.97435897 , 4126.66666667 , 4180.0 , 4895.8974359 , 4125.64102564 , 4128.20512821 , 2044.0 , 2034.0 , 58.513 , 0.0 , 0.0 , 0.0 , 0.0 , 

79.0 , 4124.1025641 , 4115.38461538 , 4126.66666667 , 4117.94871795 , 4118.97435897 , 4113.33333333 , 4113.33333333 , 4113.84615385 , 4116.92307692 , 4127.69230769 , 4175.8974359 , 4898.97435897 , 4116.92307692 , 4129.23076923 , 2043.0 , 2036.0 , 58.521 , 0.0 , 0.0 , 0.0 , 0.0 , 

80.0 , 4121.53846154 , 4120.0 , 4120.0 , 4120.0 , 4116.92307692 , 4113.84615385 , 4113.84615385 , 4124.61538462 , 4124.1025641 , 4129.23076923 , 4179.48717949 , 4900.0 , 4122.56410256 , 4127.17948718 , 2044.0 , 2036.0 , 58.529 , 0.0 , 0.0 , 0.0 , 0.0 , 

81.0 , 4119.48717949 , 4118.46153846 , 4121.02564103 , 4117.94871795 , 4119.48717949 , 4109.74358974 , 4113.33333333 , 4118.46153846 , 4121.53846154 , 4128.20512821 , 4174.35897436 , 4901.02564103 , 4115.38461538 , 4125.12820513 , 2045.0 , 2037.0 , 58.536 , 0.0 , 0.0 , 0.0 , 0.0 , 

82.0 , 4119.48717949 , 4119.48717949 , 4120.51282051 , 4117.43589744 , 4117.43589744 , 4114.87179487 , 4120.51282051 , 4124.1025641 , 4125.64102564 , 4129.23076923 , 4176.41025641 , 4898.97435897 , 4118.97435897 , 4127.69230769 , 2046.0 , 2038.0 , 58.545 , 0.0 , 0.0 , 0.0 , 0.0 , 

83.0 , 4120.0 , 4115.38461538 , 4123.07692308 , 4114.87179487 , 4118.46153846 , 4114.35897436 , 4113.84615385 , 4120.0 , 4118.97435897 , 4127.69230769 , 4175.8974359 , 4900.51282051 , 4115.38461538 , 4129.23076923 , 2045.0 , 2038.0 , 58.553 , 0.0 , 0.0 , 0.0 , 0.0 , 

84.0 , 4117.94871795 , 4118.97435897 , 4120.51282051 , 4120.51282051 , 4121.02564103 , 4116.92307692 , 4117.94871795 , 4128.20512821 , 4124.61538462 , 4129.23076923 , 4176.41025641 , 4897.43589744 , 4120.51282051 , 4126.15384615 , 2045.0 , 2037.0 , 58.56 , 0.0 , 0.0 , 0.0 , 0.0 , 

85.0 , 4120.51282051 , 4117.43589744 , 4124.1025641 , 4117.43589744 , 4120.0 , 4117.43589744 , 4115.8974359 , 4117.43589744 , 4122.05128205 , 4129.23076923 , 4177.43589744 , 4899.48717949 , 4118.97435897 , 4124.61538462 , 2044.0 , 2038.0 , 58.567 , 0.0 , 0.0 , 0.0 , 0.0 , 

86.0 , 4124.61538462 , 4119.48717949 , 4120.51282051 , 4122.05128205 , 4120.51282051 , 4118.46153846 , 4115.38461538 , 4116.92307692 , 4122.56410256 , 4128.71794872 , 4180.51282051 , 4900.51282051 , 4123.07692308 , 4128.71794872 , 2043.0 , 2036.0 , 58.576 , 0.0 , 0.0 , 0.0 , 0.0 , 

87.0 , 4123.58974359 , 4118.97435897 , 4119.48717949 , 4124.61538462 , 4120.0 , 4112.82051282 , 4111.79487179 , 4111.28205128 , 4118.46153846 , 4125.64102564 , 4173.33333333 , 4902.56410256 , 4117.94871795 , 4129.23076923 , 2043.0 , 2037.0 , 58.583 , 0.0 , 0.0 , 0.0 , 0.0 , 

88.0 , 4122.05128205 , 4122.05128205 , 4118.97435897 , 4125.12820513 , 4121.02564103 , 4115.8974359 , 4115.38461538 , 4111.28205128 , 4114.87179487 , 4127.69230769 , 4174.35897436 , 4903.07692308 , 4121.02564103 , 4127.17948718 , 2043.0 , 2039.0 , 58.592 , 0.0 , 0.0 , 0.0 , 0.0 , 

89.0 , 4119.48717949 , 4117.94871795 , 4121.53846154 , 4121.02564103 , 4120.0 , 4116.41025641 , 4112.82051282 , 4111.79487179 , 4114.35897436 , 4129.74358974 , 4176.92307692 , 4902.56410256 , 4123.58974359 , 4128.71794872 , 2043.0 , 2038.0 , 58.599 , 0.0 , 0.0 , 0.0 , 0.0 , 

90.0 , 4120.0 , 4116.41025641 , 4121.02564103 , 4122.05128205 , 4117.94871795 , 4114.35897436 , 4110.25641026 , 4113.33333333 , 4115.38461538 , 4128.71794872 , 4175.8974359 , 4898.97435897 , 4123.07692308 , 4130.25641026 , 2044.0 , 2038.0 , 58.608 , 0.0 , 0.0 , 0.0 , 0.0 , 

91.0 , 4120.51282051 , 4120.51282051 , 4120.51282051 , 4122.56410256 , 4117.94871795 , 4117.94871795 , 4108.71794872 , 4115.8974359 , 4115.8974359 , 4127.17948718 , 4176.92307692 , 4898.97435897 , 4124.61538462 , 4129.74358974 , 2044.0 , 2039.0 , 58.616 , 0.0 , 0.0 , 0.0 , 0.0 , 

92.0 , 4120.51282051 , 4121.53846154 , 4121.02564103 , 4121.53846154 , 4120.0 , 4121.02564103 , 4110.76923077 , 4115.38461538 , 4114.35897436 , 4127.69230769 , 4178.97435897 , 4902.05128205 , 4125.64102564 , 4129.23076923 , 2044.0 , 2038.0 , 58.624 , 0.0 , 0.0 , 0.0 , 0.0 , 

93.0 , 4116.92307692 , 4118.97435897 , 4117.43589744 , 4124.61538462 , 4117.94871795 , 4115.8974359 , 4116.92307692 , 4124.1025641 , 4122.05128205 , 4129.23076923 , 4178.46153846 , 4902.05128205 , 4127.17948718 , 4127.69230769 , 2044.0 , 2038.0 , 58.63 , 0.0 , 0.0 , 0.0 , 0.0 , 

94.0 , 4120.0 , 4117.43589744 , 4118.97435897 , 4123.58974359 , 4117.43589744 , 4111.79487179 , 4115.38461538 , 4120.0 , 4119.48717949 , 4127.17948718 , 4175.8974359 , 4900.51282051 , 4118.97435897 , 4127.17948718 , 2045.0 , 2039.0 , 58.64 , 0.0 , 0.0 , 0.0 , 0.0 , 

95.0 , 4122.05128205 , 4120.0 , 4119.48717949 , 4123.58974359 , 4117.94871795 , 4118.46153846 , 4115.38461538 , 4124.1025641 , 4125.12820513 , 4125.12820513 , 4182.05128205 , 4898.46153846 , 4123.58974359 , 4127.69230769 , 2044.0 , 2036.0 , 58.647 , 0.0 , 0.0 , 0.0 , 0.0 , 

96.0 , 4122.56410256 , 4117.43589744 , 4125.64102564 , 4117.94871795 , 4117.94871795 , 4117.43589744 , 4112.82051282 , 4117.43589744 , 4122.56410256 , 4127.17948718 , 4180.0 , 4898.97435897 , 4117.43589744 , 4126.66666667 , 2044.0 , 2037.0 , 58.655 , 0.0 , 0.0 , 0.0 , 0.0 , 

97.0 , 4118.46153846 , 4118.97435897 , 4122.56410256 , 4117.94871795 , 4115.38461538 , 4116.41025641 , 4118.97435897 , 4122.05128205 , 4124.61538462 , 4132.30769231 , 4176.41025641 , 4898.97435897 , 4118.46153846 , 4127.17948718 , 2045.0 , 2035.0 , 58.663 , 0.0 , 0.0 , 0.0 , 0.0 , 

98.0 , 4121.02564103 , 4116.41025641 , 4124.61538462 , 4114.87179487 , 4115.8974359 , 4111.79487179 , 4114.87179487 , 4114.87179487 , 4117.43589744 , 4130.25641026 , 4173.33333333 , 4902.56410256 , 4111.79487179 , 4128.20512821 , 2045.0 , 2034.0 , 58.672 , 0.0 , 0.0 , 0.0 , 0.0 , 

99.0 , 4121.02564103 , 4120.51282051 , 4122.05128205 , 4118.97435897 , 4122.56410256 , 4117.43589744 , 4116.41025641 , 4126.15384615 , 4126.66666667 , 4130.25641026 , 4178.97435897 , 4900.51282051 , 4117.43589744 , 4128.20512821 , 2045.0 , 2034.0 , 58.679 , 0.0 , 0.0 , 0.0 , 0.0 , 

100.0 , 4121.02564103 , 4118.97435897 , 4125.64102564 , 4116.92307692 , 4123.58974359 , 4119.48717949 , 4111.79487179 , 4115.8974359 , 4120.51282051 , 4130.25641026 , 4176.41025641 , 4901.02564103 , 4112.82051282 , 4127.17948718 , 2045.0 , 2036.0 , 58.687 , 0.0 , 0.0 , 0.0 , 0.0 , 

101.0 , 4118.97435897 , 4121.53846154 , 4119.48717949 , 4124.61538462 , 4118.97435897 , 4122.56410256 , 4114.87179487 , 4117.94871795 , 4118.46153846 , 4129.23076923 , 4178.97435897 , 4899.48717949 , 4122.56410256 , 4128.71794872 , 2045.0 , 2036.0 , 58.695 , 0.0 , 0.0 , 0.0 , 0.0 , 

102.0 , 4119.48717949 , 4117.43589744 , 4119.48717949 , 4124.1025641 , 4118.46153846 , 4114.87179487 , 4109.23076923 , 4114.35897436 , 4115.38461538 , 4125.64102564 , 4181.02564103 , 4901.53846154 , 4122.56410256 , 4131.28205128 , 2047.0 , 2034.0 , 58.704 , 0.0 , 0.0 , 0.0 , 0.0 , 

103.0 , 4122.05128205 , 4119.48717949 , 4117.43589744 , 4124.1025641 , 4118.97435897 , 4117.43589744 , 4113.33333333 , 4119.48717949 , 4120.51282051 , 4128.20512821 , 4183.58974359 , 4899.48717949 , 4126.66666667 , 4129.74358974 , 2045.0 , 2033.0 , 58.709 , 0.0 , 0.0 , 0.0 , 0.0 , 

104.0 , 4123.07692308 , 4117.43589744 , 4118.97435897 , 4121.02564103 , 4114.87179487 , 4117.94871795 , 4112.30769231 , 4111.79487179 , 4115.8974359 , 4129.74358974 , 4176.41025641 , 4901.53846154 , 4121.53846154 , 4123.58974359 , 2046.0 , 2030.0 , 58.717 , 0.0 , 0.0 , 0.0 , 0.0 , 

105.0 , 4120.0 , 4120.51282051 , 4118.46153846 , 4125.64102564 , 4115.8974359 , 4116.92307692 , 4112.30769231 , 4118.46153846 , 4118.46153846 , 4127.69230769 , 4177.43589744 , 4901.02564103 , 4125.12820513 , 4125.12820513 , 2046.0 , 2032.0 , 58.726 , 0.0 , 0.0 , 0.0 , 0.0 , 

106.0 , 4115.8974359 , 4118.97435897 , 4123.58974359 , 4122.05128205 , 4118.97435897 , 4110.25641026 , 4108.20512821 , 4117.43589744 , 4120.0 , 4125.64102564 , 4180.0 , 4901.02564103 , 4123.07692308 , 4130.25641026 , 2046.0 , 2031.0 , 58.733 , 0.0 , 0.0 , 0.0 , 0.0 , 

107.0 , 4120.0 , 4117.43589744 , 4123.58974359 , 4118.97435897 , 4117.94871795 , 4111.28205128 , 4110.25641026 , 4116.41025641 , 4121.53846154 , 4129.23076923 , 4178.97435897 , 4898.46153846 , 4122.56410256 , 4130.25641026 , 2044.0 , 2033.0 , 58.742 , 0.0 , 0.0 , 0.0 , 0.0 , 

108.0 , 4120.51282051 , 4114.35897436 , 4122.56410256 , 4120.0 , 4116.41025641 , 4111.28205128 , 4110.25641026 , 4120.51282051 , 4124.1025641 , 4131.79487179 , 4175.38461538 , 4898.46153846 , 4121.53846154 , 4128.71794872 , 2043.0 , 2036.0 , 58.749 , 0.0 , 0.0 , 0.0 , 0.0 , 

109.0 , 4120.0 , 4116.92307692 , 4122.05128205 , 4122.05128205 , 4118.97435897 , 4111.28205128 , 4112.30769231 , 4124.1025641 , 4122.56410256 , 4129.74358974 , 4175.8974359 , 4900.0 , 4121.02564103 , 4129.23076923 , 2042.0 , 2039.0 , 58.758 , 0.0 , 0.0 , 0.0 , 0.0 , 

110.0 , 4120.0 , 4119.48717949 , 4123.07692308 , 4121.02564103 , 4120.0 , 4115.38461538 , 4117.94871795 , 4126.15384615 , 4123.07692308 , 4129.23076923 , 4178.97435897 , 4901.02564103 , 4123.58974359 , 4128.20512821 , 2042.0 , 2038.0 , 58.766 , 0.0 , 0.0 , 0.0 , 0.0 , 

111.0 , 4122.05128205 , 4119.48717949 , 4126.66666667 , 4116.92307692 , 4121.02564103 , 4116.92307692 , 4119.48717949 , 4120.51282051 , 4121.02564103 , 4131.79487179 , 4178.46153846 , 4899.48717949 , 4115.8974359 , 4127.69230769 , 2043.0 , 2038.0 , 58.773 , 0.0 , 0.0 , 0.0 , 0.0 , 

112.0 , 4119.48717949 , 4121.02564103 , 4123.58974359 , 4119.48717949 , 4118.46153846 , 4116.92307692 , 4117.43589744 , 4124.61538462 , 4123.58974359 , 4132.82051282 , 4178.97435897 , 4898.97435897 , 4118.46153846 , 4127.17948718 , 2044.0 , 2038.0 , 58.78 , 0.0 , 0.0 , 0.0 , 0.0 , 

113.0 , 4120.0 , 4120.0 , 4121.53846154 , 4121.02564103 , 4116.41025641 , 4116.92307692 , 4111.28205128 , 4118.97435897 , 4118.97435897 , 4129.23076923 , 4176.92307692 , 4903.58974359 , 4122.56410256 , 4128.20512821 , 2043.0 , 2036.0 , 58.789 , 0.0 , 0.0 , 0.0 , 0.0 , 

114.0 , 4121.02564103 , 4119.48717949 , 4118.97435897 , 4122.56410256 , 4117.43589744 , 4120.0 , 4115.38461538 , 4122.05128205 , 4126.66666667 , 4129.23076923 , 4178.97435897 , 4901.53846154 , 4126.15384615 , 4127.69230769 , 2045.0 , 2036.0 , 58.798 , 0.0 , 0.0 , 0.0 , 0.0 , 

115.0 , 4121.53846154 , 4115.8974359 , 4124.1025641 , 4117.43589744 , 4118.97435897 , 4115.38461538 , 4112.30769231 , 4112.30769231 , 4120.0 , 4129.23076923 , 4176.41025641 , 4901.02564103 , 4113.33333333 , 4126.66666667 , 2044.0 , 2034.0 , 58.804 , 0.0 , 0.0 , 0.0 , 0.0 , 

116.0 , 4118.97435897 , 4116.92307692 , 4120.51282051 , 4123.07692308 , 4117.94871795 , 4116.92307692 , 4112.82051282 , 4121.02564103 , 4119.48717949 , 4127.17948718 , 4177.94871795 , 4902.05128205 , 4123.07692308 , 4129.74358974 , 2045.0 , 2034.0 , 58.812 , 0.0 , 0.0 , 0.0 , 0.0 , 

117.0 , 4121.02564103 , 4114.87179487 , 4123.07692308 , 4124.1025641 , 4120.51282051 , 4111.28205128 , 4107.17948718 , 4114.87179487 , 4115.38461538 , 4124.61538462 , 4176.41025641 , 4902.56410256 , 4123.07692308 , 4131.28205128 , 2045.0 , 2034.0 , 58.82 , 0.0 , 0.0 , 0.0 , 0.0 , 

118.0 , 4121.02564103 , 4119.48717949 , 4122.05128205 , 4124.1025641 , 4121.53846154 , 4113.84615385 , 4113.33333333 , 4121.53846154 , 4122.56410256 , 4129.23076923 , 4180.51282051 , 4897.94871795 , 4124.61538462 , 4130.25641026 , 2043.0 , 2034.0 , 58.828 , 0.0 , 0.0 , 0.0 , 0.0 , 

119.0 , 4122.56410256 , 4117.43589744 , 4124.61538462 , 4120.0 , 4119.48717949 , 4116.92307692 , 4109.23076923 , 4114.87179487 , 4114.87179487 , 4129.23076923 , 4178.46153846 , 4900.0 , 4120.51282051 , 4130.25641026 , 2042.0 , 2034.0 , 58.835 , 0.0 , 0.0 , 0.0 , 0.0 , 

120.0 , 4120.51282051 , 4120.51282051 , 4116.92307692 , 4125.64102564 , 4119.48717949 , 4119.48717949 , 4112.30769231 , 4124.61538462 , 4120.0 , 4128.71794872 , 4178.97435897 , 4897.43589744 , 4129.23076923 , 4129.23076923 , 2042.0 , 2033.0 , 58.843 , 0.0 , 0.0 , 0.0 , 0.0 , 

121.0 , 4118.97435897 , 4117.43589744 , 4119.48717949 , 4120.0 , 4121.02564103 , 4111.79487179 , 4111.79487179 , 4121.02564103 , 4122.56410256 , 4127.69230769 , 4174.35897436 , 4896.92307692 , 4119.48717949 , 4126.66666667 , 2042.0 , 2032.0 , 58.851 , 0.0 , 0.0 , 0.0 , 0.0 , 

122.0 , 4121.02564103 , 4117.43589744 , 4120.0 , 4120.51282051 , 4118.97435897 , 4115.38461538 , 4116.41025641 , 4125.12820513 , 4125.64102564 , 4130.76923077 , 4178.97435897 , 4897.94871795 , 4123.07692308 , 4129.23076923 , 2042.0 , 2032.0 , 58.859 , 0.0 , 0.0 , 0.0 , 0.0 , 

123.0 , 4121.53846154 , 4115.38461538 , 4123.07692308 , 4120.0 , 4119.48717949 , 4114.35897436 , 4110.25641026 , 4121.53846154 , 4121.53846154 , 4130.76923077 , 4180.0 , 4901.02564103 , 4122.05128205 , 4130.76923077 , 2040.0 , 2033.0 , 58.868 , 0.0 , 0.0 , 0.0 , 0.0 , 

124.0 , 4118.97435897 , 4119.48717949 , 4124.1025641 , 4118.46153846 , 4122.56410256 , 4113.84615385 , 4114.35897436 , 4123.07692308 , 4124.1025641 , 4129.23076923 , 4178.97435897 , 4899.48717949 , 4119.48717949 , 4126.66666667 , 2040.0 , 2034.0 , 58.876 , 0.0 , 0.0 , 0.0 , 0.0 , 

125.0 , 4117.94871795 , 4117.43589744 , 4127.69230769 , 4114.87179487 , 4121.53846154 , 4116.41025641 , 4118.46153846 , 4116.41025641 , 4119.48717949 , 4127.17948718 , 4176.92307692 , 4901.53846154 , 4115.38461538 , 4125.64102564 , 2041.0 , 2034.0 , 58.884 , 0.0 , 0.0 , 0.0 , 0.0 , 

126.0 , 4122.56410256 , 4117.43589744 , 4127.17948718 , 4119.48717949 , 4121.53846154 , 4120.51282051 , 4118.46153846 , 4116.41025641 , 4116.92307692 , 4129.23076923 , 4176.41025641 , 4901.53846154 , 4115.8974359 , 4130.25641026 , 2041.0 , 2033.0 , 58.892 , 0.0 , 0.0 , 0.0 , 0.0 , 

127.0 , 4122.56410256 , 4116.92307692 , 4127.69230769 , 4118.46153846 , 4120.0 , 4117.94871795 , 4111.79487179 , 4118.46153846 , 4123.58974359 , 4130.25641026 , 4175.38461538 , 4901.02564103 , 4115.8974359 , 4130.25641026 , 2040.0 , 2034.0 , 58.899 , 0.0 , 0.0 , 0.0 , 0.0 , 

128.0 , 4122.56410256 , 4119.48717949 , 4127.17948718 , 4118.97435897 , 4117.43589744 , 4116.92307692 , 4111.79487179 , 4112.82051282 , 4121.02564103 , 4128.71794872 , 4177.94871795 , 4903.58974359 , 4118.46153846 , 4128.20512821 , 2042.0 , 2034.0 , 58.907 , 0.0 , 0.0 , 0.0 , 0.0 , 

0.0 , 4120.0 , 4122.05128205 , 4120.51282051 , 4127.69230769 , 4115.8974359 , 4115.8974359 , 4115.8974359 , 4116.41025641 , 4118.97435897 , 4129.23076923 , 4181.53846154 , 4905.12820513 , 4125.12820513 , 4128.71794872 , 2042.0 , 2034.0 , 58.915 , 0.0 , 0.0 , 0.0 , 0.0 , 

1.0 , 4120.51282051 , 4120.0 , 4121.02564103 , 4128.20512821 , 4117.43589744 , 4114.87179487 , 4114.35897436 , 4117.43589744 , 4115.8974359 , 4129.23076923 , 4178.46153846 , 4902.05128205 , 4120.51282051 , 4129.23076923 , 2043.0 , 2035.0 , 58.924 , 0.0 , 0.0 , 0.0 , 0.0 , 

2.0 , 4119.48717949 , 4121.53846154 , 4121.53846154 , 4126.66666667 , 4118.46153846 , 4118.97435897 , 4116.41025641 , 4122.56410256 , 4121.02564103 , 4129.23076923 , 4178.46153846 , 4898.97435897 , 4125.12820513 , 4128.20512821 , 2043.0 , 2035.0 , 58.931 , 0.0 , 0.0 , 0.0 , 0.0 , 

3.0 , 4121.02564103 , 4122.56410256 , 4123.58974359 , 4122.56410256 , 4119.48717949 , 4114.35897436 , 4111.79487179 , 4114.35897436 , 4116.92307692 , 4127.69230769 , 4177.43589744 , 4901.53846154 , 4123.07692308 , 4128.20512821 , 2043.0 , 2034.0 , 58.94 , 0.0 , 0.0 , 0.0 , 0.0 , 

4.0 , 4119.48717949 , 4124.1025641 , 4120.51282051 , 4125.12820513 , 4118.46153846 , 4112.82051282 , 4111.79487179 , 4119.48717949 , 4121.02564103 , 4127.17948718 , 4178.46153846 , 4902.05128205 , 4125.64102564 , 4128.71794872 , 2043.0 , 2033.0 , 58.947 , 0.0 , 0.0 , 0.0 , 0.0 , 

5.0 , 4121.53846154 , 4117.43589744 , 4123.58974359 , 4122.56410256 , 4119.48717949 , 4111.79487179 , 4108.71794872 , 4111.79487179 , 4115.8974359 , 4126.66666667 , 4176.41025641 , 4902.56410256 , 4118.46153846 , 4127.69230769 , 2044.0 , 2032.0 , 58.956 , 0.0 , 0.0 , 0.0 , 0.0 , 

6.0 , 4119.48717949 , 4116.41025641 , 4118.97435897 , 4124.1025641 , 4122.05128205 , 4115.8974359 , 4114.87179487 , 4122.56410256 , 4125.12820513 , 4129.23076923 , 4180.0 , 4900.0 , 4123.58974359 , 4127.69230769 , 2045.0 , 2033.0 , 58.962 , 0.0 , 0.0 , 0.0 , 0.0 , 

7.0 , 4118.97435897 , 4112.82051282 , 4123.07692308 , 4117.94871795 , 4121.53846154 , 4111.79487179 , 4109.23076923 , 4121.53846154 , 4124.61538462 , 4126.66666667 , 4177.94871795 , 4900.51282051 , 4113.84615385 , 4127.69230769 , 2044.0 , 2033.0 , 58.969 , 0.0 , 0.0 , 0.0 , 0.0 , 

8.0 , 4121.02564103 , 4117.94871795 , 4120.0 , 4121.53846154 , 4118.97435897 , 4116.41025641 , 4113.84615385 , 4129.23076923 , 4126.15384615 , 4126.15384615 , 4181.02564103 , 4898.97435897 , 4121.02564103 , 4129.23076923 , 2046.0 , 2034.0 , 58.978 , 0.0 , 0.0 , 0.0 , 0.0 , 

9.0 , 4122.05128205 , 4115.38461538 , 4121.53846154 , 4120.0 , 4120.0 , 4115.38461538 , 4113.33333333 , 4122.56410256 , 4117.94871795 , 4128.71794872 , 4178.46153846 , 4900.0 , 4120.0 , 4129.74358974 , 2046.0 , 2034.0 , 58.986 , 0.0 , 0.0 , 0.0 , 0.0 , 

10.0 , 4119.48717949 , 4117.43589744 , 4121.53846154 , 4123.58974359 , 4120.51282051 , 4117.94871795 , 4116.92307692 , 4127.17948718 , 4124.61538462 , 4132.30769231 , 4178.97435897 , 4896.92307692 , 4120.51282051 , 4127.17948718 , 2046.0 , 2034.0 , 58.994 , 0.0 , 0.0 , 0.0 , 0.0 , 

11.0 , 4118.97435897 , 4117.94871795 , 4125.64102564 , 4120.0 , 4119.48717949 , 4119.48717949 , 4112.82051282 , 4117.43589744 , 4121.02564103 , 4129.74358974 , 4177.94871795 , 4898.46153846 , 4114.35897436 , 4126.15384615 , 2046.0 , 2035.0 , 59.002 , 0.0 , 0.0 , 0.0 , 0.0 , 

12.0 , 4119.48717949 , 4122.05128205 , 4122.05128205 , 4121.02564103 , 4121.02564103 , 4123.58974359 , 4115.8974359 , 4116.92307692 , 4121.53846154 , 4129.74358974 , 4178.97435897 , 4900.51282051 , 4122.56410256 , 4128.71794872 , 2046.0 , 2034.0 , 59.009 , 0.0 , 0.0 , 0.0 , 0.0 , 

13.0 , 4120.0 , 4117.94871795 , 4125.64102564 , 4119.48717949 , 4120.51282051 , 4116.41025641 , 4111.28205128 , 4113.33333333 , 4119.48717949 , 4128.71794872 , 4172.30769231 , 4902.56410256 , 4118.46153846 , 4128.71794872 , 2046.0 , 2034.0 , 59.018 , 0.0 , 0.0 , 0.0 , 0.0 , 

14.0 , 4122.05128205 , 4117.94871795 , 4125.12820513 , 4119.48717949 , 4119.48717949 , 4116.92307692 , 4111.28205128 , 4113.84615385 , 4117.94871795 , 4126.15384615 , 4174.87179487 , 4902.05128205 , 4116.41025641 , 4129.23076923 , 2046.0 , 2034.0 , 59.026 , 0.0 , 0.0 , 0.0 , 0.0 , 

15.0 , 4121.02564103 , 4116.92307692 , 4123.07692308 , 4117.43589744 , 4118.46153846 , 4117.94871795 , 4111.28205128 , 4112.30769231 , 4115.8974359 , 4124.61538462 , 4178.46153846 , 4903.07692308 , 4122.05128205 , 4130.76923077 , 2045.0 , 2033.0 , 59.033 , 0.0 , 0.0 , 0.0 , 0.0 , 

16.0 , 4119.48717949 , 4118.46153846 , 4122.56410256 , 4119.48717949 , 4118.46153846 , 4114.87179487 , 4111.28205128 , 4115.38461538 , 4116.41025641 , 4128.20512821 , 4176.92307692 , 4900.51282051 , 4124.1025641 , 4130.25641026 , 2046.0 , 2033.0 , 59.041 , 0.0 , 0.0 , 0.0 , 0.0 , 

17.0 , 4119.48717949 , 4118.97435897 , 4120.0 , 4122.56410256 , 4119.48717949 , 4113.33333333 , 4109.74358974 , 4120.0 , 4120.51282051 , 4128.20512821 , 4176.92307692 , 4898.97435897 , 4122.56410256 , 4130.25641026 , 2045.0 , 2033.0 , 59.05 , 0.0 , 0.0 , 0.0 , 0.0 , 

18.0 , 4122.56410256 , 4120.0 , 4118.97435897 , 4124.1025641 , 4120.51282051 , 4113.84615385 , 4109.23076923 , 4119.48717949 , 4118.46153846 , 4126.66666667 , 4178.97435897 , 4901.02564103 , 4123.07692308 , 4131.28205128 , 2044.0 , 2033.0 , 59.057 , 0.0 , 0.0 , 0.0 , 0.0 , 

19.0 , 4118.46153846 , 4119.48717949 , 4118.97435897 , 4123.07692308 , 4117.94871795 , 4114.87179487 , 4114.35897436 , 4124.1025641 , 4124.61538462 , 4131.28205128 , 4179.48717949 , 4901.02564103 , 4125.64102564 , 4127.69230769 , 2043.0 , 2033.0 , 59.064 , 0.0 , 0.0 , 0.0 , 0.0 , 

20.0 , 4117.94871795 , 4113.84615385 , 4121.02564103 , 4116.92307692 , 4118.97435897 , 4113.33333333 , 4111.79487179 , 4116.92307692 , 4123.07692308 , 4133.33333333 , 4177.43589744 , 4900.0 , 4119.48717949 , 4125.12820513 , 2041.0 , 2032.0 , 59.072 , 0.0 , 0.0 , 0.0 , 0.0 , 

21.0 , 4118.46153846 , 4112.82051282 , 4115.8974359 , 4119.48717949 , 4121.02564103 , 4116.41025641 , 4112.30769231 , 4125.64102564 , 4127.69230769 , 4131.28205128 , 4181.53846154 , 4897.94871795 , 4127.17948718 , 4129.23076923 , 2041.0 , 2033.0 , 59.084 , 0.0 , 0.0 , 0.0 , 0.0 , 

22.0 , 4123.07692308 , 4115.38461538 , 4123.58974359 , 4119.48717949 , 4118.97435897 , 4114.35897436 , 4113.33333333 , 4120.51282051 , 4122.56410256 , 4129.23076923 , 4179.48717949 , 4900.51282051 , 4120.0 , 4130.25641026 , 2041.0 , 2034.0 , 59.088 , 0.0 , 0.0 , 0.0 , 0.0 , 

23.0 , 4120.0 , 4120.51282051 , 4124.1025641 , 4120.51282051 , 4117.94871795 , 4115.38461538 , 4117.94871795 , 4123.07692308 , 4123.58974359 , 4130.25641026 , 4180.0 , 4900.51282051 , 4116.41025641 , 4127.69230769 , 2040.0 , 2034.0 , 59.096 , 0.0 , 0.0 , 0.0 , 0.0 , 

24.0 , 4119.48717949 , 4116.92307692 , 4123.07692308 , 4116.41025641 , 4121.02564103 , 4112.82051282 , 4109.74358974 , 4111.79487179 , 4115.38461538 , 4127.69230769 , 4176.92307692 , 4903.07692308 , 4112.30769231 , 4127.69230769 , 2041.0 , 2033.0 , 59.103 , 0.0 , 0.0 , 0.0 , 0.0 , 

25.0 , 4119.48717949 , 4117.94871795 , 4120.0 , 4121.53846154 , 4120.0 , 4118.97435897 , 4115.38461538 , 4121.02564103 , 4123.07692308 , 4127.17948718 , 4178.97435897 , 4901.02564103 , 4121.02564103 , 4128.71794872 , 2041.0 , 2032.0 , 59.111 , 0.0 , 0.0 , 0.0 , 0.0 , 

26.0 , 4119.48717949 , 4115.38461538 , 4125.64102564 , 4118.46153846 , 4118.46153846 , 4116.92307692 , 4115.38461538 , 4114.87179487 , 4118.97435897 , 4126.66666667 , 4174.87179487 , 4904.1025641 , 4111.28205128 , 4129.23076923 , 2041.0 , 2033.0 , 59.12 , 0.0 , 0.0 , 0.0 , 0.0 , 

27.0 , 4117.94871795 , 4120.0 , 4118.46153846 , 4125.64102564 , 4118.97435897 , 4117.43589744 , 4115.38461538 , 4120.51282051 , 4122.05128205 , 4129.74358974 , 4175.38461538 , 4905.12820513 , 4118.97435897 , 4128.71794872 , 2041.0 , 2033.0 , 59.128 , 0.0 , 0.0 , 0.0 , 0.0 , 

28.0 , 4121.53846154 , 4121.02564103 , 4118.46153846 , 4126.15384615 , 4117.43589744 , 4117.94871795 , 4108.20512821 , 4112.82051282 , 4117.94871795 , 4128.71794872 , 4174.35897436 , 4905.64102564 , 4120.51282051 , 4126.66666667 , 2042.0 , 2033.0 , 59.136 , 0.0 , 0.0 , 0.0 , 0.0 , 

29.0 , 4122.56410256 , 4123.07692308 , 4120.0 , 4126.15384615 , 4116.92307692 , 4122.05128205 , 4114.87179487 , 4117.43589744 , 4118.97435897 , 4128.71794872 , 4180.0 , 4899.48717949 , 4123.07692308 , 4127.69230769 , 2042.0 , 2034.0 , 59.144 , 0.0 , 0.0 , 0.0 , 0.0 , 

30.0 , 4120.0 , 4118.97435897 , 4121.53846154 , 4121.02564103 , 4117.43589744 , 4113.33333333 , 4111.28205128 , 4115.8974359 , 4116.41025641 , 4128.20512821 , 4180.51282051 , 4900.0 , 4118.97435897 , 4128.71794872 , 2043.0 , 2034.0 , 59.152 , 0.0 , 0.0 , 0.0 , 0.0 , 

31.0 , 4118.97435897 , 4124.1025641 , 4117.43589744 , 4123.07692308 , 4118.97435897 , 4112.82051282 , 4110.25641026 , 4120.0 , 4120.51282051 , 4127.17948718 , 4178.97435897 , 4901.02564103 , 4125.12820513 , 4128.20512821 , 2043.0 , 2036.0 , 59.158 , 0.0 , 0.0 , 0.0 , 0.0 , 

32.0 , 4118.46153846 , 4119.48717949 , 4122.05128205 , 4120.51282051 , 4117.94871795 , 4114.87179487 , 4109.74358974 , 4115.38461538 , 4116.92307692 , 4125.12820513 , 4175.38461538 , 4901.02564103 , 4121.02564103 , 4130.76923077 , 2042.0 , 2037.0 , 59.166 , 0.0 , 0.0 , 0.0 , 0.0 , 

33.0 , 4117.94871795 , 4112.30769231 , 4121.53846154 , 4121.53846154 , 4117.43589744 , 4114.35897436 , 4111.79487179 , 4117.94871795 , 4117.94871795 , 4128.20512821 , 4180.51282051 , 4898.97435897 , 4119.48717949 , 4133.33333333 , 2044.0 , 2038.0 , 59.175 , 0.0 , 0.0 , 0.0 , 0.0 , 

34.0 , 4118.46153846 , 4112.82051282 , 4117.43589744 , 4123.58974359 , 4117.94871795 , 4110.25641026 , 4108.20512821 , 4121.53846154 , 4125.64102564 , 4126.66666667 , 4181.02564103 , 4901.02564103 , 4120.51282051 , 4128.71794872 , 2043.0 , 2037.0 , 59.183 , 0.0 , 0.0 , 0.0 , 0.0 , 

35.0 , 4121.53846154 , 4117.43589744 , 4118.46153846 , 4122.05128205 , 4118.97435897 , 4111.79487179 , 4108.71794872 , 4122.05128205 , 4125.12820513 , 4124.61538462 , 4176.41025641 , 4902.56410256 , 4118.97435897 , 4126.66666667 , 2043.0 , 2035.0 , 59.191 , 0.0 , 0.0 , 0.0 , 0.0 , 

36.0 , 4119.48717949 , 4114.35897436 , 4120.51282051 , 4119.48717949 , 4116.92307692 , 4117.43589744 , 4113.33333333 , 4123.58974359 , 4122.05128205 , 4127.17948718 , 4177.94871795 , 4900.51282051 , 4122.56410256 , 4129.74358974 , 2044.0 , 2035.0 , 59.199 , 0.0 , 0.0 , 0.0 , 0.0 , 

37.0 , 4117.94871795 , 4112.30769231 , 4123.07692308 , 4121.02564103 , 4117.94871795 , 4118.46153846 , 4113.33333333 , 4120.0 , 4117.43589744 , 4127.17948718 , 4180.0 , 4899.48717949 , 4120.0 , 4129.74358974 , 2044.0 , 2035.0 , 59.207 , 0.0 , 0.0 , 0.0 , 0.0 , 

38.0 , 4118.46153846 , 4116.92307692 , 4119.48717949 , 4123.07692308 , 4118.46153846 , 4118.97435897 , 4114.87179487 , 4123.58974359 , 4122.56410256 , 4126.66666667 , 4179.48717949 , 4898.97435897 , 4120.51282051 , 4125.12820513 , 2044.0 , 2036.0 , 59.215 , 0.0 , 0.0 , 0.0 , 0.0 , 

39.0 , 4123.58974359 , 4117.43589744 , 4122.05128205 , 4117.94871795 , 4119.48717949 , 4118.46153846 , 4112.82051282 , 4116.41025641 , 4120.0 , 4128.71794872 , 4178.46153846 , 4900.0 , 4118.46153846 , 4124.61538462 , 2045.0 , 2035.0 , 59.223 , 0.0 , 0.0 , 0.0 , 0.0 , 

40.0 , 4120.51282051 , 4118.97435897 , 4121.02564103 , 4122.05128205 , 4121.53846154 , 4121.02564103 , 4116.92307692 , 4121.02564103 , 4122.56410256 , 4129.23076923 , 4179.48717949 , 4901.02564103 , 4125.12820513 , 4129.23076923 , 2045.0 , 2035.0 , 59.229 , 0.0 , 0.0 , 0.0 , 0.0 , 

41.0 , 4120.51282051 , 4116.92307692 , 4124.1025641 , 4124.1025641 , 4121.02564103 , 4114.87179487 , 4114.35897436 , 4111.79487179 , 4112.30769231 , 4126.66666667 , 4174.35897436 , 4905.12820513 , 4118.97435897 , 4132.30769231 , 2046.0 , 2038.0 , 59.238 , 0.0 , 0.0 , 0.0 , 0.0 , 

42.0 , 4121.53846154 , 4117.94871795 , 4119.48717949 , 4128.20512821 , 4117.43589744 , 4114.87179487 , 4114.87179487 , 4116.41025641 , 4117.43589744 , 4127.17948718 , 4177.94871795 , 4904.1025641 , 4126.66666667 , 4128.20512821 , 2045.0 , 2037.0 , 59.246 , 0.0 , 0.0 , 0.0 , 0.0 , 

43.0 , 4122.05128205 , 4116.92307692 , 4122.56410256 , 4122.05128205 , 4116.92307692 , 4112.82051282 , 4106.15384615 , 4109.74358974 , 4114.87179487 , 4125.12820513 , 4177.43589744 , 4903.07692308 , 4121.53846154 , 4125.12820513 , 2045.0 , 2038.0 , 59.253 , 0.0 , 0.0 , 0.0 , 0.0 , 

44.0 , 4118.46153846 , 4121.53846154 , 4120.0 , 4123.07692308 , 4120.51282051 , 4117.94871795 , 4111.28205128 , 4121.02564103 , 4120.51282051 , 4125.64102564 , 4179.48717949 , 4901.02564103 , 4124.61538462 , 4128.71794872 , 2046.0 , 2038.0 , 59.262 , 0.0 , 0.0 , 0.0 , 0.0 , 

45.0 , 4122.05128205 , 4115.8974359 , 4121.53846154 , 4120.51282051 , 4122.05128205 , 4114.87179487 , 4109.74358974 , 4116.92307692 , 4116.41025641 , 4125.12820513 , 4178.97435897 , 4903.07692308 , 4120.0 , 4130.25641026 , 2045.0 , 2039.0 , 59.269 , 0.0 , 0.0 , 0.0 , 0.0 , 

46.0 , 4123.07692308 , 4115.8974359 , 4116.41025641 , 4124.1025641 , 4120.51282051 , 4114.87179487 , 4113.33333333 , 4122.56410256 , 4124.1025641 , 4125.64102564 , 4180.51282051 , 4898.46153846 , 4127.69230769 , 4125.64102564 , 2044.0 , 2038.0 , 59.277 , 0.0 , 0.0 , 0.0 , 0.0 , 

47.0 , 4117.43589744 , 4116.41025641 , 4121.53846154 , 4118.97435897 , 4116.92307692 , 4112.82051282 , 4111.28205128 , 4118.97435897 , 4123.58974359 , 4127.17948718 , 4176.41025641 , 4898.97435897 , 4124.61538462 , 4124.61538462 , 2042.0 , 2037.0 , 59.286 , 0.0 , 0.0 , 0.0 , 0.0 , 

48.0 , 4117.43589744 , 4120.0 , 4120.51282051 , 4122.05128205 , 4117.43589744 , 4120.0 , 4114.87179487 , 4127.69230769 , 4124.1025641 , 4133.33333333 , 4180.0 , 4896.92307692 , 4125.64102564 , 4128.20512821 , 2041.0 , 2036.0 , 59.293 , 0.0 , 0.0 , 0.0 , 0.0 , 

49.0 , 4121.02564103 , 4115.8974359 , 4122.05128205 , 4121.53846154 , 4120.0 , 4119.48717949 , 4110.76923077 , 4123.58974359 , 4120.51282051 , 4130.25641026 , 4178.46153846 , 4899.48717949 , 4116.41025641 , 4128.20512821 , 2041.0 , 2036.0 , 59.301 , 0.0 , 0.0 , 0.0 , 0.0 , 

50.0 , 4119.48717949 , 4117.94871795 , 4123.07692308 , 4121.02564103 , 4121.53846154 , 4120.0 , 4115.8974359 , 4123.07692308 , 4123.58974359 , 4125.12820513 , 4176.92307692 , 4901.02564103 , 4116.92307692 , 4126.15384615 , 2041.0 , 2037.0 , 59.309 , 0.0 , 0.0 , 0.0 , 0.0 , 

51.0 , 4118.46153846 , 4115.8974359 , 4125.64102564 , 4117.43589744 , 4120.0 , 4119.48717949 , 4117.94871795 , 4118.46153846 , 4122.05128205 , 4127.17948718 , 4177.94871795 , 4903.07692308 , 4118.97435897 , 4126.15384615 , 2040.0 , 2037.0 , 59.316 , 0.0 , 0.0 , 0.0 , 0.0 , 

52.0 , 4121.53846154 , 4116.41025641 , 4123.07692308 , 4118.46153846 , 4118.97435897 , 4121.02564103 , 4118.46153846 , 4118.97435897 , 4121.02564103 , 4131.28205128 , 4177.94871795 , 4900.0 , 4118.46153846 , 4128.20512821 , 2044.0 , 2036.0 , 59.325 , 0.0 , 0.0 , 0.0 , 0.0 , 

53.0 , 4122.05128205 , 4118.46153846 , 4123.07692308 , 4117.43589744 , 4118.97435897 , 4117.94871795 , 4115.8974359 , 4120.0 , 4124.61538462 , 4129.74358974 , 4174.35897436 , 4900.51282051 , 4118.46153846 , 4128.71794872 , 2042.0 , 2034.0 , 59.333 , 0.0 , 0.0 , 0.0 , 0.0 , 

54.0 , 4123.07692308 , 4120.0 , 4125.12820513 , 4120.0 , 4118.97435897 , 4114.35897436 , 4113.33333333 , 4116.41025641 , 4122.05128205 , 4128.20512821 , 4174.87179487 , 4905.64102564 , 4119.48717949 , 4127.69230769 , 2045.0 , 2031.0 , 59.341 , 0.0 , 0.0 , 0.0 , 0.0 , 

55.0 , 4121.02564103 , 4119.48717949 , 4120.0 , 4126.15384615 , 4117.94871795 , 4116.41025641 , 4113.33333333 , 4121.02564103 , 4121.02564103 , 4129.23076923 , 4177.94871795 , 4906.15384615 , 4122.05128205 , 4128.20512821 , 2044.0 , 2031.0 , 59.348 , 0.0 , 0.0 , 0.0 , 0.0 , 

56.0 , 4121.02564103 , 4118.46153846 , 4119.48717949 , 4123.58974359 , 4120.51282051 , 4118.97435897 , 4111.79487179 , 4116.41025641 , 4118.46153846 , 4127.17948718 , 4177.94871795 , 4901.02564103 , 4117.43589744 , 4130.25641026 , 2044.0 , 2034.0 , 59.357 , 0.0 , 0.0 , 0.0 , 0.0 , 

57.0 , 4120.51282051 , 4118.97435897 , 4119.48717949 , 4122.56410256 , 4119.48717949 , 4122.56410256 , 4112.82051282 , 4117.94871795 , 4122.56410256 , 4127.69230769 , 4182.05128205 , 4900.0 , 4125.12820513 , 4127.69230769 , 2044.0 , 2036.0 , 59.365 , 0.0 , 0.0 , 0.0 , 0.0 , 

58.0 , 4121.02564103 , 4117.94871795 , 4121.53846154 , 4122.56410256 , 4118.97435897 , 4117.43589744 , 4107.69230769 , 4111.79487179 , 4112.30769231 , 4128.71794872 , 4178.97435897 , 4903.58974359 , 4123.58974359 , 4126.15384615 , 2044.0 , 2038.0 , 59.371 , 0.0 , 0.0 , 0.0 , 0.0 , 

59.0 , 4118.97435897 , 4121.53846154 , 4118.97435897 , 4124.1025641 , 4119.48717949 , 4114.87179487 , 4109.23076923 , 4123.58974359 , 4115.8974359 , 4129.23076923 , 4176.92307692 , 4900.0 , 4126.66666667 , 4129.74358974 , 2044.0 , 2039.0 , 59.379 , 0.0 , 0.0 , 0.0 , 0.0 , 

60.0 , 4121.02564103 , 4116.41025641 , 4125.64102564 , 4117.43589744 , 4119.48717949 , 4110.25641026 , 4106.66666667 , 4114.35897436 , 4116.41025641 , 4125.64102564 , 4175.8974359 , 4898.97435897 , 4120.51282051 , 4130.25641026 , 2043.0 , 2039.0 , 59.408 , 0.0 , 0.0 , 0.0 , 0.0 , 

61.0 , 4117.94871795 , 4114.35897436 , 4123.07692308 , 4123.07692308 , 4118.46153846 , 4114.87179487 , 4113.33333333 , 4117.94871795 , 4126.15384615 , 4126.66666667 , 4181.53846154 , 4898.97435897 , 4127.17948718 , 4127.17948718 , 2044.0 , 2039.0 , 59.412 , 0.0 , 0.0 , 0.0 , 0.0 , 

62.0 , 4118.46153846 , 4112.30769231 , 4122.56410256 , 4123.07692308 , 4119.48717949 , 4112.30769231 , 4107.69230769 , 4116.41025641 , 4122.56410256 , 4127.69230769 , 4177.94871795 , 4902.05128205 , 4117.43589744 , 4127.17948718 , 2044.0 , 2037.0 , 59.412 , 0.0 , 0.0 , 0.0 , 0.0 , 

63.0 , 4117.94871795 , 4117.94871795 , 4117.43589744 , 4124.61538462 , 4122.05128205 , 4115.38461538 , 4112.30769231 , 4127.69230769 , 4128.71794872 , 4129.74358974 , 4180.0 , 4899.48717949 , 4122.05128205 , 4127.69230769 , 2043.0 , 2034.0 , 59.415 , 0.0 , 0.0 , 0.0 , 0.0 , 

64.0 , 4116.41025641 , 4115.38461538 , 4124.1025641 , 4120.0 , 4121.53846154 , 4114.87179487 , 4113.84615385 , 4122.05128205 , 4123.58974359 , 4130.76923077 , 4180.0 , 4901.53846154 , 4119.48717949 , 4127.69230769 , 2043.0 , 2034.0 , 59.419 , 0.0 , 0.0 , 0.0 , 0.0 , 

65.0 , 4118.46153846 , 4117.43589744 , 4123.58974359 , 4123.58974359 , 4118.46153846 , 4119.48717949 , 4120.0 , 4127.69230769 , 4124.61538462 , 4132.82051282 , 4180.51282051 , 4900.51282051 , 4121.02564103 , 4127.69230769 , 2043.0 , 2034.0 , 59.427 , 0.0 , 0.0 , 0.0 , 0.0 , 

66.0 , 4120.51282051 , 4116.92307692 , 4121.53846154 , 4120.0 , 4118.46153846 , 4118.46153846 , 4116.92307692 , 4120.0 , 4119.48717949 , 4127.69230769 , 4176.41025641 , 4900.51282051 , 4116.92307692 , 4127.17948718 , 2043.0 , 2033.0 , 59.434 , 0.0 , 0.0 , 0.0 , 0.0 , 

67.0 , 4119.48717949 , 4120.51282051 , 4117.94871795 , 4122.05128205 , 4121.02564103 , 4117.94871795 , 4119.48717949 , 4123.07692308 , 4122.56410256 , 4126.66666667 , 4179.48717949 , 4898.46153846 , 4123.07692308 , 4128.71794872 , 2042.0 , 2033.0 , 59.442 , 0.0 , 0.0 , 0.0 , 0.0 , 

68.0 , 4120.51282051 , 4118.97435897 , 4122.05128205 , 4122.56410256 , 4117.94871795 , 4111.79487179 , 4114.87179487 , 4120.51282051 , 4120.51282051 , 4128.20512821 , 4181.02564103 , 4901.53846154 , 4118.97435897 , 4128.20512821 , 2040.0 , 2032.0 , 59.45 , 0.0 , 0.0 , 0.0 , 0.0 , 

69.0 , 4122.56410256 , 4121.02564103 , 4122.05128205 , 4125.12820513 , 4116.41025641 , 4116.92307692 , 4114.35897436 , 4117.94871795 , 4118.97435897 , 4126.66666667 , 4181.02564103 , 4905.12820513 , 4120.0 , 4128.20512821 , 2039.0 , 2033.0 , 59.459 , 0.0 , 0.0 , 0.0 , 0.0 , 

70.0 , 4119.48717949 , 4117.43589744 , 4123.07692308 , 4122.05128205 , 4118.46153846 , 4120.0 , 4111.28205128 , 4112.30769231 , 4117.94871795 , 4125.12820513 , 4176.41025641 , 4904.1025641 , 4122.05128205 , 4128.20512821 , 2039.0 , 2032.0 , 59.467 , 0.0 , 0.0 , 0.0 , 0.0 , 

71.0 , 4120.0 , 4118.97435897 , 4124.1025641 , 4120.51282051 , 4120.0 , 4114.35897436 , 4109.74358974 , 4115.8974359 , 4115.38461538 , 4126.66666667 , 4175.38461538 , 4898.97435897 , 4123.07692308 , 4127.69230769 , 2038.0 , 2031.0 , 59.475 , 0.0 , 0.0 , 0.0 , 0.0 , 

72.0 , 4121.02564103 , 4121.02564103 , 4120.51282051 , 4122.56410256 , 4118.46153846 , 4111.79487179 , 4111.28205128 , 4118.97435897 , 4115.38461538 , 4126.66666667 , 4178.97435897 , 4900.0 , 4125.64102564 , 4127.69230769 , 2039.0 , 2030.0 , 59.482 , 0.0 , 0.0 , 0.0 , 0.0 , 

73.0 , 4120.51282051 , 4117.94871795 , 4118.46153846 , 4124.1025641 , 4120.0 , 4114.35897436 , 4113.33333333 , 4114.87179487 , 4115.8974359 , 4127.17948718 , 4179.48717949 , 4901.53846154 , 4124.1025641 , 4130.25641026 , 2040.0 , 2031.0 , 59.491 , 0.0 , 0.0 , 0.0 , 0.0 , 

74.0 , 4117.43589744 , 4115.8974359 , 4117.94871795 , 4123.58974359 , 4118.97435897 , 4113.33333333 , 4113.33333333 , 4125.12820513 , 4124.1025641 , 4129.23076923 , 4179.48717949 , 4900.0 , 4124.1025641 , 4131.28205128 , 2040.0 , 2031.0 , 59.497 , 0.0 , 0.0 , 0.0 , 0.0 , 

75.0 , 4120.0 , 4117.43589744 , 4119.48717949 , 4120.0 , 4118.46153846 , 4109.74358974 , 4108.20512821 , 4123.58974359 , 4122.05128205 , 4126.15384615 , 4178.97435897 , 4900.0 , 4120.51282051 , 4128.71794872 , 2042.0 , 2030.0 , 59.506 , 0.0 , 0.0 , 0.0 , 0.0 , 

76.0 , 4120.0 , 4119.48717949 , 4117.94871795 , 4122.05128205 , 4119.48717949 , 4114.87179487 , 4111.79487179 , 4124.1025641 , 4126.66666667 , 4127.17948718 , 4181.53846154 , 4900.0 , 4126.15384615 , 4128.71794872 , 2044.0 , 2031.0 , 59.514 , 0.0 , 0.0 , 0.0 , 0.0 , 

77.0 , 4122.05128205 , 4113.84615385 , 4123.07692308 , 4120.0 , 4121.53846154 , 4113.33333333 , 4109.23076923 , 4116.41025641 , 4122.56410256 , 4130.76923077 , 4176.92307692 , 4901.02564103 , 4116.41025641 , 4129.74358974 , 2046.0 , 2033.0 , 59.523 , 0.0 , 0.0 , 0.0 , 0.0 , 

78.0 , 4121.02564103 , 4114.35897436 , 4121.53846154 , 4121.02564103 , 4118.97435897 , 4115.8974359 , 4115.38461538 , 4125.12820513 , 4125.12820513 , 4128.20512821 , 4180.0 , 4898.97435897 , 4118.46153846 , 4128.71794872 , 2046.0 , 2033.0 , 59.53 , 0.0 , 0.0 , 0.0 , 0.0 , 

79.0 , 4122.05128205 , 4113.33333333 , 4126.66666667 , 4116.41025641 , 4120.0 , 4116.41025641 , 4112.82051282 , 4114.87179487 , 4116.92307692 , 4124.1025641 , 4177.94871795 , 4900.0 , 4115.8974359 , 4128.20512821 , 2045.0 , 2034.0 , 59.537 , 0.0 , 0.0 , 0.0 , 0.0 , 

80.0 , 4122.05128205 , 4118.46153846 , 4124.1025641 , 4120.0 , 4121.02564103 , 4120.0 , 4116.92307692 , 4121.02564103 , 4124.61538462 , 4129.74358974 , 4175.38461538 , 4899.48717949 , 4122.05128205 , 4128.20512821 , 2044.0 , 2034.0 , 59.546 , 0.0 , 0.0 , 0.0 , 0.0 , 

81.0 , 4124.61538462 , 4118.46153846 , 4125.12820513 , 4117.94871795 , 4118.46153846 , 4117.43589744 , 4112.82051282 , 4112.82051282 , 4122.56410256 , 4129.23076923 , 4173.84615385 , 4903.58974359 , 4113.84615385 , 4127.17948718 , 2044.0 , 2032.0 , 59.555 , 0.0 , 0.0 , 0.0 , 0.0 , 

82.0 , 4122.05128205 , 4121.53846154 , 4118.97435897 , 4123.58974359 , 4120.0 , 4122.56410256 , 4117.94871795 , 4117.43589744 , 4122.05128205 , 4126.15384615 , 4181.02564103 , 4901.53846154 , 4121.53846154 , 4127.69230769 , 2046.0 , 2033.0 , 59.561 , 0.0 , 0.0 , 0.0 , 0.0 , 

83.0 , 4120.51282051 , 4118.46153846 , 4120.51282051 , 4123.07692308 , 4122.05128205 , 4117.43589744 , 4112.30769231 , 4114.35897436 , 4116.92307692 , 4125.64102564 , 4178.97435897 , 4901.02564103 , 4120.0 , 4128.71794872 , 2047.0 , 2033.0 , 59.568 , 0.0 , 0.0 , 0.0 , 0.0 , 

84.0 , 4120.0 , 4122.05128205 , 4119.48717949 , 4123.07692308 , 4120.0 , 4116.92307692 , 4113.33333333 , 4122.05128205 , 4122.56410256 , 4128.71794872 , 4179.48717949 , 4901.53846154 , 4124.61538462 , 4130.25641026 , 2045.0 , 2032.0 , 59.577 , 0.0 , 0.0 , 0.0 , 0.0 , 

85.0 , 4120.0 , 4117.94871795 , 4122.05128205 , 4118.97435897 , 4115.8974359 , 4114.87179487 , 4110.25641026 , 4115.38461538 , 4115.8974359 , 4128.20512821 , 4180.0 , 4905.12820513 , 4121.53846154 , 4130.76923077 , 2044.0 , 2033.0 , 59.584 , 0.0 , 0.0 , 0.0 , 0.0 , 

86.0 , 4118.97435897 , 4117.94871795 , 4120.0 , 4124.1025641 , 4116.92307692 , 4114.35897436 , 4111.79487179 , 4119.48717949 , 4115.8974359 , 4129.74358974 , 4180.51282051 , 4902.56410256 , 4124.1025641 , 4128.20512821 , 2044.0 , 2031.0 , 59.593 , 0.0 , 0.0 , 0.0 , 0.0 , 

87.0 , 4117.43589744 , 4116.41025641 , 4120.51282051 , 4119.48717949 , 4119.48717949 , 4111.28205128 , 4107.69230769 , 4118.46153846 , 4119.48717949 , 4128.20512821 , 4176.92307692 , 4900.0 , 4120.51282051 , 4127.17948718 , 2043.0 , 2033.0 , 59.6 , 0.0 , 0.0 , 0.0 , 0.0 , 

88.0 , 4121.02564103 , 4116.92307692 , 4117.94871795 , 4117.43589744 , 4119.48717949 , 4115.8974359 , 4110.76923077 , 4117.43589744 , 4121.02564103 , 4127.17948718 , 4177.94871795 , 4898.46153846 , 4123.07692308 , 4128.71794872 , 2043.0 , 2033.0 , 59.609 , 0.0 , 0.0 , 0.0 , 0.0 , 

89.0 , 4122.05128205 , 4112.30769231 , 4119.48717949 , 4121.53846154 , 4117.94871795 , 4115.8974359 , 4111.79487179 , 4122.05128205 , 4121.02564103 , 4128.71794872 , 4179.48717949 , 4901.02564103 , 4123.07692308 , 4127.69230769 , 2042.0 , 2031.0 , 59.617 , 0.0 , 0.0 , 0.0 , 0.0 , 

90.0 , 4121.53846154 , 4113.84615385 , 4122.56410256 , 4120.0 , 4120.51282051 , 4114.35897436 , 4111.28205128 , 4125.64102564 , 4121.53846154 , 4130.76923077 , 4178.46153846 , 4902.05128205 , 4116.92307692 , 4127.17948718 , 2043.0 , 2032.0 , 59.624 , 0.0 , 0.0 , 0.0 , 0.0 , 

91.0 , 4119.48717949 , 4118.46153846 , 4119.48717949 , 4114.87179487 , 4121.53846154 , 4115.38461538 , 4113.33333333 , 4125.64102564 , 4125.12820513 , 4131.28205128 , 4179.48717949 , 4901.53846154 , 4119.48717949 , 4129.23076923 , 2043.0 , 2034.0 , 59.634 , 0.0 , 0.0 , 0.0 , 0.0 , 

92.0 , 4122.56410256 , 4119.48717949 , 4119.48717949 , 4117.94871795 , 4120.0 , 4116.41025641 , 4113.84615385 , 4121.53846154 , 4121.53846154 , 4129.74358974 , 4178.97435897 , 4899.48717949 , 4119.48717949 , 4129.23076923 , 2043.0 , 2034.0 , 59.64 , 0.0 , 0.0 , 0.0 , 0.0 , 

93.0 , 4121.02564103 , 4118.97435897 , 4121.02564103 , 4122.05128205 , 4117.94871795 , 4118.97435897 , 4115.38461538 , 4127.17948718 , 4123.58974359 , 4128.20512821 , 4180.0 , 4896.41025641 , 4122.56410256 , 4127.69230769 , 2043.0 , 2032.0 , 59.649 , 0.0 , 0.0 , 0.0 , 0.0 , 

94.0 , 4119.48717949 , 4117.94871795 , 4123.07692308 , 4117.94871795 , 4118.97435897 , 4116.92307692 , 4113.33333333 , 4119.48717949 , 4122.05128205 , 4127.17948718 , 4177.94871795 , 4900.51282051 , 4119.48717949 , 4128.20512821 , 2044.0 , 2032.0 , 59.656 , 0.0 , 0.0 , 0.0 , 0.0 , 

95.0 , 4118.46153846 , 4122.05128205 , 4117.43589744 , 4125.12820513 , 4118.46153846 , 4120.0 , 4118.46153846 , 4121.53846154 , 4127.17948718 , 4126.66666667 , 4176.92307692 , 4902.05128205 , 4122.56410256 , 4129.23076923 , 2046.0 , 2032.0 , 59.663 , 0.0 , 0.0 , 0.0 , 0.0 , 

96.0 , 4121.53846154 , 4120.51282051 , 4123.07692308 , 4124.1025641 , 4117.94871795 , 4118.97435897 , 4113.84615385 , 4111.79487179 , 4113.84615385 , 4124.61538462 , 4173.84615385 , 4902.05128205 , 4115.38461538 , 4127.17948718 , 2045.0 , 2030.0 , 59.671 , 0.0 , 0.0 , 0.0 , 0.0 , 

