['COUNTER', 'AF3', 'F7', 'F3', 'FC5', 'T7', 'P7', 'O1', 'O2', 'P8', 'T8', 'FC6', 'F4', 'F8', 'AF4', 'GYROX', 'GYROY', 'TIMESTAMP', 'FUNC_ID', 'FUNC_VALUE', 'MARKER', 'SYNC_SIGNAL']
28.0 , 4122.05128205 , 4114.87179487 , 4122.05128205 , 4122.05128205 , 4119.48717949 , 4118.46153846 , 4113.33333333 , 4158.97435897 , 4124.1025641 , 4130.76923077 , 4182.05128205 , 4903.58974359 , 4121.02564103 , 4130.76923077 , 2042.0 , 2028.0 , 74.384 , 0.0 , 0.0 , 0.0 , 0.0 , 

29.0 , 4119.48717949 , 4117.43589744 , 4125.12820513 , 4119.48717949 , 4121.02564103 , 4120.0 , 4113.84615385 , 4164.1025641 , 4126.66666667 , 4130.25641026 , 4181.53846154 , 4898.46153846 , 4119.48717949 , 4127.17948718 , 2042.0 , 2028.0 , 74.392 , 0.0 , 0.0 , 0.0 , 0.0 , 

30.0 , 4117.94871795 , 4118.46153846 , 4127.17948718 , 4117.94871795 , 4122.05128205 , 4117.94871795 , 4111.28205128 , 4167.17948718 , 4127.69230769 , 4129.74358974 , 4182.56410256 , 4898.46153846 , 4123.07692308 , 4127.69230769 , 2043.0 , 2028.0 , 74.401 , 0.0 , 0.0 , 0.0 , 0.0 , 

31.0 , 4120.51282051 , 4118.46153846 , 4126.15384615 , 4120.0 , 4123.58974359 , 4115.38461538 , 4111.79487179 , 4165.12820513 , 4122.05128205 , 4129.23076923 , 4183.07692308 , 4902.05128205 , 4123.07692308 , 4129.74358974 , 2044.0 , 2029.0 , 74.408 , 0.0 , 0.0 , 0.0 , 0.0 , 

32.0 , 4118.46153846 , 4121.02564103 , 4121.53846154 , 4123.58974359 , 4122.56410256 , 4121.02564103 , 4119.48717949 , 4166.15384615 , 4126.66666667 , 4127.69230769 , 4182.05128205 , 4903.07692308 , 4124.1025641 , 4128.20512821 , 2043.0 , 2030.0 , 74.416 , 0.0 , 0.0 , 0.0 , 0.0 , 

33.0 , 4123.07692308 , 4122.56410256 , 4125.64102564 , 4121.53846154 , 4122.56410256 , 4122.56410256 , 4117.94871795 , 4152.82051282 , 4118.97435897 , 4127.17948718 , 4179.48717949 , 4902.56410256 , 4117.43589744 , 4132.30769231 , 2042.0 , 2031.0 , 74.424 , 0.0 , 0.0 , 0.0 , 0.0 , 

34.0 , 4120.51282051 , 4124.61538462 , 4122.05128205 , 4129.23076923 , 4120.0 , 4123.58974359 , 4118.46153846 , 4162.05128205 , 4125.64102564 , 4129.23076923 , 4182.05128205 , 4898.46153846 , 4128.71794872 , 4132.30769231 , 2043.0 , 2032.0 , 74.434 , 0.0 , 0.0 , 0.0 , 0.0 , 

35.0 , 4122.05128205 , 4122.56410256 , 4124.61538462 , 4126.15384615 , 4117.94871795 , 4118.97435897 , 4111.28205128 , 4150.25641026 , 4119.48717949 , 4129.74358974 , 4179.48717949 , 4902.56410256 , 4122.05128205 , 4130.76923077 , 2043.0 , 2030.0 , 74.438 , 0.0 , 0.0 , 0.0 , 0.0 , 

36.0 , 4121.53846154 , 4126.66666667 , 4117.94871795 , 4129.74358974 , 4119.48717949 , 4126.66666667 , 4123.07692308 , 4155.38461538 , 4124.1025641 , 4132.82051282 , 4182.05128205 , 4903.07692308 , 4131.28205128 , 4130.76923077 , 2043.0 , 2031.0 , 74.447 , 0.0 , 0.0 , 0.0 , 0.0 , 

37.0 , 4123.58974359 , 4120.51282051 , 4122.56410256 , 4125.12820513 , 4122.56410256 , 4120.0 , 4115.38461538 , 4141.53846154 , 4111.79487179 , 4129.74358974 , 4176.92307692 , 4905.64102564 , 4123.58974359 , 4133.33333333 , 2044.0 , 2031.0 , 74.454 , 0.0 , 0.0 , 0.0 , 0.0 , 

38.0 , 4121.02564103 , 4121.02564103 , 4120.51282051 , 4131.28205128 , 4122.05128205 , 4121.53846154 , 4114.87179487 , 4155.8974359 , 4121.53846154 , 4129.23076923 , 4181.53846154 , 4900.51282051 , 4129.23076923 , 4129.23076923 , 2045.0 , 2032.0 , 74.465 , 0.0 , 0.0 , 0.0 , 0.0 , 

39.0 , 4123.07692308 , 4113.84615385 , 4126.15384615 , 4121.02564103 , 4118.97435897 , 4115.8974359 , 4107.17948718 , 4150.76923077 , 4117.43589744 , 4128.20512821 , 4181.02564103 , 4903.07692308 , 4118.97435897 , 4129.23076923 , 2044.0 , 2033.0 , 74.47 , 0.0 , 0.0 , 0.0 , 0.0 , 

40.0 , 4122.56410256 , 4120.51282051 , 4122.05128205 , 4122.56410256 , 4120.51282051 , 4118.97435897 , 4117.43589744 , 4165.12820513 , 4126.66666667 , 4131.28205128 , 4185.12820513 , 4899.48717949 , 4130.76923077 , 4130.25641026 , 2045.0 , 2033.0 , 74.479 , 0.0 , 0.0 , 0.0 , 0.0 , 

41.0 , 4123.58974359 , 4118.97435897 , 4127.17948718 , 4118.97435897 , 4121.53846154 , 4113.33333333 , 4110.25641026 , 4156.92307692 , 4118.97435897 , 4128.71794872 , 4180.51282051 , 4902.56410256 , 4125.64102564 , 4130.76923077 , 2044.0 , 2033.0 , 74.486 , 0.0 , 0.0 , 0.0 , 0.0 , 

42.0 , 4121.53846154 , 4123.07692308 , 4118.46153846 , 4126.15384615 , 4121.02564103 , 4118.97435897 , 4116.92307692 , 4168.71794872 , 4123.58974359 , 4132.30769231 , 4182.05128205 , 4901.02564103 , 4127.69230769 , 4129.23076923 , 2045.0 , 2033.0 , 74.496 , 0.0 , 0.0 , 0.0 , 0.0 , 

43.0 , 4121.53846154 , 4116.41025641 , 4123.58974359 , 4122.05128205 , 4118.97435897 , 4115.8974359 , 4113.33333333 , 4163.58974359 , 4120.0 , 4130.76923077 , 4180.51282051 , 4903.07692308 , 4117.94871795 , 4129.23076923 , 2044.0 , 2034.0 , 74.501 , 0.0 , 0.0 , 0.0 , 0.0 , 

44.0 , 4124.61538462 , 4121.02564103 , 4127.17948718 , 4123.58974359 , 4120.0 , 4122.05128205 , 4121.53846154 , 4168.71794872 , 4125.64102564 , 4130.25641026 , 4183.07692308 , 4898.97435897 , 4124.1025641 , 4129.23076923 , 2045.0 , 2035.0 , 74.51 , 0.0 , 0.0 , 0.0 , 0.0 , 

45.0 , 4123.58974359 , 4121.02564103 , 4128.20512821 , 4117.43589744 , 4120.0 , 4121.53846154 , 4120.51282051 , 4158.97435897 , 4122.56410256 , 4128.71794872 , 4177.43589744 , 4901.53846154 , 4121.53846154 , 4130.76923077 , 2045.0 , 2036.0 , 74.518 , 0.0 , 0.0 , 0.0 , 0.0 , 

46.0 , 4122.05128205 , 4124.1025641 , 4121.53846154 , 4122.56410256 , 4121.53846154 , 4120.51282051 , 4118.46153846 , 4155.38461538 , 4119.48717949 , 4128.20512821 , 4177.43589744 , 4905.12820513 , 4120.0 , 4130.76923077 , 2043.0 , 2037.0 , 74.528 , 0.0 , 0.0 , 0.0 , 0.0 , 

47.0 , 4123.58974359 , 4121.02564103 , 4125.64102564 , 4123.58974359 , 4122.05128205 , 4117.94871795 , 4114.87179487 , 4150.76923077 , 4119.48717949 , 4127.69230769 , 4178.97435897 , 4907.17948718 , 4117.43589744 , 4127.17948718 , 2045.0 , 2038.0 , 74.534 , 0.0 , 0.0 , 0.0 , 0.0 , 

48.0 , 4127.69230769 , 4118.46153846 , 4128.20512821 , 4122.05128205 , 4124.61538462 , 4118.97435897 , 4118.97435897 , 4145.64102564 , 4117.94871795 , 4128.71794872 , 4180.51282051 , 4906.15384615 , 4119.48717949 , 4130.25641026 , 2045.0 , 2034.0 , 74.542 , 0.0 , 0.0 , 0.0 , 0.0 , 

49.0 , 4122.05128205 , 4120.0 , 4123.58974359 , 4124.61538462 , 4123.58974359 , 4120.0 , 4117.43589744 , 4151.79487179 , 4118.46153846 , 4128.71794872 , 4179.48717949 , 4904.1025641 , 4127.69230769 , 4132.82051282 , 2045.0 , 2033.0 , 74.55 , 0.0 , 0.0 , 0.0 , 0.0 , 

50.0 , 4120.51282051 , 4125.64102564 , 4120.51282051 , 4128.71794872 , 4122.56410256 , 4116.41025641 , 4110.76923077 , 4152.30769231 , 4115.8974359 , 4126.66666667 , 4178.46153846 , 4903.07692308 , 4126.66666667 , 4131.28205128 , 2046.0 , 2034.0 , 74.56 , 0.0 , 0.0 , 0.0 , 0.0 , 

51.0 , 4119.48717949 , 4122.56410256 , 4120.0 , 4128.20512821 , 4122.56410256 , 4115.38461538 , 4111.79487179 , 4154.87179487 , 4120.0 , 4128.71794872 , 4182.05128205 , 4902.56410256 , 4125.12820513 , 4130.25641026 , 2046.0 , 2034.0 , 74.566 , 0.0 , 0.0 , 0.0 , 0.0 , 

52.0 , 4126.15384615 , 4113.33333333 , 4126.66666667 , 4122.05128205 , 4124.1025641 , 4113.84615385 , 4109.74358974 , 4148.20512821 , 4111.28205128 , 4131.28205128 , 4182.56410256 , 4903.07692308 , 4118.46153846 , 4134.87179487 , 2046.0 , 2034.0 , 74.573 , 0.0 , 0.0 , 0.0 , 0.0 , 

53.0 , 4126.66666667 , 4121.02564103 , 4122.05128205 , 4128.20512821 , 4122.56410256 , 4119.48717949 , 4115.8974359 , 4166.15384615 , 4121.02564103 , 4130.25641026 , 4183.58974359 , 4900.0 , 4128.20512821 , 4131.28205128 , 2047.0 , 2035.0 , 74.582 , 0.0 , 0.0 , 0.0 , 0.0 , 

54.0 , 4123.58974359 , 4123.58974359 , 4124.1025641 , 4127.17948718 , 4122.05128205 , 4116.41025641 , 4112.82051282 , 4158.46153846 , 4117.94871795 , 4128.20512821 , 4179.48717949 , 4903.07692308 , 4121.53846154 , 4129.23076923 , 2047.0 , 2033.0 , 74.592 , 0.0 , 0.0 , 0.0 , 0.0 , 

55.0 , 4117.43589744 , 4121.53846154 , 4121.53846154 , 4130.76923077 , 4121.53846154 , 4117.94871795 , 4118.46153846 , 4166.66666667 , 4126.15384615 , 4133.84615385 , 4183.58974359 , 4900.0 , 4129.23076923 , 4131.28205128 , 2048.0 , 2033.0 , 74.596 , 0.0 , 0.0 , 0.0 , 0.0 , 

56.0 , 4120.51282051 , 4113.84615385 , 4127.69230769 , 4120.51282051 , 4121.53846154 , 4112.30769231 , 4111.28205128 , 4157.43589744 , 4118.97435897 , 4133.33333333 , 4177.94871795 , 4902.56410256 , 4118.97435897 , 4134.35897436 , 2047.0 , 2033.0 , 74.605 , 0.0 , 0.0 , 0.0 , 0.0 , 

57.0 , 4120.51282051 , 4121.02564103 , 4120.51282051 , 4122.05128205 , 4121.53846154 , 4120.51282051 , 4121.53846154 , 4168.71794872 , 4127.69230769 , 4129.74358974 , 4180.0 , 4902.05128205 , 4121.53846154 , 4130.25641026 , 2048.0 , 2032.0 , 74.613 , 0.0 , 0.0 , 0.0 , 0.0 , 

58.0 , 4124.61538462 , 4117.94871795 , 4125.12820513 , 4118.46153846 , 4122.05128205 , 4118.46153846 , 4116.41025641 , 4153.84615385 , 4119.48717949 , 4126.66666667 , 4178.97435897 , 4907.17948718 , 4113.33333333 , 4128.20512821 , 2047.0 , 2032.0 , 74.622 , 0.0 , 0.0 , 0.0 , 0.0 , 

59.0 , 4121.53846154 , 4121.53846154 , 4122.05128205 , 4128.71794872 , 4122.05128205 , 4124.1025641 , 4125.12820513 , 4162.56410256 , 4128.71794872 , 4130.25641026 , 4183.58974359 , 4902.05128205 , 4127.69230769 , 4128.71794872 , 2048.0 , 2034.0 , 74.627 , 0.0 , 0.0 , 0.0 , 0.0 , 

60.0 , 4120.51282051 , 4115.38461538 , 4128.20512821 , 4122.05128205 , 4121.02564103 , 4117.43589744 , 4118.97435897 , 4146.15384615 , 4120.0 , 4127.69230769 , 4178.46153846 , 4903.07692308 , 4120.0 , 4133.33333333 , 2045.0 , 2034.0 , 74.635 , 0.0 , 0.0 , 0.0 , 0.0 , 

61.0 , 4124.1025641 , 4121.53846154 , 4122.05128205 , 4126.15384615 , 4123.07692308 , 4122.56410256 , 4125.64102564 , 4152.30769231 , 4123.58974359 , 4129.74358974 , 4182.05128205 , 4902.56410256 , 4126.15384615 , 4131.79487179 , 2045.0 , 2035.0 , 74.643 , 0.0 , 0.0 , 0.0 , 0.0 , 

62.0 , 4126.15384615 , 4120.51282051 , 4124.1025641 , 4127.17948718 , 4124.1025641 , 4118.97435897 , 4117.94871795 , 4151.28205128 , 4121.02564103 , 4129.23076923 , 4178.46153846 , 4906.66666667 , 4122.56410256 , 4128.71794872 , 2044.0 , 2035.0 , 74.652 , 0.0 , 0.0 , 0.0 , 0.0 , 

63.0 , 4122.56410256 , 4122.56410256 , 4122.56410256 , 4131.79487179 , 4124.61538462 , 4122.56410256 , 4118.97435897 , 4158.46153846 , 4124.1025641 , 4128.20512821 , 4181.53846154 , 4902.56410256 , 4126.15384615 , 4130.76923077 , 2043.0 , 2034.0 , 74.659 , 0.0 , 0.0 , 0.0 , 0.0 , 

64.0 , 4121.02564103 , 4116.92307692 , 4124.1025641 , 4125.12820513 , 4122.05128205 , 4120.0 , 4114.35897436 , 4150.76923077 , 4120.0 , 4127.17948718 , 4181.53846154 , 4902.05128205 , 4125.12820513 , 4132.82051282 , 2042.0 , 2034.0 , 74.667 , 0.0 , 0.0 , 0.0 , 0.0 , 

65.0 , 4122.05128205 , 4119.48717949 , 4122.05128205 , 4123.58974359 , 4121.53846154 , 4117.94871795 , 4111.79487179 , 4154.87179487 , 4121.02564103 , 4130.76923077 , 4180.51282051 , 4903.07692308 , 4126.66666667 , 4132.30769231 , 2042.0 , 2034.0 , 74.676 , 0.0 , 0.0 , 0.0 , 0.0 , 

66.0 , 4117.94871795 , 4120.0 , 4124.1025641 , 4122.56410256 , 4118.97435897 , 4114.87179487 , 4107.17948718 , 4160.51282051 , 4124.61538462 , 4131.28205128 , 4180.51282051 , 4906.15384615 , 4124.1025641 , 4129.74358974 , 2042.0 , 2034.0 , 74.685 , 0.0 , 0.0 , 0.0 , 0.0 , 

67.0 , 4122.05128205 , 4118.97435897 , 4123.07692308 , 4122.56410256 , 4117.94871795 , 4113.84615385 , 4109.23076923 , 4159.48717949 , 4121.53846154 , 4128.71794872 , 4182.56410256 , 4906.15384615 , 4122.05128205 , 4131.28205128 , 2040.0 , 2033.0 , 74.692 , 0.0 , 0.0 , 0.0 , 0.0 , 

68.0 , 4121.53846154 , 4117.94871795 , 4117.94871795 , 4126.15384615 , 4120.0 , 4120.0 , 4118.46153846 , 4168.71794872 , 4129.23076923 , 4128.71794872 , 4182.05128205 , 4903.07692308 , 4127.69230769 , 4129.23076923 , 2039.0 , 2033.0 , 74.7 , 0.0 , 0.0 , 0.0 , 0.0 , 

69.0 , 4119.48717949 , 4117.94871795 , 4122.05128205 , 4123.58974359 , 4120.51282051 , 4122.05128205 , 4117.94871795 , 4168.20512821 , 4132.30769231 , 4130.76923077 , 4181.53846154 , 4903.07692308 , 4124.1025641 , 4129.74358974 , 2039.0 , 2034.0 , 74.707 , 0.0 , 0.0 , 0.0 , 0.0 , 

70.0 , 4121.02564103 , 4116.41025641 , 4127.69230769 , 4118.46153846 , 4117.43589744 , 4116.41025641 , 4111.79487179 , 4164.1025641 , 4124.61538462 , 4130.76923077 , 4183.58974359 , 4907.17948718 , 4118.97435897 , 4133.84615385 , 2039.0 , 2034.0 , 74.717 , 0.0 , 0.0 , 0.0 , 0.0 , 

71.0 , 4123.07692308 , 4124.1025641 , 4122.56410256 , 4127.69230769 , 4120.0 , 4123.58974359 , 4125.12820513 , 4160.0 , 4128.20512821 , 4132.30769231 , 4184.1025641 , 4901.53846154 , 4126.66666667 , 4129.23076923 , 2040.0 , 2035.0 , 74.722 , 0.0 , 0.0 , 0.0 , 0.0 , 

72.0 , 4116.41025641 , 4130.76923077 , 4113.33333333 , 4136.41025641 , 4121.02564103 , 4136.92307692 , 4139.48717949 , 4165.12820513 , 4154.87179487 , 4133.84615385 , 4184.61538462 , 4894.35897436 , 4141.53846154 , 4122.05128205 , 2040.0 , 2035.0 , 74.731 , 0.0 , 0.0 , 0.0 , 0.0 , 

73.0 , 4123.07692308 , 4116.41025641 , 4127.69230769 , 4116.41025641 , 4120.51282051 , 4119.48717949 , 4113.33333333 , 4125.64102564 , 4127.17948718 , 4128.20512821 , 4174.35897436 , 4907.17948718 , 4115.8974359 , 4130.76923077 , 2042.0 , 2036.0 , 74.739 , 0.0 , 0.0 , 0.0 , 0.0 , 

74.0 , 4126.15384615 , 4119.48717949 , 4126.15384615 , 4120.0 , 4122.05128205 , 4116.92307692 , 4114.87179487 , 4124.61538462 , 4112.82051282 , 4129.23076923 , 4176.92307692 , 4908.20512821 , 4119.48717949 , 4132.82051282 , 2042.0 , 2036.0 , 74.749 , 0.0 , 0.0 , 0.0 , 0.0 , 

75.0 , 4124.61538462 , 4125.64102564 , 4125.64102564 , 4124.61538462 , 4124.61538462 , 4119.48717949 , 4118.46153846 , 4123.07692308 , 4112.30769231 , 4128.20512821 , 4176.41025641 , 4905.12820513 , 4124.1025641 , 4128.20512821 , 2041.0 , 2035.0 , 74.754 , 0.0 , 0.0 , 0.0 , 0.0 , 

76.0 , 4120.0 , 4126.15384615 , 4122.05128205 , 4126.66666667 , 4123.58974359 , 4121.02564103 , 4116.41025641 , 4133.33333333 , 4121.53846154 , 4129.23076923 , 4178.97435897 , 4902.05128205 , 4128.20512821 , 4130.76923077 , 2043.0 , 2036.0 , 74.762 , 0.0 , 0.0 , 0.0 , 0.0 , 

77.0 , 4124.61538462 , 4115.38461538 , 4127.17948718 , 4118.97435897 , 4122.56410256 , 4110.76923077 , 4102.56410256 , 4125.64102564 , 4105.12820513 , 4128.20512821 , 4176.92307692 , 4906.15384615 , 4113.84615385 , 4136.41025641 , 2045.0 , 2035.0 , 74.77 , 0.0 , 0.0 , 0.0 , 0.0 , 

78.0 , 4123.07692308 , 4126.66666667 , 4116.92307692 , 4132.82051282 , 4124.61538462 , 4122.05128205 , 4118.46153846 , 4149.23076923 , 4122.56410256 , 4130.25641026 , 4185.12820513 , 4901.02564103 , 4131.28205128 , 4131.28205128 , 2043.0 , 2035.0 , 74.78 , 0.0 , 0.0 , 0.0 , 0.0 , 

79.0 , 4121.02564103 , 4120.0 , 4123.07692308 , 4125.64102564 , 4124.1025641 , 4114.35897436 , 4109.23076923 , 4136.41025641 , 4122.05128205 , 4127.17948718 , 4181.53846154 , 4905.12820513 , 4123.58974359 , 4130.76923077 , 2045.0 , 2033.0 , 74.787 , 0.0 , 0.0 , 0.0 , 0.0 , 

80.0 , 4119.48717949 , 4118.97435897 , 4121.02564103 , 4127.69230769 , 4120.51282051 , 4115.8974359 , 4113.84615385 , 4146.66666667 , 4125.64102564 , 4131.79487179 , 4184.61538462 , 4900.0 , 4129.74358974 , 4131.79487179 , 2044.0 , 2034.0 , 74.794 , 0.0 , 0.0 , 0.0 , 0.0 , 

81.0 , 4121.02564103 , 4118.97435897 , 4125.12820513 , 4124.1025641 , 4118.46153846 , 4117.43589744 , 4116.41025641 , 4155.38461538 , 4128.71794872 , 4132.82051282 , 4181.53846154 , 4898.46153846 , 4128.20512821 , 4131.28205128 , 2043.0 , 2035.0 , 74.802 , 0.0 , 0.0 , 0.0 , 0.0 , 

82.0 , 4124.1025641 , 4122.56410256 , 4125.12820513 , 4122.05128205 , 4122.05128205 , 4120.51282051 , 4119.48717949 , 4158.46153846 , 4130.25641026 , 4132.82051282 , 4181.53846154 , 4901.02564103 , 4122.56410256 , 4131.28205128 , 2043.0 , 2035.0 , 74.811 , 0.0 , 0.0 , 0.0 , 0.0 , 

83.0 , 4122.05128205 , 4118.46153846 , 4125.64102564 , 4120.51282051 , 4120.0 , 4118.97435897 , 4118.97435897 , 4148.71794872 , 4127.17948718 , 4133.33333333 , 4181.02564103 , 4904.61538462 , 4120.51282051 , 4128.71794872 , 2045.0 , 2034.0 , 74.817 , 0.0 , 0.0 , 0.0 , 0.0 , 

84.0 , 4124.61538462 , 4118.46153846 , 4128.20512821 , 4123.07692308 , 4117.94871795 , 4120.51282051 , 4117.94871795 , 4146.15384615 , 4124.61538462 , 4130.25641026 , 4178.97435897 , 4905.64102564 , 4124.1025641 , 4129.74358974 , 2045.0 , 2033.0 , 74.825 , 0.0 , 0.0 , 0.0 , 0.0 , 

85.0 , 4123.58974359 , 4120.0 , 4128.71794872 , 4120.51282051 , 4122.05128205 , 4122.56410256 , 4115.38461538 , 4145.12820513 , 4120.51282051 , 4125.12820513 , 4177.94871795 , 4906.15384615 , 4118.46153846 , 4132.30769231 , 2044.0 , 2032.0 , 74.833 , 0.0 , 0.0 , 0.0 , 0.0 , 

86.0 , 4122.56410256 , 4123.58974359 , 4126.15384615 , 4121.53846154 , 4125.12820513 , 4124.1025641 , 4121.02564103 , 4139.48717949 , 4116.41025641 , 4128.71794872 , 4180.0 , 4904.1025641 , 4116.41025641 , 4133.33333333 , 2044.0 , 2032.0 , 74.843 , 0.0 , 0.0 , 0.0 , 0.0 , 

87.0 , 4122.56410256 , 4125.12820513 , 4123.07692308 , 4126.15384615 , 4120.51282051 , 4121.53846154 , 4124.1025641 , 4144.61538462 , 4127.17948718 , 4132.82051282 , 4180.51282051 , 4902.56410256 , 4130.76923077 , 4129.23076923 , 2046.0 , 2033.0 , 74.849 , 0.0 , 0.0 , 0.0 , 0.0 , 

88.0 , 4127.69230769 , 4124.1025641 , 4124.61538462 , 4122.05128205 , 4119.48717949 , 4116.41025641 , 4116.41025641 , 4135.38461538 , 4122.56410256 , 4127.69230769 , 4180.0 , 4903.07692308 , 4129.23076923 , 4129.74358974 , 2044.0 , 2032.0 , 74.857 , 0.0 , 0.0 , 0.0 , 0.0 , 

89.0 , 4120.51282051 , 4124.61538462 , 4121.02564103 , 4123.07692308 , 4120.51282051 , 4122.56410256 , 4119.48717949 , 4141.02564103 , 4123.58974359 , 4127.69230769 , 4184.1025641 , 4901.53846154 , 4129.74358974 , 4129.23076923 , 2046.0 , 2032.0 , 74.866 , 0.0 , 0.0 , 0.0 , 0.0 , 

90.0 , 4123.07692308 , 4122.05128205 , 4125.64102564 , 4123.07692308 , 4121.53846154 , 4120.51282051 , 4114.35897436 , 4135.8974359 , 4119.48717949 , 4129.74358974 , 4180.0 , 4904.1025641 , 4124.61538462 , 4130.76923077 , 2045.0 , 2033.0 , 74.875 , 0.0 , 0.0 , 0.0 , 0.0 , 

91.0 , 4125.12820513 , 4123.58974359 , 4121.02564103 , 4127.17948718 , 4122.05128205 , 4118.97435897 , 4115.38461538 , 4147.17948718 , 4129.74358974 , 4130.25641026 , 4181.53846154 , 4899.48717949 , 4133.84615385 , 4130.76923077 , 2045.0 , 2033.0 , 74.88 , 0.0 , 0.0 , 0.0 , 0.0 , 

92.0 , 4124.1025641 , 4115.8974359 , 4124.61538462 , 4119.48717949 , 4122.56410256 , 4112.82051282 , 4109.23076923 , 4136.41025641 , 4118.97435897 , 4127.17948718 , 4182.05128205 , 4901.02564103 , 4123.07692308 , 4132.30769231 , 2045.0 , 2033.0 , 74.888 , 0.0 , 0.0 , 0.0 , 0.0 , 

93.0 , 4118.97435897 , 4117.43589744 , 4121.02564103 , 4126.15384615 , 4123.07692308 , 4118.46153846 , 4118.46153846 , 4152.82051282 , 4128.71794872 , 4129.23076923 , 4185.64102564 , 4901.53846154 , 4130.76923077 , 4129.23076923 , 2045.0 , 2034.0 , 74.895 , 0.0 , 0.0 , 0.0 , 0.0 , 

94.0 , 4124.1025641 , 4113.84615385 , 4127.17948718 , 4119.48717949 , 4121.53846154 , 4111.79487179 , 4107.69230769 , 4142.56410256 , 4122.56410256 , 4128.20512821 , 4178.46153846 , 4906.66666667 , 4119.48717949 , 4130.76923077 , 2044.0 , 2032.0 , 74.904 , 0.0 , 0.0 , 0.0 , 0.0 , 

95.0 , 4123.07692308 , 4118.97435897 , 4120.51282051 , 4121.02564103 , 4119.48717949 , 4118.46153846 , 4116.41025641 , 4155.38461538 , 4130.25641026 , 4133.84615385 , 4183.07692308 , 4902.56410256 , 4125.64102564 , 4129.74358974 , 2043.0 , 2033.0 , 74.911 , 0.0 , 0.0 , 0.0 , 0.0 , 

96.0 , 4120.0 , 4115.38461538 , 4126.66666667 , 4117.94871795 , 4120.51282051 , 4116.41025641 , 4114.35897436 , 4148.20512821 , 4126.66666667 , 4134.35897436 , 4179.48717949 , 4905.12820513 , 4118.97435897 , 4128.20512821 , 2044.0 , 2033.0 , 74.92 , 0.0 , 0.0 , 0.0 , 0.0 , 

97.0 , 4120.0 , 4123.58974359 , 4125.64102564 , 4126.15384615 , 4125.12820513 , 4123.07692308 , 4121.02564103 , 4155.38461538 , 4132.30769231 , 4130.25641026 , 4180.51282051 , 4900.51282051 , 4122.56410256 , 4128.71794872 , 2044.0 , 2032.0 , 74.927 , 0.0 , 0.0 , 0.0 , 0.0 , 

98.0 , 4123.07692308 , 4120.51282051 , 4129.23076923 , 4120.51282051 , 4122.05128205 , 4121.02564103 , 4117.94871795 , 4142.56410256 , 4124.61538462 , 4126.66666667 , 4178.97435897 , 4901.53846154 , 4113.84615385 , 4129.23076923 , 2045.0 , 2033.0 , 74.937 , 0.0 , 0.0 , 0.0 , 0.0 , 

99.0 , 4124.61538462 , 4124.1025641 , 4124.1025641 , 4126.15384615 , 4117.43589744 , 4124.1025641 , 4126.15384615 , 4146.66666667 , 4128.20512821 , 4130.25641026 , 4183.58974359 , 4900.51282051 , 4123.58974359 , 4128.71794872 , 2045.0 , 2033.0 , 74.943 , 0.0 , 0.0 , 0.0 , 0.0 , 

100.0 , 4123.58974359 , 4122.56410256 , 4126.66666667 , 4125.12820513 , 4120.51282051 , 4118.46153846 , 4118.97435897 , 4142.56410256 , 4124.1025641 , 4128.71794872 , 4178.97435897 , 4903.07692308 , 4124.1025641 , 4131.28205128 , 2043.0 , 2031.0 , 74.951 , 0.0 , 0.0 , 0.0 , 0.0 , 

101.0 , 4125.12820513 , 4124.61538462 , 4123.58974359 , 4128.20512821 , 4125.12820513 , 4118.46153846 , 4116.92307692 , 4144.61538462 , 4115.38461538 , 4128.20512821 , 4178.46153846 , 4901.02564103 , 4125.64102564 , 4132.30769231 , 2042.0 , 2031.0 , 74.959 , 0.0 , 0.0 , 0.0 , 0.0 , 

102.0 , 4124.61538462 , 4122.05128205 , 4121.53846154 , 4124.61538462 , 4120.0 , 4118.97435897 , 4115.38461538 , 4138.97435897 , 4110.25641026 , 4128.71794872 , 4176.41025641 , 4904.1025641 , 4124.1025641 , 4128.71794872 , 2044.0 , 2031.0 , 74.969 , 0.0 , 0.0 , 0.0 , 0.0 , 

103.0 , 4123.58974359 , 4124.61538462 , 4124.61538462 , 4123.58974359 , 4117.94871795 , 4120.51282051 , 4114.87179487 , 4136.41025641 , 4115.38461538 , 4130.25641026 , 4177.94871795 , 4904.61538462 , 4121.53846154 , 4129.74358974 , 2044.0 , 2032.0 , 74.975 , 0.0 , 0.0 , 0.0 , 0.0 , 

104.0 , 4119.48717949 , 4122.05128205 , 4125.64102564 , 4126.66666667 , 4120.51282051 , 4117.43589744 , 4111.28205128 , 4142.56410256 , 4123.07692308 , 4130.76923077 , 4183.07692308 , 4903.58974359 , 4123.58974359 , 4130.76923077 , 2041.0 , 2033.0 , 74.983 , 0.0 , 0.0 , 0.0 , 0.0 , 

105.0 , 4124.1025641 , 4118.46153846 , 4122.05128205 , 4128.20512821 , 4120.51282051 , 4115.38461538 , 4108.20512821 , 4144.61538462 , 4119.48717949 , 4128.71794872 , 4183.58974359 , 4904.1025641 , 4126.66666667 , 4130.25641026 , 2042.0 , 2033.0 , 74.991 , 0.0 , 0.0 , 0.0 , 0.0 , 

106.0 , 4124.1025641 , 4121.02564103 , 4118.46153846 , 4128.71794872 , 4117.94871795 , 4119.48717949 , 4114.35897436 , 4155.8974359 , 4129.23076923 , 4129.74358974 , 4182.56410256 , 4900.0 , 4131.79487179 , 4128.71794872 , 2043.0 , 2034.0 , 75.001 , 0.0 , 0.0 , 0.0 , 0.0 , 

107.0 , 4124.61538462 , 4119.48717949 , 4126.15384615 , 4122.05128205 , 4120.51282051 , 4115.8974359 , 4115.38461538 , 4153.84615385 , 4126.66666667 , 4129.74358974 , 4181.53846154 , 4901.02564103 , 4121.53846154 , 4129.74358974 , 2043.0 , 2033.0 , 75.006 , 0.0 , 0.0 , 0.0 , 0.0 , 

108.0 , 4118.46153846 , 4117.94871795 , 4122.56410256 , 4124.1025641 , 4120.0 , 4120.0 , 4121.02564103 , 4168.20512821 , 4131.79487179 , 4129.74358974 , 4183.58974359 , 4900.51282051 , 4127.69230769 , 4129.74358974 , 2042.0 , 2035.0 , 75.015 , 0.0 , 0.0 , 0.0 , 0.0 , 

109.0 , 4120.51282051 , 4114.87179487 , 4125.64102564 , 4118.46153846 , 4117.43589744 , 4117.94871795 , 4112.82051282 , 4155.38461538 , 4123.07692308 , 4127.69230769 , 4177.94871795 , 4904.1025641 , 4119.48717949 , 4132.30769231 , 2043.0 , 2035.0 , 75.023 , 0.0 , 0.0 , 0.0 , 0.0 , 

110.0 , 4122.56410256 , 4123.07692308 , 4125.12820513 , 4122.56410256 , 4120.0 , 4123.58974359 , 4121.02564103 , 4162.05128205 , 4130.25641026 , 4130.25641026 , 4181.53846154 , 4900.51282051 , 4121.02564103 , 4129.23076923 , 2041.0 , 2036.0 , 75.033 , 0.0 , 0.0 , 0.0 , 0.0 , 

111.0 , 4128.71794872 , 4116.41025641 , 4133.33333333 , 4118.46153846 , 4124.61538462 , 4120.51282051 , 4117.43589744 , 4146.66666667 , 4118.46153846 , 4128.71794872 , 4178.46153846 , 4903.07692308 , 4110.76923077 , 4128.71794872 , 2042.0 , 2038.0 , 75.037 , 0.0 , 0.0 , 0.0 , 0.0 , 

112.0 , 4124.61538462 , 4118.46153846 , 4124.61538462 , 4125.12820513 , 4125.64102564 , 4125.64102564 , 4119.48717949 , 4152.82051282 , 4126.66666667 , 4129.74358974 , 4180.51282051 , 4903.07692308 , 4123.58974359 , 4129.23076923 , 2042.0 , 2038.0 , 75.046 , 0.0 , 0.0 , 0.0 , 0.0 , 

113.0 , 4123.07692308 , 4120.0 , 4127.69230769 , 4120.51282051 , 4123.58974359 , 4118.97435897 , 4107.17948718 , 4140.51282051 , 4118.97435897 , 4129.23076923 , 4177.43589744 , 4908.20512821 , 4116.92307692 , 4131.28205128 , 2044.0 , 2037.0 , 75.054 , 0.0 , 0.0 , 0.0 , 0.0 , 

114.0 , 4122.56410256 , 4127.17948718 , 4121.53846154 , 4128.20512821 , 4121.53846154 , 4123.58974359 , 4117.94871795 , 4154.35897436 , 4125.12820513 , 4131.28205128 , 4181.53846154 , 4903.58974359 , 4125.12820513 , 4129.23076923 , 2044.0 , 2035.0 , 75.064 , 0.0 , 0.0 , 0.0 , 0.0 , 

115.0 , 4123.58974359 , 4119.48717949 , 4124.1025641 , 4126.66666667 , 4123.58974359 , 4119.48717949 , 4114.87179487 , 4140.51282051 , 4116.92307692 , 4128.71794872 , 4178.97435897 , 4904.1025641 , 4123.07692308 , 4129.23076923 , 2044.0 , 2036.0 , 75.069 , 0.0 , 0.0 , 0.0 , 0.0 , 

116.0 , 4122.56410256 , 4124.1025641 , 4121.53846154 , 4132.30769231 , 4126.15384615 , 4124.1025641 , 4116.92307692 , 4145.12820513 , 4121.53846154 , 4130.25641026 , 4181.53846154 , 4901.53846154 , 4131.28205128 , 4129.74358974 , 2044.0 , 2036.0 , 75.078 , 0.0 , 0.0 , 0.0 , 0.0 , 

117.0 , 4121.02564103 , 4121.02564103 , 4124.61538462 , 4124.1025641 , 4122.56410256 , 4118.46153846 , 4108.20512821 , 4145.12820513 , 4119.48717949 , 4128.71794872 , 4180.0 , 4902.05128205 , 4122.56410256 , 4130.25641026 , 2044.0 , 2036.0 , 75.085 , 0.0 , 0.0 , 0.0 , 0.0 , 

118.0 , 4122.05128205 , 4122.56410256 , 4118.46153846 , 4126.15384615 , 4120.0 , 4118.46153846 , 4112.30769231 , 4159.48717949 , 4126.15384615 , 4128.71794872 , 4184.61538462 , 4897.94871795 , 4125.64102564 , 4129.23076923 , 2044.0 , 2036.0 , 75.095 , 0.0 , 0.0 , 0.0 , 0.0 , 

119.0 , 4123.58974359 , 4117.94871795 , 4122.05128205 , 4123.58974359 , 4118.97435897 , 4116.41025641 , 4112.30769231 , 4157.43589744 , 4124.61538462 , 4128.20512821 , 4182.05128205 , 4901.02564103 , 4123.58974359 , 4132.82051282 , 2043.0 , 2037.0 , 75.101 , 0.0 , 0.0 , 0.0 , 0.0 , 

120.0 , 4123.58974359 , 4117.94871795 , 4125.12820513 , 4122.56410256 , 4120.51282051 , 4117.43589744 , 4117.43589744 , 4159.48717949 , 4123.58974359 , 4131.28205128 , 4179.48717949 , 4902.56410256 , 4123.58974359 , 4134.87179487 , 2044.0 , 2038.0 , 75.109 , 0.0 , 0.0 , 0.0 , 0.0 , 

121.0 , 4119.48717949 , 4115.38461538 , 4126.15384615 , 4118.97435897 , 4122.05128205 , 4113.84615385 , 4113.84615385 , 4158.97435897 , 4125.12820513 , 4132.82051282 , 4179.48717949 , 4903.07692308 , 4123.58974359 , 4129.23076923 , 2044.0 , 2037.0 , 75.117 , 0.0 , 0.0 , 0.0 , 0.0 , 

122.0 , 4123.07692308 , 4118.46153846 , 4126.15384615 , 4121.53846154 , 4126.15384615 , 4118.46153846 , 4113.33333333 , 4157.94871795 , 4123.58974359 , 4132.30769231 , 4183.07692308 , 4903.07692308 , 4121.02564103 , 4129.23076923 , 2045.0 , 2036.0 , 75.126 , 0.0 , 0.0 , 0.0 , 0.0 , 

123.0 , 4124.61538462 , 4116.41025641 , 4127.69230769 , 4123.07692308 , 4124.1025641 , 4125.12820513 , 4120.0 , 4161.53846154 , 4129.74358974 , 4132.30769231 , 4181.53846154 , 4901.53846154 , 4118.46153846 , 4130.25641026 , 2044.0 , 2036.0 , 75.132 , 0.0 , 0.0 , 0.0 , 0.0 , 

124.0 , 4124.61538462 , 4115.38461538 , 4128.71794872 , 4119.48717949 , 4122.56410256 , 4121.53846154 , 4117.94871795 , 4151.28205128 , 4124.1025641 , 4131.28205128 , 4177.94871795 , 4901.02564103 , 4114.87179487 , 4130.25641026 , 2046.0 , 2036.0 , 75.14 , 0.0 , 0.0 , 0.0 , 0.0 , 

125.0 , 4119.48717949 , 4122.05128205 , 4121.53846154 , 4123.58974359 , 4124.1025641 , 4121.02564103 , 4116.92307692 , 4154.35897436 , 4125.12820513 , 4128.71794872 , 4181.53846154 , 4900.51282051 , 4123.58974359 , 4128.20512821 , 2045.0 , 2036.0 , 75.147 , 0.0 , 0.0 , 0.0 , 0.0 , 

126.0 , 4124.1025641 , 4122.05128205 , 4122.56410256 , 4124.1025641 , 4124.61538462 , 4117.94871795 , 4113.84615385 , 4144.61538462 , 4115.8974359 , 4125.64102564 , 4179.48717949 , 4904.61538462 , 4116.92307692 , 4130.76923077 , 2046.0 , 2037.0 , 75.156 , 0.0 , 0.0 , 0.0 , 0.0 , 

127.0 , 4123.07692308 , 4122.56410256 , 4118.46153846 , 4130.76923077 , 4120.0 , 4122.05128205 , 4120.51282051 , 4155.38461538 , 4123.07692308 , 4130.25641026 , 4178.97435897 , 4903.58974359 , 4126.15384615 , 4130.76923077 , 2046.0 , 2037.0 , 75.163 , 0.0 , 0.0 , 0.0 , 0.0 , 

128.0 , 4124.1025641 , 4119.48717949 , 4123.58974359 , 4125.64102564 , 4120.0 , 4120.0 , 4110.76923077 , 4146.66666667 , 4114.87179487 , 4129.23076923 , 4177.94871795 , 4902.56410256 , 4122.56410256 , 4133.33333333 , 2048.0 , 2037.0 , 75.172 , 0.0 , 0.0 , 0.0 , 0.0 , 

0.0 , 4121.53846154 , 4121.53846154 , 4121.02564103 , 4127.17948718 , 4121.53846154 , 4123.07692308 , 4114.35897436 , 4153.84615385 , 4119.48717949 , 4126.66666667 , 4184.1025641 , 4897.43589744 , 4127.69230769 , 4132.82051282 , 2048.0 , 2032.0 , 75.179 , 0.0 , 0.0 , 0.0 , 0.0 , 

1.0 , 4124.1025641 , 4114.87179487 , 4127.17948718 , 4121.53846154 , 4121.53846154 , 4113.84615385 , 4106.66666667 , 4140.0 , 4112.30769231 , 4126.15384615 , 4179.48717949 , 4903.07692308 , 4116.41025641 , 4131.28205128 , 2047.0 , 2031.0 , 75.19 , 0.0 , 0.0 , 0.0 , 0.0 , 

2.0 , 4121.53846154 , 4121.02564103 , 4120.0 , 4127.69230769 , 4122.05128205 , 4117.43589744 , 4111.79487179 , 4159.48717949 , 4127.69230769 , 4129.74358974 , 4184.61538462 , 4901.02564103 , 4129.74358974 , 4129.23076923 , 2046.0 , 2031.0 , 75.195 , 0.0 , 0.0 , 0.0 , 0.0 , 

3.0 , 4122.05128205 , 4118.97435897 , 4124.61538462 , 4119.48717949 , 4121.53846154 , 4114.35897436 , 4105.12820513 , 4156.41025641 , 4121.02564103 , 4126.15384615 , 4182.05128205 , 4901.53846154 , 4123.58974359 , 4130.76923077 , 2046.0 , 2032.0 , 75.204 , 0.0 , 0.0 , 0.0 , 0.0 , 

4.0 , 4120.0 , 4123.07692308 , 4120.0 , 4127.17948718 , 4122.05128205 , 4120.51282051 , 4116.41025641 , 4164.61538462 , 4123.58974359 , 4130.76923077 , 4182.56410256 , 4898.46153846 , 4129.74358974 , 4130.25641026 , 2045.0 , 2033.0 , 75.211 , 0.0 , 0.0 , 0.0 , 0.0 , 

5.0 , 4122.05128205 , 4118.97435897 , 4124.1025641 , 4123.58974359 , 4124.61538462 , 4117.94871795 , 4110.25641026 , 4154.35897436 , 4121.53846154 , 4129.74358974 , 4178.46153846 , 4903.07692308 , 4120.51282051 , 4130.76923077 , 2045.0 , 2034.0 , 75.221 , 0.0 , 0.0 , 0.0 , 0.0 , 

6.0 , 4122.05128205 , 4122.56410256 , 4123.07692308 , 4123.07692308 , 4124.61538462 , 4123.58974359 , 4115.8974359 , 4166.15384615 , 4131.28205128 , 4126.66666667 , 4185.12820513 , 4899.48717949 , 4124.1025641 , 4130.25641026 , 2044.0 , 2035.0 , 75.226 , 0.0 , 0.0 , 0.0 , 0.0 , 

7.0 , 4121.02564103 , 4115.8974359 , 4126.15384615 , 4116.92307692 , 4120.51282051 , 4117.94871795 , 4113.33333333 , 4156.92307692 , 4122.56410256 , 4128.20512821 , 4182.05128205 , 4901.53846154 , 4122.05128205 , 4131.28205128 , 2043.0 , 2037.0 , 75.236 , 0.0 , 0.0 , 0.0 , 0.0 , 

8.0 , 4123.07692308 , 4117.94871795 , 4123.07692308 , 4124.1025641 , 4122.56410256 , 4120.0 , 4118.46153846 , 4157.94871795 , 4123.07692308 , 4133.84615385 , 4179.48717949 , 4900.51282051 , 4126.15384615 , 4131.28205128 , 2043.0 , 2036.0 , 75.244 , 0.0 , 0.0 , 0.0 , 0.0 , 

9.0 , 4124.61538462 , 4116.92307692 , 4128.20512821 , 4122.05128205 , 4124.61538462 , 4120.51282051 , 4115.8974359 , 4152.30769231 , 4123.58974359 , 4131.79487179 , 4176.41025641 , 4903.07692308 , 4116.92307692 , 4129.23076923 , 2044.0 , 2036.0 , 75.253 , 0.0 , 0.0 , 0.0 , 0.0 , 

10.0 , 4124.1025641 , 4120.51282051 , 4128.20512821 , 4123.58974359 , 4125.12820513 , 4122.05128205 , 4118.46153846 , 4149.23076923 , 4121.02564103 , 4130.25641026 , 4178.46153846 , 4904.1025641 , 4114.87179487 , 4128.71794872 , 2044.0 , 2036.0 , 75.258 , 0.0 , 0.0 , 0.0 , 0.0 , 

11.0 , 4122.05128205 , 4117.94871795 , 4124.61538462 , 4127.17948718 , 4121.53846154 , 4118.97435897 , 4116.92307692 , 4148.71794872 , 4121.02564103 , 4130.76923077 , 4177.94871795 , 4905.64102564 , 4121.53846154 , 4128.20512821 , 2044.0 , 2035.0 , 75.267 , 0.0 , 0.0 , 0.0 , 0.0 , 

12.0 , 4124.61538462 , 4117.94871795 , 4124.1025641 , 4126.15384615 , 4120.51282051 , 4118.97435897 , 4113.84615385 , 4149.74358974 , 4117.43589744 , 4128.20512821 , 4178.46153846 , 4906.15384615 , 4124.1025641 , 4130.25641026 , 2043.0 , 2035.0 , 75.274 , 0.0 , 0.0 , 0.0 , 0.0 , 

13.0 , 4120.0 , 4122.56410256 , 4123.07692308 , 4125.64102564 , 4118.97435897 , 4124.1025641 , 4117.43589744 , 4155.8974359 , 4120.0 , 4126.15384615 , 4182.05128205 , 4902.56410256 , 4129.23076923 , 4129.74358974 , 2043.0 , 2034.0 , 75.284 , 0.0 , 0.0 , 0.0 , 0.0 , 

14.0 , 4123.07692308 , 4124.1025641 , 4124.61538462 , 4126.15384615 , 4120.0 , 4119.48717949 , 4115.38461538 , 4150.25641026 , 4115.38461538 , 4128.71794872 , 4181.53846154 , 4900.0 , 4122.05128205 , 4129.74358974 , 2041.0 , 2034.0 , 75.289 , 0.0 , 0.0 , 0.0 , 0.0 , 

15.0 , 4123.58974359 , 4123.07692308 , 4121.02564103 , 4130.25641026 , 4122.05128205 , 4117.94871795 , 4116.92307692 , 4162.05128205 , 4125.12820513 , 4131.28205128 , 4184.1025641 , 4899.48717949 , 4124.61538462 , 4129.23076923 , 2040.0 , 2035.0 , 75.297 , 0.0 , 0.0 , 0.0 , 0.0 , 

16.0 , 4124.1025641 , 4117.94871795 , 4122.56410256 , 4125.12820513 , 4121.53846154 , 4116.92307692 , 4111.28205128 , 4158.97435897 , 4120.51282051 , 4126.66666667 , 4183.58974359 , 4901.53846154 , 4122.56410256 , 4132.30769231 , 2039.0 , 2036.0 , 75.305 , 0.0 , 0.0 , 0.0 , 0.0 , 

17.0 , 4120.51282051 , 4119.48717949 , 4117.94871795 , 4127.17948718 , 4118.46153846 , 4122.05128205 , 4117.43589744 , 4171.79487179 , 4130.25641026 , 4128.20512821 , 4184.61538462 , 4896.92307692 , 4132.82051282 , 4131.28205128 , 2040.0 , 2036.0 , 75.314 , 0.0 , 0.0 , 0.0 , 0.0 , 

18.0 , 4123.58974359 , 4115.38461538 , 4127.17948718 , 4118.46153846 , 4121.02564103 , 4115.8974359 , 4111.79487179 , 4158.46153846 , 4124.61538462 , 4130.76923077 , 4178.46153846 , 4901.53846154 , 4118.46153846 , 4130.76923077 , 2040.0 , 2036.0 , 75.323 , 0.0 , 0.0 , 0.0 , 0.0 , 

19.0 , 4123.07692308 , 4121.53846154 , 4125.12820513 , 4122.56410256 , 4123.58974359 , 4123.07692308 , 4117.94871795 , 4165.12820513 , 4129.74358974 , 4130.76923077 , 4183.58974359 , 4903.07692308 , 4121.53846154 , 4127.69230769 , 2040.0 , 2034.0 , 75.329 , 0.0 , 0.0 , 0.0 , 0.0 , 

20.0 , 4124.61538462 , 4117.43589744 , 4127.69230769 , 4118.46153846 , 4123.58974359 , 4118.46153846 , 4111.79487179 , 4153.84615385 , 4120.0 , 4127.17948718 , 4180.0 , 4904.1025641 , 4114.35897436 , 4129.23076923 , 2041.0 , 2033.0 , 75.337 , 0.0 , 0.0 , 0.0 , 0.0 , 

21.0 , 4126.66666667 , 4118.97435897 , 4124.61538462 , 4124.1025641 , 4123.58974359 , 4123.07692308 , 4120.51282051 , 4164.1025641 , 4129.23076923 , 4131.79487179 , 4178.46153846 , 4898.97435897 , 4121.02564103 , 4131.79487179 , 2043.0 , 2034.0 , 75.347 , 0.0 , 0.0 , 0.0 , 0.0 , 

22.0 , 4130.25641026 , 4116.41025641 , 4132.82051282 , 4118.46153846 , 4121.02564103 , 4123.07692308 , 4113.84615385 , 4147.17948718 , 4120.0 , 4132.30769231 , 4174.87179487 , 4904.61538462 , 4111.28205128 , 4132.30769231 , 2044.0 , 2034.0 , 75.352 , 0.0 , 0.0 , 0.0 , 0.0 , 

23.0 , 4122.56410256 , 4124.1025641 , 4121.02564103 , 4126.66666667 , 4121.02564103 , 4127.17948718 , 4120.51282051 , 4156.92307692 , 4125.64102564 , 4132.30769231 , 4181.53846154 , 4903.07692308 , 4124.1025641 , 4129.23076923 , 2046.0 , 2037.0 , 75.361 , 0.0 , 0.0 , 0.0 , 0.0 , 

24.0 , 4119.48717949 , 4120.0 , 4121.02564103 , 4124.1025641 , 4124.1025641 , 4115.8974359 , 4113.33333333 , 4150.76923077 , 4120.0 , 4128.71794872 , 4178.97435897 , 4903.07692308 , 4122.05128205 , 4130.25641026 , 2046.0 , 2036.0 , 75.369 , 0.0 , 0.0 , 0.0 , 0.0 , 

25.0 , 4126.66666667 , 4125.64102564 , 4121.53846154 , 4130.76923077 , 4125.64102564 , 4121.53846154 , 4116.92307692 , 4152.30769231 , 4122.05128205 , 4129.23076923 , 4183.07692308 , 4898.97435897 , 4129.23076923 , 4130.76923077 , 2045.0 , 2036.0 , 75.377 , 0.0 , 0.0 , 0.0 , 0.0 , 

26.0 , 4127.69230769 , 4122.05128205 , 4123.07692308 , 4128.20512821 , 4122.05128205 , 4122.05128205 , 4112.82051282 , 4146.15384615 , 4117.94871795 , 4127.69230769 , 4182.05128205 , 4903.58974359 , 4130.25641026 , 4129.74358974 , 2047.0 , 2035.0 , 75.385 , 0.0 , 0.0 , 0.0 , 0.0 , 

27.0 , 4122.05128205 , 4123.07692308 , 4118.46153846 , 4127.69230769 , 4120.0 , 4120.51282051 , 4117.43589744 , 4156.41025641 , 4119.48717949 , 4128.20512821 , 4181.53846154 , 4902.05128205 , 4131.79487179 , 4130.76923077 , 2047.0 , 2034.0 , 75.392 , 0.0 , 0.0 , 0.0 , 0.0 , 

28.0 , 4121.02564103 , 4120.51282051 , 4124.61538462 , 4123.07692308 , 4121.02564103 , 4116.41025641 , 4112.30769231 , 4155.8974359 , 4115.8974359 , 4128.20512821 , 4178.97435897 , 4900.51282051 , 4120.51282051 , 4130.25641026 , 2045.0 , 2034.0 , 75.401 , 0.0 , 0.0 , 0.0 , 0.0 , 

29.0 , 4125.12820513 , 4121.53846154 , 4125.64102564 , 4126.15384615 , 4123.07692308 , 4117.43589744 , 4110.25641026 , 4154.87179487 , 4116.92307692 , 4128.71794872 , 4181.02564103 , 4900.0 , 4120.51282051 , 4129.74358974 , 2046.0 , 2032.0 , 75.41 , 0.0 , 0.0 , 0.0 , 0.0 , 

30.0 , 4123.07692308 , 4116.92307692 , 4121.02564103 , 4126.66666667 , 4118.46153846 , 4114.87179487 , 4111.28205128 , 4161.53846154 , 4124.1025641 , 4126.66666667 , 4180.0 , 4902.56410256 , 4126.66666667 , 4129.23076923 , 2045.0 , 2033.0 , 75.416 , 0.0 , 0.0 , 0.0 , 0.0 , 

31.0 , 4121.53846154 , 4116.41025641 , 4124.61538462 , 4122.56410256 , 4118.46153846 , 4115.8974359 , 4111.28205128 , 4160.51282051 , 4121.53846154 , 4129.23076923 , 4179.48717949 , 4903.07692308 , 4121.02564103 , 4130.25641026 , 2046.0 , 2033.0 , 75.424 , 0.0 , 0.0 , 0.0 , 0.0 , 

32.0 , 4117.43589744 , 4121.02564103 , 4127.69230769 , 4122.56410256 , 4122.56410256 , 4123.58974359 , 4115.38461538 , 4165.12820513 , 4127.17948718 , 4131.79487179 , 4183.58974359 , 4900.51282051 , 4123.58974359 , 4130.25641026 , 2045.0 , 2033.0 , 75.432 , 0.0 , 0.0 , 0.0 , 0.0 , 

33.0 , 4123.07692308 , 4121.02564103 , 4128.71794872 , 4122.56410256 , 4123.58974359 , 4121.02564103 , 4115.8974359 , 4158.46153846 , 4123.58974359 , 4129.23076923 , 4180.51282051 , 4900.51282051 , 4121.02564103 , 4131.28205128 , 2046.0 , 2032.0 , 75.64 , 0.0 , 0.0 , 0.0 , 0.0 , 

34.0 , 4122.56410256 , 4122.56410256 , 4123.58974359 , 4127.69230769 , 4121.02564103 , 4118.46153846 , 4120.51282051 , 4162.05128205 , 4127.17948718 , 4131.28205128 , 4178.97435897 , 4899.48717949 , 4125.12820513 , 4129.74358974 , 2046.0 , 2032.0 , 75.643 , 0.0 , 0.0 , 0.0 , 0.0 , 

35.0 , 4122.56410256 , 4120.51282051 , 4128.20512821 , 4121.53846154 , 4122.05128205 , 4115.8974359 , 4115.38461538 , 4147.17948718 , 4120.0 , 4132.82051282 , 4176.92307692 , 4903.58974359 , 4119.48717949 , 4131.28205128 , 2045.0 , 2032.0 , 75.643 , 0.0 , 0.0 , 0.0 , 0.0 , 

36.0 , 4120.0 , 4124.61538462 , 4121.53846154 , 4125.12820513 , 4121.53846154 , 4124.61538462 , 4122.05128205 , 4155.8974359 , 4129.74358974 , 4132.82051282 , 4181.53846154 , 4902.56410256 , 4127.69230769 , 4131.28205128 , 2045.0 , 2034.0 , 75.643 , 0.0 , 0.0 , 0.0 , 0.0 , 

37.0 , 4124.61538462 , 4120.0 , 4124.61538462 , 4123.07692308 , 4121.02564103 , 4118.46153846 , 4113.84615385 , 4140.51282051 , 4115.8974359 , 4129.74358974 , 4175.8974359 , 4904.1025641 , 4115.8974359 , 4133.84615385 , 2045.0 , 2034.0 , 75.643 , 0.0 , 0.0 , 0.0 , 0.0 , 

38.0 , 4123.07692308 , 4122.05128205 , 4120.51282051 , 4130.76923077 , 4121.02564103 , 4121.02564103 , 4118.97435897 , 4149.74358974 , 4120.0 , 4129.23076923 , 4177.94871795 , 4900.51282051 , 4127.17948718 , 4131.28205128 , 2046.0 , 2035.0 , 75.643 , 0.0 , 0.0 , 0.0 , 0.0 , 

39.0 , 4124.1025641 , 4117.43589744 , 4128.20512821 , 4122.05128205 , 4121.53846154 , 4117.94871795 , 4112.82051282 , 4144.1025641 , 4112.82051282 , 4126.66666667 , 4177.94871795 , 4905.12820513 , 4122.56410256 , 4130.25641026 , 2046.0 , 2033.0 , 75.643 , 0.0 , 0.0 , 0.0 , 0.0 , 

40.0 , 4121.02564103 , 4123.58974359 , 4123.58974359 , 4125.64102564 , 4122.56410256 , 4122.56410256 , 4118.97435897 , 4157.94871795 , 4122.56410256 , 4129.74358974 , 4183.58974359 , 4901.02564103 , 4127.17948718 , 4129.23076923 , 2046.0 , 2033.0 , 75.643 , 0.0 , 0.0 , 0.0 , 0.0 , 

41.0 , 4120.0 , 4120.51282051 , 4126.66666667 , 4123.58974359 , 4121.53846154 , 4114.35897436 , 4108.71794872 , 4147.17948718 , 4116.92307692 , 4126.66666667 , 4179.48717949 , 4903.58974359 , 4118.46153846 , 4131.28205128 , 2046.0 , 2033.0 , 75.643 , 0.0 , 0.0 , 0.0 , 0.0 , 

42.0 , 4121.53846154 , 4124.1025641 , 4121.02564103 , 4127.69230769 , 4121.02564103 , 4121.02564103 , 4113.33333333 , 4160.0 , 4124.61538462 , 4128.71794872 , 4184.61538462 , 4901.02564103 , 4128.71794872 , 4130.76923077 , 2045.0 , 2035.0 , 75.643 , 0.0 , 0.0 , 0.0 , 0.0 , 

43.0 , 4121.02564103 , 4120.51282051 , 4125.12820513 , 4118.97435897 , 4121.02564103 , 4120.0 , 4111.28205128 , 4159.48717949 , 4123.58974359 , 4131.79487179 , 4183.58974359 , 4901.53846154 , 4124.1025641 , 4129.23076923 , 2045.0 , 2034.0 , 75.643 , 0.0 , 0.0 , 0.0 , 0.0 , 

44.0 , 4121.53846154 , 4123.07692308 , 4123.58974359 , 4121.53846154 , 4121.53846154 , 4118.46153846 , 4116.41025641 , 4165.64102564 , 4126.66666667 , 4132.30769231 , 4181.53846154 , 4898.97435897 , 4124.1025641 , 4130.25641026 , 2044.0 , 2033.0 , 75.643 , 0.0 , 0.0 , 0.0 , 0.0 , 

45.0 , 4124.1025641 , 4117.94871795 , 4124.1025641 , 4122.05128205 , 4122.05128205 , 4114.87179487 , 4113.33333333 , 4160.51282051 , 4125.12820513 , 4129.23076923 , 4174.35897436 , 4901.02564103 , 4118.46153846 , 4129.74358974 , 2045.0 , 2033.0 , 75.643 , 0.0 , 0.0 , 0.0 , 0.0 , 

46.0 , 4123.07692308 , 4122.05128205 , 4120.51282051 , 4125.64102564 , 4124.61538462 , 4122.56410256 , 4118.97435897 , 4162.05128205 , 4129.74358974 , 4131.79487179 , 4176.41025641 , 4900.0 , 4123.07692308 , 4129.23076923 , 2044.0 , 2033.0 , 75.643 , 0.0 , 0.0 , 0.0 , 0.0 , 

47.0 , 4120.0 , 4119.48717949 , 4127.17948718 , 4118.46153846 , 4122.56410256 , 4121.02564103 , 4114.87179487 , 4149.74358974 , 4124.1025641 , 4130.76923077 , 4177.94871795 , 4903.07692308 , 4117.43589744 , 4132.30769231 , 2043.0 , 2033.0 , 75.643 , 0.0 , 0.0 , 0.0 , 0.0 , 

48.0 , 4123.07692308 , 4119.48717949 , 4130.76923077 , 4116.92307692 , 4123.58974359 , 4118.97435897 , 4115.8974359 , 4143.07692308 , 4117.94871795 , 4130.76923077 , 4178.97435897 , 4903.58974359 , 4114.87179487 , 4131.79487179 , 2043.0 , 2033.0 , 75.643 , 0.0 , 0.0 , 0.0 , 0.0 , 

49.0 , 4122.05128205 , 4122.05128205 , 4126.66666667 , 4121.53846154 , 4123.58974359 , 4121.02564103 , 4117.43589744 , 4149.23076923 , 4125.64102564 , 4131.79487179 , 4178.46153846 , 4902.05128205 , 4121.53846154 , 4126.66666667 , 2042.0 , 2033.0 , 75.643 , 0.0 , 0.0 , 0.0 , 0.0 , 

50.0 , 4123.07692308 , 4124.61538462 , 4125.12820513 , 4125.64102564 , 4122.05128205 , 4121.02564103 , 4116.92307692 , 4143.58974359 , 4124.61538462 , 4129.23076923 , 4178.97435897 , 4903.58974359 , 4122.05128205 , 4128.20512821 , 2042.0 , 2033.0 , 75.643 , 0.0 , 0.0 , 0.0 , 0.0 , 

51.0 , 4122.56410256 , 4123.58974359 , 4122.56410256 , 4126.66666667 , 4119.48717949 , 4120.51282051 , 4119.48717949 , 4144.1025641 , 4123.07692308 , 4130.25641026 , 4180.0 , 4905.12820513 , 4126.15384615 , 4131.79487179 , 2042.0 , 2032.0 , 75.643 , 0.0 , 0.0 , 0.0 , 0.0 , 

52.0 , 4124.61538462 , 4122.05128205 , 4120.51282051 , 4121.53846154 , 4121.53846154 , 4117.94871795 , 4118.46153846 , 4141.02564103 , 4117.94871795 , 4131.79487179 , 4177.94871795 , 4901.02564103 , 4125.64102564 , 4131.28205128 , 2043.0 , 2033.0 , 75.643 , 0.0 , 0.0 , 0.0 , 0.0 , 

53.0 , 4118.97435897 , 4124.1025641 , 4117.94871795 , 4127.17948718 , 4122.56410256 , 4121.02564103 , 4119.48717949 , 4153.84615385 , 4125.12820513 , 4130.76923077 , 4183.58974359 , 4894.35897436 , 4133.33333333 , 4130.25641026 , 2042.0 , 2033.0 , 75.643 , 0.0 , 0.0 , 0.0 , 0.0 , 

54.0 , 4121.53846154 , 4120.51282051 , 4125.12820513 , 4126.66666667 , 4122.05128205 , 4116.92307692 , 4110.76923077 , 4142.56410256 , 4114.87179487 , 4128.20512821 , 4182.56410256 , 4897.94871795 , 4123.58974359 , 4133.33333333 , 2044.0 , 2033.0 , 75.643 , 0.0 , 0.0 , 0.0 , 0.0 , 

55.0 , 4121.53846154 , 4123.07692308 , 4116.92307692 , 4128.71794872 , 4121.53846154 , 4121.53846154 , 4116.92307692 , 4154.87179487 , 4125.12820513 , 4131.79487179 , 4181.02564103 , 4900.0 , 4130.76923077 , 4130.25641026 , 2044.0 , 2033.0 , 75.643 , 0.0 , 0.0 , 0.0 , 0.0 , 

56.0 , 4125.12820513 , 4114.35897436 , 4123.58974359 , 4118.97435897 , 4120.0 , 4113.84615385 , 4108.20512821 , 4143.07692308 , 4118.46153846 , 4130.25641026 , 4175.38461538 , 4905.12820513 , 4117.94871795 , 4131.28205128 , 2043.0 , 2035.0 , 75.643 , 0.0 , 0.0 , 0.0 , 0.0 , 

57.0 , 4121.53846154 , 4117.43589744 , 4124.1025641 , 4123.07692308 , 4120.0 , 4118.46153846 , 4116.41025641 , 4156.92307692 , 4128.20512821 , 4130.76923077 , 4183.07692308 , 4900.0 , 4124.61538462 , 4129.74358974 , 2043.0 , 2034.0 , 75.643 , 0.0 , 0.0 , 0.0 , 0.0 , 

58.0 , 4122.56410256 , 4116.92307692 , 4128.20512821 , 4117.94871795 , 4118.97435897 , 4116.92307692 , 4110.76923077 , 4150.76923077 , 4121.53846154 , 4130.76923077 , 4180.51282051 , 4902.56410256 , 4116.92307692 , 4129.74358974 , 2044.0 , 2034.0 , 75.643 , 0.0 , 0.0 , 0.0 , 0.0 , 

59.0 , 4123.07692308 , 4123.07692308 , 4120.51282051 , 4124.1025641 , 4121.02564103 , 4121.53846154 , 4119.48717949 , 4158.97435897 , 4127.69230769 , 4132.30769231 , 4183.07692308 , 4900.0 , 4123.07692308 , 4129.74358974 , 2044.0 , 2033.0 , 75.651 , 0.0 , 0.0 , 0.0 , 0.0 , 

60.0 , 4123.58974359 , 4118.46153846 , 4128.20512821 , 4117.94871795 , 4123.58974359 , 4116.92307692 , 4118.46153846 , 4145.12820513 , 4121.53846154 , 4129.23076923 , 4178.46153846 , 4903.07692308 , 4114.35897436 , 4131.28205128 , 2046.0 , 2034.0 , 75.654 , 0.0 , 0.0 , 0.0 , 0.0 , 

61.0 , 4121.53846154 , 4125.64102564 , 4124.1025641 , 4123.07692308 , 4124.61538462 , 4122.56410256 , 4125.64102564 , 4155.8974359 , 4129.74358974 , 4132.30769231 , 4180.0 , 4899.48717949 , 4122.56410256 , 4130.76923077 , 2045.0 , 2036.0 , 75.66 , 0.0 , 0.0 , 0.0 , 0.0 , 

62.0 , 4124.1025641 , 4123.07692308 , 4124.1025641 , 4122.05128205 , 4122.05128205 , 4121.02564103 , 4116.41025641 , 4148.20512821 , 4123.07692308 , 4130.76923077 , 4178.46153846 , 4901.53846154 , 4120.51282051 , 4131.28205128 , 2046.0 , 2036.0 , 75.669 , 0.0 , 0.0 , 0.0 , 0.0 , 

63.0 , 4125.64102564 , 4125.12820513 , 4123.07692308 , 4127.17948718 , 4122.56410256 , 4124.61538462 , 4118.46153846 , 4145.64102564 , 4120.0 , 4129.23076923 , 4181.02564103 , 4903.58974359 , 4124.1025641 , 4132.30769231 , 2044.0 , 2036.0 , 75.679 , 0.0 , 0.0 , 0.0 , 0.0 , 

64.0 , 4122.56410256 , 4121.53846154 , 4125.64102564 , 4124.1025641 , 4121.02564103 , 4120.0 , 4115.8974359 , 4137.43589744 , 4118.46153846 , 4126.66666667 , 4177.43589744 , 4905.12820513 , 4122.05128205 , 4131.28205128 , 2044.0 , 2035.0 , 75.685 , 0.0 , 0.0 , 0.0 , 0.0 , 

65.0 , 4122.56410256 , 4123.07692308 , 4123.58974359 , 4125.64102564 , 4121.02564103 , 4118.46153846 , 4114.87179487 , 4140.0 , 4121.53846154 , 4128.71794872 , 4181.02564103 , 4901.53846154 , 4124.1025641 , 4131.28205128 , 2045.0 , 2037.0 , 75.692 , 0.0 , 0.0 , 0.0 , 0.0 , 

66.0 , 4120.0 , 4120.0 , 4123.58974359 , 4125.12820513 , 4122.56410256 , 4117.94871795 , 4110.25641026 , 4140.0 , 4120.0 , 4128.20512821 , 4181.02564103 , 4901.53846154 , 4123.58974359 , 4129.74358974 , 2044.0 , 2037.0 , 75.701 , 0.0 , 0.0 , 0.0 , 0.0 , 

67.0 , 4123.07692308 , 4119.48717949 , 4124.1025641 , 4125.64102564 , 4126.15384615 , 4119.48717949 , 4109.23076923 , 4138.46153846 , 4114.35897436 , 4128.71794872 , 4177.43589744 , 4902.56410256 , 4121.53846154 , 4131.28205128 , 2046.0 , 2035.0 , 75.71 , 0.0 , 0.0 , 0.0 , 0.0 , 

68.0 , 4122.56410256 , 4120.51282051 , 4121.53846154 , 4126.66666667 , 4123.07692308 , 4117.94871795 , 4112.30769231 , 4150.76923077 , 4124.1025641 , 4130.76923077 , 4179.48717949 , 4899.48717949 , 4124.61538462 , 4131.28205128 , 2045.0 , 2034.0 , 75.717 , 0.0 , 0.0 , 0.0 , 0.0 , 

69.0 , 4122.05128205 , 4119.48717949 , 4125.12820513 , 4122.56410256 , 4122.05128205 , 4112.82051282 , 4111.28205128 , 4154.35897436 , 4124.1025641 , 4128.71794872 , 4182.56410256 , 4900.0 , 4122.56410256 , 4132.82051282 , 2045.0 , 2035.0 , 75.724 , 0.0 , 0.0 , 0.0 , 0.0 , 

70.0 , 4118.97435897 , 4120.51282051 , 4121.53846154 , 4126.15384615 , 4121.02564103 , 4117.43589744 , 4117.94871795 , 4163.58974359 , 4127.17948718 , 4130.25641026 , 4185.64102564 , 4902.56410256 , 4130.76923077 , 4131.79487179 , 2045.0 , 2034.0 , 75.732 , 0.0 , 0.0 , 0.0 , 0.0 , 

71.0 , 4126.15384615 , 4118.97435897 , 4123.58974359 , 4121.53846154 , 4121.02564103 , 4117.94871795 , 4113.33333333 , 4153.33333333 , 4119.48717949 , 4130.76923077 , 4182.56410256 , 4905.12820513 , 4122.05128205 , 4133.33333333 , 2043.0 , 2034.0 , 75.742 , 0.0 , 0.0 , 0.0 , 0.0 , 

72.0 , 4123.07692308 , 4124.1025641 , 4121.53846154 , 4123.58974359 , 4121.53846154 , 4124.1025641 , 4118.46153846 , 4165.64102564 , 4133.33333333 , 4132.30769231 , 4183.07692308 , 4899.48717949 , 4125.12820513 , 4131.28205128 , 2044.0 , 2034.0 , 75.748 , 0.0 , 0.0 , 0.0 , 0.0 , 

73.0 , 4122.56410256 , 4121.53846154 , 4130.25641026 , 4117.43589744 , 4122.05128205 , 4118.46153846 , 4113.84615385 , 4148.71794872 , 4121.02564103 , 4129.74358974 , 4176.41025641 , 4904.61538462 , 4114.87179487 , 4132.82051282 , 2045.0 , 2035.0 , 75.755 , 0.0 , 0.0 , 0.0 , 0.0 , 

74.0 , 4125.12820513 , 4127.17948718 , 4124.61538462 , 4124.1025641 , 4122.56410256 , 4125.12820513 , 4122.56410256 , 4152.82051282 , 4126.66666667 , 4130.76923077 , 4181.02564103 , 4904.61538462 , 4122.05128205 , 4131.28205128 , 2046.0 , 2034.0 , 75.763 , 0.0 , 0.0 , 0.0 , 0.0 , 

75.0 , 4128.20512821 , 4121.53846154 , 4128.20512821 , 4118.97435897 , 4123.07692308 , 4117.94871795 , 4113.33333333 , 4139.48717949 , 4123.07692308 , 4130.76923077 , 4178.97435897 , 4904.1025641 , 4113.84615385 , 4130.76923077 , 2047.0 , 2033.0 , 75.773 , 0.0 , 0.0 , 0.0 , 0.0 , 

76.0 , 4122.56410256 , 4124.1025641 , 4123.07692308 , 4124.1025641 , 4122.05128205 , 4118.97435897 , 4117.43589744 , 4148.20512821 , 4126.66666667 , 4132.30769231 , 4178.46153846 , 4899.48717949 , 4127.17948718 , 4130.76923077 , 2046.0 , 2032.0 , 75.778 , 0.0 , 0.0 , 0.0 , 0.0 , 

77.0 , 4123.07692308 , 4120.0 , 4127.17948718 , 4120.0 , 4121.53846154 , 4116.92307692 , 4113.84615385 , 4137.94871795 , 4113.33333333 , 4128.71794872 , 4175.8974359 , 4904.61538462 , 4123.58974359 , 4132.82051282 , 2046.0 , 2033.0 , 75.787 , 0.0 , 0.0 , 0.0 , 0.0 , 

78.0 , 4122.56410256 , 4127.17948718 , 4119.48717949 , 4127.69230769 , 4126.15384615 , 4127.17948718 , 4123.58974359 , 4150.25641026 , 4123.07692308 , 4131.79487179 , 4187.69230769 , 4901.53846154 , 4132.82051282 , 4129.23076923 , 2045.0 , 2034.0 , 75.795 , 0.0 , 0.0 , 0.0 , 0.0 , 

79.0 , 4121.53846154 , 4125.12820513 , 4123.07692308 , 4123.07692308 , 4125.12820513 , 4118.46153846 , 4111.79487179 , 4140.51282051 , 4118.97435897 , 4129.74358974 , 4183.58974359 , 4903.58974359 , 4126.66666667 , 4129.74358974 , 2046.0 , 2035.0 , 75.804 , 0.0 , 0.0 , 0.0 , 0.0 , 

80.0 , 4122.05128205 , 4127.17948718 , 4122.56410256 , 4125.64102564 , 4121.02564103 , 4116.41025641 , 4114.87179487 , 4151.28205128 , 4122.05128205 , 4127.69230769 , 4181.53846154 , 4900.0 , 4130.25641026 , 4133.33333333 , 2046.0 , 2037.0 , 75.811 , 0.0 , 0.0 , 0.0 , 0.0 , 

81.0 , 4121.53846154 , 4121.02564103 , 4127.17948718 , 4121.53846154 , 4120.0 , 4117.94871795 , 4118.97435897 , 4156.92307692 , 4124.61538462 , 4128.71794872 , 4184.61538462 , 4901.02564103 , 4124.1025641 , 4131.79487179 , 2045.0 , 2037.0 , 75.818 , 0.0 , 0.0 , 0.0 , 0.0 , 

82.0 , 4119.48717949 , 4123.07692308 , 4123.58974359 , 4123.07692308 , 4120.51282051 , 4122.05128205 , 4121.53846154 , 4161.02564103 , 4128.71794872 , 4131.79487179 , 4187.69230769 , 4900.51282051 , 4126.15384615 , 4128.71794872 , 2045.0 , 2037.0 , 75.826 , 0.0 , 0.0 , 0.0 , 0.0 , 

83.0 , 4121.53846154 , 4117.94871795 , 4128.20512821 , 4118.97435897 , 4121.02564103 , 4116.41025641 , 4110.25641026 , 4151.28205128 , 4123.58974359 , 4127.69230769 , 4177.94871795 , 4901.53846154 , 4121.53846154 , 4130.76923077 , 2044.0 , 2036.0 , 75.836 , 0.0 , 0.0 , 0.0 , 0.0 , 

84.0 , 4125.12820513 , 4117.43589744 , 4131.28205128 , 4118.97435897 , 4124.61538462 , 4116.41025641 , 4114.87179487 , 4156.41025641 , 4123.58974359 , 4129.23076923 , 4178.46153846 , 4900.51282051 , 4115.38461538 , 4131.79487179 , 2045.0 , 2035.0 , 75.841 , 0.0 , 0.0 , 0.0 , 0.0 , 

85.0 , 4120.0 , 4118.46153846 , 4128.71794872 , 4120.51282051 , 4122.05128205 , 4117.43589744 , 4122.05128205 , 4164.1025641 , 4128.20512821 , 4133.33333333 , 4182.05128205 , 4904.1025641 , 4114.87179487 , 4129.23076923 , 2046.0 , 2036.0 , 75.85 , 0.0 , 0.0 , 0.0 , 0.0 , 

86.0 , 4121.53846154 , 4119.48717949 , 4128.71794872 , 4122.05128205 , 4119.48717949 , 4116.92307692 , 4115.38461538 , 4154.87179487 , 4123.58974359 , 4129.74358974 , 4178.46153846 , 4904.61538462 , 4116.41025641 , 4131.79487179 , 2045.0 , 2036.0 , 75.857 , 0.0 , 0.0 , 0.0 , 0.0 , 

87.0 , 4120.51282051 , 4122.56410256 , 4128.20512821 , 4122.05128205 , 4121.02564103 , 4123.07692308 , 4115.8974359 , 4157.94871795 , 4128.20512821 , 4128.20512821 , 4179.48717949 , 4901.02564103 , 4120.0 , 4131.79487179 , 2044.0 , 2035.0 , 75.867 , 0.0 , 0.0 , 0.0 , 0.0 , 

88.0 , 4120.0 , 4124.1025641 , 4128.71794872 , 4116.92307692 , 4123.58974359 , 4123.58974359 , 4117.94871795 , 4152.82051282 , 4121.02564103 , 4132.30769231 , 4181.02564103 , 4904.1025641 , 4114.35897436 , 4132.30769231 , 2044.0 , 2035.0 , 75.873 , 0.0 , 0.0 , 0.0 , 0.0 , 

89.0 , 4117.43589744 , 4126.15384615 , 4121.02564103 , 4125.12820513 , 4121.53846154 , 4123.07692308 , 4123.07692308 , 4156.41025641 , 4126.66666667 , 4133.84615385 , 4182.56410256 , 4904.1025641 , 4127.17948718 , 4129.23076923 , 2042.0 , 2036.0 , 75.881 , 0.0 , 0.0 , 0.0 , 0.0 , 

90.0 , 4124.61538462 , 4122.05128205 , 4125.12820513 , 4123.58974359 , 4120.51282051 , 4115.38461538 , 4113.84615385 , 4141.53846154 , 4117.94871795 , 4127.17948718 , 4177.43589744 , 4905.64102564 , 4121.02564103 , 4130.76923077 , 2042.0 , 2035.0 , 75.888 , 0.0 , 0.0 , 0.0 , 0.0 , 

91.0 , 4123.07692308 , 4125.64102564 , 4120.51282051 , 4124.61538462 , 4121.02564103 , 4121.02564103 , 4118.46153846 , 4153.84615385 , 4123.58974359 , 4127.69230769 , 4182.05128205 , 4901.53846154 , 4129.23076923 , 4133.33333333 , 2041.0 , 2036.0 , 75.898 , 0.0 , 0.0 , 0.0 , 0.0 , 

92.0 , 4123.58974359 , 4121.53846154 , 4122.56410256 , 4120.0 , 4123.58974359 , 4115.8974359 , 4110.76923077 , 4143.58974359 , 4112.82051282 , 4128.71794872 , 4183.07692308 , 4903.07692308 , 4122.05128205 , 4133.33333333 , 2041.0 , 2036.0 , 75.904 , 0.0 , 0.0 , 0.0 , 0.0 , 

93.0 , 4120.51282051 , 4122.56410256 , 4118.46153846 , 4128.20512821 , 4122.56410256 , 4116.92307692 , 4115.8974359 , 4155.8974359 , 4122.05128205 , 4129.23076923 , 4187.17948718 , 4898.97435897 , 4128.20512821 , 4128.71794872 , 2042.0 , 2034.0 , 75.912 , 0.0 , 0.0 , 0.0 , 0.0 , 

94.0 , 4121.02564103 , 4115.8974359 , 4128.71794872 , 4116.92307692 , 4118.46153846 , 4111.28205128 , 4106.15384615 , 4148.20512821 , 4116.92307692 , 4126.66666667 , 4178.46153846 , 4901.02564103 , 4118.46153846 , 4131.28205128 , 2042.0 , 2033.0 , 75.92 , 0.0 , 0.0 , 0.0 , 0.0 , 

95.0 , 4120.51282051 , 4121.53846154 , 4123.07692308 , 4121.53846154 , 4121.02564103 , 4118.97435897 , 4113.33333333 , 4163.07692308 , 4128.20512821 , 4131.28205128 , 4180.51282051 , 4898.97435897 , 4129.23076923 , 4132.30769231 , 2043.0 , 2032.0 , 75.93 , 0.0 , 0.0 , 0.0 , 0.0 , 

96.0 , 4123.58974359 , 4116.92307692 , 4122.56410256 , 4121.53846154 , 4125.12820513 , 4115.38461538 , 4108.71794872 , 4154.87179487 , 4125.64102564 , 4129.74358974 , 4181.02564103 , 4903.07692308 , 4121.02564103 , 4129.74358974 , 2043.0 , 2032.0 , 75.937 , 0.0 , 0.0 , 0.0 , 0.0 , 

97.0 , 4123.58974359 , 4120.0 , 4120.0 , 4124.61538462 , 4125.64102564 , 4120.0 , 4115.8974359 , 4167.17948718 , 4131.28205128 , 4128.71794872 , 4184.61538462 , 4900.0 , 4125.64102564 , 4129.23076923 , 2044.0 , 2034.0 , 75.944 , 0.0 , 0.0 , 0.0 , 0.0 , 

98.0 , 4121.02564103 , 4114.87179487 , 4125.12820513 , 4114.87179487 , 4122.56410256 , 4113.84615385 , 4111.28205128 , 4156.41025641 , 4122.56410256 , 4128.20512821 , 4178.97435897 , 4901.53846154 , 4122.05128205 , 4132.82051282 , 2044.0 , 2033.0 , 75.952 , 0.0 , 0.0 , 0.0 , 0.0 , 

99.0 , 4121.02564103 , 4121.53846154 , 4122.56410256 , 4121.02564103 , 4121.53846154 , 4117.94871795 , 4120.0 , 4158.97435897 , 4124.1025641 , 4131.28205128 , 4181.02564103 , 4900.51282051 , 4125.12820513 , 4132.82051282 , 2045.0 , 2035.0 , 75.962 , 0.0 , 0.0 , 0.0 , 0.0 , 

100.0 , 4125.12820513 , 4123.07692308 , 4127.69230769 , 4121.02564103 , 4120.0 , 4118.97435897 , 4118.46153846 , 4150.76923077 , 4119.48717949 , 4128.20512821 , 4178.97435897 , 4904.1025641 , 4115.8974359 , 4130.76923077 , 2044.0 , 2036.0 , 75.968 , 0.0 , 0.0 , 0.0 , 0.0 , 

101.0 , 4124.61538462 , 4125.64102564 , 4126.15384615 , 4123.58974359 , 4122.56410256 , 4121.53846154 , 4120.0 , 4148.20512821 , 4118.97435897 , 4129.74358974 , 4180.0 , 4904.61538462 , 4117.94871795 , 4129.23076923 , 2046.0 , 2035.0 , 75.976 , 0.0 , 0.0 , 0.0 , 0.0 , 

102.0 , 4117.94871795 , 4120.51282051 , 4126.15384615 , 4121.02564103 , 4122.56410256 , 4116.41025641 , 4113.84615385 , 4141.53846154 , 4122.05128205 , 4132.30769231 , 4176.92307692 , 4905.64102564 , 4118.97435897 , 4128.20512821 , 2046.0 , 2036.0 , 75.985 , 0.0 , 0.0 , 0.0 , 0.0 , 

103.0 , 4122.56410256 , 4121.02564103 , 4125.64102564 , 4121.53846154 , 4122.56410256 , 4117.94871795 , 4113.84615385 , 4141.53846154 , 4122.05128205 , 4131.79487179 , 4177.43589744 , 4903.07692308 , 4121.02564103 , 4128.71794872 , 2047.0 , 2037.0 , 75.993 , 0.0 , 0.0 , 0.0 , 0.0 , 

104.0 , 4124.61538462 , 4122.05128205 , 4122.05128205 , 4123.58974359 , 4121.02564103 , 4120.51282051 , 4114.87179487 , 4149.23076923 , 4119.48717949 , 4128.71794872 , 4181.53846154 , 4902.05128205 , 4124.61538462 , 4127.69230769 , 2046.0 , 2033.0 , 76.0 , 0.0 , 0.0 , 0.0 , 0.0 , 

105.0 , 4124.1025641 , 4120.51282051 , 4122.05128205 , 4124.61538462 , 4121.02564103 , 4117.43589744 , 4111.79487179 , 4150.25641026 , 4113.33333333 , 4126.66666667 , 4183.58974359 , 4904.1025641 , 4122.56410256 , 4129.23076923 , 2048.0 , 2033.0 , 76.008 , 0.0 , 0.0 , 0.0 , 0.0 , 

106.0 , 4120.51282051 , 4123.07692308 , 4122.05128205 , 4125.12820513 , 4120.51282051 , 4118.97435897 , 4115.8974359 , 4161.02564103 , 4125.64102564 , 4130.76923077 , 4183.58974359 , 4900.51282051 , 4126.66666667 , 4130.25641026 , 2048.0 , 2032.0 , 76.014 , 0.0 , 0.0 , 0.0 , 0.0 , 

107.0 , 4123.07692308 , 4124.1025641 , 4124.61538462 , 4121.53846154 , 4122.56410256 , 4118.46153846 , 4114.87179487 , 4156.92307692 , 4127.69230769 , 4133.33333333 , 4180.0 , 4898.46153846 , 4122.56410256 , 4132.30769231 , 2046.0 , 2032.0 , 76.024 , 0.0 , 0.0 , 0.0 , 0.0 , 

108.0 , 4121.02564103 , 4125.64102564 , 4120.0 , 4126.15384615 , 4123.07692308 , 4121.53846154 , 4115.38461538 , 4167.69230769 , 4131.79487179 , 4132.30769231 , 4182.56410256 , 4898.97435897 , 4130.25641026 , 4132.30769231 , 2047.0 , 2032.0 , 76.031 , 0.0 , 0.0 , 0.0 , 0.0 , 

109.0 , 4122.56410256 , 4119.48717949 , 4124.1025641 , 4120.0 , 4123.07692308 , 4117.43589744 , 4110.25641026 , 4156.41025641 , 4117.94871795 , 4128.71794872 , 4180.51282051 , 4904.1025641 , 4122.56410256 , 4132.82051282 , 2047.0 , 2032.0 , 76.039 , 0.0 , 0.0 , 0.0 , 0.0 , 

110.0 , 4120.0 , 4118.46153846 , 4121.02564103 , 4121.53846154 , 4122.05128205 , 4119.48717949 , 4122.05128205 , 4164.61538462 , 4126.15384615 , 4129.74358974 , 4184.1025641 , 4899.48717949 , 4127.69230769 , 4129.74358974 , 2047.0 , 2032.0 , 76.047 , 0.0 , 0.0 , 0.0 , 0.0 , 

111.0 , 4125.64102564 , 4116.92307692 , 4128.71794872 , 4115.38461538 , 4120.51282051 , 4114.35897436 , 4114.87179487 , 4150.76923077 , 4121.02564103 , 4128.20512821 , 4177.94871795 , 4903.07692308 , 4114.35897436 , 4130.76923077 , 2046.0 , 2033.0 , 76.057 , 0.0 , 0.0 , 0.0 , 0.0 , 

112.0 , 4122.56410256 , 4125.12820513 , 4125.64102564 , 4120.51282051 , 4122.05128205 , 4124.1025641 , 4117.43589744 , 4162.05128205 , 4129.23076923 , 4130.25641026 , 4180.51282051 , 4905.12820513 , 4121.02564103 , 4130.76923077 , 2046.0 , 2034.0 , 76.062 , 0.0 , 0.0 , 0.0 , 0.0 , 

113.0 , 4120.51282051 , 4118.97435897 , 4130.76923077 , 4115.8974359 , 4122.56410256 , 4120.0 , 4113.33333333 , 4149.23076923 , 4118.46153846 , 4128.20512821 , 4180.51282051 , 4905.12820513 , 4114.35897436 , 4132.82051282 , 2044.0 , 2034.0 , 76.07 , 0.0 , 0.0 , 0.0 , 0.0 , 

114.0 , 4123.58974359 , 4123.58974359 , 4123.58974359 , 4124.61538462 , 4121.02564103 , 4122.05128205 , 4124.1025641 , 4154.87179487 , 4125.12820513 , 4130.76923077 , 4183.58974359 , 4898.97435897 , 4124.61538462 , 4129.74358974 , 2043.0 , 2035.0 , 76.078 , 0.0 , 0.0 , 0.0 , 0.0 , 

115.0 , 4129.23076923 , 4121.53846154 , 4126.66666667 , 4120.51282051 , 4120.0 , 4117.43589744 , 4114.35897436 , 4141.02564103 , 4118.46153846 , 4132.82051282 , 4178.46153846 , 4903.07692308 , 4117.94871795 , 4129.74358974 , 2043.0 , 2035.0 , 76.088 , 0.0 , 0.0 , 0.0 , 0.0 , 

116.0 , 4124.1025641 , 4124.61538462 , 4121.02564103 , 4124.61538462 , 4121.02564103 , 4124.1025641 , 4120.0 , 4151.28205128 , 4123.07692308 , 4131.79487179 , 4183.58974359 , 4899.48717949 , 4127.17948718 , 4131.28205128 , 2043.0 , 2035.0 , 76.094 , 0.0 , 0.0 , 0.0 , 0.0 , 

117.0 , 4121.53846154 , 4118.97435897 , 4123.58974359 , 4121.02564103 , 4120.0 , 4118.97435897 , 4115.8974359 , 4147.17948718 , 4116.41025641 , 4125.12820513 , 4181.02564103 , 4900.51282051 , 4125.12820513 , 4132.30769231 , 2042.0 , 2033.0 , 76.102 , 0.0 , 0.0 , 0.0 , 0.0 , 

118.0 , 4123.07692308 , 4123.58974359 , 4122.05128205 , 4126.15384615 , 4123.07692308 , 4120.51282051 , 4118.46153846 , 4152.30769231 , 4117.94871795 , 4128.71794872 , 4182.05128205 , 4902.56410256 , 4130.76923077 , 4130.25641026 , 2042.0 , 2034.0 , 76.11 , 0.0 , 0.0 , 0.0 , 0.0 , 

119.0 , 4120.0 , 4120.0 , 4124.61538462 , 4123.58974359 , 4124.1025641 , 4115.8974359 , 4111.79487179 , 4149.74358974 , 4116.41025641 , 4131.28205128 , 4181.53846154 , 4905.64102564 , 4125.64102564 , 4129.74358974 , 2043.0 , 2034.0 , 76.119 , 0.0 , 0.0 , 0.0 , 0.0 , 

120.0 , 4120.0 , 4120.0 , 4121.53846154 , 4125.12820513 , 4120.51282051 , 4116.41025641 , 4114.35897436 , 4156.41025641 , 4121.53846154 , 4129.74358974 , 4182.56410256 , 4899.48717949 , 4126.15384615 , 4132.30769231 , 2041.0 , 2035.0 , 76.125 , 0.0 , 0.0 , 0.0 , 0.0 , 

121.0 , 4120.51282051 , 4117.43589744 , 4124.1025641 , 4120.51282051 , 4115.8974359 , 4116.92307692 , 4111.28205128 , 4157.94871795 , 4125.64102564 , 4126.66666667 , 4180.0 , 4901.02564103 , 4125.64102564 , 4132.82051282 , 2042.0 , 2034.0 , 76.134 , 0.0 , 0.0 , 0.0 , 0.0 , 

122.0 , 4121.02564103 , 4116.92307692 , 4127.17948718 , 4118.46153846 , 4120.0 , 4119.48717949 , 4111.28205128 , 4156.41025641 , 4121.53846154 , 4128.20512821 , 4181.53846154 , 4904.1025641 , 4123.58974359 , 4129.74358974 , 2042.0 , 2034.0 , 76.141 , 0.0 , 0.0 , 0.0 , 0.0 , 

123.0 , 4116.92307692 , 4118.46153846 , 4125.12820513 , 4123.07692308 , 4122.56410256 , 4118.46153846 , 4115.8974359 , 4162.56410256 , 4125.64102564 , 4131.79487179 , 4183.07692308 , 4902.05128205 , 4127.17948718 , 4127.17948718 , 2043.0 , 2034.0 , 76.151 , 0.0 , 0.0 , 0.0 , 0.0 , 

124.0 , 4120.51282051 , 4120.0 , 4125.64102564 , 4124.61538462 , 4124.1025641 , 4115.8974359 , 4114.35897436 , 4157.94871795 , 4124.1025641 , 4130.25641026 , 4181.02564103 , 4901.02564103 , 4122.05128205 , 4130.76923077 , 2043.0 , 2034.0 , 76.156 , 0.0 , 0.0 , 0.0 , 0.0 , 

125.0 , 4120.0 , 4121.02564103 , 4122.05128205 , 4127.17948718 , 4123.07692308 , 4121.53846154 , 4120.51282051 , 4162.05128205 , 4129.23076923 , 4130.76923077 , 4182.05128205 , 4901.02564103 , 4126.15384615 , 4129.23076923 , 2043.0 , 2033.0 , 76.164 , 0.0 , 0.0 , 0.0 , 0.0 , 

126.0 , 4124.1025641 , 4119.48717949 , 4122.56410256 , 4122.05128205 , 4121.53846154 , 4118.97435897 , 4118.46153846 , 4151.79487179 , 4120.0 , 4132.30769231 , 4179.48717949 , 4906.66666667 , 4120.0 , 4130.25641026 , 2045.0 , 2032.0 , 76.173 , 0.0 , 0.0 , 0.0 , 0.0 , 

127.0 , 4122.05128205 , 4124.1025641 , 4117.43589744 , 4126.66666667 , 4121.02564103 , 4120.51282051 , 4121.02564103 , 4162.05128205 , 4129.23076923 , 4133.33333333 , 4182.05128205 , 4903.58974359 , 4125.64102564 , 4130.76923077 , 2043.0 , 2032.0 , 76.183 , 0.0 , 0.0 , 0.0 , 0.0 , 

128.0 , 4124.61538462 , 4120.0 , 4126.66666667 , 4123.07692308 , 4121.53846154 , 4118.46153846 , 4113.84615385 , 4143.07692308 , 4116.92307692 , 4127.69230769 , 4178.46153846 , 4903.07692308 , 4116.92307692 , 4131.28205128 , 2044.0 , 2033.0 , 76.189 , 0.0 , 0.0 , 0.0 , 0.0 , 

0.0 , 4122.05128205 , 4123.07692308 , 4122.56410256 , 4129.74358974 , 4122.05128205 , 4123.58974359 , 4121.02564103 , 4145.64102564 , 4118.97435897 , 4130.25641026 , 4180.0 , 4902.56410256 , 4128.20512821 , 4128.71794872 , 2042.0 , 2035.0 , 76.197 , 0.0 , 0.0 , 0.0 , 0.0 , 

1.0 , 4124.1025641 , 4117.94871795 , 4124.1025641 , 4124.1025641 , 4122.56410256 , 4112.82051282 , 4110.25641026 , 4137.43589744 , 4112.30769231 , 4128.71794872 , 4176.41025641 , 4909.74358974 , 4121.02564103 , 4128.20512821 , 2044.0 , 2035.0 , 76.205 , 0.0 , 0.0 , 0.0 , 0.0 , 

2.0 , 4122.56410256 , 4122.05128205 , 4117.94871795 , 4129.74358974 , 4124.1025641 , 4115.8974359 , 4113.84615385 , 4155.8974359 , 4123.07692308 , 4126.15384615 , 4183.07692308 , 4903.58974359 , 4131.28205128 , 4128.20512821 , 2043.0 , 2035.0 , 76.215 , 0.0 , 0.0 , 0.0 , 0.0 , 

3.0 , 4123.07692308 , 4118.46153846 , 4125.64102564 , 4122.56410256 , 4123.58974359 , 4111.28205128 , 4106.66666667 , 4144.61538462 , 4112.30769231 , 4124.61538462 , 4180.0 , 4903.07692308 , 4123.58974359 , 4132.30769231 , 2044.0 , 2036.0 , 76.22 , 0.0 , 0.0 , 0.0 , 0.0 , 

4.0 , 4120.51282051 , 4124.61538462 , 4118.97435897 , 4128.20512821 , 4122.05128205 , 4117.43589744 , 4117.43589744 , 4161.02564103 , 4122.56410256 , 4129.74358974 , 4181.53846154 , 4902.05128205 , 4130.25641026 , 4131.79487179 , 2044.0 , 2037.0 , 76.228 , 0.0 , 0.0 , 0.0 , 0.0 , 

5.0 , 4121.02564103 , 4117.43589744 , 4120.0 , 4125.12820513 , 4121.02564103 , 4116.92307692 , 4114.87179487 , 4160.51282051 , 4123.07692308 , 4127.17948718 , 4178.97435897 , 4903.07692308 , 4122.56410256 , 4126.15384615 , 2043.0 , 2039.0 , 76.236 , 0.0 , 0.0 , 0.0 , 0.0 , 

6.0 , 4123.07692308 , 4118.46153846 , 4118.46153846 , 4127.17948718 , 4121.53846154 , 4123.07692308 , 4118.97435897 , 4168.20512821 , 4127.69230769 , 4127.69230769 , 4183.58974359 , 4896.92307692 , 4126.15384615 , 4125.12820513 , 2042.0 , 2039.0 , 76.246 , 0.0 , 0.0 , 0.0 , 0.0 , 

7.0 , 4122.05128205 , 4115.38461538 , 4125.12820513 , 4119.48717949 , 4118.97435897 , 4115.8974359 , 4111.28205128 , 4161.53846154 , 4124.1025641 , 4130.25641026 , 4182.05128205 , 4901.53846154 , 4116.92307692 , 4130.25641026 , 2043.0 , 2039.0 , 76.251 , 0.0 , 0.0 , 0.0 , 0.0 , 

8.0 , 4121.53846154 , 4121.53846154 , 4125.64102564 , 4125.64102564 , 4121.02564103 , 4117.94871795 , 4116.92307692 , 4166.66666667 , 4124.1025641 , 4130.76923077 , 4183.07692308 , 4903.07692308 , 4121.02564103 , 4132.82051282 , 2044.0 , 2039.0 , 76.261 , 0.0 , 0.0 , 0.0 , 0.0 , 

9.0 , 4120.51282051 , 4119.48717949 , 4126.66666667 , 4123.58974359 , 4123.58974359 , 4120.0 , 4118.46153846 , 4157.43589744 , 4119.48717949 , 4126.66666667 , 4178.97435897 , 4904.1025641 , 4120.0 , 4130.76923077 , 2045.0 , 2039.0 , 76.268 , 0.0 , 0.0 , 0.0 , 0.0 , 

10.0 , 4121.53846154 , 4122.56410256 , 4122.56410256 , 4120.51282051 , 4123.58974359 , 4120.0 , 4120.51282051 , 4152.82051282 , 4122.56410256 , 4128.71794872 , 4178.97435897 , 4903.58974359 , 4117.94871795 , 4129.74358974 , 2045.0 , 2039.0 , 76.278 , 0.0 , 0.0 , 0.0 , 0.0 , 

11.0 , 4122.56410256 , 4121.02564103 , 4123.58974359 , 4123.07692308 , 4121.02564103 , 4117.43589744 , 4117.43589744 , 4153.33333333 , 4127.17948718 , 4130.76923077 , 4180.51282051 , 4905.12820513 , 4117.94871795 , 4129.74358974 , 2046.0 , 2040.0 , 76.283 , 0.0 , 0.0 , 0.0 , 0.0 , 

12.0 , 4126.15384615 , 4121.02564103 , 4126.15384615 , 4124.1025641 , 4122.56410256 , 4120.0 , 4116.92307692 , 4147.17948718 , 4120.51282051 , 4131.28205128 , 4181.02564103 , 4903.58974359 , 4117.43589744 , 4130.76923077 , 2044.0 , 2037.0 , 76.291 , 0.0 , 0.0 , 0.0 , 0.0 , 

13.0 , 4121.53846154 , 4123.58974359 , 4120.0 , 4123.07692308 , 4121.53846154 , 4122.56410256 , 4120.0 , 4149.23076923 , 4123.07692308 , 4129.74358974 , 4181.02564103 , 4902.56410256 , 4125.64102564 , 4129.74358974 , 2044.0 , 2037.0 , 76.299 , 0.0 , 0.0 , 0.0 , 0.0 , 

14.0 , 4123.07692308 , 4125.64102564 , 4120.51282051 , 4124.1025641 , 4122.05128205 , 4116.92307692 , 4113.33333333 , 4145.64102564 , 4117.94871795 , 4128.71794872 , 4177.94871795 , 4905.64102564 , 4125.64102564 , 4131.28205128 , 2044.0 , 2034.0 , 76.31 , 0.0 , 0.0 , 0.0 , 0.0 , 

15.0 , 4121.02564103 , 4126.66666667 , 4122.56410256 , 4130.25641026 , 4124.61538462 , 4121.53846154 , 4117.43589744 , 4158.97435897 , 4126.66666667 , 4131.28205128 , 4180.51282051 , 4901.53846154 , 4131.79487179 , 4128.20512821 , 2045.0 , 2036.0 , 76.314 , 0.0 , 0.0 , 0.0 , 0.0 , 

16.0 , 4123.07692308 , 4122.56410256 , 4127.69230769 , 4124.61538462 , 4124.1025641 , 4118.46153846 , 4113.33333333 , 4155.8974359 , 4122.05128205 , 4130.25641026 , 4180.51282051 , 4901.02564103 , 4123.58974359 , 4131.79487179 , 2045.0 , 2037.0 , 76.323 , 0.0 , 0.0 , 0.0 , 0.0 , 

17.0 , 4122.56410256 , 4126.15384615 , 4118.46153846 , 4127.69230769 , 4120.0 , 4118.46153846 , 4116.41025641 , 4170.76923077 , 4127.17948718 , 4129.23076923 , 4183.58974359 , 4898.46153846 , 4132.82051282 , 4133.33333333 , 2044.0 , 2037.0 , 76.331 , 0.0 , 0.0 , 0.0 , 0.0 , 

18.0 , 4125.64102564 , 4117.94871795 , 4125.12820513 , 4120.0 , 4118.46153846 , 4113.33333333 , 4109.23076923 , 4156.92307692 , 4114.35897436 , 4127.17948718 , 4177.94871795 , 4900.51282051 , 4122.05128205 , 4131.28205128 , 2046.0 , 2037.0 , 76.341 , 0.0 , 0.0 , 0.0 , 0.0 , 

19.0 , 4120.51282051 , 4115.8974359 , 4122.56410256 , 4123.07692308 , 4118.97435897 , 4120.0 , 4117.94871795 , 4166.66666667 , 4125.12820513 , 4131.28205128 , 4180.51282051 , 4900.0 , 4126.15384615 , 4126.15384615 , 2046.0 , 2036.0 , 76.345 , 0.0 , 0.0 , 0.0 , 0.0 , 

20.0 , 4121.02564103 , 4113.84615385 , 4126.15384615 , 4115.8974359 , 4118.97435897 , 4115.8974359 , 4111.28205128 , 4158.46153846 , 4122.56410256 , 4129.74358974 , 4178.46153846 , 4905.64102564 , 4115.38461538 , 4127.17948718 , 2046.0 , 2033.0 , 76.354 , 0.0 , 0.0 , 0.0 , 0.0 , 

21.0 , 4121.53846154 , 4123.07692308 , 4122.05128205 , 4121.53846154 , 4120.51282051 , 4122.56410256 , 4123.07692308 , 4172.30769231 , 4131.28205128 , 4131.79487179 , 4183.07692308 , 4901.02564103 , 4125.12820513 , 4127.17948718 , 2047.0 , 2032.0 , 76.362 , 0.0 , 0.0 , 0.0 , 0.0 , 

22.0 , 4124.61538462 , 4116.92307692 , 4128.71794872 , 4117.94871795 , 4122.05128205 , 4118.46153846 , 4117.94871795 , 4157.94871795 , 4119.48717949 , 4130.76923077 , 4180.0 , 4903.58974359 , 4117.43589744 , 4128.71794872 , 2046.0 , 2031.0 , 76.371 , 0.0 , 0.0 , 0.0 , 0.0 , 

23.0 , 4121.02564103 , 4124.1025641 , 4122.56410256 , 4128.20512821 , 4123.58974359 , 4126.15384615 , 4123.07692308 , 4165.12820513 , 4126.15384615 , 4132.30769231 , 4183.07692308 , 4902.56410256 , 4121.53846154 , 4130.25641026 , 2046.0 , 2032.0 , 76.377 , 0.0 , 0.0 , 0.0 , 0.0 , 

24.0 , 4119.48717949 , 4124.1025641 , 4127.69230769 , 4122.56410256 , 4122.56410256 , 4123.58974359 , 4118.97435897 , 4152.82051282 , 4124.61538462 , 4131.28205128 , 4178.46153846 , 4905.64102564 , 4115.8974359 , 4132.30769231 , 2045.0 , 2036.0 , 76.385 , 0.0 , 0.0 , 0.0 , 0.0 , 

25.0 , 4121.02564103 , 4127.17948718 , 4126.15384615 , 4125.64102564 , 4124.61538462 , 4125.64102564 , 4126.15384615 , 4153.33333333 , 4126.15384615 , 4131.28205128 , 4180.0 , 4903.58974359 , 4127.69230769 , 4131.28205128 , 2046.0 , 2036.0 , 76.393 , 0.0 , 0.0 , 0.0 , 0.0 , 

26.0 , 4123.58974359 , 4121.53846154 , 4125.64102564 , 4125.64102564 , 4123.07692308 , 4119.48717949 , 4117.94871795 , 4146.15384615 , 4116.92307692 , 4129.74358974 , 4176.92307692 , 4905.64102564 , 4123.58974359 , 4130.76923077 , 2044.0 , 2038.0 , 76.403 , 0.0 , 0.0 , 0.0 , 0.0 , 

27.0 , 4124.61538462 , 4122.56410256 , 4121.02564103 , 4128.71794872 , 4120.51282051 , 4119.48717949 , 4117.43589744 , 4151.79487179 , 4117.94871795 , 4130.25641026 , 4178.46153846 , 4902.05128205 , 4124.1025641 , 4131.28205128 , 2044.0 , 2038.0 , 76.408 , 0.0 , 0.0 , 0.0 , 0.0 , 

28.0 , 4122.05128205 , 4118.97435897 , 4127.69230769 , 4122.56410256 , 4119.48717949 , 4116.92307692 , 4111.79487179 , 4150.76923077 , 4120.51282051 , 4129.74358974 , 4180.0 , 4901.02564103 , 4125.12820513 , 4128.71794872 , 2043.0 , 2039.0 , 76.417 , 0.0 , 0.0 , 0.0 , 0.0 , 

29.0 , 4123.07692308 , 4120.0 , 4127.69230769 , 4122.05128205 , 4122.56410256 , 4116.41025641 , 4110.76923077 , 4154.87179487 , 4119.48717949 , 4128.20512821 , 4180.0 , 4899.48717949 , 4125.64102564 , 4128.20512821 , 2043.0 , 2038.0 , 76.425 , 0.0 , 0.0 , 0.0 , 0.0 , 

30.0 , 4121.53846154 , 4118.46153846 , 4120.51282051 , 4124.61538462 , 4120.0 , 4115.8974359 , 4113.33333333 , 4161.53846154 , 4119.48717949 , 4127.17948718 , 4176.92307692 , 4899.48717949 , 4123.07692308 , 4128.71794872 , 2044.0 , 2037.0 , 76.435 , 0.0 , 0.0 , 0.0 , 0.0 , 

31.0 , 4122.56410256 , 4116.92307692 , 4119.48717949 , 4125.12820513 , 4118.97435897 , 4116.92307692 , 4113.84615385 , 4160.0 , 4117.94871795 , 4127.69230769 , 4178.46153846 , 4901.02564103 , 4121.53846154 , 4128.71794872 , 2041.0 , 2037.0 , 76.441 , 0.0 , 0.0 , 0.0 , 0.0 , 

32.0 , 4116.41025641 , 4120.0 , 4120.51282051 , 4125.12820513 , 4121.53846154 , 4122.56410256 , 4116.92307692 , 4170.76923077 , 4129.74358974 , 4129.74358974 , 4183.58974359 , 4901.02564103 , 4127.69230769 , 4125.12820513 , 2041.0 , 2035.0 , 76.449 , 0.0 , 0.0 , 0.0 , 0.0 , 

33.0 , 4119.48717949 , 4120.0 , 4125.64102564 , 4120.0 , 4123.07692308 , 4119.48717949 , 4116.41025641 , 4168.71794872 , 4123.58974359 , 4132.30769231 , 4181.53846154 , 4902.56410256 , 4118.46153846 , 4128.71794872 , 2041.0 , 2035.0 , 76.456 , 0.0 , 0.0 , 0.0 , 0.0 , 

34.0 , 4120.0 , 4119.48717949 , 4118.97435897 , 4123.07692308 , 4121.02564103 , 4120.51282051 , 4121.53846154 , 4175.8974359 , 4127.69230769 , 4132.30769231 , 4183.58974359 , 4901.53846154 , 4127.17948718 , 4131.79487179 , 2041.0 , 2035.0 , 76.465 , 0.0 , 0.0 , 0.0 , 0.0 , 

35.0 , 4122.05128205 , 4115.38461538 , 4121.53846154 , 4121.02564103 , 4122.05128205 , 4117.43589744 , 4116.41025641 , 4161.53846154 , 4123.58974359 , 4126.15384615 , 4181.53846154 , 4904.1025641 , 4124.1025641 , 4131.28205128 , 2039.0 , 2034.0 , 76.473 , 0.0 , 0.0 , 0.0 , 0.0 , 

36.0 , 4120.51282051 , 4122.56410256 , 4120.51282051 , 4125.12820513 , 4123.07692308 , 4124.1025641 , 4123.58974359 , 4170.76923077 , 4131.28205128 , 4129.23076923 , 4183.07692308 , 4900.51282051 , 4125.64102564 , 4126.66666667 , 2039.0 , 2034.0 , 76.48 , 0.0 , 0.0 , 0.0 , 0.0 , 

37.0 , 4124.61538462 , 4121.02564103 , 4130.25641026 , 4117.94871795 , 4122.05128205 , 4119.48717949 , 4112.30769231 , 4152.30769231 , 4115.38461538 , 4132.30769231 , 4177.94871795 , 4904.61538462 , 4109.74358974 , 4129.74358974 , 2039.0 , 2034.0 , 76.488 , 0.0 , 0.0 , 0.0 , 0.0 , 

38.0 , 4119.48717949 , 4125.12820513 , 4122.56410256 , 4127.69230769 , 4121.02564103 , 4122.56410256 , 4116.92307692 , 4156.41025641 , 4124.1025641 , 4132.30769231 , 4181.53846154 , 4904.1025641 , 4123.58974359 , 4130.25641026 , 2043.0 , 2033.0 , 76.498 , 0.0 , 0.0 , 0.0 , 0.0 , 

39.0 , 4122.56410256 , 4117.43589744 , 4127.69230769 , 4123.58974359 , 4120.0 , 4114.87179487 , 4109.23076923 , 4139.48717949 , 4115.38461538 , 4126.15384615 , 4175.8974359 , 4908.71794872 , 4117.43589744 , 4129.74358974 , 2042.0 , 2034.0 , 76.503 , 0.0 , 0.0 , 0.0 , 0.0 , 

40.0 , 4126.15384615 , 4125.12820513 , 4120.51282051 , 4130.76923077 , 4123.58974359 , 4125.12820513 , 4123.07692308 , 4153.84615385 , 4124.61538462 , 4131.28205128 , 4180.51282051 , 4902.05128205 , 4130.25641026 , 4126.15384615 , 2043.0 , 2034.0 , 76.512 , 0.0 , 0.0 , 0.0 , 0.0 , 

41.0 , 4125.64102564 , 4121.02564103 , 4122.56410256 , 4121.02564103 , 4123.07692308 , 4118.46153846 , 4113.33333333 , 4145.64102564 , 4115.38461538 , 4131.79487179 , 4179.48717949 , 4905.64102564 , 4124.1025641 , 4129.23076923 , 2043.0 , 2034.0 , 76.52 , 0.0 , 0.0 , 0.0 , 0.0 , 

42.0 , 4122.56410256 , 4124.61538462 , 4117.94871795 , 4126.15384615 , 4121.53846154 , 4121.02564103 , 4116.41025641 , 4165.64102564 , 4120.0 , 4131.79487179 , 4185.64102564 , 4903.58974359 , 4130.25641026 , 4129.74358974 , 2044.0 , 2036.0 , 76.529 , 0.0 , 0.0 , 0.0 , 0.0 , 

43.0 , 4123.07692308 , 4122.05128205 , 4121.53846154 , 4126.15384615 , 4121.02564103 , 4122.05128205 , 4112.82051282 , 4170.25641026 , 4122.56410256 , 4127.69230769 , 4183.07692308 , 4902.56410256 , 4127.69230769 , 4127.69230769 , 2044.0 , 2036.0 , 76.536 , 0.0 , 0.0 , 0.0 , 0.0 , 

44.0 , 4121.53846154 , 4125.64102564 , 4117.94871795 , 4129.23076923 , 4123.58974359 , 4123.07692308 , 4120.0 , 4176.92307692 , 4128.20512821 , 4128.71794872 , 4183.58974359 , 4899.48717949 , 4130.25641026 , 4128.20512821 , 2046.0 , 2035.0 , 76.543 , 0.0 , 0.0 , 0.0 , 0.0 , 

45.0 , 4119.48717949 , 4118.97435897 , 4125.12820513 , 4118.97435897 , 4123.07692308 , 4111.28205128 , 4116.41025641 , 4171.79487179 , 4122.56410256 , 4130.25641026 , 4183.07692308 , 4904.1025641 , 4120.0 , 4130.25641026 , 2045.0 , 2035.0 , 76.551 , 0.0 , 0.0 , 0.0 , 0.0 , 

46.0 , 4122.05128205 , 4117.94871795 , 4129.23076923 , 4116.41025641 , 4122.56410256 , 4114.35897436 , 4116.41025641 , 4177.43589744 , 4122.56410256 , 4131.28205128 , 4183.58974359 , 4904.61538462 , 4117.43589744 , 4132.30769231 , 2044.0 , 2035.0 , 76.56 , 0.0 , 0.0 , 0.0 , 0.0 , 

47.0 , 4119.48717949 , 4115.8974359 , 4126.15384615 , 4118.97435897 , 4121.02564103 , 4120.51282051 , 4114.87179487 , 4174.87179487 , 4126.66666667 , 4131.79487179 , 4181.02564103 , 4903.58974359 , 4121.53846154 , 4131.28205128 , 2045.0 , 2034.0 , 76.567 , 0.0 , 0.0 , 0.0 , 0.0 , 

48.0 , 4123.58974359 , 4115.8974359 , 4125.12820513 , 4118.97435897 , 4121.53846154 , 4116.41025641 , 4114.87179487 , 4165.64102564 , 4120.51282051 , 4131.79487179 , 4181.02564103 , 4904.61538462 , 4117.43589744 , 4133.84615385 , 2045.0 , 2035.0 , 76.575 , 0.0 , 0.0 , 0.0 , 0.0 , 

49.0 , 4123.58974359 , 4120.51282051 , 4126.66666667 , 4117.94871795 , 4121.53846154 , 4119.48717949 , 4121.02564103 , 4171.28205128 , 4128.71794872 , 4132.82051282 , 4183.07692308 , 4902.56410256 , 4117.94871795 , 4129.74358974 , 2046.0 , 2034.0 , 76.583 , 0.0 , 0.0 , 0.0 , 0.0 , 

50.0 , 4122.56410256 , 4123.58974359 , 4130.25641026 , 4115.38461538 , 4125.12820513 , 4124.1025641 , 4119.48717949 , 4166.66666667 , 4126.66666667 , 4132.30769231 , 4179.48717949 , 4904.1025641 , 4115.8974359 , 4128.20512821 , 2046.0 , 2034.0 , 76.592 , 0.0 , 0.0 , 0.0 , 0.0 , 

51.0 , 4120.0 , 4125.12820513 , 4125.12820513 , 4123.07692308 , 4123.58974359 , 4126.15384615 , 4123.58974359 , 4168.20512821 , 4128.20512821 , 4133.33333333 , 4180.0 , 4903.07692308 , 4123.58974359 , 4128.71794872 , 2047.0 , 2035.0 , 76.598 , 0.0 , 0.0 , 0.0 , 0.0 , 

52.0 , 4126.15384615 , 4122.05128205 , 4122.56410256 , 4122.56410256 , 4121.53846154 , 4120.0 , 4115.8974359 , 4152.82051282 , 4116.92307692 , 4130.25641026 , 4181.02564103 , 4904.61538462 , 4117.94871795 , 4131.28205128 , 2047.0 , 2034.0 , 76.606 , 0.0 , 0.0 , 0.0 , 0.0 , 

53.0 , 4122.56410256 , 4124.61538462 , 4117.43589744 , 4126.66666667 , 4122.05128205 , 4123.58974359 , 4116.92307692 , 4161.53846154 , 4122.56410256 , 4130.25641026 , 4182.05128205 , 4903.07692308 , 4127.69230769 , 4129.23076923 , 2047.0 , 2036.0 , 76.614 , 0.0 , 0.0 , 0.0 , 0.0 , 

54.0 , 4123.58974359 , 4121.53846154 , 4124.1025641 , 4122.56410256 , 4123.07692308 , 4118.97435897 , 4113.33333333 , 4154.87179487 , 4115.38461538 , 4129.74358974 , 4175.38461538 , 4906.15384615 , 4124.61538462 , 4130.76923077 , 2047.0 , 2036.0 , 76.623 , 0.0 , 0.0 , 0.0 , 0.0 , 

55.0 , 4123.58974359 , 4124.61538462 , 4117.94871795 , 4125.64102564 , 4121.53846154 , 4122.56410256 , 4120.51282051 , 4165.64102564 , 4121.53846154 , 4128.20512821 , 4180.51282051 , 4902.56410256 , 4130.25641026 , 4130.25641026 , 2045.0 , 2035.0 , 76.629 , 0.0 , 0.0 , 0.0 , 0.0 , 

56.0 , 4125.12820513 , 4117.43589744 , 4123.07692308 , 4116.92307692 , 4120.51282051 , 4115.8974359 , 4107.69230769 , 4153.33333333 , 4111.28205128 , 4123.07692308 , 4180.0 , 4904.1025641 , 4116.41025641 , 4131.79487179 , 2046.0 , 2035.0 , 76.637 , 0.0 , 0.0 , 0.0 , 0.0 , 

57.0 , 4121.53846154 , 4121.53846154 , 4121.53846154 , 4125.64102564 , 4121.53846154 , 4118.97435897 , 4114.87179487 , 4175.38461538 , 4125.12820513 , 4127.69230769 , 4184.61538462 , 4901.02564103 , 4126.15384615 , 4130.76923077 , 2045.0 , 2035.0 , 76.645 , 0.0 , 0.0 , 0.0 , 0.0 , 

58.0 , 4122.56410256 , 4118.46153846 , 4126.15384615 , 4119.48717949 , 4122.05128205 , 4113.33333333 , 4111.28205128 , 4172.82051282 , 4120.51282051 , 4128.71794872 , 4182.56410256 , 4901.53846154 , 4116.92307692 , 4132.30769231 , 2047.0 , 2035.0 , 76.654 , 0.0 , 0.0 , 0.0 , 0.0 , 

59.0 , 4120.0 , 4123.07692308 , 4120.0 , 4123.58974359 , 4121.53846154 , 4118.97435897 , 4117.43589744 , 4183.58974359 , 4128.71794872 , 4130.25641026 , 4187.69230769 , 4896.92307692 , 4125.12820513 , 4129.74358974 , 2045.0 , 2034.0 , 76.661 , 0.0 , 0.0 , 0.0 , 0.0 , 

60.0 , 4122.56410256 , 4114.87179487 , 4127.69230769 , 4123.07692308 , 4120.0 , 4111.79487179 , 4111.28205128 , 4172.30769231 , 4122.05128205 , 4130.25641026 , 4182.56410256 , 4904.61538462 , 4117.94871795 , 4130.76923077 , 2044.0 , 2036.0 , 76.669 , 0.0 , 0.0 , 0.0 , 0.0 , 

61.0 , 4123.58974359 , 4117.43589744 , 4125.12820513 , 4129.23076923 , 4125.12820513 , 4121.02564103 , 4123.58974359 , 4180.0 , 4128.20512821 , 4134.87179487 , 4184.61538462 , 4904.1025641 , 4122.56410256 , 4131.28205128 , 2046.0 , 2036.0 , 76.676 , 0.0 , 0.0 , 0.0 , 0.0 , 

62.0 , 4121.02564103 , 4118.46153846 , 4127.17948718 , 4120.51282051 , 4126.66666667 , 4124.61538462 , 4120.51282051 , 4167.69230769 , 4123.58974359 , 4133.84615385 , 4182.05128205 , 4903.58974359 , 4120.51282051 , 4130.76923077 , 2045.0 , 2036.0 , 76.686 , 0.0 , 0.0 , 0.0 , 0.0 , 

63.0 , 4123.58974359 , 4128.20512821 , 4123.58974359 , 4127.17948718 , 4123.07692308 , 4125.64102564 , 4121.53846154 , 4168.71794872 , 4128.20512821 , 4133.33333333 , 4181.02564103 , 4900.51282051 , 4127.69230769 , 4132.82051282 , 2043.0 , 2035.0 , 76.693 , 0.0 , 0.0 , 0.0 , 0.0 , 

64.0 , 4126.66666667 , 4122.56410256 , 4126.66666667 , 4126.15384615 , 4121.53846154 , 4116.92307692 , 4114.87179487 , 4162.56410256 , 4122.56410256 , 4131.79487179 , 4175.8974359 , 4905.12820513 , 4115.8974359 , 4134.87179487 , 2042.0 , 2035.0 , 76.701 , 0.0 , 0.0 , 0.0 , 0.0 , 

65.0 , 4124.61538462 , 4119.48717949 , 4125.64102564 , 4125.64102564 , 4124.1025641 , 4118.46153846 , 4116.92307692 , 4157.94871795 , 4116.41025641 , 4130.76923077 , 4177.43589744 , 4905.64102564 , 4116.41025641 , 4132.30769231 , 2041.0 , 2035.0 , 76.708 , 0.0 , 0.0 , 0.0 , 0.0 , 

66.0 , 4120.0 , 4118.97435897 , 4123.07692308 , 4126.15384615 , 4120.51282051 , 4118.46153846 , 4114.87179487 , 4151.79487179 , 4116.92307692 , 4128.71794872 , 4178.46153846 , 4905.64102564 , 4124.61538462 , 4131.28205128 , 2041.0 , 2034.0 , 76.718 , 0.0 , 0.0 , 0.0 , 0.0 , 

67.0 , 4123.07692308 , 4123.07692308 , 4122.05128205 , 4128.71794872 , 4122.56410256 , 4115.8974359 , 4113.84615385 , 4151.79487179 , 4114.35897436 , 4129.23076923 , 4180.0 , 4903.58974359 , 4124.61538462 , 4135.8974359 , 2042.0 , 2035.0 , 76.725 , 0.0 , 0.0 , 0.0 , 0.0 , 

68.0 , 4122.05128205 , 4121.53846154 , 4121.02564103 , 4128.71794872 , 4123.58974359 , 4115.8974359 , 4115.38461538 , 4160.51282051 , 4117.43589744 , 4128.71794872 , 4181.02564103 , 4901.53846154 , 4128.71794872 , 4133.84615385 , 2040.0 , 2035.0 , 76.733 , 0.0 , 0.0 , 0.0 , 0.0 , 

69.0 , 4124.61538462 , 4117.94871795 , 4122.56410256 , 4124.1025641 , 4122.56410256 , 4113.84615385 , 4111.79487179 , 4159.48717949 , 4113.84615385 , 4127.17948718 , 4181.02564103 , 4904.1025641 , 4124.1025641 , 4133.33333333 , 2040.0 , 2034.0 , 76.74 , 0.0 , 0.0 , 0.0 , 0.0 , 

70.0 , 4122.56410256 , 4122.05128205 , 4117.43589744 , 4126.66666667 , 4121.53846154 , 4119.48717949 , 4117.43589744 , 4176.41025641 , 4124.1025641 , 4129.74358974 , 4186.15384615 , 4903.07692308 , 4124.61538462 , 4131.79487179 , 2041.0 , 2034.0 , 76.75 , 0.0 , 0.0 , 0.0 , 0.0 , 

71.0 , 4123.07692308 , 4120.0 , 4123.07692308 , 4124.61538462 , 4123.07692308 , 4118.97435897 , 4113.33333333 , 4174.35897436 , 4118.97435897 , 4129.23076923 , 4182.56410256 , 4903.58974359 , 4117.94871795 , 4130.25641026 , 2041.0 , 2035.0 , 76.755 , 0.0 , 0.0 , 0.0 , 0.0 , 

72.0 , 4120.0 , 4121.02564103 , 4119.48717949 , 4129.23076923 , 4122.56410256 , 4121.53846154 , 4119.48717949 , 4185.12820513 , 4132.30769231 , 4131.28205128 , 4183.07692308 , 4900.51282051 , 4130.25641026 , 4128.20512821 , 2042.0 , 2033.0 , 76.764 , 0.0 , 0.0 , 0.0 , 0.0 , 

73.0 , 4125.64102564 , 4114.35897436 , 4127.17948718 , 4121.02564103 , 4122.56410256 , 4113.84615385 , 4114.35897436 , 4170.76923077 , 4125.12820513 , 4132.30769231 , 4180.51282051 , 4906.15384615 , 4113.84615385 , 4133.33333333 , 2041.0 , 2032.0 , 76.771 , 0.0 , 0.0 , 0.0 , 0.0 , 

74.0 , 4123.58974359 , 4120.51282051 , 4127.69230769 , 4123.07692308 , 4124.1025641 , 4121.02564103 , 4124.1025641 , 4181.53846154 , 4129.74358974 , 4135.38461538 , 4185.64102564 , 4904.61538462 , 4115.8974359 , 4132.30769231 , 2041.0 , 2033.0 , 76.781 , 0.0 , 0.0 , 0.0 , 0.0 , 

75.0 , 4124.1025641 , 4116.92307692 , 4133.84615385 , 4113.33333333 , 4123.07692308 , 4116.41025641 , 4114.87179487 , 4166.15384615 , 4120.0 , 4132.30769231 , 4177.94871795 , 4906.15384615 , 4106.15384615 , 4131.79487179 , 2043.0 , 2030.0 , 76.788 , 0.0 , 0.0 , 0.0 , 0.0 , 

76.0 , 4123.58974359 , 4123.07692308 , 4123.58974359 , 4122.05128205 , 4122.56410256 , 4121.53846154 , 4119.48717949 , 4175.38461538 , 4131.79487179 , 4133.84615385 , 4178.97435897 , 4901.02564103 , 4118.97435897 , 4131.28205128 , 2045.0 , 2032.0 , 76.796 , 0.0 , 0.0 , 0.0 , 0.0 , 

77.0 , 4125.64102564 , 4120.51282051 , 4128.71794872 , 4124.1025641 , 4122.05128205 , 4116.41025641 , 4110.25641026 , 4157.94871795 , 4117.94871795 , 4129.74358974 , 4177.94871795 , 4906.15384615 , 4118.97435897 , 4134.35897436 , 2044.0 , 2033.0 , 76.802 , 0.0 , 0.0 , 0.0 , 0.0 , 

78.0 , 4122.05128205 , 4126.66666667 , 4124.1025641 , 4130.76923077 , 4122.56410256 , 4125.64102564 , 4121.02564103 , 4161.02564103 , 4122.05128205 , 4129.23076923 , 4184.1025641 , 4905.12820513 , 4130.76923077 , 4132.82051282 , 2045.0 , 2035.0 , 76.812 , 0.0 , 0.0 , 0.0 , 0.0 , 

79.0 , 4122.56410256 , 4118.97435897 , 4125.64102564 , 4123.58974359 , 4120.51282051 , 4120.51282051 , 4116.92307692 , 4154.35897436 , 4120.0 , 4127.69230769 , 4179.48717949 , 4906.15384615 , 4120.0 , 4130.76923077 , 2045.0 , 2034.0 , 76.819 , 0.0 , 0.0 , 0.0 , 0.0 , 

80.0 , 4124.1025641 , 4123.58974359 , 4121.02564103 , 4133.33333333 , 4121.02564103 , 4122.56410256 , 4121.02564103 , 4165.64102564 , 4122.56410256 , 4129.74358974 , 4184.61538462 , 4900.0 , 4128.20512821 , 4130.76923077 , 2045.0 , 2035.0 , 76.827 , 0.0 , 0.0 , 0.0 , 0.0 , 

81.0 , 4122.56410256 , 4122.05128205 , 4123.58974359 , 4126.15384615 , 4122.05128205 , 4117.94871795 , 4114.35897436 , 4155.38461538 , 4115.38461538 , 4130.25641026 , 4183.58974359 , 4902.56410256 , 4125.12820513 , 4134.35897436 , 2045.0 , 2036.0 , 76.836 , 0.0 , 0.0 , 0.0 , 0.0 , 

82.0 , 4122.56410256 , 4123.07692308 , 4122.05128205 , 4120.0 , 4124.1025641 , 4119.48717949 , 4116.92307692 , 4163.07692308 , 4122.56410256 , 4131.28205128 , 4182.05128205 , 4902.05128205 , 4124.1025641 , 4133.84615385 , 2047.0 , 2037.0 , 76.845 , 0.0 , 0.0 , 0.0 , 0.0 , 

83.0 , 4122.56410256 , 4116.41025641 , 4127.17948718 , 4117.43589744 , 4120.0 , 4111.79487179 , 4108.71794872 , 4171.79487179 , 4121.02564103 , 4128.71794872 , 4180.51282051 , 4903.07692308 , 4120.0 , 4131.79487179 , 2045.0 , 2039.0 , 76.851 , 0.0 , 0.0 , 0.0 , 0.0 , 

84.0 , 4124.61538462 , 4116.41025641 , 4127.17948718 , 4122.56410256 , 4120.0 , 4111.28205128 , 4110.25641026 , 4176.41025641 , 4119.48717949 , 4130.25641026 , 4184.61538462 , 4902.05128205 , 4122.05128205 , 4132.30769231 , 2046.0 , 2036.0 , 76.859 , 0.0 , 0.0 , 0.0 , 0.0 , 

85.0 , 4121.02564103 , 4115.38461538 , 4125.64102564 , 4122.05128205 , 4122.05128205 , 4117.43589744 , 4116.92307692 , 4177.94871795 , 4129.23076923 , 4132.82051282 , 4181.53846154 , 4905.12820513 , 4120.51282051 , 4130.25641026 , 2046.0 , 2037.0 , 76.866 , 0.0 , 0.0 , 0.0 , 0.0 , 

86.0 , 4123.07692308 , 4117.94871795 , 4130.76923077 , 4121.02564103 , 4123.58974359 , 4120.0 , 4118.46153846 , 4176.41025641 , 4124.1025641 , 4131.28205128 , 4175.8974359 , 4905.12820513 , 4116.92307692 , 4130.25641026 , 2045.0 , 2037.0 , 76.876 , 0.0 , 0.0 , 0.0 , 0.0 , 

87.0 , 4122.56410256 , 4119.48717949 , 4129.23076923 , 4124.61538462 , 4121.53846154 , 4123.07692308 , 4121.53846154 , 4181.53846154 , 4122.05128205 , 4131.79487179 , 4180.0 , 4903.58974359 , 4124.1025641 , 4129.74358974 , 2044.0 , 2035.0 , 76.881 , 0.0 , 0.0 , 0.0 , 0.0 , 

88.0 , 4124.61538462 , 4117.94871795 , 4127.69230769 , 4121.02564103 , 4122.05128205 , 4123.07692308 , 4118.97435897 , 4173.84615385 , 4117.94871795 , 4133.84615385 , 4179.48717949 , 4906.15384615 , 4118.46153846 , 4132.30769231 , 2044.0 , 2035.0 , 76.89 , 0.0 , 0.0 , 0.0 , 0.0 , 

89.0 , 4121.53846154 , 4123.07692308 , 4121.53846154 , 4125.12820513 , 4123.07692308 , 4127.69230769 , 4123.58974359 , 4179.48717949 , 4127.69230769 , 4134.35897436 , 4181.02564103 , 4901.53846154 , 4125.12820513 , 4129.23076923 , 2044.0 , 2036.0 , 76.897 , 0.0 , 0.0 , 0.0 , 0.0 , 

90.0 , 4125.64102564 , 4123.58974359 , 4128.71794872 , 4119.48717949 , 4123.58974359 , 4120.51282051 , 4116.92307692 , 4163.58974359 , 4116.41025641 , 4130.25641026 , 4180.0 , 4903.07692308 , 4116.92307692 , 4129.23076923 , 2044.0 , 2036.0 , 76.906 , 0.0 , 0.0 , 0.0 , 0.0 , 

91.0 , 4124.61538462 , 4127.17948718 , 4123.07692308 , 4128.71794872 , 4121.53846154 , 4122.56410256 , 4123.07692308 , 4171.79487179 , 4125.12820513 , 4131.79487179 , 4181.02564103 , 4904.1025641 , 4125.12820513 , 4129.23076923 , 2043.0 , 2036.0 , 76.913 , 0.0 , 0.0 , 0.0 , 0.0 , 

92.0 , 4125.12820513 , 4120.0 , 4122.56410256 , 4126.15384615 , 4121.53846154 , 4115.38461538 , 4112.82051282 , 4155.38461538 , 4113.33333333 , 4128.71794872 , 4176.41025641 , 4907.69230769 , 4118.46153846 , 4133.33333333 , 2044.0 , 2036.0 , 76.921 , 0.0 , 0.0 , 0.0 , 0.0 , 

93.0 , 4122.56410256 , 4120.0 , 4116.92307692 , 4128.20512821 , 4122.56410256 , 4120.0 , 4115.8974359 , 4163.07692308 , 4118.97435897 , 4128.20512821 , 4182.56410256 , 4902.05128205 , 4130.76923077 , 4132.30769231 , 2044.0 , 2036.0 , 76.929 , 0.0 , 0.0 , 0.0 , 0.0 , 

94.0 , 4127.17948718 , 4113.84615385 , 4126.66666667 , 4120.0 , 4120.51282051 , 4113.84615385 , 4105.12820513 , 4153.33333333 , 4111.79487179 , 4129.23076923 , 4178.97435897 , 4908.71794872 , 4122.05128205 , 4132.82051282 , 2044.0 , 2035.0 , 76.939 , 0.0 , 0.0 , 0.0 , 0.0 , 

95.0 , 4123.58974359 , 4123.07692308 , 4118.97435897 , 4130.25641026 , 4120.51282051 , 4119.48717949 , 4112.30769231 , 4174.87179487 , 4124.1025641 , 4133.33333333 , 4182.05128205 , 4904.1025641 , 4131.28205128 , 4131.79487179 , 2040.0 , 2035.0 , 76.944 , 0.0 , 0.0 , 0.0 , 0.0 , 

96.0 , 4120.51282051 , 4117.43589744 , 4121.53846154 , 4122.56410256 , 4121.53846154 , 4113.33333333 , 4106.66666667 , 4171.28205128 , 4120.0 , 4129.23076923 , 4179.48717949 , 4899.48717949 , 4121.02564103 , 4131.79487179 , 2041.0 , 2036.0 , 76.953 , 0.0 , 0.0 , 0.0 , 0.0 , 

97.0 , 4121.02564103 , 4121.53846154 , 4118.97435897 , 4123.58974359 , 4121.53846154 , 4117.94871795 , 4118.97435897 , 4183.07692308 , 4128.20512821 , 4129.74358974 , 4183.58974359 , 4897.43589744 , 4123.07692308 , 4129.74358974 , 2041.0 , 2036.0 , 76.961 , 0.0 , 0.0 , 0.0 , 0.0 , 

98.0 , 4125.12820513 , 4121.53846154 , 4126.15384615 , 4120.0 , 4122.05128205 , 4113.33333333 , 4113.84615385 , 4174.35897436 , 4120.51282051 , 4129.23076923 , 4180.51282051 , 4905.12820513 , 4116.41025641 , 4131.28205128 , 2038.0 , 2035.0 , 76.97 , 0.0 , 0.0 , 0.0 , 0.0 , 

99.0 , 4123.07692308 , 4125.12820513 , 4125.64102564 , 4127.17948718 , 4125.12820513 , 4122.05128205 , 4122.05128205 , 4185.64102564 , 4128.20512821 , 4132.30769231 , 4184.1025641 , 4898.46153846 , 4126.15384615 , 4131.28205128 , 2037.0 , 2033.0 , 76.976 , 0.0 , 0.0 , 0.0 , 0.0 , 

100.0 , 4120.0 , 4116.41025641 , 4130.25641026 , 4122.05128205 , 4122.05128205 , 4121.02564103 , 4120.51282051 , 4179.48717949 , 4127.69230769 , 4132.82051282 , 4181.02564103 , 4899.48717949 , 4118.97435897 , 4129.23076923 , 2036.0 , 2034.0 , 76.985 , 0.0 , 0.0 , 0.0 , 0.0 , 

101.0 , 4122.56410256 , 4121.53846154 , 4127.69230769 , 4122.05128205 , 4121.53846154 , 4121.53846154 , 4122.05128205 , 4174.87179487 , 4125.64102564 , 4131.79487179 , 4180.51282051 , 4903.58974359 , 4113.84615385 , 4130.25641026 , 2035.0 , 2033.0 , 76.993 , 0.0 , 0.0 , 0.0 , 0.0 , 

102.0 , 4123.58974359 , 4122.56410256 , 4130.76923077 , 4117.94871795 , 4121.53846154 , 4118.46153846 , 4117.94871795 , 4174.35897436 , 4122.05128205 , 4130.25641026 , 4176.41025641 , 4904.61538462 , 4111.79487179 , 4131.79487179 , 2038.0 , 2033.0 , 77.003 , 0.0 , 0.0 , 0.0 , 0.0 , 

103.0 , 4125.64102564 , 4123.58974359 , 4131.28205128 , 4120.51282051 , 4122.56410256 , 4120.51282051 , 4121.02564103 , 4174.35897436 , 4120.0 , 4132.82051282 , 4175.8974359 , 4903.58974359 , 4115.38461538 , 4131.28205128 , 2038.0 , 2031.0 , 77.007 , 0.0 , 0.0 , 0.0 , 0.0 , 

104.0 , 4124.1025641 , 4123.07692308 , 4125.64102564 , 4125.12820513 , 4121.02564103 , 4120.51282051 , 4118.46153846 , 4170.25641026 , 4121.53846154 , 4132.82051282 , 4180.0 , 4906.66666667 , 4120.0 , 4129.23076923 , 2038.0 , 2030.0 , 77.016 , 0.0 , 0.0 , 0.0 , 0.0 , 

105.0 , 4124.61538462 , 4123.58974359 , 4123.58974359 , 4124.61538462 , 4122.56410256 , 4119.48717949 , 4113.84615385 , 4163.58974359 , 4116.92307692 , 4130.25641026 , 4183.58974359 , 4909.23076923 , 4118.97435897 , 4131.28205128 , 2038.0 , 2030.0 , 77.024 , 0.0 , 0.0 , 0.0 , 0.0 , 

106.0 , 4122.56410256 , 4124.1025641 , 4121.53846154 , 4124.61538462 , 4122.05128205 , 4123.07692308 , 4122.56410256 , 4171.79487179 , 4122.56410256 , 4132.30769231 , 4184.61538462 , 4906.66666667 , 4127.69230769 , 4129.74358974 , 2040.0 , 2031.0 , 77.034 , 0.0 , 0.0 , 0.0 , 0.0 , 

107.0 , 4127.17948718 , 4122.05128205 , 4126.15384615 , 4123.07692308 , 4122.56410256 , 4118.46153846 , 4119.48717949 , 4164.61538462 , 4115.8974359 , 4130.25641026 , 4180.0 , 4906.66666667 , 4122.56410256 , 4129.74358974 , 2041.0 , 2033.0 , 77.039 , 0.0 , 0.0 , 0.0 , 0.0 , 

108.0 , 4123.58974359 , 4122.05128205 , 4121.02564103 , 4130.25641026 , 4121.53846154 , 4116.41025641 , 4117.94871795 , 4176.41025641 , 4125.64102564 , 4130.25641026 , 4183.07692308 , 4900.51282051 , 4127.69230769 , 4130.76923077 , 2043.0 , 2033.0 , 77.049 , 0.0 , 0.0 , 0.0 , 0.0 , 

109.0 , 4123.07692308 , 4114.35897436 , 4123.07692308 , 4125.12820513 , 4122.56410256 , 4110.25641026 , 4108.20512821 , 4167.17948718 , 4117.43589744 , 4132.30769231 , 4183.58974359 , 4898.97435897 , 4121.02564103 , 4131.79487179 , 2044.0 , 2034.0 , 77.056 , 0.0 , 0.0 , 0.0 , 0.0 , 

110.0 , 4121.02564103 , 4118.97435897 , 4117.43589744 , 4127.17948718 , 4122.05128205 , 4119.48717949 , 4116.41025641 , 4181.02564103 , 4126.15384615 , 4133.84615385 , 4186.66666667 , 4897.43589744 , 4131.79487179 , 4130.25641026 , 2043.0 , 2033.0 , 77.066 , 0.0 , 0.0 , 0.0 , 0.0 , 

111.0 , 4125.12820513 , 4114.35897436 , 4126.15384615 , 4116.41025641 , 4120.51282051 , 4115.8974359 , 4110.25641026 , 4176.41025641 , 4116.92307692 , 4128.20512821 , 4180.51282051 , 4902.56410256 , 4117.94871795 , 4133.33333333 , 2044.0 , 2030.0 , 77.07 , 0.0 , 0.0 , 0.0 , 0.0 , 

112.0 , 4121.53846154 , 4115.38461538 , 4124.1025641 , 4121.53846154 , 4122.05128205 , 4119.48717949 , 4121.53846154 , 4191.79487179 , 4128.20512821 , 4131.28205128 , 4183.07692308 , 4896.92307692 , 4125.12820513 , 4130.25641026 , 2043.0 , 2030.0 , 77.079 , 0.0 , 0.0 , 0.0 , 0.0 , 

113.0 , 4121.53846154 , 4110.76923077 , 4129.23076923 , 4115.38461538 , 4123.07692308 , 4113.33333333 , 4116.41025641 , 4175.38461538 , 4124.1025641 , 4132.30769231 , 4177.43589744 , 4903.07692308 , 4116.92307692 , 4129.23076923 , 2043.0 , 2031.0 , 77.087 , 0.0 , 0.0 , 0.0 , 0.0 , 

114.0 , 4121.53846154 , 4121.53846154 , 4122.56410256 , 4122.05128205 , 4122.56410256 , 4124.61538462 , 4127.69230769 , 4182.56410256 , 4132.82051282 , 4133.33333333 , 4181.02564103 , 4904.1025641 , 4125.64102564 , 4128.20512821 , 2043.0 , 2033.0 , 77.096 , 0.0 , 0.0 , 0.0 , 0.0 , 

115.0 , 4125.64102564 , 4118.46153846 , 4129.74358974 , 4118.97435897 , 4122.05128205 , 4124.1025641 , 4121.53846154 , 4168.20512821 , 4120.0 , 4130.25641026 , 4178.97435897 , 4905.64102564 , 4117.43589744 , 4131.79487179 , 2043.0 , 2032.0 , 77.102 , 0.0 , 0.0 , 0.0 , 0.0 , 

116.0 , 4126.15384615 , 4125.64102564 , 4126.15384615 , 4129.74358974 , 4123.58974359 , 4128.71794872 , 4126.15384615 , 4176.41025641 , 4124.61538462 , 4133.84615385 , 4181.02564103 , 4901.02564103 , 4124.61538462 , 4133.84615385 , 2045.0 , 2032.0 , 77.111 , 0.0 , 0.0 , 0.0 , 0.0 , 

117.0 , 4125.64102564 , 4124.1025641 , 4127.17948718 , 4126.15384615 , 4123.58974359 , 4122.56410256 , 4117.43589744 , 4166.66666667 , 4118.97435897 , 4130.25641026 , 4175.38461538 , 4905.64102564 , 4118.46153846 , 4131.79487179 , 2044.0 , 2032.0 , 77.119 , 0.0 , 0.0 , 0.0 , 0.0 , 

118.0 , 4125.12820513 , 4127.17948718 , 4121.53846154 , 4130.76923077 , 4124.1025641 , 4126.15384615 , 4122.05128205 , 4165.64102564 , 4120.0 , 4128.71794872 , 4181.02564103 , 4905.12820513 , 4126.66666667 , 4127.69230769 , 2043.0 , 2031.0 , 77.129 , 0.0 , 0.0 , 0.0 , 0.0 , 

119.0 , 4123.07692308 , 4120.0 , 4124.61538462 , 4127.17948718 , 4121.53846154 , 4118.46153846 , 4115.8974359 , 4155.8974359 , 4115.38461538 , 4128.71794872 , 4182.56410256 , 4907.69230769 , 4127.69230769 , 4131.28205128 , 2045.0 , 2031.0 , 77.134 , 0.0 , 0.0 , 0.0 , 0.0 , 

120.0 , 4123.07692308 , 4120.0 , 4124.1025641 , 4126.15384615 , 4124.1025641 , 4115.38461538 , 4112.30769231 , 4163.07692308 , 4115.38461538 , 4129.23076923 , 4183.58974359 , 4906.66666667 , 4127.69230769 , 4135.38461538 , 2045.0 , 2032.0 , 77.141 , 0.0 , 0.0 , 0.0 , 0.0 , 

121.0 , 4121.02564103 , 4116.92307692 , 4124.1025641 , 4124.1025641 , 4123.07692308 , 4114.35897436 , 4108.20512821 , 4166.66666667 , 4116.92307692 , 4126.15384615 , 4181.02564103 , 4903.58974359 , 4126.15384615 , 4132.30769231 , 2045.0 , 2030.0 , 77.149 , 0.0 , 0.0 , 0.0 , 0.0 , 

122.0 , 4123.07692308 , 4119.48717949 , 4122.05128205 , 4126.15384615 , 4118.97435897 , 4115.8974359 , 4111.79487179 , 4168.20512821 , 4115.8974359 , 4126.66666667 , 4181.02564103 , 4901.02564103 , 4125.64102564 , 4131.28205128 , 2046.0 , 2030.0 , 77.158 , 0.0 , 0.0 , 0.0 , 0.0 , 

123.0 , 4121.53846154 , 4119.48717949 , 4120.0 , 4124.61538462 , 4120.51282051 , 4114.87179487 , 4115.38461538 , 4181.53846154 , 4124.61538462 , 4127.69230769 , 4183.58974359 , 4901.53846154 , 4126.15384615 , 4131.28205128 , 2046.0 , 2032.0 , 77.165 , 0.0 , 0.0 , 0.0 , 0.0 , 

124.0 , 4124.61538462 , 4116.92307692 , 4125.64102564 , 4118.97435897 , 4126.15384615 , 4113.84615385 , 4115.38461538 , 4182.05128205 , 4123.58974359 , 4127.69230769 , 4181.53846154 , 4901.02564103 , 4117.94871795 , 4132.30769231 , 2047.0 , 2032.0 , 77.173 , 0.0 , 0.0 , 0.0 , 0.0 , 

125.0 , 4120.0 , 4118.97435897 , 4125.64102564 , 4123.58974359 , 4122.05128205 , 4117.94871795 , 4121.53846154 , 4187.17948718 , 4130.25641026 , 4132.82051282 , 4180.51282051 , 4899.48717949 , 4125.12820513 , 4131.28205128 , 2047.0 , 2032.0 , 77.181 , 0.0 , 0.0 , 0.0 , 0.0 , 

126.0 , 4122.05128205 , 4118.97435897 , 4128.71794872 , 4120.0 , 4118.46153846 , 4116.41025641 , 4115.38461538 , 4180.0 , 4123.07692308 , 4132.82051282 , 4177.94871795 , 4905.64102564 , 4119.48717949 , 4131.79487179 , 2047.0 , 2032.0 , 77.19 , 0.0 , 0.0 , 0.0 , 0.0 , 

127.0 , 4121.02564103 , 4123.58974359 , 4123.58974359 , 4123.58974359 , 4121.53846154 , 4123.58974359 , 4125.12820513 , 4193.33333333 , 4131.79487179 , 4131.79487179 , 4184.1025641 , 4904.61538462 , 4125.64102564 , 4126.15384615 , 2047.0 , 2032.0 , 77.198 , 0.0 , 0.0 , 0.0 , 0.0 , 

128.0 , 4125.64102564 , 4120.51282051 , 4129.74358974 , 4120.0 , 4124.61538462 , 4118.97435897 , 4122.05128205 , 4172.82051282 , 4118.97435897 , 4129.23076923 , 4180.51282051 , 4905.64102564 , 4115.8974359 , 4129.74358974 , 2045.0 , 2032.0 , 77.204 , 0.0 , 0.0 , 0.0 , 0.0 , 

0.0 , 4123.58974359 , 4126.15384615 , 4124.61538462 , 4125.64102564 , 4124.61538462 , 4123.07692308 , 4124.1025641 , 4175.38461538 , 4122.56410256 , 4131.28205128 , 4179.48717949 , 4903.07692308 , 4122.05128205 , 4133.33333333 , 2045.0 , 2032.0 , 77.212 , 0.0 , 0.0 , 0.0 , 0.0 , 

1.0 , 4126.15384615 , 4122.05128205 , 4131.79487179 , 4117.43589744 , 4124.1025641 , 4116.41025641 , 4114.87179487 , 4163.07692308 , 4113.84615385 , 4129.23076923 , 4174.87179487 , 4906.66666667 , 4110.76923077 , 4133.84615385 , 2043.0 , 2032.0 , 77.223 , 0.0 , 0.0 , 0.0 , 0.0 , 

2.0 , 4125.12820513 , 4124.61538462 , 4124.1025641 , 4127.17948718 , 4123.07692308 , 4121.02564103 , 4126.15384615 , 4172.82051282 , 4128.20512821 , 4132.30769231 , 4181.02564103 , 4903.07692308 , 4127.69230769 , 4128.20512821 , 2043.0 , 2032.0 , 77.229 , 0.0 , 0.0 , 0.0 , 0.0 , 

3.0 , 4125.12820513 , 4118.46153846 , 4125.12820513 , 4124.61538462 , 4122.05128205 , 4112.82051282 , 4114.87179487 , 4156.92307692 , 4118.46153846 , 4128.71794872 , 4178.46153846 , 4909.23076923 , 4123.07692308 , 4130.76923077 , 2041.0 , 2033.0 , 77.236 , 0.0 , 0.0 , 0.0 , 0.0 , 

4.0 , 4122.05128205 , 4126.15384615 , 4121.02564103 , 4129.23076923 , 4124.61538462 , 4120.51282051 , 4121.02564103 , 4168.71794872 , 4119.48717949 , 4128.20512821 , 4183.58974359 , 4903.58974359 , 4128.20512821 , 4132.82051282 , 2040.0 , 2035.0 , 77.245 , 0.0 , 0.0 , 0.0 , 0.0 , 

5.0 , 4123.58974359 , 4121.02564103 , 4126.15384615 , 4121.53846154 , 4125.12820513 , 4118.46153846 , 4115.38461538 , 4163.07692308 , 4112.30769231 , 4127.69230769 , 4182.56410256 , 4901.53846154 , 4120.51282051 , 4132.30769231 , 2041.0 , 2034.0 , 77.255 , 0.0 , 0.0 , 0.0 , 0.0 , 

6.0 , 4125.12820513 , 4123.07692308 , 4116.92307692 , 4128.71794872 , 4123.58974359 , 4121.02564103 , 4118.97435897 , 4175.8974359 , 4124.1025641 , 4131.28205128 , 4185.12820513 , 4897.94871795 , 4132.82051282 , 4130.76923077 , 2041.0 , 2034.0 , 77.259 , 0.0 , 0.0 , 0.0 , 0.0 , 

7.0 , 4123.58974359 , 4118.46153846 , 4123.07692308 , 4125.12820513 , 4120.51282051 , 4114.35897436 , 4111.28205128 , 4171.79487179 , 4121.53846154 , 4130.25641026 , 4180.0 , 4903.07692308 , 4128.20512821 , 4131.28205128 , 2040.0 , 2034.0 , 77.268 , 0.0 , 0.0 , 0.0 , 0.0 , 

8.0 , 4121.53846154 , 4119.48717949 , 4126.66666667 , 4125.12820513 , 4122.05128205 , 4115.8974359 , 4117.94871795 , 4181.53846154 , 4124.1025641 , 4129.74358974 , 4181.53846154 , 4901.53846154 , 4127.69230769 , 4131.79487179 , 2041.0 , 2031.0 , 77.276 , 0.0 , 0.0 , 0.0 , 0.0 , 

9.0 , 4123.07692308 , 4115.8974359 , 4128.71794872 , 4117.43589744 , 4122.56410256 , 4113.33333333 , 4115.8974359 , 4182.05128205 , 4125.12820513 , 4128.71794872 , 4181.53846154 , 4904.1025641 , 4118.97435897 , 4131.79487179 , 2041.0 , 2033.0 , 77.286 , 0.0 , 0.0 , 0.0 , 0.0 , 

10.0 , 4127.69230769 , 4119.48717949 , 4126.15384615 , 4117.94871795 , 4124.61538462 , 4117.94871795 , 4120.0 , 4184.61538462 , 4123.58974359 , 4131.79487179 , 4183.58974359 , 4904.61538462 , 4115.38461538 , 4132.30769231 , 2043.0 , 2034.0 , 77.292 , 0.0 , 0.0 , 0.0 , 0.0 , 

11.0 , 4124.61538462 , 4115.8974359 , 4128.71794872 , 4117.43589744 , 4123.07692308 , 4123.07692308 , 4119.48717949 , 4181.02564103 , 4120.51282051 , 4132.30769231 , 4180.0 , 4904.61538462 , 4115.8974359 , 4131.79487179 , 2042.0 , 2032.0 , 77.3 , 0.0 , 0.0 , 0.0 , 0.0 , 

12.0 , 4123.58974359 , 4117.43589744 , 4130.25641026 , 4117.94871795 , 4121.02564103 , 4123.07692308 , 4118.46153846 , 4174.87179487 , 4118.97435897 , 4130.76923077 , 4177.43589744 , 4904.1025641 , 4115.8974359 , 4130.25641026 , 2042.0 , 2032.0 , 77.308 , 0.0 , 0.0 , 0.0 , 0.0 , 

13.0 , 4122.05128205 , 4122.05128205 , 4127.17948718 , 4122.05128205 , 4119.48717949 , 4122.56410256 , 4120.51282051 , 4178.46153846 , 4131.79487179 , 4131.28205128 , 4183.07692308 , 4904.1025641 , 4120.51282051 , 4127.69230769 , 2044.0 , 2031.0 , 77.318 , 0.0 , 0.0 , 0.0 , 0.0 , 

14.0 , 4125.64102564 , 4123.07692308 , 4128.20512821 , 4122.56410256 , 4123.58974359 , 4121.02564103 , 4120.0 , 4168.71794872 , 4125.12820513 , 4131.79487179 , 4183.07692308 , 4904.61538462 , 4117.94871795 , 4131.28205128 , 2045.0 , 2032.0 , 77.324 , 0.0 , 0.0 , 0.0 , 0.0 , 

15.0 , 4124.61538462 , 4126.15384615 , 4121.53846154 , 4127.17948718 , 4124.1025641 , 4125.64102564 , 4126.15384615 , 4173.84615385 , 4123.58974359 , 4131.79487179 , 4180.0 , 4901.02564103 , 4127.17948718 , 4131.79487179 , 2044.0 , 2032.0 , 77.33 , 0.0 , 0.0 , 0.0 , 0.0 , 

16.0 , 4126.15384615 , 4124.61538462 , 4123.58974359 , 4120.51282051 , 4122.56410256 , 4121.02564103 , 4115.8974359 , 4160.51282051 , 4113.33333333 , 4127.69230769 , 4178.46153846 , 4904.1025641 , 4121.53846154 , 4131.28205128 , 2045.0 , 2032.0 , 77.339 , 0.0 , 0.0 , 0.0 , 0.0 , 

17.0 , 4120.51282051 , 4123.58974359 , 4120.51282051 , 4124.1025641 , 4121.02564103 , 4122.56410256 , 4117.94871795 , 4168.71794872 , 4123.58974359 , 4126.66666667 , 4184.1025641 , 4902.56410256 , 4130.76923077 , 4130.25641026 , 2047.0 , 2032.0 , 77.349 , 0.0 , 0.0 , 0.0 , 0.0 , 

18.0 , 4124.61538462 , 4114.87179487 , 4128.20512821 , 4120.0 , 4123.58974359 , 4110.76923077 , 4109.74358974 , 4158.46153846 , 4114.35897436 , 4126.15384615 , 4180.0 , 4904.1025641 , 4120.0 , 4134.35897436 , 2047.0 , 2033.0 , 77.355 , 0.0 , 0.0 , 0.0 , 0.0 , 

19.0 , 4123.07692308 , 4119.48717949 , 4119.48717949 , 4125.64102564 , 4123.07692308 , 4112.30769231 , 4116.41025641 , 4175.8974359 , 4124.1025641 , 4129.23076923 , 4184.61538462 , 4900.0 , 4125.12820513 , 4131.79487179 , 2047.0 , 2031.0 , 77.363 , 0.0 , 0.0 , 0.0 , 0.0 , 

20.0 , 4122.56410256 , 4114.35897436 , 4124.1025641 , 4116.41025641 , 4118.46153846 , 4111.28205128 , 4108.71794872 , 4166.66666667 , 4116.92307692 , 4126.66666667 , 4181.53846154 , 4902.56410256 , 4114.35897436 , 4130.76923077 , 2045.0 , 2032.0 , 77.37 , 0.0 , 0.0 , 0.0 , 0.0 , 

21.0 , 4119.48717949 , 4119.48717949 , 4121.02564103 , 4122.05128205 , 4119.48717949 , 4121.02564103 , 4118.97435897 , 4182.56410256 , 4131.28205128 , 4129.74358974 , 4183.07692308 , 4897.94871795 , 4128.20512821 , 4130.25641026 , 2046.0 , 2033.0 , 77.38 , 0.0 , 0.0 , 0.0 , 0.0 , 

22.0 , 4123.07692308 , 4115.38461538 , 4126.66666667 , 4117.43589744 , 4122.05128205 , 4112.82051282 , 4111.28205128 , 4180.51282051 , 4126.15384615 , 4130.76923077 , 4179.48717949 , 4902.56410256 , 4121.02564103 , 4131.79487179 , 2044.0 , 2035.0 , 77.387 , 0.0 , 0.0 , 0.0 , 0.0 , 

23.0 , 4123.58974359 , 4119.48717949 , 4120.51282051 , 4122.56410256 , 4123.07692308 , 4121.02564103 , 4120.51282051 , 4191.28205128 , 4129.23076923 , 4133.84615385 , 4186.66666667 , 4902.05128205 , 4125.12820513 , 4128.71794872 , 2045.0 , 2034.0 , 77.393 , 0.0 , 0.0 , 0.0 , 0.0 , 

24.0 , 4123.07692308 , 4114.87179487 , 4124.61538462 , 4114.87179487 , 4121.53846154 , 4122.56410256 , 4118.97435897 , 4175.38461538 , 4125.64102564 , 4132.30769231 , 4183.58974359 , 4905.64102564 , 4116.41025641 , 4127.69230769 , 2044.0 , 2034.0 , 77.402 , 0.0 , 0.0 , 0.0 , 0.0 , 

25.0 , 4122.56410256 , 4123.58974359 , 4121.02564103 , 4121.02564103 , 4124.1025641 , 4127.17948718 , 4126.15384615 , 4183.07692308 , 4134.87179487 , 4132.82051282 , 4183.07692308 , 4902.56410256 , 4124.1025641 , 4128.20512821 , 2044.0 , 2035.0 , 77.411 , 0.0 , 0.0 , 0.0 , 0.0 , 

26.0 , 4123.07692308 , 4123.07692308 , 4126.66666667 , 4121.02564103 , 4123.58974359 , 4121.02564103 , 4117.94871795 , 4174.35897436 , 4122.05128205 , 4129.74358974 , 4178.97435897 , 4906.66666667 , 4118.97435897 , 4131.28205128 , 2043.0 , 2036.0 , 77.418 , 0.0 , 0.0 , 0.0 , 0.0 , 

27.0 , 4124.1025641 , 4125.64102564 , 4124.61538462 , 4125.64102564 , 4122.56410256 , 4125.12820513 , 4121.02564103 , 4168.71794872 , 4116.92307692 , 4131.28205128 , 4182.56410256 , 4905.12820513 , 4120.51282051 , 4131.79487179 , 2044.0 , 2036.0 , 77.425 , 0.0 , 0.0 , 0.0 , 0.0 , 

28.0 , 4123.07692308 , 4123.58974359 , 4123.07692308 , 4121.02564103 , 4121.53846154 , 4120.51282051 , 4118.46153846 , 4162.56410256 , 4121.02564103 , 4129.74358974 , 4181.02564103 , 4906.66666667 , 4120.51282051 , 4131.28205128 , 2045.0 , 2036.0 , 77.434 , 0.0 , 0.0 , 0.0 , 0.0 , 

29.0 , 4123.58974359 , 4124.61538462 , 4122.56410256 , 4124.61538462 , 4123.58974359 , 4118.46153846 , 4115.38461538 , 4160.0 , 4116.92307692 , 4127.17948718 , 4178.97435897 , 4905.64102564 , 4125.64102564 , 4131.28205128 , 2045.0 , 2035.0 , 77.443 , 0.0 , 0.0 , 0.0 , 0.0 , 

30.0 , 4120.51282051 , 4118.97435897 , 4123.58974359 , 4127.69230769 , 4121.02564103 , 4120.0 , 4109.74358974 , 4160.51282051 , 4114.35897436 , 4127.17948718 , 4181.53846154 , 4904.61538462 , 4130.76923077 , 4130.76923077 , 2044.0 , 2035.0 , 77.45 , 0.0 , 0.0 , 0.0 , 0.0 , 

31.0 , 4123.07692308 , 4116.92307692 , 4123.58974359 , 4124.1025641 , 4116.92307692 , 4118.97435897 , 4108.71794872 , 4163.07692308 , 4116.92307692 , 4128.20512821 , 4184.1025641 , 4902.56410256 , 4125.64102564 , 4132.82051282 , 2045.0 , 2036.0 , 77.457 , 0.0 , 0.0 , 0.0 , 0.0 , 

32.0 , 4121.02564103 , 4122.05128205 , 4120.0 , 4123.07692308 , 4117.94871795 , 4115.38461538 , 4115.8974359 , 4173.84615385 , 4124.61538462 , 4128.20512821 , 4185.12820513 , 4898.97435897 , 4126.15384615 , 4131.79487179 , 2044.0 , 2037.0 , 77.465 , 0.0 , 0.0 , 0.0 , 0.0 , 

33.0 , 4123.07692308 , 4122.05128205 , 4120.51282051 , 4122.05128205 , 4124.1025641 , 4112.30769231 , 4113.33333333 , 4167.17948718 , 4115.38461538 , 4128.71794872 , 4183.58974359 , 4900.51282051 , 4122.05128205 , 4130.76923077 , 2045.0 , 2038.0 , 77.475 , 0.0 , 0.0 , 0.0 , 0.0 , 

34.0 , 4122.05128205 , 4122.56410256 , 4115.38461538 , 4126.66666667 , 4121.53846154 , 4120.0 , 4116.41025641 , 4185.64102564 , 4129.23076923 , 4131.28205128 , 4186.66666667 , 4899.48717949 , 4130.25641026 , 4127.69230769 , 2045.0 , 2040.0 , 77.48 , 0.0 , 0.0 , 0.0 , 0.0 , 

35.0 , 4125.12820513 , 4117.94871795 , 4122.05128205 , 4117.94871795 , 4120.51282051 , 4114.87179487 , 4112.82051282 , 4183.58974359 , 4124.1025641 , 4130.76923077 , 4181.02564103 , 4903.07692308 , 4119.48717949 , 4129.23076923 , 2046.0 , 2038.0 , 77.489 , 0.0 , 0.0 , 0.0 , 0.0 , 

36.0 , 4122.05128205 , 4119.48717949 , 4122.05128205 , 4120.0 , 4123.58974359 , 4120.0 , 4124.1025641 , 4192.82051282 , 4128.20512821 , 4133.33333333 , 4181.02564103 , 4900.51282051 , 4127.69230769 , 4130.25641026 , 2046.0 , 2035.0 , 77.498 , 0.0 , 0.0 , 0.0 , 0.0 , 

37.0 , 4126.15384615 , 4116.92307692 , 4131.79487179 , 4115.38461538 , 4124.1025641 , 4118.97435897 , 4116.41025641 , 4176.41025641 , 4117.94871795 , 4132.30769231 , 4175.8974359 , 4906.15384615 , 4115.8974359 , 4132.82051282 , 2045.0 , 2033.0 , 77.508 , 0.0 , 0.0 , 0.0 , 0.0 , 

38.0 , 4125.12820513 , 4123.07692308 , 4126.66666667 , 4123.58974359 , 4121.53846154 , 4126.15384615 , 4122.05128205 , 4187.69230769 , 4129.23076923 , 4133.84615385 , 4181.53846154 , 4904.61538462 , 4118.97435897 , 4129.23076923 , 2044.0 , 2033.0 , 77.512 , 0.0 , 0.0 , 0.0 , 0.0 , 

39.0 , 4124.61538462 , 4116.41025641 , 4130.76923077 , 4118.46153846 , 4121.02564103 , 4117.43589744 , 4115.8974359 , 4171.79487179 , 4115.38461538 , 4132.82051282 , 4179.48717949 , 4906.15384615 , 4111.79487179 , 4130.25641026 , 2043.0 , 2034.0 , 77.521 , 0.0 , 0.0 , 0.0 , 0.0 , 

40.0 , 4123.07692308 , 4123.07692308 , 4122.56410256 , 4125.12820513 , 4122.05128205 , 4122.56410256 , 4122.05128205 , 4176.41025641 , 4123.07692308 , 4134.87179487 , 4185.64102564 , 4901.53846154 , 4127.17948718 , 4131.79487179 , 2042.0 , 2037.0 , 77.529 , 0.0 , 0.0 , 0.0 , 0.0 , 

41.0 , 4127.17948718 , 4123.58974359 , 4126.66666667 , 4120.51282051 , 4123.58974359 , 4120.51282051 , 4109.74358974 , 4161.02564103 , 4118.46153846 , 4130.25641026 , 4183.58974359 , 4905.64102564 , 4115.8974359 , 4132.82051282 , 2042.0 , 2039.0 , 77.538 , 0.0 , 0.0 , 0.0 , 0.0 , 

42.0 , 4124.61538462 , 4129.23076923 , 4123.58974359 , 4129.23076923 , 4126.66666667 , 4125.64102564 , 4120.51282051 , 4168.71794872 , 4122.05128205 , 4131.28205128 , 4185.64102564 , 4903.58974359 , 4124.61538462 , 4129.74358974 , 2041.0 , 2039.0 , 77.544 , 0.0 , 0.0 , 0.0 , 0.0 , 

43.0 , 4122.56410256 , 4122.56410256 , 4124.1025641 , 4125.12820513 , 4124.1025641 , 4115.8974359 , 4116.41025641 , 4157.43589744 , 4112.30769231 , 4129.74358974 , 4182.05128205 , 4904.61538462 , 4128.71794872 , 4130.76923077 , 2042.0 , 2039.0 , 77.552 , 0.0 , 0.0 , 0.0 , 0.0 , 

44.0 , 4123.07692308 , 4126.66666667 , 4115.8974359 , 4126.66666667 , 4123.58974359 , 4118.97435897 , 4117.94871795 , 4167.17948718 , 4119.48717949 , 4130.25641026 , 4185.12820513 , 4902.05128205 , 4133.33333333 , 4132.30769231 , 2044.0 , 2039.0 , 77.56 , 0.0 , 0.0 , 0.0 , 0.0 , 

45.0 , 4124.1025641 , 4118.46153846 , 4123.07692308 , 4121.53846154 , 4123.07692308 , 4116.92307692 , 4113.33333333 , 4171.28205128 , 4120.51282051 , 4128.20512821 , 4181.02564103 , 4902.05128205 , 4120.51282051 , 4131.79487179 , 2043.0 , 2039.0 , 77.57 , 0.0 , 0.0 , 0.0 , 0.0 , 

46.0 , 4124.61538462 , 4116.92307692 , 4125.64102564 , 4122.05128205 , 4122.05128205 , 4116.92307692 , 4117.94871795 , 4178.46153846 , 4123.07692308 , 4132.30769231 , 4182.56410256 , 4897.43589744 , 4124.1025641 , 4130.76923077 , 2044.0 , 2038.0 , 77.576 , 0.0 , 0.0 , 0.0 , 0.0 , 

47.0 , 4122.56410256 , 4116.92307692 , 4126.66666667 , 4117.43589744 , 4120.51282051 , 4114.87179487 , 4111.79487179 , 4180.0 , 4126.66666667 , 4133.33333333 , 4183.58974359 , 4902.05128205 , 4122.05128205 , 4131.28205128 , 2045.0 , 2035.0 , 77.584 , 0.0 , 0.0 , 0.0 , 0.0 , 

48.0 , 4122.56410256 , 4116.92307692 , 4129.23076923 , 4116.41025641 , 4122.05128205 , 4115.8974359 , 4114.35897436 , 4185.12820513 , 4126.66666667 , 4130.25641026 , 4182.56410256 , 4903.07692308 , 4114.35897436 , 4130.76923077 , 2045.0 , 2034.0 , 77.591 , 0.0 , 0.0 , 0.0 , 0.0 , 

49.0 , 4120.0 , 4113.84615385 , 4126.66666667 , 4118.46153846 , 4118.97435897 , 4116.41025641 , 4121.53846154 , 4188.20512821 , 4127.17948718 , 4129.74358974 , 4179.48717949 , 4900.51282051 , 4122.56410256 , 4130.76923077 , 2044.0 , 2034.0 , 77.601 , 0.0 , 0.0 , 0.0 , 0.0 , 

50.0 , 4125.12820513 , 4117.43589744 , 4124.61538462 , 4120.51282051 , 4120.0 , 4119.48717949 , 4121.53846154 , 4181.53846154 , 4120.51282051 , 4131.79487179 , 4180.51282051 , 4902.56410256 , 4124.1025641 , 4132.82051282 , 2043.0 , 2034.0 , 77.607 , 0.0 , 0.0 , 0.0 , 0.0 , 

51.0 , 4124.1025641 , 4121.02564103 , 4121.02564103 , 4123.07692308 , 4123.07692308 , 4125.12820513 , 4125.12820513 , 4188.20512821 , 4127.69230769 , 4131.28205128 , 4185.12820513 , 4903.07692308 , 4124.1025641 , 4129.23076923 , 2042.0 , 2034.0 , 77.615 , 0.0 , 0.0 , 0.0 , 0.0 , 

52.0 , 4124.61538462 , 4120.51282051 , 4123.07692308 , 4119.48717949 , 4124.61538462 , 4121.02564103 , 4121.53846154 , 4176.41025641 , 4121.02564103 , 4129.23076923 , 4182.56410256 , 4903.07692308 , 4114.87179487 , 4129.74358974 , 2042.0 , 2035.0 , 77.623 , 0.0 , 0.0 , 0.0 , 0.0 , 

53.0 , 4123.58974359 , 4128.20512821 , 4117.43589744 , 4126.15384615 , 4124.1025641 , 4126.15384615 , 4124.61538462 , 4180.51282051 , 4128.71794872 , 4131.28205128 , 4184.61538462 , 4901.53846154 , 4125.64102564 , 4129.74358974 , 2043.0 , 2034.0 , 77.632 , 0.0 , 0.0 , 0.0 , 0.0 , 

54.0 , 4128.20512821 , 4123.07692308 , 4126.15384615 , 4121.02564103 , 4123.58974359 , 4121.02564103 , 4115.8974359 , 4163.58974359 , 4113.84615385 , 4127.17948718 , 4181.02564103 , 4909.23076923 , 4117.94871795 , 4131.28205128 , 2041.0 , 2036.0 , 77.638 , 0.0 , 0.0 , 0.0 , 0.0 , 

55.0 , 4123.07692308 , 4121.02564103 , 4121.53846154 , 4126.66666667 , 4121.53846154 , 4121.02564103 , 4120.51282051 , 4167.69230769 , 4114.35897436 , 4126.15384615 , 4184.1025641 , 4905.12820513 , 4127.69230769 , 4129.23076923 , 2040.0 , 2036.0 , 77.646 , 0.0 , 0.0 , 0.0 , 0.0 , 

56.0 , 4123.07692308 , 4119.48717949 , 4125.12820513 , 4122.56410256 , 4122.56410256 , 4114.35897436 , 4107.17948718 , 4154.35897436 , 4108.20512821 , 4127.17948718 , 4179.48717949 , 4905.64102564 , 4121.53846154 , 4131.28205128 , 2040.0 , 2035.0 , 77.654 , 0.0 , 0.0 , 0.0 , 0.0 , 

57.0 , 4120.51282051 , 4127.17948718 , 4120.0 , 4129.23076923 , 4124.1025641 , 4121.53846154 , 4112.82051282 , 4170.25641026 , 4123.58974359 , 4129.23076923 , 4185.12820513 , 4901.53846154 , 4132.82051282 , 4130.25641026 , 2039.0 , 2035.0 , 77.663 , 0.0 , 0.0 , 0.0 , 0.0 , 

58.0 , 4121.53846154 , 4116.92307692 , 4125.12820513 , 4122.05128205 , 4121.02564103 , 4114.35897436 , 4109.74358974 , 4156.92307692 , 4114.87179487 , 4125.12820513 , 4181.02564103 , 4903.07692308 , 4125.12820513 , 4131.79487179 , 2037.0 , 2035.0 , 77.669 , 0.0 , 0.0 , 0.0 , 0.0 , 

59.0 , 4121.02564103 , 4119.48717949 , 4118.46153846 , 4128.71794872 , 4122.56410256 , 4119.48717949 , 4120.0 , 4171.79487179 , 4126.66666667 , 4129.74358974 , 4184.1025641 , 4898.46153846 , 4132.30769231 , 4131.79487179 , 2035.0 , 2036.0 , 77.677 , 0.0 , 0.0 , 0.0 , 0.0 , 

60.0 , 4123.58974359 , 4116.92307692 , 4124.61538462 , 4120.0 , 4124.61538462 , 4114.35897436 , 4112.30769231 , 4170.76923077 , 4125.64102564 , 4130.76923077 , 4181.02564103 , 4903.07692308 , 4122.56410256 , 4131.28205128 , 2035.0 , 2035.0 , 77.686 , 0.0 , 0.0 , 0.0 , 0.0 , 

61.0 , 4121.02564103 , 4121.02564103 , 4118.46153846 , 4123.58974359 , 4123.07692308 , 4118.97435897 , 4120.51282051 , 4185.12820513 , 4129.74358974 , 4131.79487179 , 4184.61538462 , 4900.0 , 4129.74358974 , 4127.69230769 , 2033.0 , 2036.0 , 77.695 , 0.0 , 0.0 , 0.0 , 0.0 , 

62.0 , 4121.53846154 , 4115.38461538 , 4123.07692308 , 4119.48717949 , 4122.05128205 , 4115.8974359 , 4116.41025641 , 4182.05128205 , 4122.05128205 , 4130.25641026 , 4180.51282051 , 4902.05128205 , 4120.0 , 4128.20512821 , 2033.0 , 2037.0 , 77.702 , 0.0 , 0.0 , 0.0 , 0.0 , 

63.0 , 4124.61538462 , 4121.53846154 , 4124.61538462 , 4122.56410256 , 4126.15384615 , 4122.56410256 , 4123.58974359 , 4189.23076923 , 4124.61538462 , 4131.79487179 , 4182.05128205 , 4902.56410256 , 4119.48717949 , 4129.74358974 , 2032.0 , 2039.0 , 77.709 , 0.0 , 0.0 , 0.0 , 0.0 , 

64.0 , 4123.07692308 , 4121.53846154 , 4129.23076923 , 4117.94871795 , 4125.64102564 , 4123.58974359 , 4121.53846154 , 4180.0 , 4119.48717949 , 4131.28205128 , 4180.0 , 4906.15384615 , 4117.43589744 , 4130.76923077 , 2032.0 , 2040.0 , 77.718 , 0.0 , 0.0 , 0.0 , 0.0 , 

65.0 , 4126.15384615 , 4123.58974359 , 4126.66666667 , 4122.05128205 , 4123.07692308 , 4125.12820513 , 4121.53846154 , 4174.87179487 , 4120.0 , 4131.79487179 , 4180.51282051 , 4905.64102564 , 4120.0 , 4131.79487179 , 2033.0 , 2040.0 , 77.727 , 0.0 , 0.0 , 0.0 , 0.0 , 

66.0 , 4126.66666667 , 4118.46153846 , 4128.20512821 , 4122.05128205 , 4120.0 , 4120.0 , 4116.41025641 , 4171.79487179 , 4123.07692308 , 4129.74358974 , 4176.92307692 , 4908.71794872 , 4116.41025641 , 4131.79487179 , 2033.0 , 2039.0 , 77.732 , 0.0 , 0.0 , 0.0 , 0.0 , 

67.0 , 4125.12820513 , 4121.02564103 , 4128.71794872 , 4121.02564103 , 4123.07692308 , 4119.48717949 , 4117.43589744 , 4167.69230769 , 4115.8974359 , 4130.76923077 , 4176.92307692 , 4906.66666667 , 4117.94871795 , 4132.30769231 , 2035.0 , 2038.0 , 77.741 , 0.0 , 0.0 , 0.0 , 0.0 , 

68.0 , 4121.53846154 , 4124.61538462 , 4121.53846154 , 4126.15384615 , 4125.12820513 , 4121.53846154 , 4121.02564103 , 4169.23076923 , 4117.94871795 , 4129.74358974 , 4182.05128205 , 4904.1025641 , 4128.20512821 , 4130.25641026 , 2036.0 , 2036.0 , 77.749 , 0.0 , 0.0 , 0.0 , 0.0 , 

