['COUNTER', 'AF3', 'F7', 'F3', 'FC5', 'T7', 'P7', 'O1', 'O2', 'P8', 'T8', 'FC6', 'F4', 'F8', 'AF4', 'GYROX', 'GYROY', 'TIMESTAMP', 'FUNC_ID', 'FUNC_VALUE', 'MARKER', 'SYNC_SIGNAL']
74.0 , 4132.30769231 , 4135.38461538 , 4093.84615385 , 4134.35897436 , 4134.35897436 , 4134.35897436 , 4133.84615385 , 4131.79487179 , 4129.23076923 , 4141.02564103 , 4131.79487179 , 4182.05128205 , 4129.23076923 , 4131.28205128 , 2037.0 , 2037.0 , 6.044 , 0.0 , 0.0 , 0.0 , 0.0 , 

75.0 , 4135.38461538 , 4135.38461538 , 4077.43589744 , 4136.92307692 , 4134.35897436 , 4134.35897436 , 4136.41025641 , 4133.84615385 , 4130.76923077 , 4138.97435897 , 4130.76923077 , 4183.58974359 , 4130.25641026 , 4132.82051282 , 2036.0 , 2038.0 , 6.052 , 0.0 , 0.0 , 0.0 , 0.0 , 

76.0 , 4136.41025641 , 4136.41025641 , 4057.94871795 , 4137.43589744 , 4134.35897436 , 4134.35897436 , 4133.84615385 , 4132.30769231 , 4130.25641026 , 4138.97435897 , 4133.33333333 , 4183.58974359 , 4126.15384615 , 4133.84615385 , 2035.0 , 2036.0 , 6.059 , 0.0 , 0.0 , 0.0 , 0.0 , 

77.0 , 4135.38461538 , 4131.79487179 , 4045.12820513 , 4135.8974359 , 4134.35897436 , 4134.35897436 , 4129.74358974 , 4127.69230769 , 4131.28205128 , 4140.51282051 , 4131.79487179 , 4179.48717949 , 4124.1025641 , 4129.74358974 , 2036.0 , 2034.0 , 6.068 , 0.0 , 0.0 , 0.0 , 0.0 , 

78.0 , 4135.38461538 , 4128.20512821 , 4037.43589744 , 4135.8974359 , 4134.35897436 , 4134.35897436 , 4130.25641026 , 4126.15384615 , 4132.30769231 , 4137.94871795 , 4133.33333333 , 4177.94871795 , 4125.64102564 , 4129.23076923 , 2037.0 , 2033.0 , 6.076 , 0.0 , 0.0 , 0.0 , 0.0 , 

79.0 , 4134.35897436 , 4132.82051282 , 4040.51282051 , 4136.41025641 , 4134.35897436 , 4134.35897436 , 4130.76923077 , 4129.23076923 , 4131.79487179 , 4135.38461538 , 4137.94871795 , 4176.92307692 , 4126.15384615 , 4132.82051282 , 2035.0 , 2031.0 , 6.084 , 0.0 , 0.0 , 0.0 , 0.0 , 

80.0 , 4134.87179487 , 4138.46153846 , 4049.23076923 , 4135.8974359 , 4134.35897436 , 4134.35897436 , 4129.23076923 , 4130.76923077 , 4132.82051282 , 4137.43589744 , 4135.38461538 , 4174.87179487 , 4127.17948718 , 4131.79487179 , 2034.0 , 2029.0 , 6.092 , 0.0 , 0.0 , 0.0 , 0.0 , 

81.0 , 4136.92307692 , 4135.38461538 , 4061.02564103 , 4135.8974359 , 4134.35897436 , 4134.35897436 , 4131.28205128 , 4133.33333333 , 4135.8974359 , 4141.02564103 , 4133.33333333 , 4175.38461538 , 4128.71794872 , 4130.25641026 , 2035.0 , 2031.0 , 6.1 , 0.0 , 0.0 , 0.0 , 0.0 , 

82.0 , 4135.38461538 , 4132.30769231 , 4066.66666667 , 4135.8974359 , 4134.35897436 , 4134.35897436 , 4131.79487179 , 4134.87179487 , 4136.41025641 , 4143.07692308 , 4134.35897436 , 4174.87179487 , 4127.69230769 , 4133.84615385 , 2036.0 , 2032.0 , 6.108 , 0.0 , 0.0 , 0.0 , 0.0 , 

83.0 , 4134.35897436 , 4134.35897436 , 4062.05128205 , 4135.8974359 , 4134.35897436 , 4134.35897436 , 4130.25641026 , 4133.84615385 , 4132.82051282 , 4142.05128205 , 4132.82051282 , 4171.28205128 , 4127.69230769 , 4137.43589744 , 2035.0 , 2033.0 , 6.116 , 0.0 , 0.0 , 0.0 , 0.0 , 

84.0 , 4135.38461538 , 4136.41025641 , 4044.1025641 , 4135.8974359 , 4134.35897436 , 4134.35897436 , 4131.28205128 , 4131.28205128 , 4130.76923077 , 4138.97435897 , 4131.28205128 , 4166.15384615 , 4128.20512821 , 4135.38461538 , 2035.0 , 2033.0 , 6.123 , 0.0 , 0.0 , 0.0 , 0.0 , 

85.0 , 4136.41025641 , 4135.8974359 , 4041.53846154 , 4135.8974359 , 4134.35897436 , 4134.35897436 , 4133.84615385 , 4131.79487179 , 4131.28205128 , 4141.02564103 , 4133.33333333 , 4165.64102564 , 4128.20512821 , 4132.30769231 , 2034.0 , 2031.0 , 6.131 , 0.0 , 0.0 , 0.0 , 0.0 , 

86.0 , 4135.8974359 , 4135.8974359 , 4056.41025641 , 4136.41025641 , 4134.35897436 , 4134.87179487 , 4135.8974359 , 4132.30769231 , 4134.35897436 , 4144.1025641 , 4135.38461538 , 4167.17948718 , 4126.66666667 , 4131.79487179 , 2031.0 , 2030.0 , 6.138 , 0.0 , 0.0 , 0.0 , 0.0 , 

87.0 , 4135.8974359 , 4136.41025641 , 4062.56410256 , 4135.8974359 , 4134.35897436 , 4134.35897436 , 4135.38461538 , 4133.33333333 , 4137.43589744 , 4143.07692308 , 4134.87179487 , 4167.17948718 , 4127.69230769 , 4133.84615385 , 2029.0 , 2027.0 , 6.147 , 0.0 , 0.0 , 0.0 , 0.0 , 

88.0 , 4135.38461538 , 4133.84615385 , 4059.48717949 , 4135.38461538 , 4134.35897436 , 4134.35897436 , 4133.33333333 , 4135.38461538 , 4135.8974359 , 4143.58974359 , 4134.35897436 , 4163.58974359 , 4129.74358974 , 4131.28205128 , 2026.0 , 2025.0 , 6.156 , 0.0 , 0.0 , 0.0 , 0.0 , 

89.0 , 4134.87179487 , 4132.82051282 , 4071.79487179 , 4134.87179487 , 4134.35897436 , 4134.87179487 , 4132.82051282 , 4135.8974359 , 4135.8974359 , 4144.61538462 , 4137.94871795 , 4162.05128205 , 4131.79487179 , 4132.30769231 , 2028.0 , 2026.0 , 6.164 , 0.0 , 0.0 , 0.0 , 0.0 , 

90.0 , 4136.92307692 , 4135.8974359 , 4085.12820513 , 4134.87179487 , 4134.35897436 , 4134.87179487 , 4134.35897436 , 4134.35897436 , 4136.41025641 , 4143.07692308 , 4137.43589744 , 4162.56410256 , 4131.28205128 , 4136.92307692 , 2025.0 , 2022.0 , 6.17 , 0.0 , 0.0 , 0.0 , 0.0 , 

91.0 , 4137.43589744 , 4136.41025641 , 4091.79487179 , 4135.38461538 , 4134.35897436 , 4134.87179487 , 4134.35897436 , 4138.46153846 , 4137.43589744 , 4143.58974359 , 4136.41025641 , 4162.05128205 , 4132.30769231 , 4136.92307692 , 2025.0 , 2021.0 , 6.179 , 0.0 , 0.0 , 0.0 , 0.0 , 

92.0 , 4136.92307692 , 4135.8974359 , 4112.30769231 , 4135.38461538 , 4134.35897436 , 4135.38461538 , 4133.84615385 , 4141.02564103 , 4140.51282051 , 4146.66666667 , 4140.0 , 4163.58974359 , 4135.38461538 , 4133.33333333 , 2024.0 , 2022.0 , 6.185 , 0.0 , 0.0 , 0.0 , 0.0 , 

93.0 , 4136.92307692 , 4134.35897436 , 4136.92307692 , 4134.35897436 , 4134.35897436 , 4135.38461538 , 4134.35897436 , 4140.0 , 4143.07692308 , 4146.15384615 , 4143.58974359 , 4165.64102564 , 4137.43589744 , 4133.84615385 , 2025.0 , 2023.0 , 6.194 , 0.0 , 0.0 , 0.0 , 0.0 , 

94.0 , 4137.43589744 , 4134.35897436 , 4142.05128205 , 4133.84615385 , 4134.35897436 , 4134.35897436 , 4133.33333333 , 4139.48717949 , 4140.0 , 4145.64102564 , 4141.02564103 , 4164.1025641 , 4136.41025641 , 4135.38461538 , 2025.0 , 2029.0 , 6.202 , 0.0 , 0.0 , 0.0 , 0.0 , 

95.0 , 4137.43589744 , 4136.41025641 , 4132.82051282 , 4134.87179487 , 4134.35897436 , 4134.35897436 , 4132.82051282 , 4140.51282051 , 4137.94871795 , 4145.12820513 , 4140.51282051 , 4162.56410256 , 4134.35897436 , 4134.87179487 , 2025.0 , 2031.0 , 6.21 , 0.0 , 0.0 , 0.0 , 0.0 , 

96.0 , 4137.43589744 , 4131.28205128 , 4132.82051282 , 4134.87179487 , 4134.35897436 , 4134.87179487 , 4133.33333333 , 4139.48717949 , 4139.48717949 , 4143.58974359 , 4142.05128205 , 4162.05128205 , 4134.35897436 , 4134.35897436 , 2023.0 , 2032.0 , 6.218 , 0.0 , 0.0 , 0.0 , 0.0 , 

97.0 , 4137.43589744 , 4125.64102564 , 4127.69230769 , 4135.38461538 , 4134.35897436 , 4134.35897436 , 4132.82051282 , 4137.94871795 , 4139.48717949 , 4143.58974359 , 4137.43589744 , 4160.0 , 4133.33333333 , 4132.30769231 , 2023.0 , 2034.0 , 6.226 , 0.0 , 0.0 , 0.0 , 0.0 , 

98.0 , 4137.43589744 , 4131.79487179 , 4113.33333333 , 4136.41025641 , 4134.35897436 , 4134.35897436 , 4132.82051282 , 4136.92307692 , 4140.0 , 4144.61538462 , 4136.41025641 , 4157.94871795 , 4130.76923077 , 4131.79487179 , 2023.0 , 2034.0 , 6.234 , 0.0 , 0.0 , 0.0 , 0.0 , 

99.0 , 4137.43589744 , 4138.97435897 , 4096.41025641 , 4135.8974359 , 4134.35897436 , 4134.35897436 , 4133.33333333 , 4133.33333333 , 4138.97435897 , 4142.56410256 , 4139.48717949 , 4155.8974359 , 4129.74358974 , 4131.79487179 , 2022.0 , 2030.0 , 6.242 , 0.0 , 0.0 , 0.0 , 0.0 , 

100.0 , 4137.43589744 , 4134.35897436 , 4095.38461538 , 4134.87179487 , 4134.35897436 , 4134.35897436 , 4133.33333333 , 4130.76923077 , 4135.38461538 , 4143.07692308 , 4137.43589744 , 4156.41025641 , 4132.82051282 , 4130.76923077 , 2021.0 , 2031.0 , 6.249 , 0.0 , 0.0 , 0.0 , 0.0 , 

101.0 , 4137.43589744 , 4129.23076923 , 4100.51282051 , 4135.38461538 , 4134.35897436 , 4134.87179487 , 4133.33333333 , 4130.76923077 , 4135.38461538 , 4142.56410256 , 4132.82051282 , 4158.46153846 , 4132.82051282 , 4131.79487179 , 2021.0 , 2029.0 , 6.257 , 0.0 , 0.0 , 0.0 , 0.0 , 

102.0 , 4137.43589744 , 4133.84615385 , 4109.23076923 , 4135.8974359 , 4134.35897436 , 4134.35897436 , 4133.33333333 , 4133.33333333 , 4138.97435897 , 4143.58974359 , 4134.87179487 , 4157.94871795 , 4132.30769231 , 4133.84615385 , 2022.0 , 2028.0 , 6.264 , 0.0 , 0.0 , 0.0 , 0.0 , 

103.0 , 4137.43589744 , 4136.92307692 , 4118.46153846 , 4134.35897436 , 4134.35897436 , 4134.35897436 , 4133.33333333 , 4137.94871795 , 4138.97435897 , 4145.64102564 , 4139.48717949 , 4155.38461538 , 4131.28205128 , 4132.82051282 , 2022.0 , 2027.0 , 6.272 , 0.0 , 0.0 , 0.0 , 0.0 , 

104.0 , 4137.43589744 , 4135.8974359 , 4130.76923077 , 4133.84615385 , 4134.35897436 , 4134.35897436 , 4133.33333333 , 4141.02564103 , 4137.43589744 , 4146.15384615 , 4137.94871795 , 4160.0 , 4129.74358974 , 4135.38461538 , 2023.0 , 2027.0 , 6.281 , 0.0 , 0.0 , 0.0 , 0.0 , 

105.0 , 4137.43589744 , 4133.84615385 , 4136.92307692 , 4134.87179487 , 4134.35897436 , 4134.35897436 , 4133.33333333 , 4139.48717949 , 4141.53846154 , 4144.61538462 , 4135.8974359 , 4160.51282051 , 4128.71794872 , 4138.46153846 , 2022.0 , 2026.0 , 6.289 , 0.0 , 0.0 , 0.0 , 0.0 , 

106.0 , 4137.43589744 , 4135.38461538 , 4135.8974359 , 4135.38461538 , 4134.35897436 , 4134.35897436 , 4133.33333333 , 4138.46153846 , 4144.1025641 , 4147.17948718 , 4138.97435897 , 4153.84615385 , 4131.28205128 , 4135.38461538 , 2023.0 , 2022.0 , 6.297 , 0.0 , 0.0 , 0.0 , 0.0 , 

107.0 , 4137.43589744 , 4135.38461538 , 4138.46153846 , 4133.84615385 , 4134.87179487 , 4134.35897436 , 4133.33333333 , 4141.02564103 , 4142.05128205 , 4147.69230769 , 4141.02564103 , 4153.33333333 , 4132.82051282 , 4132.30769231 , 2021.0 , 2024.0 , 6.304 , 0.0 , 0.0 , 0.0 , 0.0 , 

108.0 , 4137.43589744 , 4133.33333333 , 4144.1025641 , 4132.82051282 , 4134.87179487 , 4134.35897436 , 4133.33333333 , 4139.48717949 , 4141.53846154 , 4144.61538462 , 4138.46153846 , 4157.43589744 , 4130.76923077 , 4133.84615385 , 2021.0 , 2026.0 , 6.312 , 0.0 , 0.0 , 0.0 , 0.0 , 

109.0 , 4137.43589744 , 4133.84615385 , 4137.43589744 , 4135.38461538 , 4134.35897436 , 4134.35897436 , 4133.33333333 , 4132.30769231 , 4140.51282051 , 4143.07692308 , 4135.8974359 , 4155.38461538 , 4129.23076923 , 4132.82051282 , 2021.0 , 2027.0 , 6.321 , 0.0 , 0.0 , 0.0 , 0.0 , 

110.0 , 4137.43589744 , 4134.87179487 , 4117.43589744 , 4135.8974359 , 4135.38461538 , 4134.87179487 , 4133.33333333 , 4131.79487179 , 4136.92307692 , 4141.53846154 , 4137.43589744 , 4153.84615385 , 4130.25641026 , 4131.79487179 , 2022.0 , 2028.0 , 6.328 , 0.0 , 0.0 , 0.0 , 0.0 , 

111.0 , 4137.43589744 , 4135.8974359 , 4106.66666667 , 4134.35897436 , 4136.92307692 , 4134.35897436 , 4133.33333333 , 4135.38461538 , 4135.8974359 , 4137.43589744 , 4136.92307692 , 4151.28205128 , 4129.23076923 , 4131.79487179 , 2021.0 , 2027.0 , 6.336 , 0.0 , 0.0 , 0.0 , 0.0 , 

112.0 , 4137.43589744 , 4136.41025641 , 4103.58974359 , 4133.33333333 , 4135.8974359 , 4134.35897436 , 4133.33333333 , 4133.84615385 , 4138.46153846 , 4136.92307692 , 4132.30769231 , 4147.17948718 , 4129.23076923 , 4131.28205128 , 2021.0 , 2030.0 , 6.343 , 0.0 , 0.0 , 0.0 , 0.0 , 

113.0 , 4137.43589744 , 4134.35897436 , 4101.02564103 , 4134.87179487 , 4134.35897436 , 4134.35897436 , 4133.33333333 , 4130.25641026 , 4140.0 , 4140.51282051 , 4131.28205128 , 4148.71794872 , 4129.74358974 , 4132.30769231 , 2021.0 , 2030.0 , 6.353 , 0.0 , 0.0 , 0.0 , 0.0 , 

114.0 , 4137.43589744 , 4132.82051282 , 4108.20512821 , 4134.87179487 , 4134.87179487 , 4134.87179487 , 4133.33333333 , 4131.79487179 , 4140.51282051 , 4143.07692308 , 4137.43589744 , 4150.76923077 , 4129.74358974 , 4131.79487179 , 2021.0 , 2031.0 , 6.36 , 0.0 , 0.0 , 0.0 , 0.0 , 

115.0 , 4137.43589744 , 4134.87179487 , 4127.17948718 , 4131.79487179 , 4134.87179487 , 4134.35897436 , 4133.33333333 , 4136.92307692 , 4140.0 , 4144.1025641 , 4142.05128205 , 4148.20512821 , 4129.23076923 , 4133.33333333 , 2019.0 , 2034.0 , 6.367 , 0.0 , 0.0 , 0.0 , 0.0 , 

116.0 , 4137.43589744 , 4136.41025641 , 4137.94871795 , 4131.79487179 , 4134.87179487 , 4134.35897436 , 4133.33333333 , 4138.46153846 , 4138.46153846 , 4145.12820513 , 4139.48717949 , 4146.66666667 , 4130.25641026 , 4134.35897436 , 2019.0 , 2032.0 , 6.376 , 0.0 , 0.0 , 0.0 , 0.0 , 

117.0 , 4137.43589744 , 4134.35897436 , 4147.69230769 , 4135.38461538 , 4134.87179487 , 4134.35897436 , 4133.33333333 , 4137.94871795 , 4140.0 , 4144.1025641 , 4137.94871795 , 4151.28205128 , 4132.30769231 , 4132.82051282 , 2019.0 , 2031.0 , 6.382 , 0.0 , 0.0 , 0.0 , 0.0 , 

118.0 , 4137.43589744 , 4134.35897436 , 4161.53846154 , 4135.8974359 , 4134.87179487 , 4134.35897436 , 4133.33333333 , 4139.48717949 , 4142.05128205 , 4143.58974359 , 4141.02564103 , 4153.84615385 , 4133.33333333 , 4132.30769231 , 2020.0 , 2031.0 , 6.39 , 0.0 , 0.0 , 0.0 , 0.0 , 

119.0 , 4137.43589744 , 4135.8974359 , 4171.79487179 , 4133.33333333 , 4134.87179487 , 4134.35897436 , 4133.33333333 , 4142.56410256 , 4142.05128205 , 4145.64102564 , 4142.56410256 , 4152.82051282 , 4133.84615385 , 4135.8974359 , 2022.0 , 2030.0 , 6.399 , 0.0 , 0.0 , 0.0 , 0.0 , 

120.0 , 4137.43589744 , 4134.35897436 , 4169.23076923 , 4134.87179487 , 4134.87179487 , 4134.35897436 , 4133.33333333 , 4142.05128205 , 4140.51282051 , 4145.64102564 , 4140.51282051 , 4150.76923077 , 4131.79487179 , 4134.35897436 , 2021.0 , 2032.0 , 6.406 , 0.0 , 0.0 , 0.0 , 0.0 , 

121.0 , 4137.43589744 , 4133.33333333 , 4171.28205128 , 4136.41025641 , 4134.87179487 , 4134.35897436 , 4133.33333333 , 4137.43589744 , 4138.97435897 , 4144.1025641 , 4138.46153846 , 4151.79487179 , 4130.76923077 , 4130.76923077 , 2019.0 , 2033.0 , 6.415 , 0.0 , 0.0 , 0.0 , 0.0 , 

122.0 , 4137.43589744 , 4134.35897436 , 4170.76923077 , 4135.38461538 , 4134.87179487 , 4134.35897436 , 4133.33333333 , 4134.35897436 , 4135.8974359 , 4143.07692308 , 4136.92307692 , 4151.28205128 , 4130.76923077 , 4132.30769231 , 2019.0 , 2031.0 , 6.423 , 0.0 , 0.0 , 0.0 , 0.0 , 

123.0 , 4137.43589744 , 4135.38461538 , 4170.76923077 , 4135.38461538 , 4134.87179487 , 4134.87179487 , 4133.33333333 , 4137.94871795 , 4136.41025641 , 4144.1025641 , 4137.94871795 , 4151.79487179 , 4132.30769231 , 4133.84615385 , 2018.0 , 2032.0 , 6.43 , 0.0 , 0.0 , 0.0 , 0.0 , 

124.0 , 4137.43589744 , 4135.8974359 , 4174.87179487 , 4135.38461538 , 4134.87179487 , 4134.35897436 , 4133.33333333 , 4139.48717949 , 4142.05128205 , 4143.58974359 , 4139.48717949 , 4153.33333333 , 4133.33333333 , 4132.30769231 , 2015.0 , 2033.0 , 6.438 , 0.0 , 0.0 , 0.0 , 0.0 , 

125.0 , 4137.43589744 , 4135.38461538 , 4180.0 , 4135.38461538 , 4134.87179487 , 4134.35897436 , 4133.33333333 , 4136.92307692 , 4145.12820513 , 4144.61538462 , 4138.46153846 , 4153.33333333 , 4133.84615385 , 4132.30769231 , 2016.0 , 2033.0 , 6.447 , 0.0 , 0.0 , 0.0 , 0.0 , 

126.0 , 4137.43589744 , 4132.30769231 , 4183.07692308 , 4135.38461538 , 4134.87179487 , 4134.35897436 , 4133.33333333 , 4138.97435897 , 4140.0 , 4147.69230769 , 4134.35897436 , 4153.84615385 , 4133.33333333 , 4134.35897436 , 2017.0 , 2032.0 , 6.454 , 0.0 , 0.0 , 0.0 , 0.0 , 

127.0 , 4137.43589744 , 4131.28205128 , 4190.76923077 , 4135.38461538 , 4134.87179487 , 4134.35897436 , 4133.33333333 , 4141.02564103 , 4138.46153846 , 4147.17948718 , 4136.41025641 , 4156.92307692 , 4131.79487179 , 4134.87179487 , 2017.0 , 2032.0 , 6.462 , 0.0 , 0.0 , 0.0 , 0.0 , 

128.0 , 4137.43589744 , 4134.87179487 , 4200.0 , 4135.38461538 , 4134.87179487 , 4134.35897436 , 4133.33333333 , 4135.8974359 , 4142.05128205 , 4143.58974359 , 4140.0 , 4158.97435897 , 4132.30769231 , 4133.33333333 , 2018.0 , 2033.0 , 6.47 , 0.0 , 0.0 , 0.0 , 0.0 , 

0.0 , 4137.43589744 , 4136.41025641 , 4200.51282051 , 4135.8974359 , 4134.87179487 , 4134.35897436 , 4133.33333333 , 4134.87179487 , 4142.56410256 , 4145.12820513 , 4137.94871795 , 4159.48717949 , 4133.84615385 , 4133.84615385 , 2018.0 , 2033.0 , 6.478 , 0.0 , 0.0 , 0.0 , 0.0 , 

1.0 , 4137.43589744 , 4134.87179487 , 4192.30769231 , 4135.8974359 , 4134.87179487 , 4134.35897436 , 4133.33333333 , 4138.46153846 , 4139.48717949 , 4146.15384615 , 4136.92307692 , 4157.94871795 , 4129.74358974 , 4134.35897436 , 2019.0 , 2033.0 , 6.486 , 0.0 , 0.0 , 0.0 , 0.0 , 

2.0 , 4137.43589744 , 4134.87179487 , 4181.53846154 , 4135.8974359 , 4134.87179487 , 4134.35897436 , 4133.33333333 , 4135.8974359 , 4138.97435897 , 4141.53846154 , 4137.43589744 , 4156.92307692 , 4126.66666667 , 4133.84615385 , 2023.0 , 2035.0 , 6.494 , 0.0 , 0.0 , 0.0 , 0.0 , 

3.0 , 4137.43589744 , 4135.38461538 , 4175.8974359 , 4135.8974359 , 4134.87179487 , 4134.35897436 , 4133.33333333 , 4131.79487179 , 4137.94871795 , 4141.02564103 , 4135.38461538 , 4157.94871795 , 4129.74358974 , 4132.82051282 , 2025.0 , 2036.0 , 6.502 , 0.0 , 0.0 , 0.0 , 0.0 , 

4.0 , 4137.43589744 , 4135.38461538 , 4169.23076923 , 4135.8974359 , 4134.87179487 , 4134.35897436 , 4133.33333333 , 4132.82051282 , 4135.8974359 , 4142.05128205 , 4134.87179487 , 4157.43589744 , 4130.25641026 , 4132.82051282 , 2026.0 , 2036.0 , 6.509 , 0.0 , 0.0 , 0.0 , 0.0 , 

5.0 , 4137.43589744 , 4135.8974359 , 4161.53846154 , 4135.8974359 , 4134.87179487 , 4134.35897436 , 4133.33333333 , 4133.84615385 , 4135.8974359 , 4139.48717949 , 4137.94871795 , 4155.38461538 , 4127.69230769 , 4132.30769231 , 2026.0 , 2037.0 , 6.517 , 0.0 , 0.0 , 0.0 , 0.0 , 

6.0 , 4137.43589744 , 4135.38461538 , 4151.28205128 , 4135.8974359 , 4134.87179487 , 4134.35897436 , 4133.33333333 , 4131.79487179 , 4135.8974359 , 4135.8974359 , 4135.8974359 , 4156.92307692 , 4127.69230769 , 4131.28205128 , 2027.0 , 2037.0 , 6.524 , 0.0 , 0.0 , 0.0 , 0.0 , 

7.0 , 4137.43589744 , 4133.84615385 , 4141.02564103 , 4135.8974359 , 4134.87179487 , 4134.35897436 , 4133.33333333 , 4131.79487179 , 4136.92307692 , 4136.41025641 , 4132.82051282 , 4161.02564103 , 4127.17948718 , 4130.76923077 , 2029.0 , 2036.0 , 6.533 , 0.0 , 0.0 , 0.0 , 0.0 , 

8.0 , 4137.43589744 , 4132.30769231 , 4124.61538462 , 4136.41025641 , 4134.87179487 , 4134.35897436 , 4133.33333333 , 4131.79487179 , 4135.38461538 , 4138.97435897 , 4133.33333333 , 4159.48717949 , 4126.15384615 , 4128.71794872 , 2030.0 , 2036.0 , 6.541 , 0.0 , 0.0 , 0.0 , 0.0 , 

9.0 , 4137.43589744 , 4133.33333333 , 4118.46153846 , 4135.8974359 , 4134.87179487 , 4134.35897436 , 4133.33333333 , 4132.82051282 , 4132.30769231 , 4141.53846154 , 4133.84615385 , 4153.84615385 , 4128.20512821 , 4128.71794872 , 2032.0 , 2035.0 , 6.549 , 0.0 , 0.0 , 0.0 , 0.0 , 

10.0 , 4137.43589744 , 4135.38461538 , 4121.53846154 , 4134.87179487 , 4134.87179487 , 4134.35897436 , 4133.33333333 , 4134.35897436 , 4132.30769231 , 4140.0 , 4133.84615385 , 4153.33333333 , 4127.69230769 , 4131.79487179 , 2032.0 , 2035.0 , 6.557 , 0.0 , 0.0 , 0.0 , 0.0 , 

11.0 , 4137.43589744 , 4134.35897436 , 4132.30769231 , 4134.35897436 , 4134.87179487 , 4134.35897436 , 4133.33333333 , 4135.8974359 , 4135.8974359 , 4139.48717949 , 4136.92307692 , 4158.97435897 , 4129.74358974 , 4133.33333333 , 2032.0 , 2035.0 , 6.565 , 0.0 , 0.0 , 0.0 , 0.0 , 

12.0 , 4137.43589744 , 4135.38461538 , 4145.12820513 , 4134.35897436 , 4134.87179487 , 4134.35897436 , 4133.33333333 , 4133.33333333 , 4136.92307692 , 4143.07692308 , 4138.46153846 , 4160.0 , 4132.30769231 , 4131.79487179 , 2033.0 , 2036.0 , 6.573 , 0.0 , 0.0 , 0.0 , 0.0 , 

13.0 , 4137.43589744 , 4135.8974359 , 4162.56410256 , 4134.35897436 , 4134.87179487 , 4134.35897436 , 4133.33333333 , 4134.35897436 , 4137.94871795 , 4145.12820513 , 4138.97435897 , 4161.02564103 , 4131.79487179 , 4131.28205128 , 2031.0 , 2037.0 , 6.58 , 0.0 , 0.0 , 0.0 , 0.0 , 

14.0 , 4137.43589744 , 4131.79487179 , 4175.8974359 , 4133.84615385 , 4134.87179487 , 4134.35897436 , 4133.33333333 , 4137.43589744 , 4142.05128205 , 4144.1025641 , 4143.07692308 , 4161.02564103 , 4131.28205128 , 4133.33333333 , 2034.0 , 2039.0 , 6.588 , 0.0 , 0.0 , 0.0 , 0.0 , 

15.0 , 4137.43589744 , 4130.25641026 , 4187.17948718 , 4134.87179487 , 4134.87179487 , 4134.35897436 , 4133.33333333 , 4136.92307692 , 4144.1025641 , 4144.1025641 , 4144.61538462 , 4163.07692308 , 4134.87179487 , 4135.8974359 , 2034.0 , 2038.0 , 6.597 , 0.0 , 0.0 , 0.0 , 0.0 , 

16.0 , 4137.43589744 , 4135.38461538 , 4203.07692308 , 4135.38461538 , 4134.87179487 , 4134.35897436 , 4133.33333333 , 4135.8974359 , 4142.56410256 , 4144.61538462 , 4140.0 , 4166.66666667 , 4136.92307692 , 4136.92307692 , 2033.0 , 2040.0 , 6.605 , 0.0 , 0.0 , 0.0 , 0.0 , 

17.0 , 4137.43589744 , 4136.92307692 , 4226.15384615 , 4134.87179487 , 4134.87179487 , 4134.35897436 , 4133.33333333 , 4141.02564103 , 4143.07692308 , 4147.17948718 , 4140.51282051 , 4166.66666667 , 4135.38461538 , 4138.46153846 , 2034.0 , 2041.0 , 6.613 , 0.0 , 0.0 , 0.0 , 0.0 , 

18.0 , 4137.43589744 , 4133.33333333 , 4251.79487179 , 4134.87179487 , 4134.87179487 , 4134.35897436 , 4133.33333333 , 4144.1025641 , 4144.61538462 , 4151.79487179 , 4144.61538462 , 4166.66666667 , 4134.87179487 , 4140.0 , 2032.0 , 2039.0 , 6.621 , 0.0 , 0.0 , 0.0 , 0.0 , 

19.0 , 4137.43589744 , 4133.33333333 , 4263.07692308 , 4135.8974359 , 4134.87179487 , 4134.35897436 , 4133.33333333 , 4141.53846154 , 4145.12820513 , 4150.76923077 , 4144.61538462 , 4170.25641026 , 4136.41025641 , 4138.97435897 , 2033.0 , 2040.0 , 6.628 , 0.0 , 0.0 , 0.0 , 0.0 , 

20.0 , 4137.43589744 , 4134.87179487 , 4259.48717949 , 4135.8974359 , 4134.87179487 , 4134.35897436 , 4133.33333333 , 4138.97435897 , 4144.61538462 , 4146.15384615 , 4143.07692308 , 4171.28205128 , 4135.38461538 , 4136.92307692 , 2033.0 , 2041.0 , 6.636 , 0.0 , 0.0 , 0.0 , 0.0 , 

21.0 , 4137.43589744 , 4134.35897436 , 4250.25641026 , 4135.8974359 , 4134.87179487 , 4134.35897436 , 4133.33333333 , 4138.97435897 , 4143.58974359 , 4145.12820513 , 4142.05128205 , 4169.74358974 , 4131.28205128 , 4136.92307692 , 2030.0 , 2040.0 , 6.643 , 0.0 , 0.0 , 0.0 , 0.0 , 

22.0 , 4137.43589744 , 4133.33333333 , 4237.94871795 , 4136.41025641 , 4134.87179487 , 4134.35897436 , 4133.33333333 , 4137.43589744 , 4141.02564103 , 4145.12820513 , 4140.51282051 , 4172.30769231 , 4129.74358974 , 4135.38461538 , 2031.0 , 2040.0 , 6.651 , 0.0 , 0.0 , 0.0 , 0.0 , 

23.0 , 4137.43589744 , 4133.84615385 , 4223.58974359 , 4137.43589744 , 4134.87179487 , 4134.35897436 , 4133.33333333 , 4134.35897436 , 4139.48717949 , 4142.56410256 , 4140.0 , 4173.84615385 , 4130.76923077 , 4133.33333333 , 2032.0 , 2036.0 , 6.659 , 0.0 , 0.0 , 0.0 , 0.0 , 

24.0 , 4137.43589744 , 4134.87179487 , 4220.51282051 , 4137.43589744 , 4134.87179487 , 4134.35897436 , 4132.82051282 , 4132.82051282 , 4137.43589744 , 4140.51282051 , 4142.05128205 , 4175.38461538 , 4130.25641026 , 4133.33333333 , 2032.0 , 2035.0 , 6.667 , 0.0 , 0.0 , 0.0 , 0.0 , 

25.0 , 4137.43589744 , 4133.33333333 , 4220.51282051 , 4136.92307692 , 4134.87179487 , 4134.35897436 , 4133.84615385 , 4133.33333333 , 4135.8974359 , 4142.56410256 , 4142.05128205 , 4176.92307692 , 4129.23076923 , 4132.82051282 , 2030.0 , 2033.0 , 6.675 , 0.0 , 0.0 , 0.0 , 0.0 , 

26.0 , 4137.43589744 , 4132.30769231 , 4225.64102564 , 4135.8974359 , 4134.87179487 , 4134.35897436 , 4132.30769231 , 4136.41025641 , 4140.51282051 , 4146.15384615 , 4140.51282051 , 4178.46153846 , 4130.25641026 , 4134.35897436 , 2031.0 , 2031.0 , 6.683 , 0.0 , 0.0 , 0.0 , 0.0 , 

27.0 , 4137.43589744 , 4134.35897436 , 4244.1025641 , 4135.38461538 , 4134.87179487 , 4134.35897436 , 4129.23076923 , 4135.8974359 , 4144.61538462 , 4147.17948718 , 4140.51282051 , 4181.02564103 , 4129.74358974 , 4135.8974359 , 2030.0 , 2031.0 , 6.69 , 0.0 , 0.0 , 0.0 , 0.0 , 

28.0 , 4137.43589744 , 4134.35897436 , 4268.71794872 , 4134.87179487 , 4134.87179487 , 4134.35897436 , 4129.23076923 , 4136.41025641 , 4143.58974359 , 4145.12820513 , 4141.53846154 , 4185.12820513 , 4129.74358974 , 4135.8974359 , 2028.0 , 2035.0 , 6.699 , 0.0 , 0.0 , 0.0 , 0.0 , 

29.0 , 4137.43589744 , 4130.76923077 , 4275.8974359 , 4134.87179487 , 4134.87179487 , 4134.35897436 , 4128.71794872 , 4140.51282051 , 4143.07692308 , 4144.1025641 , 4141.53846154 , 4186.66666667 , 4131.28205128 , 4135.8974359 , 2028.0 , 2035.0 , 6.706 , 0.0 , 0.0 , 0.0 , 0.0 , 

30.0 , 4137.43589744 , 4130.25641026 , 4273.33333333 , 4134.87179487 , 4134.87179487 , 4134.35897436 , 4128.20512821 , 4142.05128205 , 4142.56410256 , 4147.69230769 , 4142.05128205 , 4187.69230769 , 4132.30769231 , 4136.41025641 , 2028.0 , 2035.0 , 6.713 , 0.0 , 0.0 , 0.0 , 0.0 , 

31.0 , 4137.43589744 , 4132.82051282 , 4269.23076923 , 4134.87179487 , 4134.87179487 , 4134.35897436 , 4131.79487179 , 4140.0 , 4137.94871795 , 4146.66666667 , 4140.51282051 , 4188.71794872 , 4129.74358974 , 4134.87179487 , 2027.0 , 2036.0 , 6.722 , 0.0 , 0.0 , 0.0 , 0.0 , 

32.0 , 4137.43589744 , 4128.20512821 , 4271.79487179 , 4136.41025641 , 4134.87179487 , 4134.35897436 , 4134.87179487 , 4137.43589744 , 4138.97435897 , 4143.58974359 , 4140.51282051 , 4193.33333333 , 4129.74358974 , 4135.38461538 , 2026.0 , 2036.0 , 6.73 , 0.0 , 0.0 , 0.0 , 0.0 , 

33.0 , 4137.43589744 , 4125.64102564 , 4268.20512821 , 4137.43589744 , 4134.87179487 , 4134.35897436 , 4133.33333333 , 4132.82051282 , 4138.97435897 , 4143.58974359 , 4140.51282051 , 4193.84615385 , 4132.82051282 , 4136.41025641 , 2026.0 , 2036.0 , 6.738 , 0.0 , 0.0 , 0.0 , 0.0 , 

34.0 , 4137.43589744 , 4132.30769231 , 4257.43589744 , 4136.41025641 , 4134.87179487 , 4134.35897436 , 4131.28205128 , 4132.82051282 , 4134.87179487 , 4146.15384615 , 4139.48717949 , 4193.33333333 , 4131.28205128 , 4134.35897436 , 2027.0 , 2037.0 , 6.746 , 0.0 , 0.0 , 0.0 , 0.0 , 

35.0 , 4137.43589744 , 4135.38461538 , 4254.87179487 , 4135.8974359 , 4134.87179487 , 4134.35897436 , 4128.71794872 , 4137.43589744 , 4135.38461538 , 4144.1025641 , 4140.51282051 , 4196.92307692 , 4128.20512821 , 4132.30769231 , 2027.0 , 2036.0 , 6.754 , 0.0 , 0.0 , 0.0 , 0.0 , 

36.0 , 4137.43589744 , 4131.28205128 , 4266.66666667 , 4135.8974359 , 4134.87179487 , 4134.35897436 , 4127.69230769 , 4136.92307692 , 4139.48717949 , 4141.02564103 , 4142.56410256 , 4200.51282051 , 4132.82051282 , 4134.35897436 , 2028.0 , 2037.0 , 6.762 , 0.0 , 0.0 , 0.0 , 0.0 , 

37.0 , 4137.43589744 , 4131.28205128 , 4281.53846154 , 4135.38461538 , 4134.87179487 , 4134.35897436 , 4129.23076923 , 4134.35897436 , 4141.02564103 , 4142.56410256 , 4143.07692308 , 4201.53846154 , 4137.43589744 , 4135.8974359 , 2029.0 , 2040.0 , 6.77 , 0.0 , 0.0 , 0.0 , 0.0 , 

38.0 , 4137.43589744 , 4134.35897436 , 4289.74358974 , 4134.87179487 , 4134.87179487 , 4134.35897436 , 4130.76923077 , 4137.94871795 , 4139.48717949 , 4145.12820513 , 4141.53846154 , 4203.07692308 , 4134.35897436 , 4135.38461538 , 2028.0 , 2041.0 , 6.777 , 0.0 , 0.0 , 0.0 , 0.0 , 

39.0 , 4137.43589744 , 4135.38461538 , 4289.74358974 , 4134.87179487 , 4134.87179487 , 4134.35897436 , 4129.74358974 , 4138.97435897 , 4135.8974359 , 4144.61538462 , 4141.53846154 , 4203.07692308 , 4129.74358974 , 4135.8974359 , 2030.0 , 2042.0 , 6.784 , 0.0 , 0.0 , 0.0 , 0.0 , 

40.0 , 4137.43589744 , 4134.87179487 , 4277.43589744 , 4134.87179487 , 4134.87179487 , 4134.35897436 , 4128.71794872 , 4134.35897436 , 4134.87179487 , 4142.56410256 , 4140.51282051 , 4204.61538462 , 4129.23076923 , 4137.43589744 , 2030.0 , 2040.0 , 6.792 , 0.0 , 0.0 , 0.0 , 0.0 , 

41.0 , 4137.43589744 , 4135.8974359 , 4268.71794872 , 4134.87179487 , 4134.87179487 , 4134.35897436 , 4129.23076923 , 4132.30769231 , 4138.46153846 , 4142.56410256 , 4135.38461538 , 4209.23076923 , 4128.20512821 , 4135.8974359 , 2031.0 , 2038.0 , 6.801 , 0.0 , 0.0 , 0.0 , 0.0 , 

42.0 , 4137.43589744 , 4135.38461538 , 4266.66666667 , 4134.87179487 , 4134.87179487 , 4134.35897436 , 4129.74358974 , 4133.84615385 , 4139.48717949 , 4143.07692308 , 4133.33333333 , 4210.25641026 , 4126.15384615 , 4132.82051282 , 2033.0 , 2034.0 , 6.81 , 0.0 , 0.0 , 0.0 , 0.0 , 

43.0 , 4137.43589744 , 4135.8974359 , 4269.23076923 , 4134.87179487 , 4134.87179487 , 4134.35897436 , 4129.23076923 , 4133.33333333 , 4138.97435897 , 4142.56410256 , 4137.43589744 , 4211.28205128 , 4127.69230769 , 4133.33333333 , 2032.0 , 2034.0 , 6.818 , 0.0 , 0.0 , 0.0 , 0.0 , 

44.0 , 4137.43589744 , 4135.38461538 , 4269.74358974 , 4134.87179487 , 4134.87179487 , 4134.35897436 , 4131.28205128 , 4132.82051282 , 4137.94871795 , 4141.02564103 , 4141.53846154 , 4217.94871795 , 4131.79487179 , 4135.38461538 , 2035.0 , 2031.0 , 6.825 , 0.0 , 0.0 , 0.0 , 0.0 , 

45.0 , 4137.43589744 , 4136.41025641 , 4282.56410256 , 4134.87179487 , 4134.87179487 , 4134.35897436 , 4135.38461538 , 4136.92307692 , 4140.0 , 4142.56410256 , 4139.48717949 , 4223.58974359 , 4134.35897436 , 4134.87179487 , 2036.0 , 2033.0 , 6.833 , 0.0 , 0.0 , 0.0 , 0.0 , 

46.0 , 4137.43589744 , 4135.38461538 , 4303.07692308 , 4135.8974359 , 4134.87179487 , 4134.35897436 , 4135.38461538 , 4136.92307692 , 4143.07692308 , 4145.64102564 , 4137.43589744 , 4224.61538462 , 4131.28205128 , 4133.33333333 , 2038.0 , 2034.0 , 6.841 , 0.0 , 0.0 , 0.0 , 0.0 , 

47.0 , 4137.43589744 , 4134.87179487 , 4320.0 , 4137.94871795 , 4134.87179487 , 4134.35897436 , 4133.84615385 , 4134.87179487 , 4144.1025641 , 4146.66666667 , 4140.0 , 4228.71794872 , 4131.28205128 , 4134.87179487 , 2038.0 , 2036.0 , 6.848 , 0.0 , 0.0 , 0.0 , 0.0 , 

48.0 , 4137.43589744 , 4136.41025641 , 4322.05128205 , 4138.46153846 , 4134.87179487 , 4134.35897436 , 4135.38461538 , 4138.46153846 , 4142.56410256 , 4145.12820513 , 4143.58974359 , 4231.79487179 , 4134.87179487 , 4134.87179487 , 2040.0 , 2037.0 , 6.856 , 0.0 , 0.0 , 0.0 , 0.0 , 

49.0 , 4137.43589744 , 4135.38461538 , 4323.07692308 , 4136.92307692 , 4134.87179487 , 4134.35897436 , 4135.38461538 , 4142.56410256 , 4141.53846154 , 4145.12820513 , 4142.56410256 , 4234.35897436 , 4135.8974359 , 4134.35897436 , 2044.0 , 2038.0 , 6.864 , 0.0 , 0.0 , 0.0 , 0.0 , 

50.0 , 4137.43589744 , 4134.87179487 , 4316.41025641 , 4135.8974359 , 4134.87179487 , 4134.35897436 , 4134.35897436 , 4137.94871795 , 4142.05128205 , 4143.58974359 , 4139.48717949 , 4236.41025641 , 4130.25641026 , 4133.33333333 , 2044.0 , 2037.0 , 6.872 , 0.0 , 0.0 , 0.0 , 0.0 , 

51.0 , 4137.43589744 , 4135.8974359 , 4302.05128205 , 4135.8974359 , 4134.87179487 , 4134.35897436 , 4134.35897436 , 4131.79487179 , 4141.02564103 , 4141.53846154 , 4138.97435897 , 4237.43589744 , 4127.17948718 , 4132.30769231 , 2047.0 , 2034.0 , 6.879 , 0.0 , 0.0 , 0.0 , 0.0 , 

52.0 , 4137.43589744 , 4136.41025641 , 4300.51282051 , 4135.38461538 , 4134.87179487 , 4134.35897436 , 4134.35897436 , 4131.28205128 , 4139.48717949 , 4141.02564103 , 4138.97435897 , 4240.0 , 4130.76923077 , 4132.30769231 , 2049.0 , 2034.0 , 6.888 , 0.0 , 0.0 , 0.0 , 0.0 , 

53.0 , 4136.92307692 , 4135.8974359 , 4314.87179487 , 4134.87179487 , 4134.87179487 , 4134.35897436 , 4134.87179487 , 4135.8974359 , 4137.43589744 , 4143.07692308 , 4139.48717949 , 4247.69230769 , 4132.30769231 , 4133.84615385 , 2049.0 , 2034.0 , 6.896 , 0.0 , 0.0 , 0.0 , 0.0 , 

54.0 , 4137.43589744 , 4136.92307692 , 4318.46153846 , 4135.8974359 , 4134.87179487 , 4134.35897436 , 4133.84615385 , 4135.38461538 , 4135.8974359 , 4142.56410256 , 4142.56410256 , 4252.30769231 , 4129.74358974 , 4133.33333333 , 2050.0 , 2033.0 , 6.904 , 0.0 , 0.0 , 0.0 , 0.0 , 

55.0 , 4136.92307692 , 4134.87179487 , 4315.38461538 , 4135.8974359 , 4134.87179487 , 4134.35897436 , 4129.74358974 , 4132.30769231 , 4137.43589744 , 4141.53846154 , 4143.58974359 , 4253.33333333 , 4128.20512821 , 4132.82051282 , 2050.0 , 2035.0 , 6.912 , 0.0 , 0.0 , 0.0 , 0.0 , 

56.0 , 4135.38461538 , 4136.41025641 , 4327.69230769 , 4136.92307692 , 4134.87179487 , 4134.35897436 , 4129.23076923 , 4136.41025641 , 4138.97435897 , 4142.56410256 , 4142.05128205 , 4256.92307692 , 4130.76923077 , 4133.84615385 , 2050.0 , 2034.0 , 6.919 , 0.0 , 0.0 , 0.0 , 0.0 , 

57.0 , 4133.33333333 , 4137.94871795 , 4333.84615385 , 4136.92307692 , 4134.87179487 , 4134.35897436 , 4131.79487179 , 4141.02564103 , 4140.51282051 , 4143.07692308 , 4138.46153846 , 4260.51282051 , 4131.79487179 , 4133.33333333 , 2051.0 , 2032.0 , 6.927 , 0.0 , 0.0 , 0.0 , 0.0 , 

58.0 , 4132.30769231 , 4130.25641026 , 4317.43589744 , 4135.8974359 , 4134.87179487 , 4134.35897436 , 4131.79487179 , 4138.97435897 , 4140.0 , 4141.53846154 , 4135.8974359 , 4263.07692308 , 4128.71794872 , 4131.79487179 , 2051.0 , 2032.0 , 6.935 , 0.0 , 0.0 , 0.0 , 0.0 , 

59.0 , 4132.82051282 , 4127.17948718 , 4313.33333333 , 4136.92307692 , 4134.87179487 , 4134.35897436 , 4129.74358974 , 4136.41025641 , 4138.97435897 , 4141.53846154 , 4140.0 , 4267.69230769 , 4129.74358974 , 4130.76923077 , 2051.0 , 2031.0 , 6.943 , 0.0 , 0.0 , 0.0 , 0.0 , 

60.0 , 4134.35897436 , 4130.25641026 , 4323.58974359 , 4136.41025641 , 4134.87179487 , 4134.35897436 , 4129.74358974 , 4135.38461538 , 4138.46153846 , 4143.07692308 , 4140.51282051 , 4272.30769231 , 4132.82051282 , 4133.33333333 , 2050.0 , 2032.0 , 6.951 , 0.0 , 0.0 , 0.0 , 0.0 , 

61.0 , 4135.8974359 , 4129.74358974 , 4323.58974359 , 4135.8974359 , 4134.87179487 , 4134.35897436 , 4130.25641026 , 4132.82051282 , 4140.51282051 , 4142.56410256 , 4137.43589744 , 4273.33333333 , 4131.79487179 , 4134.87179487 , 2050.0 , 2034.0 , 6.959 , 0.0 , 0.0 , 0.0 , 0.0 , 

62.0 , 4135.38461538 , 4131.79487179 , 4317.43589744 , 4137.94871795 , 4134.87179487 , 4134.35897436 , 4130.25641026 , 4131.28205128 , 4141.02564103 , 4141.53846154 , 4137.43589744 , 4275.38461538 , 4129.74358974 , 4132.82051282 , 2047.0 , 2038.0 , 6.967 , 0.0 , 0.0 , 0.0 , 0.0 , 

63.0 , 4133.84615385 , 4137.43589744 , 4309.23076923 , 4136.41025641 , 4134.87179487 , 4134.35897436 , 4128.71794872 , 4133.84615385 , 4136.92307692 , 4141.53846154 , 4140.0 , 4278.97435897 , 4131.79487179 , 4130.25641026 , 2048.0 , 2041.0 , 6.975 , 0.0 , 0.0 , 0.0 , 0.0 , 

64.0 , 4133.84615385 , 4135.8974359 , 4305.12820513 , 4134.87179487 , 4134.87179487 , 4134.35897436 , 4128.71794872 , 4134.35897436 , 4137.94871795 , 4142.05128205 , 4138.46153846 , 4283.07692308 , 4132.30769231 , 4132.82051282 , 2047.0 , 2040.0 , 6.981 , 0.0 , 0.0 , 0.0 , 0.0 , 

65.0 , 4135.38461538 , 4135.38461538 , 4304.1025641 , 4135.8974359 , 4134.87179487 , 4134.35897436 , 4132.30769231 , 4132.82051282 , 4140.0 , 4142.56410256 , 4137.94871795 , 4285.12820513 , 4127.17948718 , 4133.84615385 , 2049.0 , 2041.0 , 6.99 , 0.0 , 0.0 , 0.0 , 0.0 , 

66.0 , 4135.38461538 , 4132.30769231 , 4307.69230769 , 4135.38461538 , 4134.87179487 , 4134.35897436 , 4134.87179487 , 4133.84615385 , 4138.97435897 , 4142.05128205 , 4140.0 , 4286.66666667 , 4126.15384615 , 4131.79487179 , 2049.0 , 2041.0 , 6.997 , 0.0 , 0.0 , 0.0 , 0.0 , 

67.0 , 4133.84615385 , 4125.64102564 , 4303.58974359 , 4135.38461538 , 4134.87179487 , 4134.35897436 , 4135.8974359 , 4136.41025641 , 4137.94871795 , 4138.46153846 , 4138.46153846 , 4288.20512821 , 4129.23076923 , 4132.30769231 , 2049.0 , 2037.0 , 7.005 , 0.0 , 0.0 , 0.0 , 0.0 , 

68.0 , 4134.35897436 , 4130.25641026 , 4304.61538462 , 4137.43589744 , 4134.87179487 , 4134.87179487 , 4135.8974359 , 4136.41025641 , 4135.8974359 , 4138.46153846 , 4138.46153846 , 4295.8974359 , 4130.76923077 , 4135.38461538 , 2052.0 , 2036.0 , 7.014 , 0.0 , 0.0 , 0.0 , 0.0 , 

69.0 , 4134.35897436 , 4135.8974359 , 4305.12820513 , 4136.92307692 , 4134.87179487 , 4134.87179487 , 4132.30769231 , 4132.82051282 , 4133.33333333 , 4141.02564103 , 4141.02564103 , 4299.48717949 , 4129.74358974 , 4133.84615385 , 2054.0 , 2034.0 , 7.022 , 0.0 , 0.0 , 0.0 , 0.0 , 

70.0 , 4134.35897436 , 4132.82051282 , 4310.76923077 , 4135.38461538 , 4134.87179487 , 4132.82051282 , 4128.20512821 , 4133.33333333 , 4135.8974359 , 4142.56410256 , 4141.53846154 , 4300.51282051 , 4132.30769231 , 4133.33333333 , 2054.0 , 2033.0 , 7.03 , 0.0 , 0.0 , 0.0 , 0.0 , 

71.0 , 4134.35897436 , 4135.8974359 , 4307.69230769 , 4136.41025641 , 4134.87179487 , 4135.38461538 , 4128.71794872 , 4134.87179487 , 4137.43589744 , 4142.05128205 , 4139.48717949 , 4304.61538462 , 4131.79487179 , 4133.33333333 , 2056.0 , 2033.0 , 7.037 , 0.0 , 0.0 , 0.0 , 0.0 , 

72.0 , 4135.38461538 , 4137.43589744 , 4307.17948718 , 4136.41025641 , 4134.87179487 , 4135.38461538 , 4129.23076923 , 4134.87179487 , 4135.8974359 , 4143.58974359 , 4140.51282051 , 4310.76923077 , 4130.25641026 , 4132.82051282 , 2058.0 , 2034.0 , 7.044 , 0.0 , 0.0 , 0.0 , 0.0 , 

73.0 , 4137.43589744 , 4132.30769231 , 4304.61538462 , 4135.38461538 , 4134.87179487 , 4125.64102564 , 4129.23076923 , 4133.84615385 , 4136.92307692 , 4142.56410256 , 4139.48717949 , 4309.74358974 , 4130.25641026 , 4133.33333333 , 2059.0 , 2035.0 , 7.053 , 0.0 , 0.0 , 0.0 , 0.0 , 

74.0 , 4136.92307692 , 4131.79487179 , 4298.97435897 , 4136.92307692 , 4134.87179487 , 4125.12820513 , 4132.30769231 , 4135.38461538 , 4136.92307692 , 4139.48717949 , 4136.92307692 , 4310.76923077 , 4129.74358974 , 4133.84615385 , 2060.0 , 2039.0 , 7.062 , 0.0 , 0.0 , 0.0 , 0.0 , 

75.0 , 4134.87179487 , 4133.33333333 , 4292.30769231 , 4138.46153846 , 4134.87179487 , 4132.82051282 , 4134.87179487 , 4133.84615385 , 4134.35897436 , 4137.94871795 , 4141.02564103 , 4316.92307692 , 4129.23076923 , 4132.30769231 , 2060.0 , 2038.0 , 7.07 , 0.0 , 0.0 , 0.0 , 0.0 , 

76.0 , 4134.87179487 , 4131.28205128 , 4293.33333333 , 4136.41025641 , 4134.87179487 , 4132.30769231 , 4135.38461538 , 4129.74358974 , 4136.41025641 , 4140.51282051 , 4145.12820513 , 4323.58974359 , 4128.71794872 , 4132.30769231 , 2061.0 , 2040.0 , 7.077 , 0.0 , 0.0 , 0.0 , 0.0 , 

77.0 , 4135.38461538 , 4132.30769231 , 4295.38461538 , 4135.38461538 , 4134.87179487 , 4130.76923077 , 4133.33333333 , 4131.79487179 , 4137.94871795 , 4143.58974359 , 4141.02564103 , 4326.15384615 , 4129.23076923 , 4132.82051282 , 2062.0 , 2039.0 , 7.085 , 0.0 , 0.0 , 0.0 , 0.0 , 

78.0 , 4134.35897436 , 4134.35897436 , 4295.38461538 , 4136.92307692 , 4134.87179487 , 4135.38461538 , 4132.82051282 , 4137.43589744 , 4136.41025641 , 4143.07692308 , 4137.43589744 , 4327.69230769 , 4132.82051282 , 4132.82051282 , 2061.0 , 2037.0 , 7.093 , 0.0 , 0.0 , 0.0 , 0.0 , 

79.0 , 4135.38461538 , 4132.30769231 , 4294.87179487 , 4137.43589744 , 4134.87179487 , 4135.38461538 , 4133.33333333 , 4135.8974359 , 4136.41025641 , 4141.02564103 , 4140.51282051 , 4328.20512821 , 4133.84615385 , 4132.30769231 , 2062.0 , 2033.0 , 7.101 , 0.0 , 0.0 , 0.0 , 0.0 , 

80.0 , 4136.92307692 , 4131.79487179 , 4305.12820513 , 4136.92307692 , 4134.87179487 , 4132.82051282 , 4133.84615385 , 4135.8974359 , 4137.94871795 , 4142.56410256 , 4142.56410256 , 4331.79487179 , 4131.28205128 , 4134.35897436 , 2064.0 , 2032.0 , 7.108 , 0.0 , 0.0 , 0.0 , 0.0 , 

81.0 , 4133.84615385 , 4133.84615385 , 4312.30769231 , 4136.92307692 , 4134.87179487 , 4134.35897436 , 4133.33333333 , 4137.94871795 , 4137.43589744 , 4142.05128205 , 4141.02564103 , 4335.8974359 , 4128.71794872 , 4137.43589744 , 2065.0 , 2029.0 , 7.116 , 0.0 , 0.0 , 0.0 , 0.0 , 

82.0 , 4132.30769231 , 4133.33333333 , 4307.17948718 , 4136.92307692 , 4134.87179487 , 4134.35897436 , 4131.79487179 , 4136.41025641 , 4137.43589744 , 4140.0 , 4141.53846154 , 4339.48717949 , 4128.71794872 , 4135.38461538 , 2063.0 , 2029.0 , 7.123 , 0.0 , 0.0 , 0.0 , 0.0 , 

83.0 , 4134.35897436 , 4131.79487179 , 4302.56410256 , 4136.92307692 , 4134.87179487 , 4135.38461538 , 4127.69230769 , 4133.84615385 , 4137.94871795 , 4140.51282051 , 4141.02564103 , 4343.58974359 , 4131.79487179 , 4131.28205128 , 2065.0 , 2028.0 , 7.132 , 0.0 , 0.0 , 0.0 , 0.0 , 

84.0 , 4135.8974359 , 4134.35897436 , 4300.0 , 4136.92307692 , 4134.87179487 , 4134.87179487 , 4129.23076923 , 4135.38461538 , 4136.41025641 , 4140.51282051 , 4137.94871795 , 4344.1025641 , 4132.82051282 , 4133.33333333 , 2066.0 , 2028.0 , 7.14 , 0.0 , 0.0 , 0.0 , 0.0 , 

85.0 , 4135.8974359 , 4134.87179487 , 4292.82051282 , 4136.92307692 , 4134.87179487 , 4131.79487179 , 4133.33333333 , 4136.92307692 , 4135.38461538 , 4139.48717949 , 4140.0 , 4346.66666667 , 4130.76923077 , 4136.92307692 , 2066.0 , 2030.0 , 7.148 , 0.0 , 0.0 , 0.0 , 0.0 , 

86.0 , 4135.8974359 , 4131.79487179 , 4278.97435897 , 4136.92307692 , 4134.87179487 , 4134.35897436 , 4132.82051282 , 4135.8974359 , 4134.87179487 , 4138.97435897 , 4142.05128205 , 4353.84615385 , 4130.25641026 , 4134.35897436 , 2069.0 , 2030.0 , 7.155 , 0.0 , 0.0 , 0.0 , 0.0 , 

87.0 , 4134.87179487 , 4131.28205128 , 4280.51282051 , 4136.92307692 , 4134.87179487 , 4135.8974359 , 4133.33333333 , 4137.94871795 , 4136.41025641 , 4138.46153846 , 4141.02564103 , 4358.46153846 , 4131.79487179 , 4134.87179487 , 2070.0 , 2032.0 , 7.164 , 0.0 , 0.0 , 0.0 , 0.0 , 

88.0 , 4135.8974359 , 4131.79487179 , 4280.0 , 4136.92307692 , 4134.87179487 , 4132.30769231 , 4135.38461538 , 4135.8974359 , 4137.43589744 , 4138.97435897 , 4140.0 , 4357.94871795 , 4130.25641026 , 4136.41025641 , 2074.0 , 2036.0 , 7.172 , 0.0 , 0.0 , 0.0 , 0.0 , 

89.0 , 4135.8974359 , 4132.30769231 , 4282.05128205 , 4137.43589744 , 4134.87179487 , 4132.82051282 , 4132.82051282 , 4132.82051282 , 4137.94871795 , 4141.53846154 , 4141.53846154 , 4362.05128205 , 4131.28205128 , 4136.41025641 , 2076.0 , 2035.0 , 7.178 , 0.0 , 0.0 , 0.0 , 0.0 , 

90.0 , 4132.82051282 , 4135.8974359 , 4280.0 , 4136.92307692 , 4134.87179487 , 4135.8974359 , 4130.25641026 , 4133.84615385 , 4136.92307692 , 4142.05128205 , 4141.02564103 , 4364.1025641 , 4131.79487179 , 4135.8974359 , 2078.0 , 2034.0 , 7.187 , 0.0 , 0.0 , 0.0 , 0.0 , 

91.0 , 4133.84615385 , 4133.33333333 , 4274.35897436 , 4137.43589744 , 4134.87179487 , 4135.38461538 , 4134.35897436 , 4134.87179487 , 4136.92307692 , 4141.02564103 , 4140.51282051 , 4362.56410256 , 4131.28205128 , 4135.38461538 , 2078.0 , 2034.0 , 7.194 , 0.0 , 0.0 , 0.0 , 0.0 , 

92.0 , 4135.8974359 , 4129.23076923 , 4274.35897436 , 4138.46153846 , 4134.87179487 , 4133.84615385 , 4134.35897436 , 4130.76923077 , 4135.8974359 , 4138.97435897 , 4142.56410256 , 4366.15384615 , 4129.23076923 , 4133.84615385 , 2080.0 , 2032.0 , 7.203 , 0.0 , 0.0 , 0.0 , 0.0 , 

93.0 , 4134.35897436 , 4131.28205128 , 4275.38461538 , 4136.41025641 , 4134.87179487 , 4133.84615385 , 4127.17948718 , 4131.28205128 , 4136.41025641 , 4138.97435897 , 4143.58974359 , 4374.87179487 , 4128.20512821 , 4136.41025641 , 2080.0 , 2031.0 , 7.211 , 0.0 , 0.0 , 0.0 , 0.0 , 

94.0 , 4134.35897436 , 4131.79487179 , 4278.97435897 , 4136.41025641 , 4134.87179487 , 4133.84615385 , 4127.69230769 , 4135.8974359 , 4137.43589744 , 4140.51282051 , 4143.58974359 , 4376.41025641 , 4131.28205128 , 4139.48717949 , 2079.0 , 2030.0 , 7.219 , 0.0 , 0.0 , 0.0 , 0.0 , 

95.0 , 4135.8974359 , 4126.15384615 , 4281.02564103 , 4139.48717949 , 4134.87179487 , 4133.33333333 , 4133.84615385 , 4136.41025641 , 4135.8974359 , 4140.0 , 4142.56410256 , 4375.38461538 , 4131.79487179 , 4135.38461538 , 2078.0 , 2027.0 , 7.227 , 0.0 , 0.0 , 0.0 , 0.0 , 

96.0 , 4134.35897436 , 4127.69230769 , 4282.56410256 , 4139.48717949 , 4134.87179487 , 4134.87179487 , 4133.33333333 , 4136.41025641 , 4135.8974359 , 4141.53846154 , 4142.05128205 , 4380.0 , 4128.71794872 , 4130.76923077 , 2078.0 , 2027.0 , 7.235 , 0.0 , 0.0 , 0.0 , 0.0 , 

97.0 , 4134.87179487 , 4132.82051282 , 4281.02564103 , 4135.8974359 , 4134.87179487 , 4134.87179487 , 4132.30769231 , 4136.41025641 , 4136.92307692 , 4144.1025641 , 4143.58974359 , 4386.15384615 , 4130.25641026 , 4133.84615385 , 2078.0 , 2028.0 , 7.242 , 0.0 , 0.0 , 0.0 , 0.0 , 

98.0 , 4133.33333333 , 4129.74358974 , 4278.46153846 , 4135.38461538 , 4134.87179487 , 4133.84615385 , 4134.35897436 , 4134.35897436 , 4136.41025641 , 4143.58974359 , 4142.05128205 , 4390.25641026 , 4131.79487179 , 4136.41025641 , 2077.0 , 2027.0 , 7.25 , 0.0 , 0.0 , 0.0 , 0.0 , 

99.0 , 4131.79487179 , 4127.69230769 , 4278.46153846 , 4136.92307692 , 4134.87179487 , 4133.84615385 , 4129.23076923 , 4136.92307692 , 4134.87179487 , 4141.53846154 , 4137.94871795 , 4391.79487179 , 4134.35897436 , 4135.8974359 , 2076.0 , 2029.0 , 7.259 , 0.0 , 0.0 , 0.0 , 0.0 , 

100.0 , 4134.35897436 , 4130.25641026 , 4276.41025641 , 4137.94871795 , 4134.87179487 , 4132.30769231 , 4126.66666667 , 4137.43589744 , 4136.41025641 , 4141.02564103 , 4140.0 , 4391.79487179 , 4135.38461538 , 4135.8974359 , 2076.0 , 2028.0 , 7.267 , 0.0 , 0.0 , 0.0 , 0.0 , 

101.0 , 4137.43589744 , 4129.74358974 , 4271.79487179 , 4137.43589744 , 4134.87179487 , 4132.82051282 , 4130.76923077 , 4134.35897436 , 4136.41025641 , 4140.0 , 4143.58974359 , 4391.79487179 , 4135.8974359 , 4135.8974359 , 2077.0 , 2032.0 , 7.274 , 0.0 , 0.0 , 0.0 , 0.0 , 

102.0 , 4135.8974359 , 4127.17948718 , 4269.23076923 , 4136.92307692 , 4134.87179487 , 4132.82051282 , 4126.66666667 , 4136.92307692 , 4135.8974359 , 4140.0 , 4144.1025641 , 4394.35897436 , 4136.41025641 , 4137.94871795 , 2074.0 , 2033.0 , 7.282 , 0.0 , 0.0 , 0.0 , 0.0 , 

103.0 , 4134.87179487 , 4127.69230769 , 4261.53846154 , 4136.92307692 , 4134.87179487 , 4131.28205128 , 4123.58974359 , 4136.41025641 , 4136.41025641 , 4141.53846154 , 4143.07692308 , 4396.41025641 , 4132.82051282 , 4137.94871795 , 2074.0 , 2035.0 , 7.29 , 0.0 , 0.0 , 0.0 , 0.0 , 

104.0 , 4134.87179487 , 4128.20512821 , 4260.0 , 4134.35897436 , 4134.87179487 , 4130.76923077 , 4131.79487179 , 4132.30769231 , 4135.8974359 , 4142.05128205 , 4143.07692308 , 4399.48717949 , 4128.71794872 , 4133.84615385 , 2073.0 , 2040.0 , 7.298 , 0.0 , 0.0 , 0.0 , 0.0 , 

105.0 , 4135.38461538 , 4128.20512821 , 4254.35897436 , 4134.87179487 , 4134.87179487 , 4134.35897436 , 4135.38461538 , 4130.25641026 , 4134.87179487 , 4140.51282051 , 4143.07692308 , 4405.64102564 , 4130.25641026 , 4132.82051282 , 2073.0 , 2040.0 , 7.305 , 0.0 , 0.0 , 0.0 , 0.0 , 

106.0 , 4135.8974359 , 4132.30769231 , 4249.23076923 , 4138.97435897 , 4134.87179487 , 4135.8974359 , 4132.30769231 , 4132.82051282 , 4136.41025641 , 4140.0 , 4144.61538462 , 4411.28205128 , 4134.35897436 , 4138.97435897 , 2071.0 , 2036.0 , 7.313 , 0.0 , 0.0 , 0.0 , 0.0 , 

107.0 , 4135.38461538 , 4130.76923077 , 4247.17948718 , 4140.0 , 4134.87179487 , 4134.87179487 , 4133.33333333 , 4133.84615385 , 4137.43589744 , 4141.02564103 , 4141.02564103 , 4409.23076923 , 4130.25641026 , 4138.46153846 , 2071.0 , 2035.0 , 7.321 , 0.0 , 0.0 , 0.0 , 0.0 , 

108.0 , 4135.38461538 , 4128.20512821 , 4237.94871795 , 4136.92307692 , 4134.87179487 , 4134.87179487 , 4135.8974359 , 4130.25641026 , 4137.43589744 , 4142.05128205 , 4139.48717949 , 4408.71794872 , 4128.20512821 , 4134.35897436 , 2071.0 , 2034.0 , 7.328 , 0.0 , 0.0 , 0.0 , 0.0 , 

109.0 , 4135.38461538 , 4134.87179487 , 4242.05128205 , 4135.8974359 , 4134.87179487 , 4134.87179487 , 4134.87179487 , 4129.74358974 , 4136.92307692 , 4140.0 , 4143.58974359 , 4415.38461538 , 4129.74358974 , 4135.38461538 , 2068.0 , 2028.0 , 7.337 , 0.0 , 0.0 , 0.0 , 0.0 , 

110.0 , 4134.35897436 , 4138.97435897 , 4234.87179487 , 4137.43589744 , 4134.87179487 , 4135.8974359 , 4134.35897436 , 4133.33333333 , 4136.41025641 , 4136.92307692 , 4143.58974359 , 4417.94871795 , 4130.25641026 , 4132.30769231 , 2067.0 , 2026.0 , 7.345 , 0.0 , 0.0 , 0.0 , 0.0 , 

111.0 , 4134.35897436 , 4135.38461538 , 4249.23076923 , 4137.94871795 , 4134.87179487 , 4136.41025641 , 4134.87179487 , 4136.41025641 , 4138.97435897 , 4140.0 , 4142.56410256 , 4417.43589744 , 4134.35897436 , 4130.76923077 , 2063.0 , 2025.0 , 7.353 , 0.0 , 0.0 , 0.0 , 0.0 , 

112.0 , 4132.82051282 , 4133.33333333 , 4294.35897436 , 4136.41025641 , 4134.35897436 , 4134.35897436 , 4133.84615385 , 4133.84615385 , 4138.97435897 , 4143.58974359 , 4146.15384615 , 4420.0 , 4136.41025641 , 4136.41025641 , 2062.0 , 2024.0 , 7.361 , 0.0 , 0.0 , 0.0 , 0.0 , 

113.0 , 4137.43589744 , 4137.43589744 , 4297.94871795 , 4137.43589744 , 4134.87179487 , 4134.35897436 , 4134.87179487 , 4137.43589744 , 4139.48717949 , 4151.28205128 , 4150.25641026 , 4433.33333333 , 4136.41025641 , 4144.1025641 , 2061.0 , 2021.0 , 7.369 , 0.0 , 0.0 , 0.0 , 0.0 , 

114.0 , 4138.46153846 , 4135.38461538 , 4091.79487179 , 4137.43589744 , 4135.38461538 , 4134.35897436 , 4134.87179487 , 4118.46153846 , 4122.05128205 , 4127.17948718 , 4135.8974359 , 4418.46153846 , 4113.84615385 , 4129.74358974 , 2060.0 , 2021.0 , 7.376 , 0.0 , 0.0 , 0.0 , 0.0 , 

115.0 , 4127.69230769 , 4132.30769231 , 4184.61538462 , 4132.30769231 , 4133.33333333 , 4135.8974359 , 4132.82051282 , 4126.66666667 , 4132.30769231 , 4132.82051282 , 4137.94871795 , 4412.30769231 , 4123.07692308 , 4126.15384615 , 2060.0 , 2022.0 , 7.384 , 0.0 , 0.0 , 0.0 , 0.0 , 

116.0 , 4148.20512821 , 4141.02564103 , 4147.17948718 , 4142.56410256 , 4136.41025641 , 4136.92307692 , 4137.43589744 , 4142.56410256 , 4142.05128205 , 4152.30769231 , 4150.25641026 , 4447.69230769 , 4141.53846154 , 4152.82051282 , 2061.0 , 2021.0 , 7.391 , 0.0 , 0.0 , 0.0 , 0.0 , 

117.0 , 4178.97435897 , 4149.23076923 , 2896.92307692 , 4154.87179487 , 4142.05128205 , 4134.35897436 , 4143.58974359 , 4028.71794872 , 4045.12820513 , 4033.84615385 , 4087.17948718 , 4383.58974359 , 4034.87179487 , 4120.51282051 , 2061.0 , 2023.0 , 7.4 , 0.0 , 0.0 , 0.0 , 0.0 , 

118.0 , 4166.15384615 , 4144.1025641 , 2055.38461538 , 4147.69230769 , 4139.48717949 , 4138.46153846 , 4140.51282051 , 3957.43589744 , 3988.71794872 , 3953.33333333 , 4042.05128205 , 4277.43589744 , 3966.15384615 , 4071.28205128 , 2063.0 , 2025.0 , 7.407 , 0.0 , 0.0 , 0.0 , 0.0 , 

119.0 , 4137.43589744 , 4133.33333333 , 3071.79487179 , 4136.92307692 , 4133.84615385 , 4142.56410256 , 4135.38461538 , 4081.53846154 , 4093.33333333 , 4080.51282051 , 4109.23076923 , 4306.66666667 , 4083.07692308 , 4106.66666667 , 2065.0 , 2024.0 , 7.416 , 0.0 , 0.0 , 0.0 , 0.0 , 

120.0 , 4136.92307692 , 4132.82051282 , 4003.07692308 , 4136.92307692 , 4134.35897436 , 4135.8974359 , 4137.94871795 , 4177.43589744 , 4170.25641026 , 4178.46153846 , 4163.07692308 , 4373.84615385 , 4174.35897436 , 4154.35897436 , 2068.0 , 2024.0 , 7.424 , 0.0 , 0.0 , 0.0 , 0.0 , 

121.0 , 4136.41025641 , 4131.28205128 , 3749.23076923 , 4137.94871795 , 4136.41025641 , 4130.25641026 , 4135.8974359 , 4130.25641026 , 4132.30769231 , 4134.87179487 , 4136.92307692 , 4345.64102564 , 4130.25641026 , 4137.43589744 , 2068.0 , 2022.0 , 7.432 , 0.0 , 0.0 , 0.0 , 0.0 , 

122.0 , 4126.66666667 , 4131.28205128 , 3672.82051282 , 4136.92307692 , 4136.41025641 , 4134.35897436 , 4131.79487179 , 4120.0 , 4125.12820513 , 4130.76923077 , 4133.33333333 , 4324.1025641 , 4120.0 , 4127.69230769 , 2070.0 , 2022.0 , 7.439 , 0.0 , 0.0 , 0.0 , 0.0 , 

123.0 , 4130.25641026 , 4132.82051282 , 3944.61538462 , 4137.94871795 , 4135.38461538 , 4134.87179487 , 4131.79487179 , 4152.30769231 , 4150.25641026 , 4159.48717949 , 4150.76923077 , 4342.05128205 , 4151.28205128 , 4144.61538462 , 2070.0 , 2021.0 , 7.446 , 0.0 , 0.0 , 0.0 , 0.0 , 

124.0 , 4135.8974359 , 4130.25641026 , 3873.33333333 , 4135.38461538 , 4132.82051282 , 4131.79487179 , 4132.82051282 , 4137.43589744 , 4137.94871795 , 4136.41025641 , 4138.97435897 , 4326.66666667 , 4136.92307692 , 4137.94871795 , 2069.0 , 2021.0 , 7.454 , 0.0 , 0.0 , 0.0 , 0.0 , 

125.0 , 4136.92307692 , 4130.76923077 , 3824.1025641 , 4137.43589744 , 4133.33333333 , 4133.84615385 , 4130.76923077 , 4135.38461538 , 4135.38461538 , 4136.92307692 , 4141.53846154 , 4323.07692308 , 4134.87179487 , 4135.8974359 , 2069.0 , 2025.0 , 7.463 , 0.0 , 0.0 , 0.0 , 0.0 , 

126.0 , 4133.33333333 , 4132.82051282 , 3846.15384615 , 4140.0 , 4136.41025641 , 4135.38461538 , 4126.66666667 , 4136.92307692 , 4136.41025641 , 4142.56410256 , 4140.51282051 , 4321.53846154 , 4137.94871795 , 4135.8974359 , 2068.0 , 2028.0 , 7.47 , 0.0 , 0.0 , 0.0 , 0.0 , 

127.0 , 4129.74358974 , 4131.28205128 , 3844.1025641 , 4135.8974359 , 4135.8974359 , 4132.82051282 , 4127.69230769 , 4134.87179487 , 4135.38461538 , 4136.92307692 , 4137.94871795 , 4311.28205128 , 4135.8974359 , 4133.84615385 , 2067.0 , 2033.0 , 7.479 , 0.0 , 0.0 , 0.0 , 0.0 , 

128.0 , 4133.33333333 , 4129.74358974 , 3860.0 , 4135.8974359 , 4134.35897436 , 4128.20512821 , 4131.28205128 , 4136.92307692 , 4137.94871795 , 4138.97435897 , 4145.64102564 , 4308.71794872 , 4137.94871795 , 4137.43589744 , 2066.0 , 2034.0 , 7.487 , 0.0 , 0.0 , 0.0 , 0.0 , 

0.0 , 4136.92307692 , 4129.23076923 , 3847.69230769 , 4137.43589744 , 4135.38461538 , 4130.25641026 , 4132.82051282 , 4135.38461538 , 4137.43589744 , 4143.07692308 , 4144.61538462 , 4302.56410256 , 4136.92307692 , 4137.94871795 , 2063.0 , 2034.0 , 7.495 , 0.0 , 0.0 , 0.0 , 0.0 , 

1.0 , 4134.35897436 , 4128.71794872 , 3857.43589744 , 4135.8974359 , 4135.38461538 , 4136.41025641 , 4129.74358974 , 4136.92307692 , 4137.94871795 , 4149.74358974 , 4141.53846154 , 4295.38461538 , 4136.41025641 , 4136.41025641 , 2062.0 , 2033.0 , 7.503 , 0.0 , 0.0 , 0.0 , 0.0 , 

2.0 , 4129.74358974 , 4128.71794872 , 3872.30769231 , 4135.8974359 , 4134.87179487 , 4134.87179487 , 4130.25641026 , 4137.94871795 , 4137.94871795 , 4152.30769231 , 4141.53846154 , 4292.30769231 , 4135.8974359 , 4135.8974359 , 2062.0 , 2031.0 , 7.511 , 0.0 , 0.0 , 0.0 , 0.0 , 

3.0 , 4129.23076923 , 4129.23076923 , 3873.33333333 , 4136.41025641 , 4135.8974359 , 4131.28205128 , 4134.35897436 , 4135.8974359 , 4137.94871795 , 4150.25641026 , 4140.51282051 , 4285.64102564 , 4135.8974359 , 4136.92307692 , 2057.0 , 2029.0 , 7.519 , 0.0 , 0.0 , 0.0 , 0.0 , 

4.0 , 4132.30769231 , 4130.25641026 , 3872.30769231 , 4133.84615385 , 4135.8974359 , 4133.33333333 , 4133.84615385 , 4134.87179487 , 4137.94871795 , 4145.64102564 , 4137.94871795 , 4279.48717949 , 4135.8974359 , 4135.8974359 , 2058.0 , 2029.0 , 7.526 , 0.0 , 0.0 , 0.0 , 0.0 , 

5.0 , 4132.30769231 , 4130.76923077 , 3870.76923077 , 4132.82051282 , 4132.82051282 , 4130.76923077 , 4130.25641026 , 4134.87179487 , 4137.94871795 , 4136.41025641 , 4141.53846154 , 4280.51282051 , 4135.8974359 , 4135.8974359 , 2056.0 , 2030.0 , 7.533 , 0.0 , 0.0 , 0.0 , 0.0 , 

6.0 , 4130.25641026 , 4130.25641026 , 3877.94871795 , 4136.41025641 , 4132.30769231 , 4127.69230769 , 4130.25641026 , 4135.38461538 , 4137.94871795 , 4136.41025641 , 4143.07692308 , 4275.8974359 , 4135.8974359 , 4136.41025641 , 2056.0 , 2032.0 , 7.541 , 0.0 , 0.0 , 0.0 , 0.0 , 

7.0 , 4130.76923077 , 4130.25641026 , 3877.94871795 , 4136.92307692 , 4135.38461538 , 4129.74358974 , 4135.8974359 , 4135.8974359 , 4137.94871795 , 4147.69230769 , 4138.46153846 , 4266.66666667 , 4135.8974359 , 4136.41025641 , 2055.0 , 2032.0 , 7.55 , 0.0 , 0.0 , 0.0 , 0.0 , 

8.0 , 4133.33333333 , 4130.76923077 , 3885.64102564 , 4133.84615385 , 4136.41025641 , 4126.15384615 , 4135.8974359 , 4136.92307692 , 4137.94871795 , 4153.33333333 , 4137.43589744 , 4261.53846154 , 4135.8974359 , 4135.8974359 , 2054.0 , 2031.0 , 7.558 , 0.0 , 0.0 , 0.0 , 0.0 , 

9.0 , 4133.84615385 , 4130.25641026 , 3894.35897436 , 4133.84615385 , 4134.87179487 , 4127.69230769 , 4133.84615385 , 4137.43589744 , 4137.94871795 , 4145.12820513 , 4139.48717949 , 4254.87179487 , 4135.8974359 , 4135.38461538 , 2054.0 , 2031.0 , 7.566 , 0.0 , 0.0 , 0.0 , 0.0 , 

10.0 , 4131.79487179 , 4129.74358974 , 3891.79487179 , 4137.94871795 , 4135.8974359 , 4140.0 , 4136.41025641 , 4135.8974359 , 4137.94871795 , 4135.8974359 , 4140.0 , 4246.66666667 , 4135.8974359 , 4135.38461538 , 2053.0 , 2034.0 , 7.573 , 0.0 , 0.0 , 0.0 , 0.0 , 

11.0 , 4128.71794872 , 4129.23076923 , 3899.48717949 , 4134.87179487 , 4136.41025641 , 4135.38461538 , 4134.35897436 , 4134.87179487 , 4137.94871795 , 4138.46153846 , 4138.46153846 , 4247.17948718 , 4136.41025641 , 4135.8974359 , 2052.0 , 2035.0 , 7.581 , 0.0 , 0.0 , 0.0 , 0.0 , 

12.0 , 4129.74358974 , 4129.74358974 , 3908.20512821 , 4128.71794872 , 4134.35897436 , 4123.58974359 , 4128.20512821 , 4136.41025641 , 4137.94871795 , 4141.02564103 , 4141.02564103 , 4247.17948718 , 4135.8974359 , 4135.8974359 , 2050.0 , 2037.0 , 7.589 , 0.0 , 0.0 , 0.0 , 0.0 , 

13.0 , 4130.76923077 , 4128.71794872 , 3906.66666667 , 4131.79487179 , 4133.84615385 , 4127.69230769 , 4126.66666667 , 4137.43589744 , 4137.94871795 , 4139.48717949 , 4142.56410256 , 4238.46153846 , 4135.8974359 , 4135.38461538 , 2046.0 , 2037.0 , 7.598 , 0.0 , 0.0 , 0.0 , 0.0 , 

14.0 , 4129.74358974 , 4129.74358974 , 3903.07692308 , 4135.8974359 , 4135.38461538 , 4130.76923077 , 4128.71794872 , 4136.41025641 , 4137.94871795 , 4145.64102564 , 4139.48717949 , 4230.76923077 , 4135.8974359 , 4135.8974359 , 2044.0 , 2038.0 , 7.605 , 0.0 , 0.0 , 0.0 , 0.0 , 

15.0 , 4129.74358974 , 4130.76923077 , 3917.94871795 , 4133.84615385 , 4135.38461538 , 4128.20512821 , 4127.69230769 , 4135.8974359 , 4137.94871795 , 4154.87179487 , 4138.46153846 , 4230.25641026 , 4135.38461538 , 4136.41025641 , 2042.0 , 2036.0 , 7.613 , 0.0 , 0.0 , 0.0 , 0.0 , 

16.0 , 4132.30769231 , 4131.28205128 , 3910.25641026 , 4134.87179487 , 4134.35897436 , 4133.33333333 , 4125.64102564 , 4135.8974359 , 4137.94871795 , 4149.74358974 , 4141.53846154 , 4230.25641026 , 4133.84615385 , 4135.8974359 , 2041.0 , 2037.0 , 7.621 , 0.0 , 0.0 , 0.0 , 0.0 , 

17.0 , 4133.33333333 , 4129.74358974 , 3898.46153846 , 4136.92307692 , 4133.84615385 , 4136.41025641 , 4128.20512821 , 4136.41025641 , 4137.94871795 , 4138.97435897 , 4144.1025641 , 4225.64102564 , 4134.87179487 , 4135.8974359 , 2040.0 , 2037.0 , 7.629 , 0.0 , 0.0 , 0.0 , 0.0 , 

18.0 , 4132.82051282 , 4131.28205128 , 3904.61538462 , 4136.41025641 , 4134.35897436 , 4132.30769231 , 4133.84615385 , 4136.92307692 , 4137.43589744 , 4135.8974359 , 4142.56410256 , 4218.97435897 , 4136.41025641 , 4135.8974359 , 2040.0 , 2036.0 , 7.637 , 0.0 , 0.0 , 0.0 , 0.0 , 

19.0 , 4129.74358974 , 4131.28205128 , 3918.97435897 , 4135.8974359 , 4134.35897436 , 4130.76923077 , 4135.8974359 , 4135.8974359 , 4137.43589744 , 4137.94871795 , 4141.53846154 , 4212.30769231 , 4137.43589744 , 4135.8974359 , 2038.0 , 2031.0 , 7.643 , 0.0 , 0.0 , 0.0 , 0.0 , 

20.0 , 4133.84615385 , 4129.74358974 , 3919.48717949 , 4134.35897436 , 4134.35897436 , 4134.35897436 , 4134.87179487 , 4136.41025641 , 4138.46153846 , 4143.58974359 , 4141.53846154 , 4209.74358974 , 4137.94871795 , 4136.41025641 , 2039.0 , 2030.0 , 7.652 , 0.0 , 0.0 , 0.0 , 0.0 , 

21.0 , 4138.97435897 , 4131.28205128 , 3912.82051282 , 4131.79487179 , 4134.35897436 , 4134.87179487 , 4135.38461538 , 4137.43589744 , 4136.92307692 , 4144.1025641 , 4140.0 , 4207.69230769 , 4136.92307692 , 4136.41025641 , 2040.0 , 2030.0 , 7.66 , 0.0 , 0.0 , 0.0 , 0.0 , 

22.0 , 4132.82051282 , 4132.82051282 , 3927.69230769 , 4135.8974359 , 4134.35897436 , 4134.35897436 , 4134.35897436 , 4137.43589744 , 4136.41025641 , 4142.56410256 , 4141.53846154 , 4203.58974359 , 4137.94871795 , 4136.92307692 , 2041.0 , 2031.0 , 7.668 , 0.0 , 0.0 , 0.0 , 0.0 , 

23.0 , 4125.64102564 , 4128.71794872 , 3937.94871795 , 4136.41025641 , 4134.35897436 , 4133.33333333 , 4131.28205128 , 4135.38461538 , 4136.41025641 , 4139.48717949 , 4143.07692308 , 4196.41025641 , 4134.87179487 , 4135.38461538 , 2039.0 , 2032.0 , 7.676 , 0.0 , 0.0 , 0.0 , 0.0 , 

24.0 , 4134.35897436 , 4126.66666667 , 3937.43589744 , 4134.35897436 , 4134.35897436 , 4135.8974359 , 4133.84615385 , 4137.43589744 , 4138.46153846 , 4141.02564103 , 4141.53846154 , 4193.84615385 , 4132.30769231 , 4134.35897436 , 2037.0 , 2033.0 , 7.684 , 0.0 , 0.0 , 0.0 , 0.0 , 

25.0 , 4138.46153846 , 4131.79487179 , 3931.28205128 , 4134.87179487 , 4134.35897436 , 4135.8974359 , 4135.38461538 , 4138.97435897 , 4138.97435897 , 4141.02564103 , 4140.0 , 4192.82051282 , 4133.84615385 , 4133.33333333 , 2039.0 , 2036.0 , 7.692 , 0.0 , 0.0 , 0.0 , 0.0 , 

26.0 , 4135.38461538 , 4131.79487179 , 3927.17948718 , 4136.41025641 , 4134.35897436 , 4134.35897436 , 4134.35897436 , 4137.43589744 , 4137.43589744 , 4141.02564103 , 4139.48717949 , 4188.71794872 , 4135.38461538 , 4134.87179487 , 2036.0 , 2037.0 , 7.699 , 0.0 , 0.0 , 0.0 , 0.0 , 

27.0 , 4134.87179487 , 4128.71794872 , 3918.97435897 , 4134.87179487 , 4134.35897436 , 4134.35897436 , 4134.35897436 , 4136.41025641 , 4135.8974359 , 4142.56410256 , 4138.97435897 , 4181.53846154 , 4133.84615385 , 4134.35897436 , 2034.0 , 2036.0 , 7.707 , 0.0 , 0.0 , 0.0 , 0.0 , 

28.0 , 4137.43589744 , 4131.79487179 , 3926.15384615 , 4135.38461538 , 4134.35897436 , 4134.87179487 , 4135.8974359 , 4137.94871795 , 4137.43589744 , 4142.56410256 , 4140.51282051 , 4174.87179487 , 4136.41025641 , 4132.82051282 , 2033.0 , 2034.0 , 7.716 , 0.0 , 0.0 , 0.0 , 0.0 , 

29.0 , 4136.92307692 , 4132.82051282 , 3933.84615385 , 4136.41025641 , 4134.35897436 , 4135.38461538 , 4134.87179487 , 4136.41025641 , 4137.94871795 , 4141.02564103 , 4141.02564103 , 4172.82051282 , 4137.43589744 , 4132.82051282 , 2033.0 , 2033.0 , 7.724 , 0.0 , 0.0 , 0.0 , 0.0 , 

30.0 , 4136.92307692 , 4130.76923077 , 3929.74358974 , 4135.8974359 , 4134.35897436 , 4135.8974359 , 4132.82051282 , 4136.41025641 , 4136.41025641 , 4141.02564103 , 4140.51282051 , 4172.82051282 , 4137.94871795 , 4136.92307692 , 2034.0 , 2031.0 , 7.731 , 0.0 , 0.0 , 0.0 , 0.0 , 

31.0 , 4136.41025641 , 4132.82051282 , 3949.74358974 , 4135.8974359 , 4134.35897436 , 4136.41025641 , 4132.82051282 , 4140.0 , 4137.43589744 , 4141.53846154 , 4139.48717949 , 4168.20512821 , 4138.46153846 , 4137.43589744 , 2035.0 , 2030.0 , 7.738 , 0.0 , 0.0 , 0.0 , 0.0 , 

32.0 , 4135.38461538 , 4135.38461538 , 3958.97435897 , 4135.8974359 , 4134.35897436 , 4135.38461538 , 4135.38461538 , 4136.41025641 , 4138.46153846 , 4140.51282051 , 4138.97435897 , 4161.53846154 , 4134.35897436 , 4132.82051282 , 2035.0 , 2028.0 , 7.747 , 0.0 , 0.0 , 0.0 , 0.0 , 

33.0 , 4136.41025641 , 4135.38461538 , 3957.43589744 , 4135.8974359 , 4134.35897436 , 4134.87179487 , 4136.41025641 , 4130.76923077 , 4135.8974359 , 4142.56410256 , 4140.51282051 , 4158.97435897 , 4130.76923077 , 4132.82051282 , 2034.0 , 2029.0 , 7.755 , 0.0 , 0.0 , 0.0 , 0.0 , 

34.0 , 4135.8974359 , 4133.33333333 , 3951.28205128 , 4135.8974359 , 4134.35897436 , 4134.87179487 , 4135.8974359 , 4131.28205128 , 4135.38461538 , 4144.1025641 , 4141.53846154 , 4158.46153846 , 4132.30769231 , 4133.33333333 , 2034.0 , 2030.0 , 7.762 , 0.0 , 0.0 , 0.0 , 0.0 , 

35.0 , 4135.8974359 , 4129.74358974 , 3968.71794872 , 4136.41025641 , 4134.35897436 , 4134.87179487 , 4135.38461538 , 4137.94871795 , 4141.02564103 , 4144.61538462 , 4142.56410256 , 4157.43589744 , 4134.87179487 , 4132.82051282 , 2035.0 , 2029.0 , 7.77 , 0.0 , 0.0 , 0.0 , 0.0 , 

36.0 , 4135.8974359 , 4129.74358974 , 3969.74358974 , 4135.38461538 , 4134.35897436 , 4134.87179487 , 4135.38461538 , 4135.8974359 , 4138.46153846 , 4144.1025641 , 4142.05128205 , 4152.30769231 , 4133.33333333 , 4131.28205128 , 2034.0 , 2029.0 , 7.778 , 0.0 , 0.0 , 0.0 , 0.0 , 

37.0 , 4135.8974359 , 4133.84615385 , 3972.30769231 , 4135.8974359 , 4134.35897436 , 4135.38461538 , 4135.38461538 , 4135.38461538 , 4133.33333333 , 4143.58974359 , 4142.56410256 , 4148.20512821 , 4136.41025641 , 4132.30769231 , 2034.0 , 2031.0 , 7.785 , 0.0 , 0.0 , 0.0 , 0.0 , 

38.0 , 4135.8974359 , 4133.33333333 , 3977.43589744 , 4137.43589744 , 4134.35897436 , 4135.38461538 , 4133.84615385 , 4140.51282051 , 4135.38461538 , 4142.56410256 , 4143.58974359 , 4146.15384615 , 4137.43589744 , 4133.84615385 , 2035.0 , 2033.0 , 7.793 , 0.0 , 0.0 , 0.0 , 0.0 , 

39.0 , 4135.8974359 , 4133.84615385 , 3987.17948718 , 4133.84615385 , 4134.35897436 , 4136.41025641 , 4132.82051282 , 4144.61538462 , 4142.56410256 , 4145.64102564 , 4142.05128205 , 4146.66666667 , 4134.87179487 , 4135.38461538 , 2035.0 , 2033.0 , 7.801 , 0.0 , 0.0 , 0.0 , 0.0 , 

40.0 , 4135.8974359 , 4133.84615385 , 3993.84615385 , 4130.25641026 , 4134.35897436 , 4135.8974359 , 4134.87179487 , 4138.97435897 , 4141.53846154 , 4147.69230769 , 4138.97435897 , 4143.07692308 , 4132.30769231 , 4132.30769231 , 2036.0 , 2036.0 , 7.809 , 0.0 , 0.0 , 0.0 , 0.0 , 

41.0 , 4135.8974359 , 4130.76923077 , 4000.0 , 4133.84615385 , 4134.35897436 , 4135.8974359 , 4135.8974359 , 4136.41025641 , 4141.53846154 , 4146.15384615 , 4140.51282051 , 4141.02564103 , 4137.43589744 , 4131.28205128 , 2037.0 , 2035.0 , 7.817 , 0.0 , 0.0 , 0.0 , 0.0 , 

42.0 , 4135.8974359 , 4129.74358974 , 4005.12820513 , 4136.41025641 , 4134.35897436 , 4136.41025641 , 4134.35897436 , 4136.92307692 , 4143.07692308 , 4143.58974359 , 4143.07692308 , 4138.97435897 , 4136.92307692 , 4133.84615385 , 2039.0 , 2032.0 , 7.825 , 0.0 , 0.0 , 0.0 , 0.0 , 

43.0 , 4135.8974359 , 4133.33333333 , 3996.41025641 , 4135.38461538 , 4134.35897436 , 4135.8974359 , 4133.84615385 , 4136.41025641 , 4141.53846154 , 4142.56410256 , 4141.53846154 , 4132.82051282 , 4130.25641026 , 4134.87179487 , 2039.0 , 2030.0 , 7.833 , 0.0 , 0.0 , 0.0 , 0.0 , 

44.0 , 4135.8974359 , 4135.8974359 , 3994.87179487 , 4136.41025641 , 4134.35897436 , 4134.35897436 , 4134.35897436 , 4136.92307692 , 4141.02564103 , 4143.58974359 , 4141.53846154 , 4130.76923077 , 4132.82051282 , 4132.82051282 , 2042.0 , 2030.0 , 7.845 , 0.0 , 0.0 , 0.0 , 0.0 , 

45.0 , 4135.8974359 , 4130.25641026 , 4000.0 , 4136.41025641 , 4134.35897436 , 4134.35897436 , 4134.35897436 , 4136.92307692 , 4142.56410256 , 4144.61538462 , 4141.02564103 , 4131.28205128 , 4138.97435897 , 4131.28205128 , 2043.0 , 2031.0 , 7.85 , 0.0 , 0.0 , 0.0 , 0.0 , 

46.0 , 4135.8974359 , 4126.66666667 , 4008.71794872 , 4134.35897436 , 4134.35897436 , 4134.87179487 , 4134.35897436 , 4137.43589744 , 4140.51282051 , 4145.64102564 , 4138.46153846 , 4128.71794872 , 4138.46153846 , 4130.25641026 , 2044.0 , 2031.0 , 7.857 , 0.0 , 0.0 , 0.0 , 0.0 , 

47.0 , 4135.8974359 , 4131.28205128 , 4030.25641026 , 4135.8974359 , 4134.35897436 , 4134.35897436 , 4134.35897436 , 4139.48717949 , 4140.0 , 4146.66666667 , 4141.02564103 , 4128.20512821 , 4137.94871795 , 4133.33333333 , 2044.0 , 2033.0 , 7.865 , 0.0 , 0.0 , 0.0 , 0.0 , 

48.0 , 4135.8974359 , 4135.8974359 , 4044.61538462 , 4136.41025641 , 4134.35897436 , 4134.35897436 , 4134.35897436 , 4138.97435897 , 4144.1025641 , 4146.15384615 , 4144.1025641 , 4129.23076923 , 4140.0 , 4135.38461538 , 2045.0 , 2035.0 , 7.872 , 0.0 , 0.0 , 0.0 , 0.0 , 

49.0 , 4135.8974359 , 4134.87179487 , 4046.66666667 , 4135.38461538 , 4134.35897436 , 4134.35897436 , 4134.35897436 , 4140.51282051 , 4143.58974359 , 4146.66666667 , 4144.1025641 , 4127.17948718 , 4139.48717949 , 4134.35897436 , 2044.0 , 2036.0 , 7.881 , 0.0 , 0.0 , 0.0 , 0.0 , 

50.0 , 4135.8974359 , 4132.30769231 , 4040.51282051 , 4136.41025641 , 4134.35897436 , 4134.35897436 , 4134.35897436 , 4142.05128205 , 4136.41025641 , 4145.12820513 , 4140.51282051 , 4120.51282051 , 4135.38461538 , 4135.38461538 , 2042.0 , 2035.0 , 7.889 , 0.0 , 0.0 , 0.0 , 0.0 , 

51.0 , 4135.8974359 , 4133.84615385 , 4042.56410256 , 4135.8974359 , 4134.35897436 , 4134.35897436 , 4134.87179487 , 4137.43589744 , 4137.94871795 , 4143.58974359 , 4141.53846154 , 4117.43589744 , 4135.8974359 , 4137.43589744 , 2042.0 , 2037.0 , 7.897 , 0.0 , 0.0 , 0.0 , 0.0 , 

52.0 , 4135.8974359 , 4136.92307692 , 4052.30769231 , 4134.35897436 , 4134.35897436 , 4134.35897436 , 4135.38461538 , 4136.41025641 , 4142.56410256 , 4145.64102564 , 4143.07692308 , 4117.43589744 , 4135.8974359 , 4132.82051282 , 2041.0 , 2036.0 , 7.904 , 0.0 , 0.0 , 0.0 , 0.0 , 

53.0 , 4135.8974359 , 4135.38461538 , 4057.94871795 , 4134.87179487 , 4134.35897436 , 4134.35897436 , 4134.87179487 , 4140.0 , 4141.02564103 , 4147.69230769 , 4141.53846154 , 4116.41025641 , 4132.82051282 , 4130.76923077 , 2039.0 , 2035.0 , 7.919 , 0.0 , 0.0 , 0.0 , 0.0 , 

54.0 , 4135.8974359 , 4134.35897436 , 4057.43589744 , 4133.33333333 , 4134.35897436 , 4134.35897436 , 4133.33333333 , 4137.43589744 , 4134.87179487 , 4146.15384615 , 4142.05128205 , 4112.82051282 , 4134.35897436 , 4132.82051282 , 2037.0 , 2035.0 , 7.921 , 0.0 , 0.0 , 0.0 , 0.0 , 

55.0 , 4135.8974359 , 4134.35897436 , 4070.76923077 , 4130.76923077 , 4134.35897436 , 4134.35897436 , 4134.87179487 , 4137.94871795 , 4136.92307692 , 4145.64102564 , 4145.12820513 , 4113.33333333 , 4140.51282051 , 4134.35897436 , 2037.0 , 2036.0 , 7.928 , 0.0 , 0.0 , 0.0 , 0.0 , 

56.0 , 4135.8974359 , 4130.76923077 , 4092.30769231 , 4133.33333333 , 4134.35897436 , 4134.35897436 , 4136.41025641 , 4141.02564103 , 4143.07692308 , 4147.17948718 , 4142.56410256 , 4116.92307692 , 4138.46153846 , 4135.38461538 , 2037.0 , 2038.0 , 7.936 , 0.0 , 0.0 , 0.0 , 0.0 , 

57.0 , 4135.8974359 , 4127.69230769 , 4088.20512821 , 4135.38461538 , 4134.35897436 , 4134.35897436 , 4135.8974359 , 4135.8974359 , 4141.02564103 , 4147.69230769 , 4137.94871795 , 4114.35897436 , 4132.82051282 , 4136.41025641 , 2036.0 , 2037.0 , 7.944 , 0.0 , 0.0 , 0.0 , 0.0 , 

58.0 , 4135.8974359 , 4134.87179487 , 4081.53846154 , 4134.35897436 , 4134.35897436 , 4134.35897436 , 4135.38461538 , 4133.84615385 , 4139.48717949 , 4145.64102564 , 4140.51282051 , 4110.76923077 , 4132.30769231 , 4134.87179487 , 2036.0 , 2037.0 , 7.955 , 0.0 , 0.0 , 0.0 , 0.0 , 

59.0 , 4135.8974359 , 4139.48717949 , 4091.79487179 , 4134.35897436 , 4134.35897436 , 4134.35897436 , 4134.35897436 , 4138.46153846 , 4143.58974359 , 4144.61538462 , 4142.05128205 , 4110.76923077 , 4135.38461538 , 4134.87179487 , 2035.0 , 2037.0 , 7.961 , 0.0 , 0.0 , 0.0 , 0.0 , 

60.0 , 4135.8974359 , 4129.74358974 , 4097.94871795 , 4135.8974359 , 4134.35897436 , 4134.35897436 , 4134.35897436 , 4137.94871795 , 4143.07692308 , 4145.12820513 , 4140.51282051 , 4108.20512821 , 4136.41025641 , 4135.38461538 , 2036.0 , 2035.0 , 7.967 , 0.0 , 0.0 , 0.0 , 0.0 , 

61.0 , 4135.8974359 , 4124.1025641 , 4087.17948718 , 4134.35897436 , 4134.35897436 , 4134.35897436 , 4135.8974359 , 4134.35897436 , 4136.92307692 , 4144.1025641 , 4142.56410256 , 4103.58974359 , 4134.87179487 , 4133.33333333 , 2035.0 , 2033.0 , 7.976 , 0.0 , 0.0 , 0.0 , 0.0 , 

62.0 , 4135.8974359 , 4133.33333333 , 4085.12820513 , 4133.84615385 , 4134.35897436 , 4134.35897436 , 4133.84615385 , 4136.41025641 , 4138.97435897 , 4143.07692308 , 4142.05128205 , 4102.56410256 , 4133.84615385 , 4131.28205128 , 2036.0 , 2032.0 , 7.982 , 0.0 , 0.0 , 0.0 , 0.0 , 

63.0 , 4135.8974359 , 4140.0 , 4083.07692308 , 4134.87179487 , 4134.35897436 , 4134.35897436 , 4131.79487179 , 4137.43589744 , 4142.05128205 , 4146.15384615 , 4140.0 , 4100.51282051 , 4134.35897436 , 4131.28205128 , 2034.0 , 2032.0 , 7.99 , 0.0 , 0.0 , 0.0 , 0.0 , 

64.0 , 4135.8974359 , 4134.87179487 , 4087.17948718 , 4135.8974359 , 4134.35897436 , 4134.35897436 , 4134.87179487 , 4139.48717949 , 4140.0 , 4148.20512821 , 4142.05128205 , 4101.53846154 , 4134.87179487 , 4135.8974359 , 2034.0 , 2031.0 , 8.003 , 0.0 , 0.0 , 0.0 , 0.0 , 

65.0 , 4135.8974359 , 4132.30769231 , 4091.28205128 , 4135.8974359 , 4134.35897436 , 4134.35897436 , 4135.8974359 , 4140.0 , 4140.51282051 , 4143.07692308 , 4142.05128205 , 4102.56410256 , 4130.76923077 , 4136.92307692 , 2031.0 , 2030.0 , 8.007 , 0.0 , 0.0 , 0.0 , 0.0 , 

66.0 , 4135.8974359 , 4135.38461538 , 4087.17948718 , 4133.84615385 , 4134.35897436 , 4134.35897436 , 4134.35897436 , 4135.38461538 , 4142.56410256 , 4141.02564103 , 4138.46153846 , 4098.97435897 , 4131.28205128 , 4132.30769231 , 2029.0 , 2032.0 , 8.015 , 0.0 , 0.0 , 0.0 , 0.0 , 

67.0 , 4135.8974359 , 4136.41025641 , 4079.48717949 , 4135.38461538 , 4134.35897436 , 4134.35897436 , 4136.92307692 , 4131.28205128 , 4137.43589744 , 4143.07692308 , 4137.43589744 , 4094.87179487 , 4134.87179487 , 4130.76923077 , 2029.0 , 2033.0 , 8.023 , 0.0 , 0.0 , 0.0 , 0.0 , 

68.0 , 4135.8974359 , 4132.30769231 , 4084.1025641 , 4133.33333333 , 4134.35897436 , 4134.35897436 , 4138.46153846 , 4133.33333333 , 4136.41025641 , 4142.56410256 , 4139.48717949 , 4095.38461538 , 4135.38461538 , 4134.35897436 , 2027.0 , 2032.0 , 8.03 , 0.0 , 0.0 , 0.0 , 0.0 , 

69.0 , 4135.8974359 , 4130.25641026 , 4094.87179487 , 4132.30769231 , 4134.35897436 , 4134.35897436 , 4136.92307692 , 4136.92307692 , 4143.58974359 , 4142.05128205 , 4139.48717949 , 4094.87179487 , 4136.41025641 , 4133.84615385 , 2025.0 , 2034.0 , 8.037 , 0.0 , 0.0 , 0.0 , 0.0 , 

70.0 , 4135.8974359 , 4130.76923077 , 4109.74358974 , 4133.33333333 , 4134.35897436 , 4134.35897436 , 4137.94871795 , 4141.02564103 , 4144.61538462 , 4145.64102564 , 4141.53846154 , 4095.38461538 , 4140.0 , 4133.84615385 , 2021.0 , 2037.0 , 8.049 , 0.0 , 0.0 , 0.0 , 0.0 , 

71.0 , 4135.8974359 , 4128.20512821 , 4121.53846154 , 4133.33333333 , 4134.35897436 , 4134.35897436 , 4136.92307692 , 4141.02564103 , 4140.0 , 4145.12820513 , 4143.58974359 , 4096.41025641 , 4137.94871795 , 4134.35897436 , 2021.0 , 2038.0 , 8.056 , 0.0 , 0.0 , 0.0 , 0.0 , 

72.0 , 4135.8974359 , 4128.20512821 , 4122.05128205 , 4132.82051282 , 4134.35897436 , 4134.35897436 , 4133.84615385 , 4135.38461538 , 4140.51282051 , 4143.58974359 , 4141.53846154 , 4094.87179487 , 4134.35897436 , 4133.84615385 , 2019.0 , 2042.0 , 8.061 , 0.0 , 0.0 , 0.0 , 0.0 , 

73.0 , 4135.8974359 , 4133.84615385 , 4121.02564103 , 4132.82051282 , 4134.35897436 , 4134.35897436 , 4134.35897436 , 4131.79487179 , 4144.1025641 , 4145.12820513 , 4140.0 , 4092.82051282 , 4136.92307692 , 4135.38461538 , 2018.0 , 2042.0 , 8.07 , 0.0 , 0.0 , 0.0 , 0.0 , 

74.0 , 4135.8974359 , 4134.87179487 , 4128.20512821 , 4132.82051282 , 4134.35897436 , 4134.35897436 , 4135.38461538 , 4136.41025641 , 4145.12820513 , 4145.12820513 , 4142.05128205 , 4094.35897436 , 4135.8974359 , 4135.8974359 , 2019.0 , 2041.0 , 8.081 , 0.0 , 0.0 , 0.0 , 0.0 , 

75.0 , 4135.8974359 , 4131.28205128 , 4135.38461538 , 4132.82051282 , 4134.35897436 , 4134.35897436 , 4134.35897436 , 4141.53846154 , 4140.51282051 , 4143.58974359 , 4142.56410256 , 4094.87179487 , 4131.79487179 , 4136.92307692 , 2020.0 , 2040.0 , 8.086 , 0.0 , 0.0 , 0.0 , 0.0 , 

76.0 , 4135.8974359 , 4134.35897436 , 4129.23076923 , 4134.87179487 , 4134.35897436 , 4134.35897436 , 4133.84615385 , 4138.97435897 , 4135.8974359 , 4145.12820513 , 4139.48717949 , 4090.76923077 , 4132.30769231 , 4136.41025641 , 2020.0 , 2039.0 , 8.093 , 0.0 , 0.0 , 0.0 , 0.0 , 

77.0 , 4135.8974359 , 4131.79487179 , 4121.53846154 , 4134.87179487 , 4134.35897436 , 4134.35897436 , 4134.35897436 , 4134.87179487 , 4139.48717949 , 4144.1025641 , 4140.0 , 4088.20512821 , 4131.28205128 , 4133.33333333 , 2022.0 , 2039.0 , 8.102 , 0.0 , 0.0 , 0.0 , 0.0 , 

78.0 , 4135.8974359 , 4125.12820513 , 4124.1025641 , 4134.35897436 , 4134.35897436 , 4134.35897436 , 4134.35897436 , 4136.41025641 , 4144.1025641 , 4142.05128205 , 4140.51282051 , 4086.66666667 , 4130.76923077 , 4129.74358974 , 2023.0 , 2037.0 , 8.109 , 0.0 , 0.0 , 0.0 , 0.0 , 

79.0 , 4135.8974359 , 4131.28205128 , 4132.82051282 , 4135.8974359 , 4134.35897436 , 4134.35897436 , 4134.35897436 , 4137.43589744 , 4141.02564103 , 4143.58974359 , 4138.46153846 , 4086.15384615 , 4132.82051282 , 4129.74358974 , 2025.0 , 2034.0 , 8.123 , 0.0 , 0.0 , 0.0 , 0.0 , 

80.0 , 4135.8974359 , 4138.97435897 , 4129.74358974 , 4136.41025641 , 4134.35897436 , 4134.35897436 , 4134.35897436 , 4133.33333333 , 4137.43589744 , 4143.58974359 , 4139.48717949 , 4086.15384615 , 4132.30769231 , 4131.79487179 , 2026.0 , 2033.0 , 8.126 , 0.0 , 0.0 , 0.0 , 0.0 , 

81.0 , 4135.8974359 , 4136.41025641 , 4146.15384615 , 4135.38461538 , 4134.35897436 , 4134.35897436 , 4134.35897436 , 4135.38461538 , 4141.02564103 , 4143.58974359 , 4140.51282051 , 4088.20512821 , 4133.84615385 , 4133.33333333 , 2027.0 , 2034.0 , 8.134 , 0.0 , 0.0 , 0.0 , 0.0 , 

82.0 , 4135.8974359 , 4131.79487179 , 4176.92307692 , 4134.87179487 , 4134.35897436 , 4134.35897436 , 4134.35897436 , 4142.05128205 , 4144.61538462 , 4147.17948718 , 4140.0 , 4092.30769231 , 4137.43589744 , 4135.8974359 , 2027.0 , 2034.0 , 8.141 , 0.0 , 0.0 , 0.0 , 0.0 , 

83.0 , 4135.8974359 , 4133.33333333 , 4191.79487179 , 4134.35897436 , 4134.35897436 , 4134.87179487 , 4134.35897436 , 4141.53846154 , 4144.1025641 , 4148.71794872 , 4141.53846154 , 4093.33333333 , 4136.92307692 , 4134.35897436 , 2027.0 , 2034.0 , 8.149 , 0.0 , 0.0 , 0.0 , 0.0 , 

84.0 , 4135.8974359 , 4134.87179487 , 4190.25641026 , 4132.30769231 , 4134.35897436 , 4134.35897436 , 4134.35897436 , 4138.97435897 , 4141.53846154 , 4147.17948718 , 4144.61538462 , 4092.30769231 , 4134.35897436 , 4132.30769231 , 2028.0 , 2037.0 , 8.157 , 0.0 , 0.0 , 0.0 , 0.0 , 

85.0 , 4135.8974359 , 4131.28205128 , 4205.64102564 , 4132.30769231 , 4134.35897436 , 4134.35897436 , 4134.35897436 , 4144.1025641 , 4142.56410256 , 4148.71794872 , 4144.61538462 , 4096.41025641 , 4135.8974359 , 4137.94871795 , 2028.0 , 2037.0 , 8.164 , 0.0 , 0.0 , 0.0 , 0.0 , 

86.0 , 4135.8974359 , 4127.69230769 , 4215.8974359 , 4134.87179487 , 4134.35897436 , 4134.87179487 , 4134.35897436 , 4143.07692308 , 4144.61538462 , 4149.74358974 , 4141.02564103 , 4098.97435897 , 4135.8974359 , 4140.0 , 2027.0 , 2038.0 , 8.173 , 0.0 , 0.0 , 0.0 , 0.0 , 

87.0 , 4135.8974359 , 4130.25641026 , 4207.69230769 , 4135.38461538 , 4134.35897436 , 4134.35897436 , 4133.84615385 , 4136.92307692 , 4142.56410256 , 4148.20512821 , 4141.02564103 , 4096.92307692 , 4136.41025641 , 4135.8974359 , 2027.0 , 2037.0 , 8.179 , 0.0 , 0.0 , 0.0 , 0.0 , 

88.0 , 4135.8974359 , 4134.35897436 , 4197.43589744 , 4135.8974359 , 4134.35897436 , 4133.33333333 , 4134.35897436 , 4137.43589744 , 4141.53846154 , 4144.1025641 , 4141.53846154 , 4094.35897436 , 4136.41025641 , 4133.33333333 , 2025.0 , 2035.0 , 8.187 , 0.0 , 0.0 , 0.0 , 0.0 , 

89.0 , 4135.8974359 , 4134.35897436 , 4200.51282051 , 4134.87179487 , 4134.35897436 , 4132.82051282 , 4135.38461538 , 4138.46153846 , 4143.07692308 , 4143.07692308 , 4141.53846154 , 4096.41025641 , 4134.35897436 , 4133.33333333 , 2025.0 , 2035.0 , 8.196 , 0.0 , 0.0 , 0.0 , 0.0 , 

90.0 , 4135.8974359 , 4133.33333333 , 4225.64102564 , 4131.28205128 , 4134.35897436 , 4133.33333333 , 4135.38461538 , 4136.41025641 , 4142.05128205 , 4149.23076923 , 4141.53846154 , 4102.05128205 , 4135.38461538 , 4133.84615385 , 2024.0 , 2035.0 , 8.204 , 0.0 , 0.0 , 0.0 , 0.0 , 

91.0 , 4135.8974359 , 4132.30769231 , 4252.82051282 , 4131.79487179 , 4134.35897436 , 4133.33333333 , 4134.35897436 , 4141.02564103 , 4141.53846154 , 4152.30769231 , 4144.1025641 , 4105.64102564 , 4136.41025641 , 4134.87179487 , 2026.0 , 2035.0 , 8.212 , 0.0 , 0.0 , 0.0 , 0.0 , 

92.0 , 4135.8974359 , 4134.87179487 , 4254.35897436 , 4136.41025641 , 4134.35897436 , 4133.33333333 , 4134.35897436 , 4142.56410256 , 4142.05128205 , 4146.66666667 , 4144.1025641 , 4103.58974359 , 4132.30769231 , 4134.35897436 , 2025.0 , 2036.0 , 8.22 , 0.0 , 0.0 , 0.0 , 0.0 , 

93.0 , 4135.8974359 , 4135.8974359 , 4240.0 , 4135.8974359 , 4134.35897436 , 4132.82051282 , 4134.35897436 , 4134.87179487 , 4141.02564103 , 4144.61538462 , 4142.56410256 , 4103.07692308 , 4131.28205128 , 4133.33333333 , 2025.0 , 2039.0 , 8.227 , 0.0 , 0.0 , 0.0 , 0.0 , 

94.0 , 4135.8974359 , 4133.84615385 , 4233.84615385 , 4133.33333333 , 4134.35897436 , 4133.33333333 , 4134.35897436 , 4133.33333333 , 4136.92307692 , 4146.15384615 , 4141.53846154 , 4108.20512821 , 4132.82051282 , 4132.30769231 , 2025.0 , 2040.0 , 8.235 , 0.0 , 0.0 , 0.0 , 0.0 , 

95.0 , 4135.8974359 , 4132.30769231 , 4220.51282051 , 4132.82051282 , 4134.35897436 , 4134.35897436 , 4134.35897436 , 4134.87179487 , 4134.87179487 , 4144.61538462 , 4141.53846154 , 4107.17948718 , 4129.74358974 , 4129.74358974 , 2026.0 , 2040.0 , 8.243 , 0.0 , 0.0 , 0.0 , 0.0 , 

96.0 , 4135.8974359 , 4134.87179487 , 4208.71794872 , 4132.30769231 , 4134.35897436 , 4135.38461538 , 4134.35897436 , 4134.35897436 , 4136.92307692 , 4143.58974359 , 4140.0 , 4103.58974359 , 4129.23076923 , 4132.82051282 , 2026.0 , 2041.0 , 8.251 , 0.0 , 0.0 , 0.0 , 0.0 , 

97.0 , 4135.8974359 , 4133.84615385 , 4208.20512821 , 4132.30769231 , 4134.35897436 , 4135.38461538 , 4134.35897436 , 4136.41025641 , 4136.41025641 , 4144.1025641 , 4138.97435897 , 4104.61538462 , 4133.84615385 , 4137.94871795 , 2027.0 , 2042.0 , 8.258 , 0.0 , 0.0 , 0.0 , 0.0 , 

98.0 , 4136.41025641 , 4132.30769231 , 4210.25641026 , 4134.35897436 , 4134.35897436 , 4135.38461538 , 4133.84615385 , 4137.43589744 , 4133.84615385 , 4143.58974359 , 4139.48717949 , 4106.66666667 , 4133.33333333 , 4134.35897436 , 2025.0 , 2042.0 , 8.267 , 0.0 , 0.0 , 0.0 , 0.0 , 

99.0 , 4136.41025641 , 4134.35897436 , 4204.1025641 , 4134.87179487 , 4134.35897436 , 4134.87179487 , 4134.35897436 , 4133.33333333 , 4135.8974359 , 4143.07692308 , 4138.46153846 , 4107.69230769 , 4128.20512821 , 4130.25641026 , 2025.0 , 2041.0 , 8.274 , 0.0 , 0.0 , 0.0 , 0.0 , 

100.0 , 4135.8974359 , 4131.79487179 , 4205.12820513 , 4134.35897436 , 4134.35897436 , 4134.35897436 , 4135.38461538 , 4133.33333333 , 4141.53846154 , 4144.1025641 , 4137.43589744 , 4109.23076923 , 4128.20512821 , 4131.28205128 , 2022.0 , 2041.0 , 8.283 , 0.0 , 0.0 , 0.0 , 0.0 , 

101.0 , 4136.41025641 , 4128.20512821 , 4211.79487179 , 4134.87179487 , 4134.35897436 , 4134.35897436 , 4134.35897436 , 4136.92307692 , 4143.07692308 , 4145.64102564 , 4137.43589744 , 4110.76923077 , 4131.28205128 , 4132.82051282 , 2018.0 , 2040.0 , 8.291 , 0.0 , 0.0 , 0.0 , 0.0 , 

102.0 , 4136.92307692 , 4129.23076923 , 4223.58974359 , 4132.30769231 , 4134.35897436 , 4134.35897436 , 4133.84615385 , 4137.94871795 , 4138.97435897 , 4146.15384615 , 4140.0 , 4113.84615385 , 4131.28205128 , 4134.35897436 , 2018.0 , 2042.0 , 8.297 , 0.0 , 0.0 , 0.0 , 0.0 , 

103.0 , 4132.30769231 , 4134.87179487 , 4228.71794872 , 4128.71794872 , 4134.35897436 , 4134.35897436 , 4135.38461538 , 4135.38461538 , 4135.8974359 , 4144.61538462 , 4142.05128205 , 4113.33333333 , 4130.25641026 , 4133.33333333 , 2018.0 , 2040.0 , 8.305 , 0.0 , 0.0 , 0.0 , 0.0 , 

104.0 , 4128.20512821 , 4135.8974359 , 4242.05128205 , 4132.82051282 , 4134.35897436 , 4134.35897436 , 4135.38461538 , 4134.35897436 , 4139.48717949 , 4145.12820513 , 4144.1025641 , 4115.8974359 , 4134.35897436 , 4133.84615385 , 2018.0 , 2038.0 , 8.314 , 0.0 , 0.0 , 0.0 , 0.0 , 

105.0 , 4129.23076923 , 4131.28205128 , 4256.41025641 , 4136.92307692 , 4134.35897436 , 4134.35897436 , 4133.84615385 , 4136.41025641 , 4142.56410256 , 4145.12820513 , 4141.53846154 , 4120.51282051 , 4134.87179487 , 4136.41025641 , 2018.0 , 2038.0 , 8.322 , 0.0 , 0.0 , 0.0 , 0.0 , 

106.0 , 4129.74358974 , 4132.30769231 , 4261.02564103 , 4134.87179487 , 4134.35897436 , 4134.35897436 , 4134.35897436 , 4138.97435897 , 4141.53846154 , 4144.61538462 , 4140.51282051 , 4119.48717949 , 4131.28205128 , 4137.43589744 , 2017.0 , 2038.0 , 8.33 , 0.0 , 0.0 , 0.0 , 0.0 , 

107.0 , 4130.25641026 , 4137.43589744 , 4263.07692308 , 4134.35897436 , 4134.35897436 , 4134.35897436 , 4134.35897436 , 4138.46153846 , 4141.53846154 , 4145.64102564 , 4142.56410256 , 4118.46153846 , 4133.33333333 , 4134.87179487 , 2017.0 , 2036.0 , 8.338 , 0.0 , 0.0 , 0.0 , 0.0 , 

108.0 , 4133.33333333 , 4135.38461538 , 4271.79487179 , 4135.38461538 , 4134.35897436 , 4134.35897436 , 4134.35897436 , 4137.94871795 , 4144.1025641 , 4146.66666667 , 4142.05128205 , 4125.64102564 , 4138.46153846 , 4132.82051282 , 2018.0 , 2034.0 , 8.346 , 0.0 , 0.0 , 0.0 , 0.0 , 

109.0 , 4136.92307692 , 4131.28205128 , 4273.84615385 , 4134.35897436 , 4134.35897436 , 4134.35897436 , 4134.35897436 , 4137.94871795 , 4141.53846154 , 4145.12820513 , 4141.02564103 , 4127.17948718 , 4136.41025641 , 4132.30769231 , 2020.0 , 2032.0 , 8.354 , 0.0 , 0.0 , 0.0 , 0.0 , 

110.0 , 4137.94871795 , 4134.87179487 , 4275.38461538 , 4133.84615385 , 4134.35897436 , 4134.35897436 , 4134.35897436 , 4138.97435897 , 4138.97435897 , 4144.1025641 , 4141.02564103 , 4126.15384615 , 4134.35897436 , 4133.33333333 , 2022.0 , 2031.0 , 8.361 , 0.0 , 0.0 , 0.0 , 0.0 , 

111.0 , 4134.35897436 , 4131.28205128 , 4280.0 , 4134.35897436 , 4134.35897436 , 4134.35897436 , 4134.35897436 , 4140.51282051 , 4140.0 , 4144.61538462 , 4141.02564103 , 4133.33333333 , 4135.8974359 , 4135.8974359 , 2023.0 , 2032.0 , 8.369 , 0.0 , 0.0 , 0.0 , 0.0 , 

112.0 , 4128.20512821 , 4125.64102564 , 4274.87179487 , 4134.35897436 , 4134.35897436 , 4134.35897436 , 4134.35897436 , 4137.43589744 , 4140.51282051 , 4144.61538462 , 4141.53846154 , 4136.41025641 , 4133.84615385 , 4134.35897436 , 2023.0 , 2031.0 , 8.377 , 0.0 , 0.0 , 0.0 , 0.0 , 

113.0 , 4128.20512821 , 4131.28205128 , 4269.74358974 , 4134.35897436 , 4134.35897436 , 4134.35897436 , 4134.35897436 , 4131.79487179 , 4138.97435897 , 4144.1025641 , 4138.97435897 , 4134.35897436 , 4131.79487179 , 4131.79487179 , 2022.0 , 2030.0 , 8.385 , 0.0 , 0.0 , 0.0 , 0.0 , 

114.0 , 4132.82051282 , 4134.87179487 , 4264.61538462 , 4134.35897436 , 4134.35897436 , 4134.35897436 , 4134.35897436 , 4134.35897436 , 4137.43589744 , 4143.58974359 , 4136.92307692 , 4136.41025641 , 4131.28205128 , 4133.33333333 , 2023.0 , 2031.0 , 8.393 , 0.0 , 0.0 , 0.0 , 0.0 , 

115.0 , 4134.87179487 , 4131.28205128 , 4261.53846154 , 4134.35897436 , 4134.35897436 , 4134.35897436 , 4134.35897436 , 4138.97435897 , 4137.43589744 , 4143.58974359 , 4140.51282051 , 4138.46153846 , 4129.74358974 , 4132.82051282 , 2023.0 , 2032.0 , 8.401 , 0.0 , 0.0 , 0.0 , 0.0 , 

116.0 , 4134.87179487 , 4131.79487179 , 4258.97435897 , 4134.35897436 , 4134.35897436 , 4134.35897436 , 4134.35897436 , 4133.84615385 , 4137.94871795 , 4142.56410256 , 4141.53846154 , 4139.48717949 , 4128.71794872 , 4131.28205128 , 2024.0 , 2031.0 , 8.409 , 0.0 , 0.0 , 0.0 , 0.0 , 

117.0 , 4136.41025641 , 4133.84615385 , 4261.53846154 , 4134.35897436 , 4134.35897436 , 4134.35897436 , 4134.35897436 , 4133.33333333 , 4137.43589744 , 4143.07692308 , 4141.02564103 , 4142.05128205 , 4130.76923077 , 4133.84615385 , 2025.0 , 2031.0 , 8.417 , 0.0 , 0.0 , 0.0 , 0.0 , 

118.0 , 4135.38461538 , 4134.35897436 , 4265.12820513 , 4134.35897436 , 4134.35897436 , 4134.35897436 , 4134.35897436 , 4137.43589744 , 4136.41025641 , 4144.61538462 , 4142.56410256 , 4144.61538462 , 4132.30769231 , 4134.35897436 , 2026.0 , 2034.0 , 8.425 , 0.0 , 0.0 , 0.0 , 0.0 , 

119.0 , 4131.28205128 , 4135.38461538 , 4274.35897436 , 4134.35897436 , 4134.35897436 , 4134.35897436 , 4134.35897436 , 4136.41025641 , 4138.97435897 , 4147.17948718 , 4143.58974359 , 4148.20512821 , 4131.79487179 , 4132.30769231 , 2026.0 , 2036.0 , 8.432 , 0.0 , 0.0 , 0.0 , 0.0 , 

120.0 , 4132.30769231 , 4134.35897436 , 4277.94871795 , 4134.35897436 , 4134.35897436 , 4134.35897436 , 4134.35897436 , 4134.35897436 , 4141.53846154 , 4147.17948718 , 4141.53846154 , 4148.71794872 , 4130.76923077 , 4131.79487179 , 2025.0 , 2037.0 , 8.439 , 0.0 , 0.0 , 0.0 , 0.0 , 

121.0 , 4136.41025641 , 4132.82051282 , 4274.35897436 , 4134.35897436 , 4134.35897436 , 4134.35897436 , 4133.84615385 , 4136.92307692 , 4141.02564103 , 4145.64102564 , 4141.53846154 , 4151.28205128 , 4130.25641026 , 4133.33333333 , 2027.0 , 2039.0 , 8.447 , 0.0 , 0.0 , 0.0 , 0.0 , 

122.0 , 4136.41025641 , 4133.33333333 , 4264.61538462 , 4134.35897436 , 4134.35897436 , 4134.35897436 , 4133.84615385 , 4135.38461538 , 4138.46153846 , 4143.07692308 , 4140.51282051 , 4154.87179487 , 4129.23076923 , 4132.82051282 , 2027.0 , 2040.0 , 8.456 , 0.0 , 0.0 , 0.0 , 0.0 , 

123.0 , 4134.35897436 , 4132.82051282 , 4249.74358974 , 4133.84615385 , 4134.35897436 , 4134.35897436 , 4135.38461538 , 4131.28205128 , 4136.92307692 , 4141.02564103 , 4135.38461538 , 4156.41025641 , 4129.23076923 , 4132.30769231 , 2026.0 , 2039.0 , 8.464 , 0.0 , 0.0 , 0.0 , 0.0 , 

124.0 , 4135.8974359 , 4132.30769231 , 4227.17948718 , 4134.35897436 , 4134.35897436 , 4134.35897436 , 4134.35897436 , 4128.71794872 , 4136.41025641 , 4140.51282051 , 4133.33333333 , 4152.30769231 , 4128.71794872 , 4131.79487179 , 2028.0 , 2040.0 , 8.472 , 0.0 , 0.0 , 0.0 , 0.0 , 

125.0 , 4136.92307692 , 4132.82051282 , 4213.84615385 , 4135.38461538 , 4134.35897436 , 4134.35897436 , 4132.82051282 , 4131.28205128 , 4135.38461538 , 4141.53846154 , 4137.94871795 , 4153.33333333 , 4128.71794872 , 4130.76923077 , 2028.0 , 2041.0 , 8.48 , 0.0 , 0.0 , 0.0 , 0.0 , 

126.0 , 4134.87179487 , 4133.84615385 , 4216.41025641 , 4134.35897436 , 4134.35897436 , 4134.35897436 , 4134.87179487 , 4133.33333333 , 4134.35897436 , 4142.56410256 , 4138.46153846 , 4158.46153846 , 4127.69230769 , 4131.28205128 , 2028.0 , 2039.0 , 8.488 , 0.0 , 0.0 , 0.0 , 0.0 , 

127.0 , 4135.38461538 , 4133.84615385 , 4229.74358974 , 4134.87179487 , 4134.35897436 , 4134.35897436 , 4135.8974359 , 4133.84615385 , 4137.43589744 , 4143.07692308 , 4136.41025641 , 4162.05128205 , 4127.69230769 , 4134.87179487 , 2028.0 , 2039.0 , 8.495 , 0.0 , 0.0 , 0.0 , 0.0 , 

128.0 , 4135.38461538 , 4133.33333333 , 4249.23076923 , 4135.8974359 , 4134.35897436 , 4134.35897436 , 4134.35897436 , 4135.38461538 , 4140.51282051 , 4143.58974359 , 4137.94871795 , 4165.12820513 , 4129.74358974 , 4135.38461538 , 2028.0 , 2036.0 , 8.503 , 0.0 , 0.0 , 0.0 , 0.0 , 

0.0 , 4134.35897436 , 4134.35897436 , 4268.20512821 , 4136.41025641 , 4134.35897436 , 4134.35897436 , 4133.84615385 , 4138.97435897 , 4138.46153846 , 4144.1025641 , 4142.56410256 , 4167.17948718 , 4131.79487179 , 4134.87179487 , 2028.0 , 2035.0 , 8.511 , 0.0 , 0.0 , 0.0 , 0.0 , 

1.0 , 4134.35897436 , 4135.38461538 , 4280.0 , 4136.41025641 , 4134.35897436 , 4134.35897436 , 4134.35897436 , 4139.48717949 , 4139.48717949 , 4144.61538462 , 4144.1025641 , 4168.20512821 , 4132.30769231 , 4136.41025641 , 2028.0 , 2036.0 , 8.523 , 0.0 , 0.0 , 0.0 , 0.0 , 

2.0 , 4136.41025641 , 4135.38461538 , 4286.66666667 , 4135.38461538 , 4134.35897436 , 4134.35897436 , 4134.35897436 , 4140.0 , 4144.1025641 , 4145.64102564 , 4143.07692308 , 4172.82051282 , 4133.33333333 , 4134.35897436 , 2028.0 , 2036.0 , 8.526 , 0.0 , 0.0 , 0.0 , 0.0 , 

3.0 , 4136.92307692 , 4134.87179487 , 4296.92307692 , 4134.87179487 , 4134.35897436 , 4134.35897436 , 4134.35897436 , 4141.53846154 , 4143.07692308 , 4145.64102564 , 4141.53846154 , 4178.46153846 , 4135.38461538 , 4132.30769231 , 2026.0 , 2041.0 , 8.535 , 0.0 , 0.0 , 0.0 , 0.0 , 

4.0 , 4135.8974359 , 4134.35897436 , 4302.56410256 , 4135.38461538 , 4134.35897436 , 4134.35897436 , 4134.35897436 , 4137.94871795 , 4138.97435897 , 4144.61538462 , 4139.48717949 , 4180.0 , 4135.38461538 , 4133.33333333 , 2027.0 , 2042.0 , 8.543 , 0.0 , 0.0 , 0.0 , 0.0 , 

5.0 , 4135.8974359 , 4135.8974359 , 4307.17948718 , 4136.41025641 , 4134.35897436 , 4134.35897436 , 4134.35897436 , 4137.94871795 , 4140.0 , 4146.66666667 , 4141.53846154 , 4180.51282051 , 4134.35897436 , 4134.35897436 , 2028.0 , 2043.0 , 8.551 , 0.0 , 0.0 , 0.0 , 0.0 , 

6.0 , 4135.38461538 , 4134.35897436 , 4302.05128205 , 4136.41025641 , 4134.35897436 , 4134.35897436 , 4134.35897436 , 4141.02564103 , 4143.58974359 , 4145.12820513 , 4143.07692308 , 4183.58974359 , 4132.30769231 , 4133.33333333 , 2027.0 , 2043.0 , 8.557 , 0.0 , 0.0 , 0.0 , 0.0 , 

7.0 , 4135.38461538 , 4133.33333333 , 4288.71794872 , 4136.41025641 , 4134.35897436 , 4134.35897436 , 4134.35897436 , 4136.92307692 , 4144.1025641 , 4141.02564103 , 4143.58974359 , 4186.15384615 , 4130.25641026 , 4133.84615385 , 2026.0 , 2042.0 , 8.565 , 0.0 , 0.0 , 0.0 , 0.0 , 

8.0 , 4134.35897436 , 4134.87179487 , 4279.48717949 , 4134.87179487 , 4134.35897436 , 4134.35897436 , 4134.35897436 , 4131.79487179 , 4138.46153846 , 4140.0 , 4141.53846154 , 4188.20512821 , 4129.74358974 , 4133.84615385 , 2028.0 , 2041.0 , 8.573 , 0.0 , 0.0 , 0.0 , 0.0 , 

9.0 , 4134.35897436 , 4133.84615385 , 4285.64102564 , 4134.35897436 , 4134.35897436 , 4134.35897436 , 4134.35897436 , 4133.84615385 , 4137.94871795 , 4142.56410256 , 4140.0 , 4190.25641026 , 4129.74358974 , 4133.33333333 , 2027.0 , 2040.0 , 8.582 , 0.0 , 0.0 , 0.0 , 0.0 , 

10.0 , 4136.41025641 , 4132.30769231 , 4286.66666667 , 4134.35897436 , 4134.35897436 , 4134.35897436 , 4134.35897436 , 4136.92307692 , 4142.05128205 , 4144.61538462 , 4141.53846154 , 4190.76923077 , 4128.71794872 , 4133.84615385 , 2027.0 , 2038.0 , 8.589 , 0.0 , 0.0 , 0.0 , 0.0 , 

11.0 , 4134.35897436 , 4127.17948718 , 4281.02564103 , 4134.35897436 , 4134.35897436 , 4134.35897436 , 4134.35897436 , 4136.41025641 , 4141.53846154 , 4145.64102564 , 4142.56410256 , 4196.92307692 , 4128.71794872 , 4135.38461538 , 2026.0 , 2039.0 , 8.598 , 0.0 , 0.0 , 0.0 , 0.0 , 

12.0 , 4131.79487179 , 4123.07692308 , 4270.25641026 , 4134.35897436 , 4134.35897436 , 4134.35897436 , 4134.35897436 , 4131.79487179 , 4135.38461538 , 4142.56410256 , 4138.46153846 , 4200.0 , 4130.76923077 , 4133.84615385 , 2026.0 , 2040.0 , 8.605 , 0.0 , 0.0 , 0.0 , 0.0 , 

13.0 , 4134.87179487 , 4128.20512821 , 4265.64102564 , 4134.35897436 , 4134.35897436 , 4134.35897436 , 4134.35897436 , 4128.71794872 , 4133.33333333 , 4142.05128205 , 4135.38461538 , 4198.97435897 , 4130.25641026 , 4131.28205128 , 2030.0 , 2040.0 , 8.615 , 0.0 , 0.0 , 0.0 , 0.0 , 

14.0 , 4136.41025641 , 4138.97435897 , 4264.61538462 , 4133.84615385 , 4134.35897436 , 4134.35897436 , 4134.35897436 , 4130.76923077 , 4134.35897436 , 4144.1025641 , 4136.41025641 , 4200.51282051 , 4127.69230769 , 4130.76923077 , 2031.0 , 2040.0 , 8.622 , 0.0 , 0.0 , 0.0 , 0.0 , 

15.0 , 4134.87179487 , 4135.8974359 , 4256.92307692 , 4134.87179487 , 4134.35897436 , 4134.35897436 , 4134.35897436 , 4133.33333333 , 4133.84615385 , 4138.46153846 , 4137.94871795 , 4203.58974359 , 4128.71794872 , 4131.28205128 , 2034.0 , 2041.0 , 8.629 , 0.0 , 0.0 , 0.0 , 0.0 , 

16.0 , 4135.38461538 , 4124.61538462 , 4232.82051282 , 4136.92307692 , 4134.35897436 , 4134.35897436 , 4134.35897436 , 4127.69230769 , 4133.84615385 , 4133.33333333 , 4135.38461538 , 4203.07692308 , 4128.71794872 , 4130.76923077 , 2036.0 , 2042.0 , 8.637 , 0.0 , 0.0 , 0.0 , 0.0 , 

17.0 , 4136.41025641 , 4128.71794872 , 4201.53846154 , 4137.43589744 , 4134.35897436 , 4134.35897436 , 4134.35897436 , 4124.1025641 , 4133.84615385 , 4134.35897436 , 4135.38461538 , 4205.12820513 , 4125.12820513 , 4130.76923077 , 2037.0 , 2042.0 , 8.645 , 0.0 , 0.0 , 0.0 , 0.0 , 

18.0 , 4134.35897436 , 4137.43589744 , 4176.41025641 , 4136.92307692 , 4134.35897436 , 4134.35897436 , 4134.35897436 , 4126.66666667 , 4131.79487179 , 4133.33333333 , 4135.8974359 , 4206.15384615 , 4122.05128205 , 4128.71794872 , 2039.0 , 2043.0 , 8.653 , 0.0 , 0.0 , 0.0 , 0.0 , 

19.0 , 4134.35897436 , 4134.87179487 , 4152.82051282 , 4136.92307692 , 4134.35897436 , 4134.35897436 , 4134.35897436 , 4127.17948718 , 4129.74358974 , 4130.25641026 , 4133.33333333 , 4205.12820513 , 4120.51282051 , 4126.66666667 , 2042.0 , 2045.0 , 8.661 , 0.0 , 0.0 , 0.0 , 0.0 , 

20.0 , 4136.92307692 , 4133.33333333 , 4133.84615385 , 4137.43589744 , 4134.35897436 , 4134.35897436 , 4134.35897436 , 4123.07692308 , 4129.23076923 , 4130.76923077 , 4131.28205128 , 4204.1025641 , 4118.46153846 , 4128.20512821 , 2041.0 , 2045.0 , 8.669 , 0.0 , 0.0 , 0.0 , 0.0 , 

21.0 , 4135.38461538 , 4137.43589744 , 4120.0 , 4136.92307692 , 4134.35897436 , 4134.35897436 , 4134.35897436 , 4123.07692308 , 4129.23076923 , 4129.23076923 , 4131.79487179 , 4205.64102564 , 4120.0 , 4128.71794872 , 2043.0 , 2044.0 , 8.677 , 0.0 , 0.0 , 0.0 , 0.0 , 

22.0 , 4132.82051282 , 4132.82051282 , 4118.46153846 , 4137.43589744 , 4134.35897436 , 4134.35897436 , 4134.35897436 , 4127.17948718 , 4130.25641026 , 4130.25641026 , 4133.33333333 , 4206.66666667 , 4125.12820513 , 4128.20512821 , 2042.0 , 2044.0 , 8.684 , 0.0 , 0.0 , 0.0 , 0.0 , 

23.0 , 4133.33333333 , 4125.64102564 , 4127.17948718 , 4137.43589744 , 4134.35897436 , 4134.35897436 , 4134.35897436 , 4129.23076923 , 4132.30769231 , 4136.92307692 , 4136.41025641 , 4207.69230769 , 4129.23076923 , 4129.74358974 , 2041.0 , 2045.0 , 8.692 , 0.0 , 0.0 , 0.0 , 0.0 , 

24.0 , 4132.82051282 , 4133.33333333 , 4154.87179487 , 4135.8974359 , 4134.35897436 , 4134.35897436 , 4134.35897436 , 4132.30769231 , 4132.30769231 , 4141.02564103 , 4140.0 , 4212.82051282 , 4132.30769231 , 4131.79487179 , 2041.0 , 2043.0 , 8.699 , 0.0 , 0.0 , 0.0 , 0.0 , 

25.0 , 4132.30769231 , 4140.0 , 4186.66666667 , 4135.38461538 , 4134.35897436 , 4134.35897436 , 4134.35897436 , 4135.38461538 , 4136.92307692 , 4141.02564103 , 4138.46153846 , 4218.46153846 , 4132.82051282 , 4133.33333333 , 2041.0 , 2042.0 , 8.708 , 0.0 , 0.0 , 0.0 , 0.0 , 

26.0 , 4134.87179487 , 4133.33333333 , 4207.17948718 , 4136.41025641 , 4134.35897436 , 4133.84615385 , 4134.35897436 , 4134.87179487 , 4143.58974359 , 4143.58974359 , 4138.46153846 , 4218.46153846 , 4131.28205128 , 4133.33333333 , 2039.0 , 2045.0 , 8.715 , 0.0 , 0.0 , 0.0 , 0.0 , 

27.0 , 4136.41025641 , 4129.74358974 , 4217.43589744 , 4134.87179487 , 4134.35897436 , 4134.87179487 , 4134.35897436 , 4135.8974359 , 4142.56410256 , 4146.15384615 , 4141.53846154 , 4217.43589744 , 4131.28205128 , 4131.28205128 , 2038.0 , 2044.0 , 8.724 , 0.0 , 0.0 , 0.0 , 0.0 , 

28.0 , 4134.87179487 , 4132.82051282 , 4235.38461538 , 4133.84615385 , 4134.35897436 , 4133.84615385 , 4134.35897436 , 4141.53846154 , 4141.02564103 , 4148.71794872 , 4144.1025641 , 4222.05128205 , 4133.84615385 , 4132.82051282 , 2039.0 , 2045.0 , 8.732 , 0.0 , 0.0 , 0.0 , 0.0 , 

29.0 , 4134.87179487 , 4132.82051282 , 4248.20512821 , 4135.38461538 , 4134.35897436 , 4130.25641026 , 4134.35897436 , 4143.07692308 , 4144.1025641 , 4150.76923077 , 4144.61538462 , 4225.64102564 , 4132.82051282 , 4137.43589744 , 2037.0 , 2044.0 , 8.74 , 0.0 , 0.0 , 0.0 , 0.0 , 

30.0 , 4135.8974359 , 4132.82051282 , 4255.38461538 , 4135.8974359 , 4134.35897436 , 4129.74358974 , 4134.35897436 , 4140.51282051 , 4141.53846154 , 4148.71794872 , 4145.12820513 , 4225.64102564 , 4133.33333333 , 4138.46153846 , 2038.0 , 2044.0 , 8.748 , 0.0 , 0.0 , 0.0 , 0.0 , 

31.0 , 4134.35897436 , 4134.87179487 , 4261.02564103 , 4134.87179487 , 4134.35897436 , 4130.76923077 , 4134.35897436 , 4140.0 , 4136.92307692 , 4144.61538462 , 4144.1025641 , 4225.12820513 , 4138.46153846 , 4133.33333333 , 2037.0 , 2043.0 , 8.756 , 0.0 , 0.0 , 0.0 , 0.0 , 

32.0 , 4134.87179487 , 4135.8974359 , 4269.23076923 , 4135.8974359 , 4134.35897436 , 4130.76923077 , 4134.35897436 , 4142.56410256 , 4139.48717949 , 4146.15384615 , 4143.58974359 , 4229.23076923 , 4137.43589744 , 4133.33333333 , 2037.0 , 2044.0 , 8.763 , 0.0 , 0.0 , 0.0 , 0.0 , 

33.0 , 4135.38461538 , 4134.35897436 , 4276.41025641 , 4135.8974359 , 4134.35897436 , 4130.25641026 , 4134.35897436 , 4141.53846154 , 4142.05128205 , 4147.17948718 , 4142.05128205 , 4234.87179487 , 4132.82051282 , 4134.87179487 , 2038.0 , 2044.0 , 8.771 , 0.0 , 0.0 , 0.0 , 0.0 , 

34.0 , 4135.8974359 , 4132.82051282 , 4278.46153846 , 4135.38461538 , 4134.35897436 , 4130.76923077 , 4134.35897436 , 4135.38461538 , 4143.07692308 , 4143.58974359 , 4141.53846154 , 4234.87179487 , 4132.82051282 , 4134.35897436 , 2039.0 , 2042.0 , 8.778 , 0.0 , 0.0 , 0.0 , 0.0 , 

35.0 , 4135.38461538 , 4135.8974359 , 4272.82051282 , 4135.8974359 , 4134.35897436 , 4130.76923077 , 4134.87179487 , 4135.8974359 , 4141.53846154 , 4143.07692308 , 4142.56410256 , 4232.82051282 , 4134.35897436 , 4132.82051282 , 2041.0 , 2041.0 , 8.787 , 0.0 , 0.0 , 0.0 , 0.0 , 

36.0 , 4134.35897436 , 4134.35897436 , 4275.38461538 , 4136.41025641 , 4134.35897436 , 4130.76923077 , 4133.84615385 , 4139.48717949 , 4140.0 , 4146.66666667 , 4142.56410256 , 4235.8974359 , 4131.28205128 , 4132.82051282 , 2039.0 , 2035.0 , 8.795 , 0.0 , 0.0 , 0.0 , 0.0 , 

37.0 , 4135.8974359 , 4127.69230769 , 4289.74358974 , 4135.38461538 , 4134.35897436 , 4130.25641026 , 4133.84615385 , 4137.43589744 , 4142.05128205 , 4148.20512821 , 4143.58974359 , 4242.05128205 , 4131.79487179 , 4132.82051282 , 2039.0 , 2034.0 , 8.803 , 0.0 , 0.0 , 0.0 , 0.0 , 

38.0 , 4135.8974359 , 4129.23076923 , 4307.17948718 , 4134.35897436 , 4134.35897436 , 4130.25641026 , 4136.41025641 , 4141.53846154 , 4142.05128205 , 4147.17948718 , 4144.1025641 , 4246.15384615 , 4138.97435897 , 4132.82051282 , 2039.0 , 2035.0 , 8.81 , 0.0 , 0.0 , 0.0 , 0.0 , 

39.0 , 4134.87179487 , 4135.38461538 , 4331.28205128 , 4134.87179487 , 4134.35897436 , 4131.28205128 , 4130.76923077 , 4148.20512821 , 4140.51282051 , 4146.15384615 , 4142.56410256 , 4247.69230769 , 4141.02564103 , 4133.33333333 , 2038.0 , 2037.0 , 8.818 , 0.0 , 0.0 , 0.0 , 0.0 , 

40.0 , 4135.8974359 , 4132.82051282 , 4343.58974359 , 4135.8974359 , 4134.35897436 , 4129.74358974 , 4123.58974359 , 4143.58974359 , 4142.56410256 , 4146.66666667 , 4141.53846154 , 4251.79487179 , 4134.87179487 , 4134.35897436 , 2039.0 , 2044.0 , 8.825 , 0.0 , 0.0 , 0.0 , 0.0 , 

41.0 , 4136.41025641 , 4132.82051282 , 4336.92307692 , 4135.8974359 , 4134.35897436 , 4130.25641026 , 4131.28205128 , 4136.92307692 , 4140.0 , 4147.69230769 , 4142.56410256 , 4256.41025641 , 4129.74358974 , 4136.41025641 , 2038.0 , 2046.0 , 8.833 , 0.0 , 0.0 , 0.0 , 0.0 , 

42.0 , 4133.33333333 , 4137.43589744 , 4317.94871795 , 4135.8974359 , 4134.35897436 , 4135.38461538 , 4138.97435897 , 4136.92307692 , 4134.87179487 , 4143.58974359 , 4141.53846154 , 4256.41025641 , 4130.76923077 , 4135.38461538 , 2038.0 , 2049.0 , 8.841 , 0.0 , 0.0 , 0.0 , 0.0 , 

43.0 , 4132.30769231 , 4133.33333333 , 4300.51282051 , 4136.41025641 , 4134.35897436 , 4136.41025641 , 4133.33333333 , 4133.84615385 , 4137.43589744 , 4141.02564103 , 4140.0 , 4256.92307692 , 4130.25641026 , 4133.33333333 , 2037.0 , 2050.0 , 8.849 , 0.0 , 0.0 , 0.0 , 0.0 , 

44.0 , 4134.87179487 , 4131.28205128 , 4277.43589744 , 4135.38461538 , 4134.35897436 , 4133.84615385 , 4131.28205128 , 4129.74358974 , 4136.92307692 , 4142.05128205 , 4141.02564103 , 4260.51282051 , 4127.69230769 , 4131.28205128 , 2038.0 , 2049.0 , 8.857 , 0.0 , 0.0 , 0.0 , 0.0 , 

45.0 , 4135.38461538 , 4134.35897436 , 4262.56410256 , 4136.41025641 , 4134.35897436 , 4134.35897436 , 4134.35897436 , 4131.79487179 , 4133.33333333 , 4142.56410256 , 4142.56410256 , 4260.51282051 , 4129.23076923 , 4130.25641026 , 2039.0 , 2049.0 , 8.866 , 0.0 , 0.0 , 0.0 , 0.0 , 

46.0 , 4134.35897436 , 4133.84615385 , 4262.05128205 , 4136.92307692 , 4134.35897436 , 4135.8974359 , 4132.82051282 , 4131.79487179 , 4133.33333333 , 4140.51282051 , 4141.02564103 , 4260.0 , 4129.23076923 , 4131.79487179 , 2038.0 , 2048.0 , 8.875 , 0.0 , 0.0 , 0.0 , 0.0 , 

47.0 , 4134.87179487 , 4129.74358974 , 4265.64102564 , 4135.38461538 , 4134.35897436 , 4135.38461538 , 4133.84615385 , 4133.84615385 , 4134.35897436 , 4139.48717949 , 4141.02564103 , 4266.66666667 , 4128.71794872 , 4132.30769231 , 2043.0 , 2046.0 , 8.882 , 0.0 , 0.0 , 0.0 , 0.0 , 

48.0 , 4136.41025641 , 4128.71794872 , 4269.23076923 , 4134.35897436 , 4134.35897436 , 4134.87179487 , 4136.41025641 , 4135.8974359 , 4136.92307692 , 4141.53846154 , 4141.53846154 , 4270.76923077 , 4128.71794872 , 4128.20512821 , 2042.0 , 2045.0 , 8.889 , 0.0 , 0.0 , 0.0 , 0.0 , 

49.0 , 4135.8974359 , 4130.76923077 , 4285.12820513 , 4134.87179487 , 4134.35897436 , 4134.35897436 , 4134.87179487 , 4136.41025641 , 4138.97435897 , 4144.1025641 , 4143.58974359 , 4272.30769231 , 4130.25641026 , 4128.71794872 , 2044.0 , 2043.0 , 8.897 , 0.0 , 0.0 , 0.0 , 0.0 , 

50.0 , 4133.84615385 , 4132.30769231 , 4292.82051282 , 4134.87179487 , 4134.35897436 , 4134.35897436 , 4134.35897436 , 4136.41025641 , 4137.94871795 , 4143.07692308 , 4143.58974359 , 4275.38461538 , 4131.79487179 , 4133.84615385 , 2044.0 , 2043.0 , 8.905 , 0.0 , 0.0 , 0.0 , 0.0 , 

51.0 , 4133.84615385 , 4134.35897436 , 4290.25641026 , 4134.87179487 , 4134.35897436 , 4134.35897436 , 4134.35897436 , 4136.92307692 , 4138.97435897 , 4142.56410256 , 4141.02564103 , 4280.0 , 4132.30769231 , 4135.38461538 , 2045.0 , 2042.0 , 8.912 , 0.0 , 0.0 , 0.0 , 0.0 , 

52.0 , 4134.87179487 , 4133.84615385 , 4287.17948718 , 4136.92307692 , 4134.35897436 , 4134.35897436 , 4134.35897436 , 4135.38461538 , 4137.94871795 , 4143.58974359 , 4138.97435897 , 4283.07692308 , 4127.17948718 , 4132.82051282 , 2047.0 , 2041.0 , 8.921 , 0.0 , 0.0 , 0.0 , 0.0 , 

53.0 , 4134.87179487 , 4133.33333333 , 4278.46153846 , 4137.94871795 , 4134.35897436 , 4134.35897436 , 4133.84615385 , 4134.87179487 , 4136.92307692 , 4144.1025641 , 4140.0 , 4284.61538462 , 4127.17948718 , 4133.84615385 , 2048.0 , 2042.0 , 8.929 , 0.0 , 0.0 , 0.0 , 0.0 , 

54.0 , 4135.8974359 , 4134.35897436 , 4266.66666667 , 4137.43589744 , 4134.35897436 , 4134.35897436 , 4131.79487179 , 4133.33333333 , 4138.97435897 , 4142.05128205 , 4141.02564103 , 4285.12820513 , 4131.79487179 , 4133.84615385 , 2047.0 , 2041.0 , 8.937 , 0.0 , 0.0 , 0.0 , 0.0 , 

55.0 , 4135.8974359 , 4135.8974359 , 4260.51282051 , 4136.41025641 , 4134.35897436 , 4134.35897436 , 4132.30769231 , 4131.79487179 , 4136.41025641 , 4141.53846154 , 4140.51282051 , 4287.17948718 , 4131.28205128 , 4131.79487179 , 2047.0 , 2042.0 , 8.944 , 0.0 , 0.0 , 0.0 , 0.0 , 

56.0 , 4134.87179487 , 4136.41025641 , 4254.35897436 , 4135.8974359 , 4134.35897436 , 4134.35897436 , 4135.8974359 , 4132.30769231 , 4130.76923077 , 4143.07692308 , 4139.48717949 , 4288.71794872 , 4128.71794872 , 4130.76923077 , 2047.0 , 2044.0 , 8.951 , 0.0 , 0.0 , 0.0 , 0.0 , 

57.0 , 4134.87179487 , 4135.38461538 , 4249.23076923 , 4135.8974359 , 4134.35897436 , 4134.35897436 , 4135.38461538 , 4133.84615385 , 4134.35897436 , 4145.12820513 , 4138.46153846 , 4288.20512821 , 4128.20512821 , 4131.28205128 , 2046.0 , 2043.0 , 8.96 , 0.0 , 0.0 , 0.0 , 0.0 , 

58.0 , 4135.38461538 , 4135.38461538 , 4253.84615385 , 4135.8974359 , 4134.35897436 , 4134.35897436 , 4133.84615385 , 4132.30769231 , 4139.48717949 , 4144.1025641 , 4139.48717949 , 4292.30769231 , 4130.25641026 , 4132.30769231 , 2049.0 , 2042.0 , 8.968 , 0.0 , 0.0 , 0.0 , 0.0 , 

59.0 , 4133.84615385 , 4134.87179487 , 4252.82051282 , 4135.8974359 , 4134.35897436 , 4134.35897436 , 4133.84615385 , 4131.79487179 , 4135.38461538 , 4141.53846154 , 4141.02564103 , 4298.97435897 , 4131.79487179 , 4131.28205128 , 2048.0 , 2040.0 , 8.976 , 0.0 , 0.0 , 0.0 , 0.0 , 

60.0 , 4135.38461538 , 4136.41025641 , 4255.38461538 , 4135.8974359 , 4134.35897436 , 4134.35897436 , 4133.33333333 , 4133.84615385 , 4135.38461538 , 4142.56410256 , 4142.05128205 , 4300.0 , 4131.79487179 , 4130.76923077 , 2048.0 , 2040.0 , 8.983 , 0.0 , 0.0 , 0.0 , 0.0 , 

61.0 , 4135.8974359 , 4134.87179487 , 4260.51282051 , 4134.87179487 , 4134.35897436 , 4134.35897436 , 4133.84615385 , 4134.87179487 , 4138.46153846 , 4142.05128205 , 4142.56410256 , 4299.48717949 , 4129.74358974 , 4133.84615385 , 2049.0 , 2037.0 , 8.991 , 0.0 , 0.0 , 0.0 , 0.0 , 

62.0 , 4132.30769231 , 4133.84615385 , 4267.17948718 , 4134.87179487 , 4134.35897436 , 4134.35897436 , 4134.35897436 , 4133.84615385 , 4139.48717949 , 4143.58974359 , 4142.56410256 , 4307.17948718 , 4130.76923077 , 4135.8974359 , 2048.0 , 2037.0 , 9.0 , 0.0 , 0.0 , 0.0 , 0.0 , 

63.0 , 4132.30769231 , 4135.38461538 , 4269.74358974 , 4134.87179487 , 4134.35897436 , 4134.35897436 , 4134.35897436 , 4131.79487179 , 4140.51282051 , 4143.58974359 , 4142.56410256 , 4311.79487179 , 4134.87179487 , 4133.33333333 , 2048.0 , 2037.0 , 9.008 , 0.0 , 0.0 , 0.0 , 0.0 , 

64.0 , 4135.8974359 , 4134.87179487 , 4273.33333333 , 4134.87179487 , 4134.35897436 , 4134.35897436 , 4135.38461538 , 4134.35897436 , 4140.0 , 4143.07692308 , 4143.07692308 , 4310.76923077 , 4137.43589744 , 4132.82051282 , 2047.0 , 2035.0 , 9.014 , 0.0 , 0.0 , 0.0 , 0.0 , 

65.0 , 4134.35897436 , 4134.35897436 , 4267.69230769 , 4134.87179487 , 4134.35897436 , 4134.35897436 , 4135.8974359 , 4135.38461538 , 4135.8974359 , 4144.1025641 , 4141.02564103 , 4312.30769231 , 4133.33333333 , 4133.33333333 , 2047.0 , 2038.0 , 9.023 , 0.0 , 0.0 , 0.0 , 0.0 , 

66.0 , 4133.84615385 , 4134.87179487 , 4262.56410256 , 4134.87179487 , 4134.35897436 , 4134.35897436 , 4133.84615385 , 4134.87179487 , 4134.35897436 , 4143.58974359 , 4142.05128205 , 4317.43589744 , 4131.79487179 , 4132.82051282 , 2045.0 , 2040.0 , 9.031 , 0.0 , 0.0 , 0.0 , 0.0 , 

67.0 , 4135.8974359 , 4135.38461538 , 4267.69230769 , 4134.87179487 , 4134.35897436 , 4134.35897436 , 4130.25641026 , 4135.8974359 , 4136.92307692 , 4142.05128205 , 4144.61538462 , 4318.97435897 , 4131.79487179 , 4132.30769231 , 2045.0 , 2040.0 , 9.039 , 0.0 , 0.0 , 0.0 , 0.0 , 

68.0 , 4129.23076923 , 4135.38461538 , 4272.30769231 , 4134.35897436 , 4134.35897436 , 4134.35897436 , 4128.71794872 , 4135.8974359 , 4135.8974359 , 4143.58974359 , 4142.56410256 , 4321.02564103 , 4130.25641026 , 4133.33333333 , 2044.0 , 2042.0 , 9.047 , 0.0 , 0.0 , 0.0 , 0.0 , 

69.0 , 4126.15384615 , 4136.41025641 , 4264.61538462 , 4135.8974359 , 4134.35897436 , 4134.35897436 , 4129.23076923 , 4132.30769231 , 4133.84615385 , 4144.61538462 , 4138.97435897 , 4323.07692308 , 4128.71794872 , 4132.30769231 , 2043.0 , 2043.0 , 9.055 , 0.0 , 0.0 , 0.0 , 0.0 , 

70.0 , 4132.30769231 , 4135.8974359 , 4261.02564103 , 4136.92307692 , 4134.35897436 , 4134.35897436 , 4130.25641026 , 4134.35897436 , 4137.43589744 , 4141.53846154 , 4141.02564103 , 4323.07692308 , 4130.76923077 , 4130.76923077 , 2042.0 , 2043.0 , 9.062 , 0.0 , 0.0 , 0.0 , 0.0 , 

71.0 , 4132.82051282 , 4135.38461538 , 4270.25641026 , 4135.8974359 , 4134.87179487 , 4134.35897436 , 4130.76923077 , 4137.43589744 , 4139.48717949 , 4141.02564103 , 4142.56410256 , 4324.61538462 , 4130.76923077 , 4132.30769231 , 2041.0 , 2044.0 , 9.069 , 0.0 , 0.0 , 0.0 , 0.0 , 

72.0 , 4131.79487179 , 4135.38461538 , 4279.48717949 , 4134.87179487 , 4135.38461538 , 4134.35897436 , 4129.23076923 , 4134.87179487 , 4138.97435897 , 4143.07692308 , 4141.53846154 , 4332.30769231 , 4130.25641026 , 4136.41025641 , 2040.0 , 2045.0 , 9.081 , 0.0 , 0.0 , 0.0 , 0.0 , 

73.0 , 4136.41025641 , 4134.35897436 , 4291.79487179 , 4134.87179487 , 4134.87179487 , 4134.35897436 , 4130.76923077 , 4134.87179487 , 4137.43589744 , 4145.12820513 , 4144.61538462 , 4337.43589744 , 4132.82051282 , 4135.8974359 , 2040.0 , 2043.0 , 9.086 , 0.0 , 0.0 , 0.0 , 0.0 , 

74.0 , 4135.38461538 , 4131.79487179 , 4314.35897436 , 4134.87179487 , 4134.35897436 , 4134.35897436 , 4134.87179487 , 4141.53846154 , 4138.97435897 , 4146.66666667 , 4145.64102564 , 4335.8974359 , 4134.35897436 , 4133.33333333 , 2038.0 , 2041.0 , 9.093 , 0.0 , 0.0 , 0.0 , 0.0 , 

75.0 , 4132.82051282 , 4132.30769231 , 4313.33333333 , 4135.8974359 , 4134.35897436 , 4134.35897436 , 4134.35897436 , 4142.05128205 , 4138.46153846 , 4144.1025641 , 4144.1025641 , 4337.43589744 , 4132.82051282 , 4135.8974359 , 2039.0 , 2041.0 , 9.102 , 0.0 , 0.0 , 0.0 , 0.0 , 

76.0 , 4133.84615385 , 4132.82051282 , 4303.58974359 , 4137.43589744 , 4134.87179487 , 4134.35897436 , 4129.74358974 , 4136.92307692 , 4138.46153846 , 4145.12820513 , 4144.1025641 , 4346.15384615 , 4131.79487179 , 4137.43589744 , 2039.0 , 2042.0 , 9.11 , 0.0 , 0.0 , 0.0 , 0.0 , 

77.0 , 4131.28205128 , 4131.79487179 , 4300.0 , 4137.43589744 , 4134.35897436 , 4134.35897436 , 4124.1025641 , 4133.33333333 , 4137.43589744 , 4145.64102564 , 4142.05128205 , 4349.74358974 , 4130.76923077 , 4132.82051282 , 2041.0 , 2041.0 , 9.118 , 0.0 , 0.0 , 0.0 , 0.0 , 

78.0 , 4132.30769231 , 4132.30769231 , 4309.23076923 , 4136.92307692 , 4133.33333333 , 4134.35897436 , 4124.1025641 , 4134.35897436 , 4137.94871795 , 4141.53846154 , 4140.0 , 4350.25641026 , 4133.33333333 , 4131.79487179 , 2043.0 , 2040.0 , 9.126 , 0.0 , 0.0 , 0.0 , 0.0 , 

79.0 , 4135.8974359 , 4131.28205128 , 4310.25641026 , 4136.92307692 , 4133.33333333 , 4134.35897436 , 4125.64102564 , 4134.87179487 , 4138.46153846 , 4140.0 , 4142.05128205 , 4352.30769231 , 4133.84615385 , 4134.35897436 , 2044.0 , 2042.0 , 9.134 , 0.0 , 0.0 , 0.0 , 0.0 , 

80.0 , 4133.84615385 , 4129.23076923 , 4303.58974359 , 4137.43589744 , 4134.87179487 , 4134.35897436 , 4126.15384615 , 4133.84615385 , 4139.48717949 , 4144.1025641 , 4142.56410256 , 4356.92307692 , 4129.74358974 , 4134.35897436 , 2043.0 , 2044.0 , 9.142 , 0.0 , 0.0 , 0.0 , 0.0 , 

81.0 , 4132.30769231 , 4126.66666667 , 4300.0 , 4137.94871795 , 4135.38461538 , 4133.84615385 , 4131.28205128 , 4132.30769231 , 4137.94871795 , 4143.07692308 , 4140.51282051 , 4361.53846154 , 4128.20512821 , 4131.28205128 , 2043.0 , 2043.0 , 9.149 , 0.0 , 0.0 , 0.0 , 0.0 , 

82.0 , 4134.35897436 , 4126.66666667 , 4294.87179487 , 4135.8974359 , 4134.87179487 , 4134.87179487 , 4137.43589744 , 4132.30769231 , 4135.8974359 , 4140.51282051 , 4142.56410256 , 4362.56410256 , 4132.30769231 , 4133.33333333 , 2045.0 , 2042.0 , 9.157 , 0.0 , 0.0 , 0.0 , 0.0 , 

83.0 , 4130.76923077 , 4130.25641026 , 4297.94871795 , 4135.38461538 , 4135.38461538 , 4133.84615385 , 4135.38461538 , 4131.79487179 , 4136.92307692 , 4141.02564103 , 4143.07692308 , 4363.58974359 , 4131.28205128 , 4138.97435897 , 2046.0 , 2039.0 , 9.164 , 0.0 , 0.0 , 0.0 , 0.0 , 

84.0 , 4128.20512821 , 4136.41025641 , 4293.84615385 , 4137.43589744 , 4134.87179487 , 4131.79487179 , 4135.38461538 , 4133.33333333 , 4136.41025641 , 4140.0 , 4139.48717949 , 4370.25641026 , 4128.20512821 , 4136.92307692 , 2045.0 , 2037.0 , 9.173 , 0.0 , 0.0 , 0.0 , 0.0 , 

85.0 , 4133.84615385 , 4133.33333333 , 4295.38461538 , 4137.94871795 , 4134.35897436 , 4133.33333333 , 4134.87179487 , 4135.8974359 , 4136.41025641 , 4140.0 , 4140.0 , 4374.87179487 , 4132.30769231 , 4130.76923077 , 2044.0 , 2037.0 , 9.181 , 0.0 , 0.0 , 0.0 , 0.0 , 

86.0 , 4137.43589744 , 4126.15384615 , 4293.33333333 , 4136.92307692 , 4134.35897436 , 4133.84615385 , 4125.64102564 , 4134.35897436 , 4136.92307692 , 4140.0 , 4141.02564103 , 4372.30769231 , 4132.30769231 , 4131.28205128 , 2044.0 , 2040.0 , 9.188 , 0.0 , 0.0 , 0.0 , 0.0 , 

87.0 , 4134.35897436 , 4127.17948718 , 4305.12820513 , 4136.41025641 , 4134.35897436 , 4133.33333333 , 4119.48717949 , 4135.8974359 , 4137.43589744 , 4141.02564103 , 4144.1025641 , 4375.38461538 , 4130.76923077 , 4135.38461538 , 2043.0 , 2043.0 , 9.196 , 0.0 , 0.0 , 0.0 , 0.0 , 

88.0 , 4131.79487179 , 4131.28205128 , 4298.46153846 , 4135.8974359 , 4134.35897436 , 4136.92307692 , 4126.66666667 , 4136.92307692 , 4137.43589744 , 4139.48717949 , 4145.64102564 , 4381.02564103 , 4131.28205128 , 4134.87179487 , 2042.0 , 2045.0 , 9.205 , 0.0 , 0.0 , 0.0 , 0.0 , 

89.0 , 4133.84615385 , 4128.71794872 , 4294.35897436 , 4135.8974359 , 4134.35897436 , 4136.41025641 , 4129.23076923 , 4136.41025641 , 4137.94871795 , 4140.51282051 , 4144.61538462 , 4384.1025641 , 4130.25641026 , 4137.43589744 , 2041.0 , 2049.0 , 9.213 , 0.0 , 0.0 , 0.0 , 0.0 , 

90.0 , 4133.84615385 , 4125.64102564 , 4292.30769231 , 4136.92307692 , 4134.87179487 , 4131.28205128 , 4127.69230769 , 4135.38461538 , 4135.8974359 , 4144.61538462 , 4142.56410256 , 4386.66666667 , 4131.28205128 , 4138.97435897 , 2041.0 , 2051.0 , 9.22 , 0.0 , 0.0 , 0.0 , 0.0 , 

91.0 , 4133.84615385 , 4127.17948718 , 4295.38461538 , 4136.92307692 , 4133.84615385 , 4131.28205128 , 4130.25641026 , 4136.41025641 , 4134.35897436 , 4147.69230769 , 4142.56410256 , 4392.30769231 , 4136.92307692 , 4134.35897436 , 2039.0 , 2046.0 , 9.228 , 0.0 , 0.0 , 0.0 , 0.0 , 

92.0 , 4136.92307692 , 4127.17948718 , 4287.17948718 , 4136.41025641 , 4133.84615385 , 4131.79487179 , 4129.23076923 , 4134.87179487 , 4134.87179487 , 4141.02564103 , 4143.58974359 , 4393.84615385 , 4133.84615385 , 4131.79487179 , 2039.0 , 2046.0 , 9.236 , 0.0 , 0.0 , 0.0 , 0.0 , 

93.0 , 4135.38461538 , 4126.15384615 , 4290.76923077 , 4137.43589744 , 4135.8974359 , 4130.76923077 , 4125.12820513 , 4136.41025641 , 4135.8974359 , 4136.92307692 , 4142.56410256 , 4392.82051282 , 4132.30769231 , 4137.94871795 , 2037.0 , 2042.0 , 9.243 , 0.0 , 0.0 , 0.0 , 0.0 , 

94.0 , 4132.30769231 , 4128.20512821 , 4290.25641026 , 4137.94871795 , 4134.35897436 , 4132.82051282 , 4125.64102564 , 4137.43589744 , 4135.38461538 , 4137.43589744 , 4140.0 , 4394.87179487 , 4135.38461538 , 4137.94871795 , 2037.0 , 2039.0 , 9.252 , 0.0 , 0.0 , 0.0 , 0.0 , 

95.0 , 4133.33333333 , 4128.20512821 , 4292.82051282 , 4137.94871795 , 4130.76923077 , 4133.84615385 , 4129.74358974 , 4137.43589744 , 4135.8974359 , 4135.8974359 , 4141.53846154 , 4402.05128205 , 4134.87179487 , 4134.35897436 , 2037.0 , 2038.0 , 9.26 , 0.0 , 0.0 , 0.0 , 0.0 , 

96.0 , 4133.33333333 , 4126.15384615 , 4295.8974359 , 4136.92307692 , 4133.84615385 , 4135.38461538 , 4127.69230769 , 4136.41025641 , 4135.8974359 , 4139.48717949 , 4144.1025641 , 4405.64102564 , 4130.25641026 , 4135.38461538 , 2037.0 , 2033.0 , 9.268 , 0.0 , 0.0 , 0.0 , 0.0 , 

97.0 , 4130.76923077 , 4129.23076923 , 4292.82051282 , 4136.92307692 , 4136.92307692 , 4137.94871795 , 4126.66666667 , 4136.41025641 , 4135.8974359 , 4146.15384615 , 4142.56410256 , 4406.66666667 , 4134.35897436 , 4136.92307692 , 2038.0 , 2033.0 , 9.275 , 0.0 , 0.0 , 0.0 , 0.0 , 

98.0 , 4133.33333333 , 4131.79487179 , 4286.15384615 , 4137.43589744 , 4131.28205128 , 4130.76923077 , 4127.17948718 , 4136.41025641 , 4135.8974359 , 4137.94871795 , 4141.53846154 , 4408.20512821 , 4136.92307692 , 4135.8974359 , 2038.0 , 2032.0 , 9.283 , 0.0 , 0.0 , 0.0 , 0.0 , 

99.0 , 4135.38461538 , 4127.17948718 , 4284.61538462 , 4137.43589744 , 4130.76923077 , 4126.15384615 , 4127.17948718 , 4136.41025641 , 4135.8974359 , 4135.8974359 , 4144.61538462 , 4411.79487179 , 4135.8974359 , 4135.8974359 , 2039.0 , 2032.0 , 9.29 , 0.0 , 0.0 , 0.0 , 0.0 , 

100.0 , 4129.74358974 , 4129.23076923 , 4287.17948718 , 4137.43589744 , 4133.33333333 , 4129.74358974 , 4127.17948718 , 4137.94871795 , 4135.8974359 , 4150.76923077 , 4146.15384615 , 4416.41025641 , 4135.38461538 , 4135.38461538 , 2039.0 , 2033.0 , 9.299 , 0.0 , 0.0 , 0.0 , 0.0 , 

101.0 , 4128.71794872 , 4136.92307692 , 4286.15384615 , 4137.43589744 , 4133.33333333 , 4130.25641026 , 4125.64102564 , 4136.41025641 , 4135.8974359 , 4153.33333333 , 4147.17948718 , 4417.94871795 , 4135.38461538 , 4135.38461538 , 2042.0 , 2033.0 , 9.306 , 0.0 , 0.0 , 0.0 , 0.0 , 

102.0 , 4131.79487179 , 4133.84615385 , 4287.69230769 , 4138.46153846 , 4133.33333333 , 4130.25641026 , 4125.12820513 , 4133.84615385 , 4135.8974359 , 4139.48717949 , 4149.74358974 , 4419.48717949 , 4134.87179487 , 4136.92307692 , 2041.0 , 2034.0 , 9.315 , 0.0 , 0.0 , 0.0 , 0.0 , 

103.0 , 4129.74358974 , 4126.15384615 , 4285.12820513 , 4138.46153846 , 4132.30769231 , 4133.33333333 , 4128.71794872 , 4134.35897436 , 4135.8974359 , 4132.30769231 , 4146.66666667 , 4424.1025641 , 4134.87179487 , 4135.8974359 , 2042.0 , 2035.0 , 9.323 , 0.0 , 0.0 , 0.0 , 0.0 , 

104.0 , 4131.28205128 , 4130.76923077 , 4277.94871795 , 4136.92307692 , 4131.79487179 , 4133.33333333 , 4128.20512821 , 4136.41025641 , 4135.8974359 , 4139.48717949 , 4143.07692308 , 4427.17948718 , 4134.87179487 , 4136.41025641 , 2043.0 , 2034.0 , 9.331 , 0.0 , 0.0 , 0.0 , 0.0 , 

105.0 , 4137.43589744 , 4138.46153846 , 4277.43589744 , 4136.41025641 , 4133.33333333 , 4136.41025641 , 4126.15384615 , 4135.8974359 , 4135.8974359 , 4149.23076923 , 4146.15384615 , 4427.17948718 , 4134.35897436 , 4138.46153846 , 2045.0 , 2031.0 , 9.338 , 0.0 , 0.0 , 0.0 , 0.0 , 

106.0 , 4136.92307692 , 4133.84615385 , 4279.48717949 , 4136.41025641 , 4134.87179487 , 4135.38461538 , 4127.17948718 , 4134.87179487 , 4135.8974359 , 4145.64102564 , 4150.25641026 , 4428.71794872 , 4134.35897436 , 4136.92307692 , 2047.0 , 2028.0 , 9.346 , 0.0 , 0.0 , 0.0 , 0.0 , 

107.0 , 4132.30769231 , 4129.23076923 , 4277.94871795 , 4135.38461538 , 4133.84615385 , 4126.66666667 , 4129.23076923 , 4134.87179487 , 4135.8974359 , 4136.41025641 , 4149.74358974 , 4434.35897436 , 4135.8974359 , 4135.8974359 , 2045.0 , 2025.0 , 9.354 , 0.0 , 0.0 , 0.0 , 0.0 , 

108.0 , 4133.84615385 , 4130.76923077 , 4275.8974359 , 4135.38461538 , 4134.87179487 , 4125.64102564 , 4129.74358974 , 4134.87179487 , 4135.8974359 , 4137.94871795 , 4146.66666667 , 4441.53846154 , 4137.43589744 , 4137.94871795 , 2046.0 , 2022.0 , 9.361 , 0.0 , 0.0 , 0.0 , 0.0 , 

109.0 , 4136.92307692 , 4129.74358974 , 4273.84615385 , 4137.43589744 , 4135.8974359 , 4129.23076923 , 4127.17948718 , 4134.87179487 , 4135.8974359 , 4143.07692308 , 4147.17948718 , 4442.56410256 , 4137.43589744 , 4138.46153846 , 2046.0 , 2022.0 , 9.37 , 0.0 , 0.0 , 0.0 , 0.0 , 

110.0 , 4135.38461538 , 4129.23076923 , 4272.30769231 , 4138.97435897 , 4136.41025641 , 4129.74358974 , 4126.66666667 , 4135.38461538 , 4135.8974359 , 4138.46153846 , 4151.28205128 , 4441.53846154 , 4136.92307692 , 4138.46153846 , 2047.0 , 2019.0 , 9.378 , 0.0 , 0.0 , 0.0 , 0.0 , 

111.0 , 4132.30769231 , 4132.82051282 , 4270.76923077 , 4137.94871795 , 4136.92307692 , 4129.74358974 , 4132.82051282 , 4134.87179487 , 4135.8974359 , 4138.97435897 , 4151.28205128 , 4443.07692308 , 4137.43589744 , 4138.46153846 , 2047.0 , 2021.0 , 9.386 , 0.0 , 0.0 , 0.0 , 0.0 , 

112.0 , 4132.82051282 , 4134.35897436 , 4272.82051282 , 4136.41025641 , 4135.38461538 , 4131.28205128 , 4130.76923077 , 4135.8974359 , 4135.8974359 , 4142.05128205 , 4149.74358974 , 4445.12820513 , 4136.41025641 , 4136.41025641 , 2046.0 , 2022.0 , 9.394 , 0.0 , 0.0 , 0.0 , 0.0 , 

113.0 , 4136.41025641 , 4129.74358974 , 4269.23076923 , 4137.43589744 , 4134.35897436 , 4134.35897436 , 4125.64102564 , 4134.87179487 , 4135.8974359 , 4138.46153846 , 4149.23076923 , 4447.69230769 , 4135.38461538 , 4137.43589744 , 2047.0 , 2022.0 , 9.402 , 0.0 , 0.0 , 0.0 , 0.0 , 

