['COUNTER', 'AF3', 'F7', 'F3', 'FC5', 'T7', 'P7', 'O1', 'O2', 'P8', 'T8', 'FC6', 'F4', 'F8', 'AF4', 'GYROX', 'GYROY', 'TIMESTAMP', 'FUNC_ID', 'FUNC_VALUE', 'MARKER', 'SYNC_SIGNAL']
31.0 , 4136.41025641 , 4129.74358974 , 4143.58974359 , 4138.46153846 , 4134.35897436 , 4134.35897436 , 4124.61538462 , 4131.28205128 , 4134.35897436 , 4140.0 , 4163.58974359 , 4729.74358974 , 4130.76923077 , 4132.82051282 , 2059.0 , 2028.0 , 6.012 , 0.0 , 0.0 , 0.0 , 0.0 , 

32.0 , 4135.38461538 , 4130.25641026 , 4141.53846154 , 4135.8974359 , 4133.33333333 , 4135.38461538 , 4133.33333333 , 4134.35897436 , 4133.33333333 , 4138.97435897 , 4163.58974359 , 4728.71794872 , 4129.74358974 , 4132.30769231 , 2059.0 , 2029.0 , 6.02 , 0.0 , 0.0 , 0.0 , 0.0 , 

33.0 , 4137.43589744 , 4138.46153846 , 4146.66666667 , 4136.41025641 , 4133.33333333 , 4135.8974359 , 4132.82051282 , 4133.84615385 , 4134.87179487 , 4140.0 , 4162.05128205 , 4726.66666667 , 4131.79487179 , 4132.30769231 , 2059.0 , 2029.0 , 6.027 , 0.0 , 0.0 , 0.0 , 0.0 , 

34.0 , 4134.87179487 , 4137.43589744 , 4149.74358974 , 4137.43589744 , 4134.87179487 , 4135.38461538 , 4130.76923077 , 4131.79487179 , 4134.35897436 , 4141.02564103 , 4167.17948718 , 4729.23076923 , 4132.30769231 , 4137.43589744 , 2060.0 , 2028.0 , 6.034 , 0.0 , 0.0 , 0.0 , 0.0 , 

35.0 , 4130.25641026 , 4129.23076923 , 4154.35897436 , 4137.43589744 , 4134.35897436 , 4134.87179487 , 4135.38461538 , 4132.30769231 , 4134.87179487 , 4141.02564103 , 4169.74358974 , 4730.76923077 , 4131.28205128 , 4139.48717949 , 2060.0 , 2029.0 , 6.042 , 0.0 , 0.0 , 0.0 , 0.0 , 

36.0 , 4131.28205128 , 4130.25641026 , 4141.53846154 , 4136.41025641 , 4134.35897436 , 4133.84615385 , 4135.38461538 , 4131.28205128 , 4132.30769231 , 4137.94871795 , 4163.58974359 , 4728.20512821 , 4128.71794872 , 4136.41025641 , 2062.0 , 2028.0 , 6.05 , 0.0 , 0.0 , 0.0 , 0.0 , 

37.0 , 4134.87179487 , 4133.33333333 , 4144.61538462 , 4137.43589744 , 4135.8974359 , 4134.35897436 , 4135.38461538 , 4133.33333333 , 4131.79487179 , 4140.0 , 4163.58974359 , 4729.74358974 , 4129.23076923 , 4138.46153846 , 2062.0 , 2028.0 , 6.058 , 0.0 , 0.0 , 0.0 , 0.0 , 

38.0 , 4134.87179487 , 4130.76923077 , 4141.53846154 , 4137.94871795 , 4136.41025641 , 4134.35897436 , 4135.38461538 , 4134.35897436 , 4131.28205128 , 4141.53846154 , 4164.61538462 , 4732.30769231 , 4131.79487179 , 4138.46153846 , 2059.0 , 2027.0 , 6.066 , 0.0 , 0.0 , 0.0 , 0.0 , 

39.0 , 4135.38461538 , 4133.84615385 , 4128.20512821 , 4137.43589744 , 4135.38461538 , 4134.35897436 , 4133.84615385 , 4132.30769231 , 4133.84615385 , 4141.53846154 , 4165.64102564 , 4731.28205128 , 4129.23076923 , 4134.35897436 , 2059.0 , 2027.0 , 6.074 , 0.0 , 0.0 , 0.0 , 0.0 , 

40.0 , 4136.92307692 , 4134.35897436 , 4127.17948718 , 4136.41025641 , 4134.35897436 , 4134.35897436 , 4132.82051282 , 4131.79487179 , 4134.87179487 , 4142.05128205 , 4164.61538462 , 4729.23076923 , 4125.64102564 , 4135.8974359 , 2058.0 , 2029.0 , 6.082 , 0.0 , 0.0 , 0.0 , 0.0 , 

41.0 , 4136.92307692 , 4128.71794872 , 4122.05128205 , 4137.94871795 , 4135.8974359 , 4134.35897436 , 4134.35897436 , 4132.82051282 , 4131.79487179 , 4141.53846154 , 4161.53846154 , 4730.25641026 , 4127.69230769 , 4136.92307692 , 2057.0 , 2027.0 , 6.09 , 0.0 , 0.0 , 0.0 , 0.0 , 

42.0 , 4137.43589744 , 4128.71794872 , 4089.23076923 , 4138.97435897 , 4136.41025641 , 4134.35897436 , 4132.82051282 , 4130.25641026 , 4127.17948718 , 4135.8974359 , 4163.07692308 , 4729.23076923 , 4128.20512821 , 4133.84615385 , 2054.0 , 2026.0 , 6.099 , 0.0 , 0.0 , 0.0 , 0.0 , 

43.0 , 4135.38461538 , 4131.28205128 , 4057.43589744 , 4136.41025641 , 4133.33333333 , 4134.35897436 , 4131.28205128 , 4128.20512821 , 4127.17948718 , 4131.28205128 , 4165.64102564 , 4726.15384615 , 4121.53846154 , 4132.82051282 , 2055.0 , 2022.0 , 6.105 , 0.0 , 0.0 , 0.0 , 0.0 , 

44.0 , 4131.28205128 , 4129.23076923 , 4048.20512821 , 4135.8974359 , 4131.28205128 , 4134.35897436 , 4133.33333333 , 4127.17948718 , 4129.74358974 , 4131.28205128 , 4163.58974359 , 4725.12820513 , 4118.97435897 , 4130.76923077 , 2054.0 , 2023.0 , 6.114 , 0.0 , 0.0 , 0.0 , 0.0 , 

45.0 , 4135.38461538 , 4129.23076923 , 4057.43589744 , 4137.94871795 , 4133.33333333 , 4134.35897436 , 4133.33333333 , 4129.74358974 , 4132.30769231 , 4134.35897436 , 4162.05128205 , 4726.66666667 , 4123.58974359 , 4130.25641026 , 2052.0 , 2023.0 , 6.122 , 0.0 , 0.0 , 0.0 , 0.0 , 

46.0 , 4137.94871795 , 4132.30769231 , 4078.97435897 , 4135.8974359 , 4135.8974359 , 4134.35897436 , 4132.82051282 , 4133.84615385 , 4134.87179487 , 4138.46153846 , 4166.15384615 , 4727.17948718 , 4126.15384615 , 4135.38461538 , 2052.0 , 2025.0 , 6.13 , 0.0 , 0.0 , 0.0 , 0.0 , 

47.0 , 4135.8974359 , 4132.30769231 , 4105.64102564 , 4133.33333333 , 4135.8974359 , 4134.35897436 , 4133.84615385 , 4134.35897436 , 4134.87179487 , 4142.05128205 , 4166.66666667 , 4727.17948718 , 4128.71794872 , 4138.46153846 , 2053.0 , 2029.0 , 6.137 , 0.0 , 0.0 , 0.0 , 0.0 , 

48.0 , 4134.87179487 , 4129.23076923 , 4110.76923077 , 4136.41025641 , 4134.35897436 , 4134.35897436 , 4135.8974359 , 4133.84615385 , 4133.84615385 , 4143.58974359 , 4164.61538462 , 4727.69230769 , 4130.25641026 , 4136.92307692 , 2052.0 , 2030.0 , 6.146 , 0.0 , 0.0 , 0.0 , 0.0 , 

49.0 , 4134.35897436 , 4130.76923077 , 4108.71794872 , 4138.46153846 , 4133.84615385 , 4134.35897436 , 4134.87179487 , 4136.41025641 , 4137.43589744 , 4145.12820513 , 4165.12820513 , 4729.23076923 , 4129.74358974 , 4136.92307692 , 2051.0 , 2033.0 , 6.154 , 0.0 , 0.0 , 0.0 , 0.0 , 

50.0 , 4134.87179487 , 4135.38461538 , 4105.12820513 , 4136.92307692 , 4135.38461538 , 4134.35897436 , 4132.30769231 , 4136.41025641 , 4136.41025641 , 4143.58974359 , 4163.07692308 , 4727.69230769 , 4129.23076923 , 4136.92307692 , 2051.0 , 2033.0 , 6.161 , 0.0 , 0.0 , 0.0 , 0.0 , 

51.0 , 4132.30769231 , 4132.82051282 , 4101.53846154 , 4137.43589744 , 4135.8974359 , 4134.35897436 , 4132.30769231 , 4132.82051282 , 4130.76923077 , 4141.53846154 , 4164.1025641 , 4725.64102564 , 4128.71794872 , 4135.8974359 , 2051.0 , 2032.0 , 6.169 , 0.0 , 0.0 , 0.0 , 0.0 , 

52.0 , 4130.25641026 , 4129.74358974 , 4085.64102564 , 4138.46153846 , 4133.84615385 , 4134.35897436 , 4133.33333333 , 4132.30769231 , 4129.23076923 , 4140.51282051 , 4165.64102564 , 4725.12820513 , 4125.64102564 , 4135.8974359 , 2051.0 , 2033.0 , 6.177 , 0.0 , 0.0 , 0.0 , 0.0 , 

53.0 , 4130.25641026 , 4132.82051282 , 4073.33333333 , 4137.94871795 , 4133.84615385 , 4134.35897436 , 4133.33333333 , 4133.33333333 , 4131.79487179 , 4139.48717949 , 4164.1025641 , 4725.64102564 , 4126.15384615 , 4137.43589744 , 2052.0 , 2033.0 , 6.185 , 0.0 , 0.0 , 0.0 , 0.0 , 

54.0 , 4132.30769231 , 4134.35897436 , 4061.53846154 , 4137.94871795 , 4134.35897436 , 4134.35897436 , 4131.28205128 , 4130.76923077 , 4130.76923077 , 4137.94871795 , 4162.56410256 , 4722.56410256 , 4128.71794872 , 4135.38461538 , 2053.0 , 2030.0 , 6.193 , 0.0 , 0.0 , 0.0 , 0.0 , 

55.0 , 4134.35897436 , 4131.79487179 , 4052.82051282 , 4137.43589744 , 4134.35897436 , 4134.35897436 , 4132.30769231 , 4131.79487179 , 4129.23076923 , 4135.38461538 , 4163.58974359 , 4720.51282051 , 4127.17948718 , 4133.84615385 , 2053.0 , 2030.0 , 6.2 , 0.0 , 0.0 , 0.0 , 0.0 , 

56.0 , 4134.87179487 , 4131.79487179 , 4049.23076923 , 4136.41025641 , 4134.35897436 , 4134.35897436 , 4135.38461538 , 4131.28205128 , 4129.23076923 , 4134.87179487 , 4163.58974359 , 4721.53846154 , 4126.15384615 , 4133.33333333 , 2053.0 , 2030.0 , 6.209 , 0.0 , 0.0 , 0.0 , 0.0 , 

57.0 , 4134.87179487 , 4128.71794872 , 4047.69230769 , 4135.8974359 , 4134.35897436 , 4134.35897436 , 4135.38461538 , 4129.23076923 , 4129.74358974 , 4140.51282051 , 4167.69230769 , 4718.97435897 , 4128.20512821 , 4130.76923077 , 2052.0 , 2029.0 , 6.216 , 0.0 , 0.0 , 0.0 , 0.0 , 

58.0 , 4133.84615385 , 4125.12820513 , 4050.76923077 , 4135.8974359 , 4134.35897436 , 4134.35897436 , 4131.28205128 , 4131.79487179 , 4131.79487179 , 4142.05128205 , 4171.28205128 , 4716.41025641 , 4128.71794872 , 4130.76923077 , 2052.0 , 2030.0 , 6.224 , 0.0 , 0.0 , 0.0 , 0.0 , 

59.0 , 4132.30769231 , 4127.69230769 , 4060.0 , 4135.8974359 , 4134.35897436 , 4134.35897436 , 4128.20512821 , 4133.84615385 , 4132.30769231 , 4138.97435897 , 4165.64102564 , 4717.94871795 , 4127.69230769 , 4136.92307692 , 2050.0 , 2031.0 , 6.231 , 0.0 , 0.0 , 0.0 , 0.0 , 

60.0 , 4135.8974359 , 4133.33333333 , 4069.23076923 , 4136.92307692 , 4134.35897436 , 4134.35897436 , 4128.20512821 , 4132.82051282 , 4132.30769231 , 4139.48717949 , 4162.05128205 , 4719.48717949 , 4127.69230769 , 4140.51282051 , 2049.0 , 2030.0 , 6.24 , 0.0 , 0.0 , 0.0 , 0.0 , 

61.0 , 4138.46153846 , 4133.33333333 , 4067.17948718 , 4137.43589744 , 4134.87179487 , 4134.35897436 , 4130.76923077 , 4131.79487179 , 4133.84615385 , 4142.05128205 , 4169.23076923 , 4716.41025641 , 4126.66666667 , 4137.94871795 , 2050.0 , 2031.0 , 6.247 , 0.0 , 0.0 , 0.0 , 0.0 , 

62.0 , 4131.79487179 , 4131.28205128 , 4071.79487179 , 4137.94871795 , 4135.8974359 , 4134.35897436 , 4134.35897436 , 4133.33333333 , 4136.41025641 , 4142.56410256 , 4171.28205128 , 4712.30769231 , 4128.20512821 , 4137.43589744 , 2050.0 , 2031.0 , 6.256 , 0.0 , 0.0 , 0.0 , 0.0 , 

63.0 , 4126.66666667 , 4129.74358974 , 4081.53846154 , 4136.41025641 , 4136.41025641 , 4134.35897436 , 4134.87179487 , 4136.41025641 , 4139.48717949 , 4144.1025641 , 4167.17948718 , 4710.76923077 , 4131.79487179 , 4137.94871795 , 2047.0 , 2031.0 , 6.263 , 0.0 , 0.0 , 0.0 , 0.0 , 

64.0 , 4134.87179487 , 4130.76923077 , 4090.25641026 , 4135.38461538 , 4135.38461538 , 4134.35897436 , 4129.74358974 , 4138.46153846 , 4140.51282051 , 4145.12820513 , 4167.69230769 , 4713.84615385 , 4131.28205128 , 4135.8974359 , 2046.0 , 2030.0 , 6.271 , 0.0 , 0.0 , 0.0 , 0.0 , 

65.0 , 4140.0 , 4131.28205128 , 4084.61538462 , 4136.92307692 , 4134.87179487 , 4134.35897436 , 4126.66666667 , 4134.35897436 , 4137.43589744 , 4143.07692308 , 4169.74358974 , 4713.84615385 , 4129.74358974 , 4136.41025641 , 2046.0 , 2031.0 , 6.279 , 0.0 , 0.0 , 0.0 , 0.0 , 

66.0 , 4132.30769231 , 4130.25641026 , 4085.12820513 , 4136.92307692 , 4135.38461538 , 4134.35897436 , 4132.82051282 , 4133.84615385 , 4133.84615385 , 4142.05128205 , 4168.71794872 , 4711.79487179 , 4132.30769231 , 4136.41025641 , 2044.0 , 2031.0 , 6.288 , 0.0 , 0.0 , 0.0 , 0.0 , 

67.0 , 4127.17948718 , 4128.71794872 , 4089.74358974 , 4135.8974359 , 4136.41025641 , 4134.35897436 , 4137.43589744 , 4136.41025641 , 4134.87179487 , 4142.05128205 , 4167.69230769 , 4710.76923077 , 4132.30769231 , 4134.87179487 , 2044.0 , 2033.0 , 6.295 , 0.0 , 0.0 , 0.0 , 0.0 , 

68.0 , 4132.30769231 , 4132.82051282 , 4098.97435897 , 4136.41025641 , 4135.38461538 , 4134.35897436 , 4135.38461538 , 4135.38461538 , 4138.46153846 , 4143.07692308 , 4170.76923077 , 4710.25641026 , 4131.28205128 , 4138.46153846 , 2044.0 , 2033.0 , 6.302 , 0.0 , 0.0 , 0.0 , 0.0 , 

69.0 , 4139.48717949 , 4136.41025641 , 4101.02564103 , 4137.43589744 , 4134.87179487 , 4134.35897436 , 4134.35897436 , 4133.84615385 , 4136.41025641 , 4143.58974359 , 4171.79487179 , 4708.71794872 , 4132.30769231 , 4139.48717949 , 2043.0 , 2033.0 , 6.311 , 0.0 , 0.0 , 0.0 , 0.0 , 

70.0 , 4135.8974359 , 4131.79487179 , 4111.79487179 , 4136.92307692 , 4136.41025641 , 4134.35897436 , 4136.41025641 , 4137.94871795 , 4135.38461538 , 4144.1025641 , 4170.25641026 , 4709.74358974 , 4132.82051282 , 4132.82051282 , 2041.0 , 2032.0 , 6.319 , 0.0 , 0.0 , 0.0 , 0.0 , 

71.0 , 4128.20512821 , 4128.20512821 , 4121.02564103 , 4135.8974359 , 4135.8974359 , 4134.35897436 , 4134.87179487 , 4139.48717949 , 4139.48717949 , 4144.1025641 , 4169.74358974 , 4709.23076923 , 4131.79487179 , 4132.30769231 , 2043.0 , 2032.0 , 6.327 , 0.0 , 0.0 , 0.0 , 0.0 , 

72.0 , 4131.79487179 , 4128.71794872 , 4122.05128205 , 4136.41025641 , 4133.84615385 , 4134.35897436 , 4134.87179487 , 4137.43589744 , 4141.02564103 , 4145.12820513 , 4170.25641026 , 4707.69230769 , 4132.82051282 , 4139.48717949 , 2042.0 , 2033.0 , 6.335 , 0.0 , 0.0 , 0.0 , 0.0 , 

73.0 , 4137.94871795 , 4129.23076923 , 4115.38461538 , 4136.41025641 , 4134.35897436 , 4134.35897436 , 4135.8974359 , 4133.33333333 , 4138.46153846 , 4143.58974359 , 4168.20512821 , 4708.20512821 , 4132.82051282 , 4139.48717949 , 2041.0 , 2032.0 , 6.342 , 0.0 , 0.0 , 0.0 , 0.0 , 

74.0 , 4135.38461538 , 4129.74358974 , 4118.46153846 , 4135.38461538 , 4135.38461538 , 4134.35897436 , 4135.38461538 , 4132.82051282 , 4139.48717949 , 4141.53846154 , 4169.23076923 , 4708.20512821 , 4130.76923077 , 4134.35897436 , 2041.0 , 2032.0 , 6.351 , 0.0 , 0.0 , 0.0 , 0.0 , 

75.0 , 4133.84615385 , 4130.76923077 , 4124.61538462 , 4136.92307692 , 4134.35897436 , 4134.35897436 , 4134.87179487 , 4135.38461538 , 4140.0 , 4142.56410256 , 4171.28205128 , 4704.61538462 , 4130.76923077 , 4132.82051282 , 2041.0 , 2034.0 , 6.358 , 0.0 , 0.0 , 0.0 , 0.0 , 

76.0 , 4136.41025641 , 4128.71794872 , 4118.46153846 , 4138.46153846 , 4135.38461538 , 4134.35897436 , 4134.87179487 , 4135.38461538 , 4138.46153846 , 4143.58974359 , 4169.74358974 , 4702.56410256 , 4132.30769231 , 4136.92307692 , 2042.0 , 2035.0 , 6.366 , 0.0 , 0.0 , 0.0 , 0.0 , 

77.0 , 4134.35897436 , 4128.71794872 , 4114.87179487 , 4136.41025641 , 4136.41025641 , 4134.35897436 , 4135.38461538 , 4133.33333333 , 4138.46153846 , 4144.1025641 , 4169.23076923 , 4704.1025641 , 4132.30769231 , 4138.46153846 , 2042.0 , 2036.0 , 6.374 , 0.0 , 0.0 , 0.0 , 0.0 , 

78.0 , 4133.84615385 , 4129.74358974 , 4116.92307692 , 4136.41025641 , 4134.35897436 , 4134.35897436 , 4134.87179487 , 4133.33333333 , 4136.92307692 , 4145.12820513 , 4169.23076923 , 4705.12820513 , 4131.79487179 , 4134.87179487 , 2041.0 , 2037.0 , 6.382 , 0.0 , 0.0 , 0.0 , 0.0 , 

79.0 , 4136.41025641 , 4127.69230769 , 4121.53846154 , 4136.41025641 , 4134.35897436 , 4134.35897436 , 4135.8974359 , 4134.35897436 , 4134.87179487 , 4144.61538462 , 4167.17948718 , 4703.58974359 , 4130.76923077 , 4132.30769231 , 2040.0 , 2038.0 , 6.391 , 0.0 , 0.0 , 0.0 , 0.0 , 

80.0 , 4135.38461538 , 4127.17948718 , 4116.41025641 , 4135.38461538 , 4134.35897436 , 4134.35897436 , 4134.87179487 , 4133.84615385 , 4137.43589744 , 4142.05128205 , 4167.69230769 , 4702.05128205 , 4129.23076923 , 4136.92307692 , 2041.0 , 2040.0 , 6.397 , 0.0 , 0.0 , 0.0 , 0.0 , 

81.0 , 4133.33333333 , 4131.79487179 , 4112.82051282 , 4137.43589744 , 4135.8974359 , 4134.35897436 , 4134.35897436 , 4133.33333333 , 4140.51282051 , 4142.56410256 , 4171.28205128 , 4703.07692308 , 4129.23076923 , 4140.0 , 2038.0 , 2040.0 , 6.405 , 0.0 , 0.0 , 0.0 , 0.0 , 

82.0 , 4134.35897436 , 4134.87179487 , 4110.76923077 , 4136.92307692 , 4134.87179487 , 4134.35897436 , 4137.43589744 , 4132.30769231 , 4138.97435897 , 4142.05128205 , 4168.20512821 , 4702.56410256 , 4129.74358974 , 4136.92307692 , 2040.0 , 2040.0 , 6.413 , 0.0 , 0.0 , 0.0 , 0.0 , 

83.0 , 4135.8974359 , 4130.76923077 , 4119.48717949 , 4135.38461538 , 4130.76923077 , 4134.35897436 , 4131.79487179 , 4133.33333333 , 4138.46153846 , 4143.07692308 , 4165.64102564 , 4702.05128205 , 4129.74358974 , 4134.35897436 , 2040.0 , 2040.0 , 6.42 , 0.0 , 0.0 , 0.0 , 0.0 , 

84.0 , 4135.8974359 , 4126.66666667 , 4119.48717949 , 4137.43589744 , 4130.25641026 , 4134.35897436 , 4125.12820513 , 4134.87179487 , 4138.46153846 , 4145.12820513 , 4166.66666667 , 4704.1025641 , 4129.23076923 , 4137.43589744 , 2042.0 , 2041.0 , 6.428 , 0.0 , 0.0 , 0.0 , 0.0 , 

85.0 , 4135.38461538 , 4129.74358974 , 4123.58974359 , 4140.51282051 , 4135.38461538 , 4134.35897436 , 4129.23076923 , 4137.43589744 , 4137.94871795 , 4145.12820513 , 4166.15384615 , 4706.66666667 , 4128.20512821 , 4139.48717949 , 2041.0 , 2041.0 , 6.437 , 0.0 , 0.0 , 0.0 , 0.0 , 

86.0 , 4136.41025641 , 4130.25641026 , 4129.74358974 , 4139.48717949 , 4136.92307692 , 4134.35897436 , 4133.84615385 , 4137.43589744 , 4137.94871795 , 4143.07692308 , 4166.15384615 , 4704.61538462 , 4127.17948718 , 4137.43589744 , 2042.0 , 2041.0 , 6.445 , 0.0 , 0.0 , 0.0 , 0.0 , 

87.0 , 4135.8974359 , 4127.69230769 , 4142.05128205 , 4138.97435897 , 4132.30769231 , 4134.35897436 , 4133.33333333 , 4136.41025641 , 4138.97435897 , 4144.1025641 , 4169.74358974 , 4703.58974359 , 4131.28205128 , 4134.87179487 , 2043.0 , 2039.0 , 6.453 , 0.0 , 0.0 , 0.0 , 0.0 , 

88.0 , 4135.38461538 , 4129.23076923 , 4146.15384615 , 4139.48717949 , 4131.79487179 , 4134.35897436 , 4134.87179487 , 4137.94871795 , 4137.94871795 , 4147.17948718 , 4171.79487179 , 4704.1025641 , 4134.35897436 , 4134.87179487 , 2043.0 , 2038.0 , 6.461 , 0.0 , 0.0 , 0.0 , 0.0 , 

89.0 , 4131.79487179 , 4129.74358974 , 4151.28205128 , 4140.0 , 4135.38461538 , 4134.35897436 , 4134.35897436 , 4140.0 , 4134.87179487 , 4146.66666667 , 4171.79487179 , 4702.56410256 , 4133.33333333 , 4137.94871795 , 2041.0 , 2040.0 , 6.468 , 0.0 , 0.0 , 0.0 , 0.0 , 

90.0 , 4129.23076923 , 4129.23076923 , 4150.25641026 , 4138.46153846 , 4136.41025641 , 4134.35897436 , 4135.38461538 , 4135.8974359 , 4133.84615385 , 4143.58974359 , 4170.25641026 , 4704.1025641 , 4130.76923077 , 4137.94871795 , 2041.0 , 2040.0 , 6.476 , 0.0 , 0.0 , 0.0 , 0.0 , 

91.0 , 4130.25641026 , 4129.74358974 , 4151.28205128 , 4136.92307692 , 4135.8974359 , 4134.35897436 , 4135.8974359 , 4132.82051282 , 4136.92307692 , 4144.61538462 , 4168.71794872 , 4707.17948718 , 4130.76923077 , 4132.30769231 , 2041.0 , 2040.0 , 6.484 , 0.0 , 0.0 , 0.0 , 0.0 , 

92.0 , 4132.30769231 , 4131.28205128 , 4153.84615385 , 4136.92307692 , 4136.41025641 , 4134.35897436 , 4128.20512821 , 4135.8974359 , 4141.53846154 , 4147.17948718 , 4168.71794872 , 4704.1025641 , 4129.74358974 , 4131.79487179 , 2038.0 , 2040.0 , 6.493 , 0.0 , 0.0 , 0.0 , 0.0 , 

93.0 , 4131.79487179 , 4131.79487179 , 4157.43589744 , 4135.8974359 , 4136.41025641 , 4134.35897436 , 4125.64102564 , 4137.94871795 , 4142.56410256 , 4145.12820513 , 4169.74358974 , 4700.51282051 , 4130.25641026 , 4136.41025641 , 2036.0 , 2035.0 , 6.5 , 0.0 , 0.0 , 0.0 , 0.0 , 

94.0 , 4133.84615385 , 4130.76923077 , 4165.12820513 , 4134.87179487 , 4134.87179487 , 4134.35897436 , 4136.92307692 , 4135.38461538 , 4140.51282051 , 4144.61538462 , 4169.23076923 , 4703.07692308 , 4133.84615385 , 4136.92307692 , 2034.0 , 2035.0 , 6.508 , 0.0 , 0.0 , 0.0 , 0.0 , 

95.0 , 4135.38461538 , 4128.71794872 , 4174.35897436 , 4136.41025641 , 4135.8974359 , 4134.35897436 , 4135.38461538 , 4134.87179487 , 4140.0 , 4146.66666667 , 4169.74358974 , 4707.69230769 , 4135.38461538 , 4135.8974359 , 2031.0 , 2032.0 , 6.515 , 0.0 , 0.0 , 0.0 , 0.0 , 

96.0 , 4129.74358974 , 4129.23076923 , 4184.1025641 , 4136.92307692 , 4136.41025641 , 4134.35897436 , 4123.07692308 , 4136.41025641 , 4142.56410256 , 4146.66666667 , 4170.76923077 , 4709.23076923 , 4134.87179487 , 4137.43589744 , 2029.0 , 2031.0 , 6.523 , 0.0 , 0.0 , 0.0 , 0.0 , 

97.0 , 4127.69230769 , 4129.74358974 , 4189.74358974 , 4136.92307692 , 4134.87179487 , 4134.35897436 , 4126.15384615 , 4139.48717949 , 4144.61538462 , 4147.17948718 , 4169.74358974 , 4708.20512821 , 4133.84615385 , 4138.97435897 , 2029.0 , 2032.0 , 6.531 , 0.0 , 0.0 , 0.0 , 0.0 , 

98.0 , 4137.43589744 , 4128.71794872 , 4192.82051282 , 4138.46153846 , 4134.87179487 , 4134.35897436 , 4134.87179487 , 4138.97435897 , 4142.56410256 , 4146.15384615 , 4166.66666667 , 4709.23076923 , 4133.33333333 , 4137.94871795 , 2028.0 , 2031.0 , 6.539 , 0.0 , 0.0 , 0.0 , 0.0 , 

99.0 , 4140.51282051 , 4128.71794872 , 4198.46153846 , 4138.46153846 , 4135.38461538 , 4134.35897436 , 4132.82051282 , 4135.8974359 , 4139.48717949 , 4145.12820513 , 4167.69230769 , 4711.28205128 , 4133.84615385 , 4137.43589744 , 2027.0 , 2031.0 , 6.547 , 0.0 , 0.0 , 0.0 , 0.0 , 

100.0 , 4131.28205128 , 4129.74358974 , 4200.51282051 , 4136.41025641 , 4134.35897436 , 4134.35897436 , 4132.30769231 , 4136.92307692 , 4137.94871795 , 4145.64102564 , 4170.76923077 , 4709.23076923 , 4132.30769231 , 4136.92307692 , 2028.0 , 2032.0 , 6.555 , 0.0 , 0.0 , 0.0 , 0.0 , 

101.0 , 4127.69230769 , 4128.71794872 , 4199.48717949 , 4135.38461538 , 4134.35897436 , 4134.35897436 , 4135.8974359 , 4140.0 , 4137.94871795 , 4144.61538462 , 4169.74358974 , 4708.71794872 , 4129.74358974 , 4138.97435897 , 2028.0 , 2032.0 , 6.562 , 0.0 , 0.0 , 0.0 , 0.0 , 

102.0 , 4132.30769231 , 4127.69230769 , 4203.58974359 , 4134.35897436 , 4135.8974359 , 4134.35897436 , 4134.87179487 , 4134.87179487 , 4136.92307692 , 4141.53846154 , 4169.74358974 , 4710.76923077 , 4131.79487179 , 4138.46153846 , 2029.0 , 2035.0 , 6.571 , 0.0 , 0.0 , 0.0 , 0.0 , 

103.0 , 4134.87179487 , 4127.17948718 , 4203.58974359 , 4136.41025641 , 4134.35897436 , 4134.35897436 , 4132.30769231 , 4134.35897436 , 4137.94871795 , 4141.02564103 , 4172.82051282 , 4711.28205128 , 4133.84615385 , 4137.43589744 , 2031.0 , 2034.0 , 6.579 , 0.0 , 0.0 , 0.0 , 0.0 , 

104.0 , 4129.74358974 , 4129.23076923 , 4214.87179487 , 4137.94871795 , 4133.84615385 , 4133.84615385 , 4132.82051282 , 4141.53846154 , 4140.0 , 4144.61538462 , 4173.84615385 , 4713.33333333 , 4132.30769231 , 4138.97435897 , 2030.0 , 2034.0 , 6.587 , 0.0 , 0.0 , 0.0 , 0.0 , 

105.0 , 4128.20512821 , 4132.82051282 , 4201.53846154 , 4136.41025641 , 4135.38461538 , 4134.87179487 , 4135.38461538 , 4137.94871795 , 4137.94871795 , 4145.12820513 , 4170.76923077 , 4713.84615385 , 4130.25641026 , 4138.46153846 , 2032.0 , 2034.0 , 6.596 , 0.0 , 0.0 , 0.0 , 0.0 , 

106.0 , 4129.74358974 , 4132.82051282 , 4196.92307692 , 4135.38461538 , 4135.38461538 , 4134.87179487 , 4131.79487179 , 4131.28205128 , 4136.41025641 , 4144.1025641 , 4169.74358974 , 4713.33333333 , 4132.30769231 , 4135.8974359 , 2033.0 , 2034.0 , 6.602 , 0.0 , 0.0 , 0.0 , 0.0 , 

107.0 , 4130.76923077 , 4131.28205128 , 4189.23076923 , 4136.41025641 , 4133.84615385 , 4131.79487179 , 4127.17948718 , 4131.79487179 , 4135.8974359 , 4141.53846154 , 4171.28205128 , 4712.30769231 , 4131.28205128 , 4135.38461538 , 2032.0 , 2031.0 , 6.61 , 0.0 , 0.0 , 0.0 , 0.0 , 

108.0 , 4128.71794872 , 4131.28205128 , 4186.66666667 , 4137.43589744 , 4134.35897436 , 4131.79487179 , 4127.69230769 , 4131.79487179 , 4136.92307692 , 4141.53846154 , 4171.79487179 , 4713.84615385 , 4129.23076923 , 4135.8974359 , 2033.0 , 2030.0 , 6.618 , 0.0 , 0.0 , 0.0 , 0.0 , 

109.0 , 4130.25641026 , 4131.28205128 , 4178.97435897 , 4137.43589744 , 4134.87179487 , 4136.41025641 , 4129.74358974 , 4131.28205128 , 4136.92307692 , 4141.02564103 , 4169.74358974 , 4715.38461538 , 4128.20512821 , 4134.87179487 , 2032.0 , 2031.0 , 6.626 , 0.0 , 0.0 , 0.0 , 0.0 , 

110.0 , 4133.33333333 , 4129.74358974 , 4195.38461538 , 4136.92307692 , 4133.84615385 , 4134.87179487 , 4127.69230769 , 4136.92307692 , 4138.46153846 , 4142.05128205 , 4170.25641026 , 4719.48717949 , 4130.25641026 , 4136.41025641 , 2032.0 , 2030.0 , 6.634 , 0.0 , 0.0 , 0.0 , 0.0 , 

111.0 , 4131.28205128 , 4129.74358974 , 4196.41025641 , 4135.8974359 , 4134.87179487 , 4132.30769231 , 4127.17948718 , 4136.92307692 , 4135.38461538 , 4143.07692308 , 4170.25641026 , 4720.0 , 4129.74358974 , 4137.94871795 , 2031.0 , 2030.0 , 6.643 , 0.0 , 0.0 , 0.0 , 0.0 , 

112.0 , 4129.74358974 , 4130.76923077 , 4191.28205128 , 4135.8974359 , 4134.35897436 , 4133.84615385 , 4127.69230769 , 4136.41025641 , 4134.87179487 , 4144.61538462 , 4170.76923077 , 4721.53846154 , 4131.28205128 , 4137.94871795 , 2029.0 , 2033.0 , 6.65 , 0.0 , 0.0 , 0.0 , 0.0 , 

113.0 , 4132.82051282 , 4130.76923077 , 4193.84615385 , 4135.8974359 , 4132.30769231 , 4128.71794872 , 4124.1025641 , 4137.43589744 , 4136.41025641 , 4145.64102564 , 4169.74358974 , 4722.05128205 , 4134.35897436 , 4136.41025641 , 2030.0 , 2034.0 , 6.658 , 0.0 , 0.0 , 0.0 , 0.0 , 

114.0 , 4133.84615385 , 4130.25641026 , 4202.56410256 , 4135.8974359 , 4132.82051282 , 4126.15384615 , 4126.66666667 , 4136.92307692 , 4136.92307692 , 4145.64102564 , 4171.28205128 , 4721.53846154 , 4133.33333333 , 4136.41025641 , 2031.0 , 2034.0 , 6.665 , 0.0 , 0.0 , 0.0 , 0.0 , 

115.0 , 4132.82051282 , 4129.74358974 , 4196.92307692 , 4135.8974359 , 4132.82051282 , 4133.84615385 , 4130.76923077 , 4134.35897436 , 4135.38461538 , 4144.1025641 , 4170.76923077 , 4723.58974359 , 4129.23076923 , 4136.41025641 , 2030.0 , 2033.0 , 6.674 , 0.0 , 0.0 , 0.0 , 0.0 , 

116.0 , 4131.79487179 , 4128.71794872 , 4196.41025641 , 4135.8974359 , 4131.79487179 , 4135.8974359 , 4129.74358974 , 4136.41025641 , 4136.92307692 , 4143.07692308 , 4168.71794872 , 4725.64102564 , 4132.30769231 , 4136.41025641 , 2029.0 , 2033.0 , 6.68 , 0.0 , 0.0 , 0.0 , 0.0 , 

117.0 , 4130.76923077 , 4129.74358974 , 4196.41025641 , 4135.8974359 , 4132.82051282 , 4131.28205128 , 4126.15384615 , 4136.41025641 , 4137.94871795 , 4141.53846154 , 4168.20512821 , 4722.56410256 , 4136.41025641 , 4136.92307692 , 2030.0 , 2033.0 , 6.688 , 0.0 , 0.0 , 0.0 , 0.0 , 

118.0 , 4129.23076923 , 4132.30769231 , 4195.8974359 , 4137.43589744 , 4135.38461538 , 4132.82051282 , 4124.1025641 , 4135.38461538 , 4137.43589744 , 4140.51282051 , 4169.74358974 , 4723.58974359 , 4133.84615385 , 4135.8974359 , 2031.0 , 2032.0 , 6.697 , 0.0 , 0.0 , 0.0 , 0.0 , 

119.0 , 4128.71794872 , 4131.79487179 , 4191.79487179 , 4138.97435897 , 4134.87179487 , 4134.87179487 , 4127.17948718 , 4137.43589744 , 4137.43589744 , 4141.02564103 , 4169.74358974 , 4730.25641026 , 4129.23076923 , 4135.8974359 , 2032.0 , 2032.0 , 6.704 , 0.0 , 0.0 , 0.0 , 0.0 , 

120.0 , 4129.23076923 , 4128.71794872 , 4189.74358974 , 4138.97435897 , 4135.38461538 , 4132.82051282 , 4129.74358974 , 4135.38461538 , 4137.94871795 , 4141.53846154 , 4169.23076923 , 4729.23076923 , 4131.79487179 , 4137.43589744 , 2032.0 , 2034.0 , 6.712 , 0.0 , 0.0 , 0.0 , 0.0 , 

121.0 , 4133.33333333 , 4129.23076923 , 4194.87179487 , 4137.43589744 , 4134.87179487 , 4132.30769231 , 4127.69230769 , 4129.23076923 , 4137.43589744 , 4143.58974359 , 4170.76923077 , 4726.15384615 , 4136.41025641 , 4136.92307692 , 2032.0 , 2034.0 , 6.721 , 0.0 , 0.0 , 0.0 , 0.0 , 

122.0 , 4137.94871795 , 4132.30769231 , 4189.74358974 , 4136.92307692 , 4132.30769231 , 4133.84615385 , 4125.64102564 , 4130.76923077 , 4136.92307692 , 4147.69230769 , 4171.79487179 , 4730.76923077 , 4135.38461538 , 4135.38461538 , 2031.0 , 2033.0 , 6.729 , 0.0 , 0.0 , 0.0 , 0.0 , 

123.0 , 4132.82051282 , 4132.82051282 , 4191.28205128 , 4137.43589744 , 4134.35897436 , 4130.76923077 , 4128.71794872 , 4136.92307692 , 4136.92307692 , 4147.17948718 , 4170.25641026 , 4732.30769231 , 4131.28205128 , 4136.41025641 , 2031.0 , 2030.0 , 6.736 , 0.0 , 0.0 , 0.0 , 0.0 , 

124.0 , 4129.74358974 , 4128.71794872 , 4189.23076923 , 4137.43589744 , 4135.8974359 , 4126.15384615 , 4131.28205128 , 4137.43589744 , 4135.8974359 , 4141.53846154 , 4167.69230769 , 4731.28205128 , 4131.79487179 , 4137.94871795 , 2032.0 , 2029.0 , 6.745 , 0.0 , 0.0 , 0.0 , 0.0 , 

125.0 , 4131.79487179 , 4129.74358974 , 4191.79487179 , 4137.43589744 , 4134.87179487 , 4129.23076923 , 4129.23076923 , 4135.38461538 , 4135.8974359 , 4140.0 , 4170.25641026 , 4733.84615385 , 4134.35897436 , 4137.43589744 , 2032.0 , 2030.0 , 6.752 , 0.0 , 0.0 , 0.0 , 0.0 , 

126.0 , 4132.30769231 , 4136.92307692 , 4193.33333333 , 4137.94871795 , 4134.35897436 , 4134.35897436 , 4124.1025641 , 4135.38461538 , 4135.8974359 , 4141.53846154 , 4174.87179487 , 4736.41025641 , 4133.84615385 , 4135.38461538 , 2032.0 , 2028.0 , 6.759 , 0.0 , 0.0 , 0.0 , 0.0 , 

127.0 , 4130.25641026 , 4134.87179487 , 4192.82051282 , 4136.92307692 , 4135.38461538 , 4132.30769231 , 4122.56410256 , 4134.87179487 , 4135.8974359 , 4142.05128205 , 4172.30769231 , 4734.87179487 , 4134.87179487 , 4135.38461538 , 2032.0 , 2029.0 , 6.768 , 0.0 , 0.0 , 0.0 , 0.0 , 

128.0 , 4130.76923077 , 4129.74358974 , 4189.74358974 , 4135.8974359 , 4136.41025641 , 4133.84615385 , 4124.61538462 , 4135.38461538 , 4136.92307692 , 4145.12820513 , 4168.20512821 , 4735.38461538 , 4134.87179487 , 4137.43589744 , 2032.0 , 2029.0 , 6.775 , 0.0 , 0.0 , 0.0 , 0.0 , 

0.0 , 4130.76923077 , 4131.79487179 , 4198.97435897 , 4135.38461538 , 4135.8974359 , 4134.35897436 , 4124.61538462 , 4135.8974359 , 4137.94871795 , 4145.64102564 , 4170.25641026 , 4737.43589744 , 4135.38461538 , 4137.94871795 , 2032.0 , 2030.0 , 6.783 , 0.0 , 0.0 , 0.0 , 0.0 , 

1.0 , 4129.74358974 , 4132.82051282 , 4198.46153846 , 4135.8974359 , 4135.8974359 , 4127.17948718 , 4124.1025641 , 4134.35897436 , 4136.41025641 , 4139.48717949 , 4171.79487179 , 4734.87179487 , 4135.38461538 , 4136.41025641 , 2031.0 , 2032.0 , 6.791 , 0.0 , 0.0 , 0.0 , 0.0 , 

2.0 , 4131.28205128 , 4129.23076923 , 4196.41025641 , 4135.8974359 , 4136.41025641 , 4125.64102564 , 4124.61538462 , 4135.8974359 , 4135.8974359 , 4135.38461538 , 4169.74358974 , 4736.41025641 , 4135.8974359 , 4136.92307692 , 2031.0 , 2030.0 , 6.8 , 0.0 , 0.0 , 0.0 , 0.0 , 

3.0 , 4131.79487179 , 4130.25641026 , 4193.84615385 , 4134.87179487 , 4135.8974359 , 4129.23076923 , 4125.12820513 , 4136.41025641 , 4136.92307692 , 4139.48717949 , 4169.23076923 , 4736.92307692 , 4134.35897436 , 4137.43589744 , 2030.0 , 2031.0 , 6.808 , 0.0 , 0.0 , 0.0 , 0.0 , 

4.0 , 4131.28205128 , 4131.28205128 , 4200.51282051 , 4135.38461538 , 4129.74358974 , 4128.20512821 , 4126.15384615 , 4135.38461538 , 4136.41025641 , 4151.79487179 , 4170.25641026 , 4734.87179487 , 4135.38461538 , 4136.92307692 , 2032.0 , 2035.0 , 6.814 , 0.0 , 0.0 , 0.0 , 0.0 , 

5.0 , 4131.79487179 , 4128.71794872 , 4198.97435897 , 4135.8974359 , 4126.66666667 , 4127.17948718 , 4128.71794872 , 4135.8974359 , 4135.8974359 , 4152.82051282 , 4170.76923077 , 4738.46153846 , 4134.87179487 , 4136.41025641 , 2032.0 , 2035.0 , 6.822 , 0.0 , 0.0 , 0.0 , 0.0 , 

6.0 , 4130.76923077 , 4129.74358974 , 4195.38461538 , 4135.8974359 , 4133.33333333 , 4128.20512821 , 4129.74358974 , 4136.41025641 , 4136.41025641 , 4143.07692308 , 4171.28205128 , 4743.07692308 , 4134.35897436 , 4136.92307692 , 2030.0 , 2035.0 , 6.83 , 0.0 , 0.0 , 0.0 , 0.0 , 

7.0 , 4129.74358974 , 4131.28205128 , 4191.79487179 , 4136.92307692 , 4136.92307692 , 4133.33333333 , 4128.20512821 , 4134.35897436 , 4135.8974359 , 4134.87179487 , 4170.76923077 , 4743.07692308 , 4134.87179487 , 4136.92307692 , 2030.0 , 2032.0 , 6.839 , 0.0 , 0.0 , 0.0 , 0.0 , 

8.0 , 4129.74358974 , 4129.74358974 , 4191.28205128 , 4137.43589744 , 4130.76923077 , 4138.97435897 , 4125.64102564 , 4133.84615385 , 4135.8974359 , 4136.92307692 , 4170.76923077 , 4746.15384615 , 4135.38461538 , 4136.41025641 , 2031.0 , 2031.0 , 6.847 , 0.0 , 0.0 , 0.0 , 0.0 , 

9.0 , 4132.30769231 , 4128.71794872 , 4190.76923077 , 4136.92307692 , 4126.66666667 , 4131.79487179 , 4124.1025641 , 4134.87179487 , 4135.8974359 , 4140.51282051 , 4171.28205128 , 4751.79487179 , 4135.38461538 , 4135.8974359 , 2031.0 , 2029.0 , 6.855 , 0.0 , 0.0 , 0.0 , 0.0 , 

10.0 , 4134.87179487 , 4128.71794872 , 4188.71794872 , 4136.92307692 , 4131.79487179 , 4127.17948718 , 4129.23076923 , 4134.87179487 , 4135.8974359 , 4140.51282051 , 4170.76923077 , 4750.76923077 , 4135.8974359 , 4134.87179487 , 2032.0 , 2027.0 , 6.863 , 0.0 , 0.0 , 0.0 , 0.0 , 

11.0 , 4134.87179487 , 4130.25641026 , 4191.28205128 , 4137.94871795 , 4133.33333333 , 4131.28205128 , 4130.25641026 , 4134.35897436 , 4135.8974359 , 4138.97435897 , 4170.25641026 , 4747.69230769 , 4135.8974359 , 4134.87179487 , 2030.0 , 2027.0 , 6.871 , 0.0 , 0.0 , 0.0 , 0.0 , 

12.0 , 4132.82051282 , 4131.79487179 , 4185.64102564 , 4138.46153846 , 4132.30769231 , 4129.23076923 , 4122.56410256 , 4135.38461538 , 4135.8974359 , 4137.94871795 , 4169.74358974 , 4749.74358974 , 4135.8974359 , 4136.92307692 , 2031.0 , 2026.0 , 6.878 , 0.0 , 0.0 , 0.0 , 0.0 , 

13.0 , 4130.76923077 , 4129.23076923 , 4187.17948718 , 4137.43589744 , 4134.87179487 , 4129.23076923 , 4128.20512821 , 4135.38461538 , 4135.8974359 , 4145.64102564 , 4170.76923077 , 4749.74358974 , 4136.41025641 , 4137.43589744 , 2032.0 , 2027.0 , 6.886 , 0.0 , 0.0 , 0.0 , 0.0 , 

14.0 , 4131.28205128 , 4127.69230769 , 4189.74358974 , 4136.92307692 , 4134.35897436 , 4135.8974359 , 4141.02564103 , 4134.87179487 , 4135.8974359 , 4147.17948718 , 4170.25641026 , 4749.23076923 , 4135.8974359 , 4135.8974359 , 2032.0 , 2026.0 , 6.893 , 0.0 , 0.0 , 0.0 , 0.0 , 

15.0 , 4131.79487179 , 4129.74358974 , 4186.66666667 , 4137.43589744 , 4128.71794872 , 4129.74358974 , 4133.84615385 , 4135.38461538 , 4135.8974359 , 4137.43589744 , 4169.23076923 , 4749.23076923 , 4135.8974359 , 4137.43589744 , 2033.0 , 2027.0 , 6.902 , 0.0 , 0.0 , 0.0 , 0.0 , 

16.0 , 4131.79487179 , 4129.74358974 , 4185.12820513 , 4137.43589744 , 4130.76923077 , 4122.05128205 , 4126.15384615 , 4135.8974359 , 4135.8974359 , 4135.8974359 , 4169.74358974 , 4750.76923077 , 4135.8974359 , 4137.94871795 , 2032.0 , 2027.0 , 6.91 , 0.0 , 0.0 , 0.0 , 0.0 , 

17.0 , 4130.25641026 , 4128.20512821 , 4192.30769231 , 4135.8974359 , 4136.41025641 , 4125.64102564 , 4131.79487179 , 4135.8974359 , 4135.8974359 , 4143.07692308 , 4171.79487179 , 4751.28205128 , 4135.8974359 , 4136.92307692 , 2034.0 , 2029.0 , 6.918 , 0.0 , 0.0 , 0.0 , 0.0 , 

18.0 , 4129.74358974 , 4128.71794872 , 4192.82051282 , 4135.38461538 , 4134.35897436 , 4127.69230769 , 4130.25641026 , 4135.8974359 , 4135.8974359 , 4141.02564103 , 4171.28205128 , 4750.25641026 , 4133.84615385 , 4136.41025641 , 2033.0 , 2030.0 , 6.926 , 0.0 , 0.0 , 0.0 , 0.0 , 

19.0 , 4130.76923077 , 4130.76923077 , 4188.20512821 , 4136.41025641 , 4131.28205128 , 4125.12820513 , 4125.12820513 , 4136.41025641 , 4135.8974359 , 4136.92307692 , 4170.25641026 , 4752.30769231 , 4132.82051282 , 4137.43589744 , 2033.0 , 2032.0 , 6.933 , 0.0 , 0.0 , 0.0 , 0.0 , 

20.0 , 4132.30769231 , 4132.30769231 , 4187.17948718 , 4137.94871795 , 4134.35897436 , 4126.66666667 , 4134.35897436 , 4135.8974359 , 4135.8974359 , 4137.94871795 , 4172.30769231 , 4752.30769231 , 4135.38461538 , 4137.94871795 , 2032.0 , 2033.0 , 6.942 , 0.0 , 0.0 , 0.0 , 0.0 , 

21.0 , 4129.74358974 , 4131.79487179 , 4189.74358974 , 4136.92307692 , 4134.35897436 , 4129.74358974 , 4136.92307692 , 4136.41025641 , 4136.41025641 , 4136.41025641 , 4171.79487179 , 4752.82051282 , 4136.41025641 , 4137.43589744 , 2031.0 , 2033.0 , 6.949 , 0.0 , 0.0 , 0.0 , 0.0 , 

22.0 , 4130.25641026 , 4131.79487179 , 4185.64102564 , 4135.8974359 , 4131.28205128 , 4134.87179487 , 4128.20512821 , 4137.43589744 , 4135.8974359 , 4141.02564103 , 4169.74358974 , 4753.33333333 , 4134.87179487 , 4136.41025641 , 2031.0 , 2032.0 , 6.957 , 0.0 , 0.0 , 0.0 , 0.0 , 

23.0 , 4132.82051282 , 4132.30769231 , 4182.05128205 , 4135.38461538 , 4133.84615385 , 4135.38461538 , 4126.66666667 , 4136.41025641 , 4136.41025641 , 4146.66666667 , 4169.23076923 , 4752.82051282 , 4135.38461538 , 4136.92307692 , 2032.0 , 2031.0 , 6.964 , 0.0 , 0.0 , 0.0 , 0.0 , 

24.0 , 4131.79487179 , 4130.76923077 , 4182.05128205 , 4136.41025641 , 4135.38461538 , 4127.69230769 , 4127.69230769 , 4134.87179487 , 4136.41025641 , 4140.51282051 , 4171.28205128 , 4757.94871795 , 4136.41025641 , 4138.46153846 , 2032.0 , 2031.0 , 6.973 , 0.0 , 0.0 , 0.0 , 0.0 , 

25.0 , 4130.76923077 , 4129.23076923 , 4186.15384615 , 4136.41025641 , 4131.79487179 , 4125.64102564 , 4126.66666667 , 4135.38461538 , 4135.38461538 , 4132.30769231 , 4170.76923077 , 4758.46153846 , 4135.8974359 , 4137.94871795 , 2033.0 , 2030.0 , 6.981 , 0.0 , 0.0 , 0.0 , 0.0 , 

26.0 , 4132.30769231 , 4130.76923077 , 4184.61538462 , 4135.38461538 , 4134.87179487 , 4130.76923077 , 4127.17948718 , 4136.41025641 , 4135.38461538 , 4139.48717949 , 4169.74358974 , 4755.8974359 , 4135.8974359 , 4136.92307692 , 2033.0 , 2030.0 , 6.989 , 0.0 , 0.0 , 0.0 , 0.0 , 

27.0 , 4132.82051282 , 4132.82051282 , 4181.02564103 , 4135.8974359 , 4137.43589744 , 4128.20512821 , 4126.66666667 , 4135.8974359 , 4135.8974359 , 4151.79487179 , 4171.28205128 , 4762.05128205 , 4135.8974359 , 4137.94871795 , 2036.0 , 2030.0 , 6.996 , 0.0 , 0.0 , 0.0 , 0.0 , 

28.0 , 4131.79487179 , 4132.30769231 , 4179.48717949 , 4137.94871795 , 4132.82051282 , 4124.1025641 , 4124.61538462 , 4135.8974359 , 4135.8974359 , 4148.20512821 , 4170.25641026 , 4768.71794872 , 4134.35897436 , 4137.94871795 , 2037.0 , 2031.0 , 7.005 , 0.0 , 0.0 , 0.0 , 0.0 , 

29.0 , 4132.30769231 , 4131.79487179 , 4178.97435897 , 4137.94871795 , 4131.79487179 , 4126.15384615 , 4125.12820513 , 4135.8974359 , 4135.38461538 , 4136.92307692 , 4167.69230769 , 4762.56410256 , 4134.87179487 , 4136.41025641 , 2039.0 , 2031.0 , 7.012 , 0.0 , 0.0 , 0.0 , 0.0 , 

30.0 , 4132.82051282 , 4129.74358974 , 4180.51282051 , 4136.41025641 , 4134.35897436 , 4127.69230769 , 4126.15384615 , 4136.41025641 , 4135.38461538 , 4137.43589744 , 4171.79487179 , 4760.0 , 4135.38461538 , 4136.41025641 , 2040.0 , 2032.0 , 7.02 , 0.0 , 0.0 , 0.0 , 0.0 , 

31.0 , 4132.30769231 , 4129.74358974 , 4180.0 , 4137.43589744 , 4132.82051282 , 4127.17948718 , 4126.15384615 , 4136.92307692 , 4135.8974359 , 4143.07692308 , 4174.87179487 , 4765.64102564 , 4135.8974359 , 4137.94871795 , 2041.0 , 2034.0 , 7.027 , 0.0 , 0.0 , 0.0 , 0.0 , 

32.0 , 4131.28205128 , 4130.76923077 , 4179.48717949 , 4137.43589744 , 4131.79487179 , 4125.12820513 , 4126.66666667 , 4136.41025641 , 4136.41025641 , 4138.97435897 , 4172.82051282 , 4766.66666667 , 4135.8974359 , 4137.43589744 , 2040.0 , 2036.0 , 7.035 , 0.0 , 0.0 , 0.0 , 0.0 , 

33.0 , 4129.74358974 , 4129.74358974 , 4179.48717949 , 4135.8974359 , 4133.84615385 , 4126.15384615 , 4124.1025641 , 4134.87179487 , 4136.41025641 , 4135.38461538 , 4173.33333333 , 4766.15384615 , 4135.8974359 , 4137.94871795 , 2041.0 , 2036.0 , 7.043 , 0.0 , 0.0 , 0.0 , 0.0 , 

34.0 , 4130.25641026 , 4127.69230769 , 4182.56410256 , 4135.8974359 , 4134.35897436 , 4132.30769231 , 4126.66666667 , 4135.38461538 , 4135.8974359 , 4138.97435897 , 4173.84615385 , 4766.66666667 , 4135.8974359 , 4138.46153846 , 2042.0 , 2037.0 , 7.051 , 0.0 , 0.0 , 0.0 , 0.0 , 

35.0 , 4133.33333333 , 4128.20512821 , 4181.02564103 , 4136.92307692 , 4135.38461538 , 4128.71794872 , 4137.43589744 , 4135.8974359 , 4136.41025641 , 4140.0 , 4169.74358974 , 4766.66666667 , 4135.8974359 , 4136.92307692 , 2041.0 , 2036.0 , 7.059 , 0.0 , 0.0 , 0.0 , 0.0 , 

36.0 , 4131.79487179 , 4129.74358974 , 4178.46153846 , 4136.41025641 , 4134.35897436 , 4126.15384615 , 4135.8974359 , 4134.87179487 , 4136.92307692 , 4138.97435897 , 4170.76923077 , 4766.15384615 , 4135.8974359 , 4137.43589744 , 2042.0 , 2036.0 , 7.067 , 0.0 , 0.0 , 0.0 , 0.0 , 

37.0 , 4130.25641026 , 4131.28205128 , 4177.43589744 , 4135.8974359 , 4131.79487179 , 4135.38461538 , 4124.61538462 , 4134.87179487 , 4136.92307692 , 4138.46153846 , 4173.84615385 , 4765.64102564 , 4135.8974359 , 4137.94871795 , 2043.0 , 2035.0 , 7.076 , 0.0 , 0.0 , 0.0 , 0.0 , 

38.0 , 4130.76923077 , 4131.28205128 , 4179.48717949 , 4136.41025641 , 4133.33333333 , 4134.35897436 , 4127.17948718 , 4135.8974359 , 4137.43589744 , 4138.97435897 , 4172.30769231 , 4768.20512821 , 4135.8974359 , 4137.94871795 , 2044.0 , 2031.0 , 7.083 , 0.0 , 0.0 , 0.0 , 0.0 , 

39.0 , 4131.79487179 , 4131.28205128 , 4178.46153846 , 4136.41025641 , 4133.33333333 , 4124.1025641 , 4136.92307692 , 4136.41025641 , 4136.41025641 , 4138.46153846 , 4170.25641026 , 4767.17948718 , 4136.41025641 , 4139.48717949 , 2045.0 , 2029.0 , 7.091 , 0.0 , 0.0 , 0.0 , 0.0 , 

40.0 , 4130.76923077 , 4132.30769231 , 4179.48717949 , 4135.8974359 , 4132.30769231 , 4127.17948718 , 4134.35897436 , 4135.8974359 , 4135.8974359 , 4135.8974359 , 4171.28205128 , 4767.17948718 , 4135.8974359 , 4138.97435897 , 2045.0 , 2028.0 , 7.099 , 0.0 , 0.0 , 0.0 , 0.0 , 

41.0 , 4132.82051282 , 4134.87179487 , 4181.53846154 , 4136.41025641 , 4134.87179487 , 4133.33333333 , 4134.35897436 , 4135.8974359 , 4136.92307692 , 4139.48717949 , 4173.33333333 , 4773.84615385 , 4134.35897436 , 4136.92307692 , 2046.0 , 2025.0 , 7.107 , 0.0 , 0.0 , 0.0 , 0.0 , 

42.0 , 4134.87179487 , 4134.35897436 , 4184.1025641 , 4136.41025641 , 4135.38461538 , 4129.74358974 , 4136.41025641 , 4135.8974359 , 4137.43589744 , 4142.56410256 , 4172.82051282 , 4775.8974359 , 4134.35897436 , 4137.43589744 , 2046.0 , 2024.0 , 7.114 , 0.0 , 0.0 , 0.0 , 0.0 , 

43.0 , 4132.82051282 , 4131.79487179 , 4181.02564103 , 4135.8974359 , 4134.35897436 , 4125.64102564 , 4129.74358974 , 4135.8974359 , 4136.41025641 , 4138.97435897 , 4171.28205128 , 4773.84615385 , 4136.92307692 , 4137.94871795 , 2048.0 , 2027.0 , 7.123 , 0.0 , 0.0 , 0.0 , 0.0 , 

44.0 , 4130.76923077 , 4131.28205128 , 4175.38461538 , 4136.41025641 , 4134.87179487 , 4126.66666667 , 4125.64102564 , 4135.8974359 , 4135.8974359 , 4143.07692308 , 4171.28205128 , 4775.8974359 , 4137.43589744 , 4136.92307692 , 2048.0 , 2027.0 , 7.13 , 0.0 , 0.0 , 0.0 , 0.0 , 

45.0 , 4131.79487179 , 4132.30769231 , 4174.87179487 , 4135.8974359 , 4136.92307692 , 4133.33333333 , 4129.23076923 , 4135.8974359 , 4136.41025641 , 4152.82051282 , 4171.28205128 , 4780.0 , 4135.8974359 , 4137.43589744 , 2048.0 , 2029.0 , 7.139 , 0.0 , 0.0 , 0.0 , 0.0 , 

46.0 , 4132.30769231 , 4131.79487179 , 4175.8974359 , 4135.8974359 , 4135.8974359 , 4134.35897436 , 4132.30769231 , 4135.8974359 , 4135.8974359 , 4149.74358974 , 4171.79487179 , 4779.48717949 , 4135.8974359 , 4137.43589744 , 2049.0 , 2031.0 , 7.146 , 0.0 , 0.0 , 0.0 , 0.0 , 

47.0 , 4131.28205128 , 4129.23076923 , 4172.82051282 , 4138.46153846 , 4134.87179487 , 4125.12820513 , 4128.20512821 , 4135.8974359 , 4135.8974359 , 4137.94871795 , 4171.28205128 , 4780.51282051 , 4136.41025641 , 4136.92307692 , 2049.0 , 2032.0 , 7.154 , 0.0 , 0.0 , 0.0 , 0.0 , 

48.0 , 4130.76923077 , 4127.69230769 , 4169.23076923 , 4138.46153846 , 4134.87179487 , 4124.61538462 , 4128.71794872 , 4135.8974359 , 4135.8974359 , 4135.38461538 , 4168.20512821 , 4782.05128205 , 4135.8974359 , 4137.43589744 , 2048.0 , 2035.0 , 7.161 , 0.0 , 0.0 , 0.0 , 0.0 , 

49.0 , 4130.76923077 , 4127.69230769 , 4168.71794872 , 4134.87179487 , 4135.8974359 , 4129.23076923 , 4130.25641026 , 4135.8974359 , 4135.8974359 , 4143.07692308 , 4172.82051282 , 4780.0 , 4135.8974359 , 4136.92307692 , 2048.0 , 2036.0 , 7.169 , 0.0 , 0.0 , 0.0 , 0.0 , 

50.0 , 4130.25641026 , 4129.74358974 , 4169.23076923 , 4135.38461538 , 4135.8974359 , 4125.12820513 , 4126.66666667 , 4136.41025641 , 4135.8974359 , 4151.79487179 , 4178.97435897 , 4781.02564103 , 4136.41025641 , 4136.92307692 , 2049.0 , 2035.0 , 7.178 , 0.0 , 0.0 , 0.0 , 0.0 , 

51.0 , 4130.25641026 , 4132.30769231 , 4170.76923077 , 4137.94871795 , 4135.8974359 , 4127.69230769 , 4129.74358974 , 4135.38461538 , 4135.8974359 , 4152.30769231 , 4173.84615385 , 4782.05128205 , 4136.41025641 , 4137.43589744 , 2048.0 , 2034.0 , 7.185 , 0.0 , 0.0 , 0.0 , 0.0 , 

52.0 , 4131.28205128 , 4131.79487179 , 4170.25641026 , 4136.92307692 , 4135.38461538 , 4138.46153846 , 4137.94871795 , 4134.35897436 , 4135.8974359 , 4143.07692308 , 4167.17948718 , 4782.56410256 , 4135.8974359 , 4137.94871795 , 2050.0 , 2032.0 , 7.194 , 0.0 , 0.0 , 0.0 , 0.0 , 

53.0 , 4131.28205128 , 4130.76923077 , 4169.23076923 , 4136.92307692 , 4135.38461538 , 4135.8974359 , 4135.8974359 , 4134.87179487 , 4135.8974359 , 4137.43589744 , 4171.79487179 , 4781.53846154 , 4136.41025641 , 4137.94871795 , 2051.0 , 2033.0 , 7.202 , 0.0 , 0.0 , 0.0 , 0.0 , 

54.0 , 4131.28205128 , 4133.84615385 , 4166.66666667 , 4137.94871795 , 4135.38461538 , 4128.71794872 , 4131.28205128 , 4135.38461538 , 4135.8974359 , 4137.94871795 , 4178.97435897 , 4779.48717949 , 4135.8974359 , 4136.92307692 , 2049.0 , 2033.0 , 7.209 , 0.0 , 0.0 , 0.0 , 0.0 , 

55.0 , 4131.28205128 , 4133.84615385 , 4169.74358974 , 4138.46153846 , 4134.87179487 , 4130.76923077 , 4132.82051282 , 4136.41025641 , 4135.8974359 , 4137.43589744 , 4176.41025641 , 4780.0 , 4134.87179487 , 4136.92307692 , 2049.0 , 2031.0 , 7.217 , 0.0 , 0.0 , 0.0 , 0.0 , 

56.0 , 4131.79487179 , 4130.76923077 , 4174.87179487 , 4138.97435897 , 4134.35897436 , 4131.79487179 , 4128.71794872 , 4136.41025641 , 4135.8974359 , 4136.92307692 , 4168.20512821 , 4782.56410256 , 4134.35897436 , 4137.94871795 , 2051.0 , 2033.0 , 7.225 , 0.0 , 0.0 , 0.0 , 0.0 , 

57.0 , 4131.28205128 , 4128.71794872 , 4176.92307692 , 4137.94871795 , 4133.84615385 , 4127.69230769 , 4125.64102564 , 4135.8974359 , 4135.8974359 , 4137.94871795 , 4170.76923077 , 4783.58974359 , 4134.35897436 , 4138.46153846 , 2053.0 , 2031.0 , 7.232 , 0.0 , 0.0 , 0.0 , 0.0 , 

58.0 , 4130.25641026 , 4130.25641026 , 4173.33333333 , 4137.94871795 , 4134.35897436 , 4126.66666667 , 4135.38461538 , 4135.8974359 , 4135.8974359 , 4138.97435897 , 4176.92307692 , 4781.53846154 , 4134.35897436 , 4138.46153846 , 2053.0 , 2030.0 , 7.241 , 0.0 , 0.0 , 0.0 , 0.0 , 

59.0 , 4130.76923077 , 4129.74358974 , 4173.33333333 , 4138.46153846 , 4134.87179487 , 4125.64102564 , 4136.41025641 , 4135.38461538 , 4135.8974359 , 4137.43589744 , 4174.35897436 , 4782.05128205 , 4134.35897436 , 4137.43589744 , 2055.0 , 2033.0 , 7.248 , 0.0 , 0.0 , 0.0 , 0.0 , 

60.0 , 4133.33333333 , 4130.76923077 , 4172.30769231 , 4137.94871795 , 4134.87179487 , 4124.61538462 , 4126.15384615 , 4134.87179487 , 4135.8974359 , 4134.87179487 , 4172.30769231 , 4783.58974359 , 4134.87179487 , 4138.46153846 , 2056.0 , 2032.0 , 7.256 , 0.0 , 0.0 , 0.0 , 0.0 , 

61.0 , 4133.33333333 , 4132.30769231 , 4168.71794872 , 4136.41025641 , 4134.87179487 , 4129.74358974 , 4125.12820513 , 4135.38461538 , 4135.8974359 , 4140.51282051 , 4176.92307692 , 4784.61538462 , 4134.35897436 , 4140.0 , 2057.0 , 2033.0 , 7.265 , 0.0 , 0.0 , 0.0 , 0.0 , 

62.0 , 4132.30769231 , 4131.28205128 , 4169.74358974 , 4135.8974359 , 4135.8974359 , 4129.23076923 , 4129.74358974 , 4136.41025641 , 4135.8974359 , 4146.15384615 , 4178.46153846 , 4784.61538462 , 4133.84615385 , 4137.43589744 , 2059.0 , 2033.0 , 7.272 , 0.0 , 0.0 , 0.0 , 0.0 , 

63.0 , 4132.82051282 , 4130.76923077 , 4169.74358974 , 4136.92307692 , 4135.8974359 , 4126.66666667 , 4129.23076923 , 4136.41025641 , 4135.8974359 , 4140.51282051 , 4175.8974359 , 4782.56410256 , 4135.8974359 , 4135.8974359 , 2059.0 , 2035.0 , 7.279 , 0.0 , 0.0 , 0.0 , 0.0 , 

64.0 , 4132.82051282 , 4131.79487179 , 4166.66666667 , 4137.43589744 , 4135.8974359 , 4132.82051282 , 4127.17948718 , 4136.41025641 , 4135.8974359 , 4134.87179487 , 4174.35897436 , 4787.69230769 , 4137.43589744 , 4138.97435897 , 2058.0 , 2037.0 , 7.287 , 0.0 , 0.0 , 0.0 , 0.0 , 

65.0 , 4132.30769231 , 4129.74358974 , 4166.66666667 , 4138.46153846 , 4135.8974359 , 4134.87179487 , 4128.20512821 , 4136.41025641 , 4135.8974359 , 4137.43589744 , 4171.28205128 , 4792.82051282 , 4136.92307692 , 4140.51282051 , 2057.0 , 2036.0 , 7.295 , 0.0 , 0.0 , 0.0 , 0.0 , 

66.0 , 4132.82051282 , 4129.23076923 , 4169.74358974 , 4137.43589744 , 4134.87179487 , 4131.28205128 , 4130.25641026 , 4136.41025641 , 4135.8974359 , 4138.46153846 , 4174.87179487 , 4790.76923077 , 4135.8974359 , 4136.92307692 , 2058.0 , 2035.0 , 7.303 , 0.0 , 0.0 , 0.0 , 0.0 , 

67.0 , 4131.28205128 , 4129.74358974 , 4165.12820513 , 4136.92307692 , 4134.35897436 , 4131.79487179 , 4131.79487179 , 4135.8974359 , 4135.8974359 , 4134.87179487 , 4180.0 , 4787.17948718 , 4136.41025641 , 4136.92307692 , 2058.0 , 2036.0 , 7.311 , 0.0 , 0.0 , 0.0 , 0.0 , 

68.0 , 4131.79487179 , 4129.74358974 , 4161.02564103 , 4137.94871795 , 4135.38461538 , 4134.35897436 , 4131.79487179 , 4135.38461538 , 4136.41025641 , 4135.8974359 , 4173.33333333 , 4789.74358974 , 4136.41025641 , 4137.94871795 , 2058.0 , 2031.0 , 7.319 , 0.0 , 0.0 , 0.0 , 0.0 , 

69.0 , 4137.43589744 , 4131.79487179 , 4162.05128205 , 4138.97435897 , 4135.38461538 , 4132.82051282 , 4131.79487179 , 4136.41025641 , 4135.8974359 , 4137.43589744 , 4167.69230769 , 4792.30769231 , 4135.8974359 , 4137.43589744 , 2058.0 , 2030.0 , 7.328 , 0.0 , 0.0 , 0.0 , 0.0 , 

70.0 , 4134.87179487 , 4131.79487179 , 4168.20512821 , 4137.43589744 , 4134.87179487 , 4130.76923077 , 4131.79487179 , 4135.8974359 , 4136.41025641 , 4136.41025641 , 4171.79487179 , 4791.28205128 , 4135.8974359 , 4136.41025641 , 2059.0 , 2029.0 , 7.336 , 0.0 , 0.0 , 0.0 , 0.0 , 

71.0 , 4127.17948718 , 4130.25641026 , 4166.66666667 , 4135.8974359 , 4135.38461538 , 4128.20512821 , 4129.74358974 , 4134.87179487 , 4136.41025641 , 4141.02564103 , 4171.79487179 , 4792.82051282 , 4135.8974359 , 4135.38461538 , 2058.0 , 2028.0 , 7.343 , 0.0 , 0.0 , 0.0 , 0.0 , 

72.0 , 4129.74358974 , 4130.25641026 , 4163.58974359 , 4135.8974359 , 4134.87179487 , 4130.76923077 , 4129.23076923 , 4134.87179487 , 4135.38461538 , 4148.71794872 , 4170.76923077 , 4794.87179487 , 4136.41025641 , 4136.41025641 , 2058.0 , 2029.0 , 7.35 , 0.0 , 0.0 , 0.0 , 0.0 , 

73.0 , 4135.38461538 , 4130.25641026 , 4162.56410256 , 4136.41025641 , 4134.87179487 , 4138.97435897 , 4130.25641026 , 4134.87179487 , 4135.38461538 , 4151.79487179 , 4175.8974359 , 4796.41025641 , 4135.8974359 , 4136.92307692 , 2059.0 , 2031.0 , 7.359 , 0.0 , 0.0 , 0.0 , 0.0 , 

74.0 , 4132.82051282 , 4129.23076923 , 4163.07692308 , 4136.92307692 , 4135.38461538 , 4135.8974359 , 4130.76923077 , 4134.35897436 , 4136.41025641 , 4151.28205128 , 4177.94871795 , 4794.87179487 , 4136.41025641 , 4136.41025641 , 2060.0 , 2029.0 , 7.367 , 0.0 , 0.0 , 0.0 , 0.0 , 

75.0 , 4130.76923077 , 4131.28205128 , 4158.46153846 , 4136.41025641 , 4134.87179487 , 4129.23076923 , 4132.82051282 , 4133.84615385 , 4135.38461538 , 4146.66666667 , 4175.38461538 , 4795.8974359 , 4136.41025641 , 4134.35897436 , 2061.0 , 2029.0 , 7.375 , 0.0 , 0.0 , 0.0 , 0.0 , 

76.0 , 4132.82051282 , 4131.28205128 , 4158.46153846 , 4136.92307692 , 4134.87179487 , 4130.76923077 , 4132.30769231 , 4134.35897436 , 4134.87179487 , 4138.46153846 , 4173.84615385 , 4796.92307692 , 4135.38461538 , 4134.87179487 , 2061.0 , 2028.0 , 7.382 , 0.0 , 0.0 , 0.0 , 0.0 , 

77.0 , 4133.84615385 , 4129.74358974 , 4162.05128205 , 4138.46153846 , 4135.38461538 , 4133.84615385 , 4125.64102564 , 4136.41025641 , 4136.92307692 , 4135.8974359 , 4174.35897436 , 4795.8974359 , 4134.35897436 , 4137.43589744 , 2060.0 , 2027.0 , 7.391 , 0.0 , 0.0 , 0.0 , 0.0 , 

78.0 , 4132.30769231 , 4131.28205128 , 4153.33333333 , 4137.94871795 , 4134.87179487 , 4132.82051282 , 4125.64102564 , 4137.94871795 , 4136.41025641 , 4138.46153846 , 4174.87179487 , 4796.41025641 , 4135.8974359 , 4137.43589744 , 2060.0 , 2026.0 , 7.399 , 0.0 , 0.0 , 0.0 , 0.0 , 

79.0 , 4130.25641026 , 4133.84615385 , 4154.87179487 , 4136.41025641 , 4133.84615385 , 4133.33333333 , 4131.28205128 , 4135.38461538 , 4135.8974359 , 4136.92307692 , 4171.28205128 , 4797.43589744 , 4135.38461538 , 4136.41025641 , 2062.0 , 2027.0 , 7.405 , 0.0 , 0.0 , 0.0 , 0.0 , 

80.0 , 4130.76923077 , 4130.25641026 , 4149.23076923 , 4136.92307692 , 4134.35897436 , 4134.35897436 , 4129.74358974 , 4132.82051282 , 4137.43589744 , 4135.38461538 , 4170.25641026 , 4797.94871795 , 4132.30769231 , 4136.92307692 , 2060.0 , 2028.0 , 7.414 , 0.0 , 0.0 , 0.0 , 0.0 , 

81.0 , 4135.38461538 , 4128.20512821 , 4148.71794872 , 4138.97435897 , 4134.35897436 , 4133.33333333 , 4130.76923077 , 4134.35897436 , 4137.43589744 , 4141.02564103 , 4172.30769231 , 4797.43589744 , 4133.84615385 , 4137.94871795 , 2060.0 , 2027.0 , 7.421 , 0.0 , 0.0 , 0.0 , 0.0 , 

82.0 , 4136.41025641 , 4130.25641026 , 4139.48717949 , 4139.48717949 , 4134.35897436 , 4131.28205128 , 4136.92307692 , 4132.82051282 , 4136.41025641 , 4141.53846154 , 4169.74358974 , 4795.8974359 , 4132.82051282 , 4135.38461538 , 2060.0 , 2027.0 , 7.43 , 0.0 , 0.0 , 0.0 , 0.0 , 

83.0 , 4134.35897436 , 4131.28205128 , 4144.61538462 , 4137.94871795 , 4134.35897436 , 4131.28205128 , 4133.84615385 , 4135.38461538 , 4138.97435897 , 4140.0 , 4173.84615385 , 4797.94871795 , 4132.82051282 , 4137.43589744 , 2057.0 , 2028.0 , 7.438 , 0.0 , 0.0 , 0.0 , 0.0 , 

84.0 , 4134.87179487 , 4132.30769231 , 4136.92307692 , 4136.41025641 , 4134.35897436 , 4132.30769231 , 4125.12820513 , 4133.33333333 , 4137.94871795 , 4138.97435897 , 4178.97435897 , 4799.48717949 , 4129.74358974 , 4138.97435897 , 2056.0 , 2028.0 , 7.446 , 0.0 , 0.0 , 0.0 , 0.0 , 

85.0 , 4135.38461538 , 4132.30769231 , 4126.66666667 , 4136.92307692 , 4134.35897436 , 4134.35897436 , 4129.74358974 , 4131.79487179 , 4135.38461538 , 4138.97435897 , 4174.87179487 , 4798.97435897 , 4128.20512821 , 4137.43589744 , 2055.0 , 2028.0 , 7.454 , 0.0 , 0.0 , 0.0 , 0.0 , 

86.0 , 4130.25641026 , 4130.25641026 , 4128.71794872 , 4136.92307692 , 4134.35897436 , 4134.35897436 , 4136.41025641 , 4130.76923077 , 4135.38461538 , 4136.41025641 , 4176.41025641 , 4796.92307692 , 4128.71794872 , 4135.8974359 , 2056.0 , 2028.0 , 7.462 , 0.0 , 0.0 , 0.0 , 0.0 , 

87.0 , 4133.33333333 , 4131.79487179 , 4130.25641026 , 4135.8974359 , 4134.35897436 , 4134.87179487 , 4136.41025641 , 4131.79487179 , 4137.43589744 , 4137.94871795 , 4178.46153846 , 4797.94871795 , 4129.23076923 , 4138.46153846 , 2054.0 , 2028.0 , 7.469 , 0.0 , 0.0 , 0.0 , 0.0 , 

88.0 , 4138.46153846 , 4131.79487179 , 4132.30769231 , 4136.41025641 , 4134.35897436 , 4135.8974359 , 4131.79487179 , 4132.30769231 , 4135.8974359 , 4142.05128205 , 4169.74358974 , 4800.51282051 , 4129.23076923 , 4137.94871795 , 2055.0 , 2029.0 , 7.476 , 0.0 , 0.0 , 0.0 , 0.0 , 

89.0 , 4137.43589744 , 4132.30769231 , 4130.25641026 , 4137.43589744 , 4135.8974359 , 4136.41025641 , 4131.28205128 , 4133.33333333 , 4134.35897436 , 4141.53846154 , 4169.74358974 , 4800.0 , 4130.25641026 , 4137.43589744 , 2054.0 , 2029.0 , 7.484 , 0.0 , 0.0 , 0.0 , 0.0 , 

90.0 , 4135.38461538 , 4137.94871795 , 4132.82051282 , 4137.43589744 , 4135.8974359 , 4134.87179487 , 4134.87179487 , 4133.33333333 , 4136.41025641 , 4142.05128205 , 4177.43589744 , 4797.43589744 , 4130.76923077 , 4138.97435897 , 2053.0 , 2031.0 , 7.493 , 0.0 , 0.0 , 0.0 , 0.0 , 

91.0 , 4134.35897436 , 4136.92307692 , 4095.38461538 , 4136.92307692 , 4133.84615385 , 4133.33333333 , 4133.84615385 , 4128.20512821 , 4132.30769231 , 4138.97435897 , 4171.28205128 , 4794.35897436 , 4125.64102564 , 4134.87179487 , 2053.0 , 2032.0 , 7.5 , 0.0 , 0.0 , 0.0 , 0.0 , 

92.0 , 4135.8974359 , 4128.71794872 , 4086.66666667 , 4136.92307692 , 4133.33333333 , 4135.8974359 , 4134.87179487 , 4133.33333333 , 4131.28205128 , 4140.0 , 4168.71794872 , 4796.41025641 , 4127.17948718 , 4131.79487179 , 2054.0 , 2033.0 , 7.508 , 0.0 , 0.0 , 0.0 , 0.0 , 

93.0 , 4135.8974359 , 4128.20512821 , 4086.66666667 , 4135.8974359 , 4134.87179487 , 4134.87179487 , 4135.8974359 , 4133.33333333 , 4130.25641026 , 4137.43589744 , 4171.79487179 , 4793.84615385 , 4125.12820513 , 4133.84615385 , 2052.0 , 2033.0 , 7.517 , 0.0 , 0.0 , 0.0 , 0.0 , 

94.0 , 4131.28205128 , 4134.87179487 , 4079.48717949 , 4135.8974359 , 4134.87179487 , 4130.76923077 , 4130.25641026 , 4128.71794872 , 4131.79487179 , 4137.43589744 , 4169.23076923 , 4790.25641026 , 4121.53846154 , 4136.41025641 , 2056.0 , 2030.0 , 7.524 , 0.0 , 0.0 , 0.0 , 0.0 , 

95.0 , 4128.71794872 , 4132.30769231 , 4064.61538462 , 4136.41025641 , 4132.82051282 , 4127.69230769 , 4128.20512821 , 4129.23076923 , 4131.28205128 , 4136.92307692 , 4167.17948718 , 4790.76923077 , 4123.58974359 , 4133.33333333 , 2057.0 , 2030.0 , 7.532 , 0.0 , 0.0 , 0.0 , 0.0 , 

96.0 , 4135.8974359 , 4129.23076923 , 4069.74358974 , 4135.8974359 , 4133.33333333 , 4129.74358974 , 4134.87179487 , 4132.82051282 , 4133.33333333 , 4135.38461538 , 4169.23076923 , 4794.35897436 , 4129.23076923 , 4132.82051282 , 2059.0 , 2030.0 , 7.54 , 0.0 , 0.0 , 0.0 , 0.0 , 

97.0 , 4137.94871795 , 4131.28205128 , 4037.43589744 , 4136.41025641 , 4135.38461538 , 4129.74358974 , 4133.33333333 , 4129.23076923 , 4131.79487179 , 4129.74358974 , 4169.74358974 , 4790.25641026 , 4125.64102564 , 4132.82051282 , 2061.0 , 2032.0 , 7.547 , 0.0 , 0.0 , 0.0 , 0.0 , 

98.0 , 4131.79487179 , 4130.76923077 , 4007.69230769 , 4137.43589744 , 4134.35897436 , 4127.69230769 , 4130.76923077 , 4125.64102564 , 4129.74358974 , 4129.74358974 , 4170.25641026 , 4786.15384615 , 4122.05128205 , 4129.74358974 , 2061.0 , 2032.0 , 7.556 , 0.0 , 0.0 , 0.0 , 0.0 , 

99.0 , 4133.84615385 , 4127.69230769 , 4015.38461538 , 4136.92307692 , 4134.35897436 , 4131.28205128 , 4136.41025641 , 4126.66666667 , 4130.76923077 , 4133.84615385 , 4170.76923077 , 4787.69230769 , 4125.64102564 , 4131.28205128 , 2061.0 , 2036.0 , 7.564 , 0.0 , 0.0 , 0.0 , 0.0 , 

100.0 , 4134.35897436 , 4128.20512821 , 4020.51282051 , 4136.41025641 , 4136.41025641 , 4135.38461538 , 4134.35897436 , 4125.64102564 , 4132.30769231 , 4133.84615385 , 4170.25641026 , 4787.17948718 , 4126.66666667 , 4139.48717949 , 2062.0 , 2037.0 , 7.573 , 0.0 , 0.0 , 0.0 , 0.0 , 

101.0 , 4131.28205128 , 4131.79487179 , 4019.48717949 , 4136.92307692 , 4135.8974359 , 4136.41025641 , 4130.25641026 , 4127.17948718 , 4132.30769231 , 4134.87179487 , 4172.30769231 , 4787.17948718 , 4125.12820513 , 4136.92307692 , 2061.0 , 2041.0 , 7.58 , 0.0 , 0.0 , 0.0 , 0.0 , 

102.0 , 4130.25641026 , 4130.76923077 , 4036.41025641 , 4135.8974359 , 4134.87179487 , 4133.33333333 , 4135.8974359 , 4133.84615385 , 4132.82051282 , 4136.41025641 , 4175.38461538 , 4787.17948718 , 4127.69230769 , 4128.71794872 , 2059.0 , 2040.0 , 7.589 , 0.0 , 0.0 , 0.0 , 0.0 , 

103.0 , 4133.33333333 , 4130.76923077 , 4032.82051282 , 4135.38461538 , 4135.38461538 , 4131.79487179 , 4137.43589744 , 4134.87179487 , 4135.38461538 , 4137.43589744 , 4173.33333333 , 4783.07692308 , 4128.71794872 , 4130.25641026 , 2058.0 , 2040.0 , 7.596 , 0.0 , 0.0 , 0.0 , 0.0 , 

104.0 , 4134.35897436 , 4132.30769231 , 4026.15384615 , 4134.87179487 , 4136.41025641 , 4134.87179487 , 4132.30769231 , 4132.82051282 , 4135.8974359 , 4140.0 , 4171.79487179 , 4780.0 , 4129.23076923 , 4131.79487179 , 2057.0 , 2039.0 , 7.602 , 0.0 , 0.0 , 0.0 , 0.0 , 

105.0 , 4131.79487179 , 4131.28205128 , 4056.92307692 , 4133.84615385 , 4135.8974359 , 4136.41025641 , 4131.28205128 , 4133.84615385 , 4136.92307692 , 4143.58974359 , 4175.38461538 , 4780.51282051 , 4133.84615385 , 4132.30769231 , 2056.0 , 2037.0 , 7.611 , 0.0 , 0.0 , 0.0 , 0.0 , 

106.0 , 4128.71794872 , 4130.25641026 , 4103.58974359 , 4134.87179487 , 4135.8974359 , 4134.87179487 , 4134.35897436 , 4136.41025641 , 4143.07692308 , 4146.15384615 , 4177.43589744 , 4783.58974359 , 4135.8974359 , 4138.46153846 , 2054.0 , 2037.0 , 7.619 , 0.0 , 0.0 , 0.0 , 0.0 , 

107.0 , 4130.76923077 , 4131.28205128 , 4119.48717949 , 4136.92307692 , 4135.8974359 , 4134.87179487 , 4133.84615385 , 4139.48717949 , 4146.66666667 , 4145.64102564 , 4174.87179487 , 4787.17948718 , 4135.38461538 , 4141.02564103 , 2053.0 , 2037.0 , 7.626 , 0.0 , 0.0 , 0.0 , 0.0 , 

108.0 , 4133.33333333 , 4129.23076923 , 4106.66666667 , 4136.92307692 , 4135.8974359 , 4135.8974359 , 4130.76923077 , 4139.48717949 , 4142.05128205 , 4146.15384615 , 4174.87179487 , 4785.12820513 , 4136.41025641 , 4138.46153846 , 2052.0 , 2034.0 , 7.635 , 0.0 , 0.0 , 0.0 , 0.0 , 

109.0 , 4131.28205128 , 4128.20512821 , 4081.02564103 , 4136.41025641 , 4135.8974359 , 4134.35897436 , 4133.84615385 , 4135.38461538 , 4135.8974359 , 4146.15384615 , 4176.41025641 , 4776.41025641 , 4134.35897436 , 4137.43589744 , 2049.0 , 2034.0 , 7.642 , 0.0 , 0.0 , 0.0 , 0.0 , 

110.0 , 4131.28205128 , 4130.25641026 , 4064.1025641 , 4136.41025641 , 4135.8974359 , 4133.84615385 , 4134.87179487 , 4134.35897436 , 4137.43589744 , 4140.0 , 4172.30769231 , 4773.84615385 , 4131.28205128 , 4136.92307692 , 2045.0 , 2032.0 , 7.65 , 0.0 , 0.0 , 0.0 , 0.0 , 

111.0 , 4133.84615385 , 4131.28205128 , 4048.71794872 , 4136.41025641 , 4135.8974359 , 4134.35897436 , 4130.76923077 , 4132.82051282 , 4140.51282051 , 4137.43589744 , 4172.30769231 , 4777.43589744 , 4129.23076923 , 4135.38461538 , 2043.0 , 2032.0 , 7.658 , 0.0 , 0.0 , 0.0 , 0.0 , 

112.0 , 4131.79487179 , 4129.74358974 , 4026.15384615 , 4135.8974359 , 4135.8974359 , 4134.35897436 , 4131.79487179 , 4128.20512821 , 4136.92307692 , 4141.02564103 , 4176.92307692 , 4773.33333333 , 4128.71794872 , 4133.33333333 , 2042.0 , 2033.0 , 7.667 , 0.0 , 0.0 , 0.0 , 0.0 , 

113.0 , 4130.25641026 , 4129.74358974 , 4019.48717949 , 4135.8974359 , 4135.8974359 , 4134.35897436 , 4136.92307692 , 4127.69230769 , 4133.84615385 , 4136.92307692 , 4175.8974359 , 4767.69230769 , 4128.71794872 , 4132.82051282 , 2043.0 , 2034.0 , 7.673 , 0.0 , 0.0 , 0.0 , 0.0 , 

114.0 , 4130.76923077 , 4128.71794872 , 4029.74358974 , 4137.43589744 , 4135.8974359 , 4134.35897436 , 4136.41025641 , 4129.74358974 , 4137.94871795 , 4135.8974359 , 4171.79487179 , 4771.79487179 , 4130.25641026 , 4136.92307692 , 2042.0 , 2036.0 , 7.681 , 0.0 , 0.0 , 0.0 , 0.0 , 

115.0 , 4129.74358974 , 4128.20512821 , 4036.92307692 , 4137.94871795 , 4135.8974359 , 4134.35897436 , 4134.87179487 , 4129.74358974 , 4140.51282051 , 4143.58974359 , 4173.33333333 , 4774.87179487 , 4129.23076923 , 4138.46153846 , 2038.0 , 2036.0 , 7.689 , 0.0 , 0.0 , 0.0 , 0.0 , 

116.0 , 4128.71794872 , 4129.74358974 , 4068.20512821 , 4135.8974359 , 4135.8974359 , 4134.35897436 , 4136.41025641 , 4138.46153846 , 4140.51282051 , 4145.64102564 , 4177.43589744 , 4769.74358974 , 4131.28205128 , 4136.41025641 , 2038.0 , 2038.0 , 7.698 , 0.0 , 0.0 , 0.0 , 0.0 , 

117.0 , 4130.76923077 , 4131.28205128 , 4112.82051282 , 4135.38461538 , 4136.41025641 , 4133.84615385 , 4133.33333333 , 4145.12820513 , 4143.07692308 , 4145.12820513 , 4178.97435897 , 4766.66666667 , 4136.92307692 , 4138.46153846 , 2037.0 , 2038.0 , 7.706 , 0.0 , 0.0 , 0.0 , 0.0 , 

118.0 , 4130.76923077 , 4131.28205128 , 4146.15384615 , 4136.41025641 , 4135.8974359 , 4134.87179487 , 4130.25641026 , 4142.56410256 , 4145.12820513 , 4151.79487179 , 4178.46153846 , 4770.25641026 , 4136.92307692 , 4138.46153846 , 2035.0 , 2038.0 , 7.713 , 0.0 , 0.0 , 0.0 , 0.0 , 

119.0 , 4128.71794872 , 4132.30769231 , 4182.56410256 , 4136.92307692 , 4134.35897436 , 4135.38461538 , 4135.38461538 , 4144.1025641 , 4145.12820513 , 4154.35897436 , 4176.92307692 , 4774.87179487 , 4136.41025641 , 4136.41025641 , 2033.0 , 2036.0 , 7.722 , 0.0 , 0.0 , 0.0 , 0.0 , 

120.0 , 4127.69230769 , 4131.79487179 , 4215.38461538 , 4135.8974359 , 4134.87179487 , 4135.38461538 , 4136.92307692 , 4146.66666667 , 4147.17948718 , 4150.76923077 , 4178.97435897 , 4774.87179487 , 4139.48717949 , 4139.48717949 , 2032.0 , 2034.0 , 7.728 , 0.0 , 0.0 , 0.0 , 0.0 , 

121.0 , 4129.74358974 , 4133.84615385 , 4206.66666667 , 4135.38461538 , 4135.8974359 , 4134.87179487 , 4135.38461538 , 4143.58974359 , 4146.66666667 , 4150.25641026 , 4184.1025641 , 4775.38461538 , 4141.02564103 , 4141.02564103 , 2031.0 , 2034.0 , 7.737 , 0.0 , 0.0 , 0.0 , 0.0 , 

122.0 , 4130.76923077 , 4135.8974359 , 4178.97435897 , 4136.41025641 , 4133.84615385 , 4136.41025641 , 4136.92307692 , 4137.94871795 , 4141.53846154 , 4149.74358974 , 4180.51282051 , 4773.33333333 , 4135.38461538 , 4137.94871795 , 2032.0 , 2032.0 , 7.745 , 0.0 , 0.0 , 0.0 , 0.0 , 

123.0 , 4129.74358974 , 4131.79487179 , 4192.82051282 , 4136.92307692 , 4132.30769231 , 4135.38461538 , 4135.38461538 , 4138.97435897 , 4140.0 , 4147.69230769 , 4176.41025641 , 4774.35897436 , 4134.35897436 , 4138.46153846 , 2031.0 , 2031.0 , 7.752 , 0.0 , 0.0 , 0.0 , 0.0 , 

124.0 , 4129.23076923 , 4126.66666667 , 4197.94871795 , 4136.41025641 , 4133.84615385 , 4131.28205128 , 4131.79487179 , 4135.8974359 , 4141.02564103 , 4145.12820513 , 4176.41025641 , 4772.82051282 , 4135.38461538 , 4138.46153846 , 2032.0 , 2031.0 , 7.76 , 0.0 , 0.0 , 0.0 , 0.0 , 

125.0 , 4130.76923077 , 4126.66666667 , 4192.82051282 , 4136.41025641 , 4135.38461538 , 4132.30769231 , 4132.30769231 , 4135.38461538 , 4137.94871795 , 4146.66666667 , 4177.43589744 , 4772.82051282 , 4133.84615385 , 4137.43589744 , 2032.0 , 2031.0 , 7.769 , 0.0 , 0.0 , 0.0 , 0.0 , 

126.0 , 4131.28205128 , 4129.74358974 , 4171.79487179 , 4135.8974359 , 4135.38461538 , 4134.87179487 , 4134.35897436 , 4134.87179487 , 4133.33333333 , 4145.12820513 , 4176.92307692 , 4773.33333333 , 4130.25641026 , 4137.94871795 , 2034.0 , 2033.0 , 7.776 , 0.0 , 0.0 , 0.0 , 0.0 , 

127.0 , 4133.33333333 , 4132.30769231 , 4165.64102564 , 4135.38461538 , 4134.35897436 , 4134.35897436 , 4132.82051282 , 4133.84615385 , 4136.41025641 , 4142.56410256 , 4176.41025641 , 4774.35897436 , 4130.76923077 , 4137.43589744 , 2035.0 , 2034.0 , 7.784 , 0.0 , 0.0 , 0.0 , 0.0 , 

128.0 , 4135.8974359 , 4134.35897436 , 4156.41025641 , 4136.41025641 , 4134.35897436 , 4134.35897436 , 4131.28205128 , 4134.35897436 , 4139.48717949 , 4141.02564103 , 4171.79487179 , 4771.79487179 , 4131.28205128 , 4134.35897436 , 2035.0 , 2035.0 , 7.792 , 0.0 , 0.0 , 0.0 , 0.0 , 

0.0 , 4135.38461538 , 4131.28205128 , 4160.0 , 4135.8974359 , 4135.38461538 , 4135.8974359 , 4131.79487179 , 4137.94871795 , 4138.97435897 , 4143.07692308 , 4170.25641026 , 4772.30769231 , 4132.30769231 , 4134.87179487 , 2037.0 , 2039.0 , 7.799 , 0.0 , 0.0 , 0.0 , 0.0 , 

1.0 , 4135.8974359 , 4128.71794872 , 4155.38461538 , 4135.38461538 , 4135.38461538 , 4135.8974359 , 4134.87179487 , 4137.43589744 , 4138.97435897 , 4143.07692308 , 4174.87179487 , 4772.30769231 , 4129.74358974 , 4136.92307692 , 2039.0 , 2038.0 , 7.808 , 0.0 , 0.0 , 0.0 , 0.0 , 

2.0 , 4134.87179487 , 4128.71794872 , 4143.58974359 , 4135.38461538 , 4135.38461538 , 4135.38461538 , 4136.92307692 , 4134.35897436 , 4139.48717949 , 4143.07692308 , 4174.87179487 , 4771.79487179 , 4129.74358974 , 4136.92307692 , 2038.0 , 2038.0 , 7.815 , 0.0 , 0.0 , 0.0 , 0.0 , 

3.0 , 4131.28205128 , 4129.74358974 , 4140.51282051 , 4135.8974359 , 4135.38461538 , 4135.38461538 , 4132.82051282 , 4133.84615385 , 4137.43589744 , 4142.56410256 , 4171.79487179 , 4771.79487179 , 4133.33333333 , 4136.92307692 , 2038.0 , 2036.0 , 7.824 , 0.0 , 0.0 , 0.0 , 0.0 , 

4.0 , 4130.76923077 , 4131.28205128 , 4137.94871795 , 4135.8974359 , 4134.87179487 , 4135.38461538 , 4131.79487179 , 4132.82051282 , 4134.87179487 , 4140.51282051 , 4173.84615385 , 4771.79487179 , 4132.30769231 , 4135.8974359 , 2035.0 , 2033.0 , 7.832 , 0.0 , 0.0 , 0.0 , 0.0 , 

5.0 , 4131.79487179 , 4133.33333333 , 4139.48717949 , 4135.8974359 , 4136.41025641 , 4135.38461538 , 4136.41025641 , 4129.74358974 , 4134.87179487 , 4141.53846154 , 4176.92307692 , 4771.79487179 , 4131.28205128 , 4134.87179487 , 2036.0 , 2033.0 , 7.84 , 0.0 , 0.0 , 0.0 , 0.0 , 

6.0 , 4131.28205128 , 4132.30769231 , 4136.92307692 , 4134.87179487 , 4137.43589744 , 4135.38461538 , 4135.8974359 , 4129.74358974 , 4134.87179487 , 4140.51282051 , 4174.87179487 , 4773.84615385 , 4131.28205128 , 4135.38461538 , 2037.0 , 2017.0 , 7.847 , 0.0 , 0.0 , 0.0 , 0.0 , 

7.0 , 4131.28205128 , 4131.79487179 , 4142.05128205 , 4134.87179487 , 4136.41025641 , 4135.38461538 , 4134.87179487 , 4131.28205128 , 4133.84615385 , 4138.46153846 , 4173.33333333 , 4775.8974359 , 4131.79487179 , 4137.94871795 , 2035.0 , 2029.0 , 7.856 , 0.0 , 0.0 , 0.0 , 0.0 , 

8.0 , 4129.74358974 , 4132.30769231 , 4141.02564103 , 4136.41025641 , 4134.87179487 , 4135.38461538 , 4135.38461538 , 4131.79487179 , 4133.84615385 , 4138.97435897 , 4174.35897436 , 4775.38461538 , 4130.25641026 , 4138.46153846 , 2033.0 , 2025.0 , 7.864 , 0.0 , 0.0 , 0.0 , 0.0 , 

9.0 , 4133.33333333 , 4132.30769231 , 4141.53846154 , 4134.87179487 , 4134.35897436 , 4135.38461538 , 4133.84615385 , 4133.33333333 , 4140.51282051 , 4142.56410256 , 4175.38461538 , 4775.38461538 , 4129.74358974 , 4137.43589744 , 2034.0 , 2023.0 , 7.871 , 0.0 , 0.0 , 0.0 , 0.0 , 

10.0 , 4138.97435897 , 4129.74358974 , 4137.94871795 , 4132.82051282 , 4135.38461538 , 4135.38461538 , 4132.30769231 , 4132.30769231 , 4140.51282051 , 4144.1025641 , 4174.35897436 , 4774.87179487 , 4128.71794872 , 4136.92307692 , 2035.0 , 2025.0 , 7.879 , 0.0 , 0.0 , 0.0 , 0.0 , 

11.0 , 4133.33333333 , 4126.66666667 , 4136.92307692 , 4133.84615385 , 4135.8974359 , 4135.38461538 , 4133.84615385 , 4130.76923077 , 4132.82051282 , 4142.05128205 , 4172.82051282 , 4772.82051282 , 4130.25641026 , 4136.41025641 , 2036.0 , 2027.0 , 7.887 , 0.0 , 0.0 , 0.0 , 0.0 , 

12.0 , 4127.69230769 , 4127.17948718 , 4138.46153846 , 4136.41025641 , 4135.38461538 , 4135.38461538 , 4134.35897436 , 4132.30769231 , 4134.87179487 , 4138.46153846 , 4174.35897436 , 4773.33333333 , 4130.76923077 , 4135.38461538 , 2036.0 , 2027.0 , 7.895 , 0.0 , 0.0 , 0.0 , 0.0 , 

13.0 , 4134.87179487 , 4130.76923077 , 4142.05128205 , 4136.41025641 , 4134.35897436 , 4135.38461538 , 4131.79487179 , 4134.35897436 , 4141.53846154 , 4141.02564103 , 4177.43589744 , 4775.38461538 , 4130.76923077 , 4137.43589744 , 2036.0 , 2031.0 , 7.903 , 0.0 , 0.0 , 0.0 , 0.0 , 

14.0 , 4136.92307692 , 4132.82051282 , 4140.0 , 4135.38461538 , 4134.35897436 , 4135.38461538 , 4132.30769231 , 4135.38461538 , 4136.92307692 , 4144.61538462 , 4174.35897436 , 4774.87179487 , 4130.76923077 , 4136.92307692 , 2033.0 , 2032.0 , 7.91 , 0.0 , 0.0 , 0.0 , 0.0 , 

15.0 , 4128.71794872 , 4131.28205128 , 4137.43589744 , 4135.8974359 , 4135.38461538 , 4135.38461538 , 4134.87179487 , 4134.35897436 , 4131.28205128 , 4142.56410256 , 4173.84615385 , 4774.87179487 , 4129.74358974 , 4134.87179487 , 2031.0 , 2033.0 , 7.918 , 0.0 , 0.0 , 0.0 , 0.0 , 

16.0 , 4127.69230769 , 4131.79487179 , 4126.15384615 , 4136.41025641 , 4135.8974359 , 4135.38461538 , 4136.92307692 , 4129.74358974 , 4131.79487179 , 4139.48717949 , 4178.46153846 , 4772.82051282 , 4128.20512821 , 4133.84615385 , 2031.0 , 2037.0 , 7.927 , 0.0 , 0.0 , 0.0 , 0.0 , 

17.0 , 4130.76923077 , 4131.79487179 , 4111.79487179 , 4135.8974359 , 4134.87179487 , 4135.38461538 , 4134.87179487 , 4129.23076923 , 4132.82051282 , 4137.94871795 , 4177.43589744 , 4770.76923077 , 4129.74358974 , 4133.84615385 , 2032.0 , 2038.0 , 7.933 , 0.0 , 0.0 , 0.0 , 0.0 , 

18.0 , 4132.30769231 , 4128.71794872 , 4100.0 , 4135.8974359 , 4133.84615385 , 4135.38461538 , 4133.33333333 , 4131.28205128 , 4133.33333333 , 4135.38461538 , 4169.74358974 , 4771.79487179 , 4130.76923077 , 4131.79487179 , 2031.0 , 2039.0 , 7.942 , 0.0 , 0.0 , 0.0 , 0.0 , 

19.0 , 4131.28205128 , 4128.71794872 , 4093.84615385 , 4137.43589744 , 4134.35897436 , 4135.38461538 , 4135.38461538 , 4131.28205128 , 4131.28205128 , 4136.41025641 , 4170.76923077 , 4771.79487179 , 4128.20512821 , 4130.76923077 , 2031.0 , 2039.0 , 7.95 , 0.0 , 0.0 , 0.0 , 0.0 , 

20.0 , 4129.23076923 , 4133.33333333 , 4084.1025641 , 4137.43589744 , 4134.35897436 , 4135.38461538 , 4133.84615385 , 4130.25641026 , 4130.25641026 , 4137.43589744 , 4177.43589744 , 4768.20512821 , 4126.15384615 , 4132.82051282 , 2030.0 , 2037.0 , 7.958 , 0.0 , 0.0 , 0.0 , 0.0 , 

21.0 , 4131.79487179 , 4131.79487179 , 4075.8974359 , 4135.38461538 , 4134.35897436 , 4135.38461538 , 4129.23076923 , 4130.76923077 , 4132.82051282 , 4134.35897436 , 4176.92307692 , 4769.23076923 , 4130.25641026 , 4131.28205128 , 2029.0 , 2036.0 , 7.965 , 0.0 , 0.0 , 0.0 , 0.0 , 

22.0 , 4133.33333333 , 4127.69230769 , 4073.33333333 , 4135.8974359 , 4133.84615385 , 4135.38461538 , 4128.20512821 , 4130.25641026 , 4135.38461538 , 4135.38461538 , 4172.30769231 , 4772.82051282 , 4132.30769231 , 4131.28205128 , 2029.0 , 2035.0 , 7.973 , 0.0 , 0.0 , 0.0 , 0.0 , 

23.0 , 4131.28205128 , 4129.23076923 , 4077.94871795 , 4137.43589744 , 4134.35897436 , 4135.38461538 , 4131.28205128 , 4130.25641026 , 4133.33333333 , 4141.53846154 , 4173.33333333 , 4771.28205128 , 4130.25641026 , 4131.28205128 , 2030.0 , 2034.0 , 7.981 , 0.0 , 0.0 , 0.0 , 0.0 , 

24.0 , 4135.38461538 , 4130.76923077 , 4090.25641026 , 4136.41025641 , 4136.92307692 , 4135.38461538 , 4134.87179487 , 4131.79487179 , 4131.28205128 , 4143.58974359 , 4175.38461538 , 4770.76923077 , 4129.74358974 , 4131.28205128 , 2030.0 , 2034.0 , 7.99 , 0.0 , 0.0 , 0.0 , 0.0 , 

25.0 , 4139.48717949 , 4129.74358974 , 4101.53846154 , 4134.35897436 , 4137.43589744 , 4135.38461538 , 4137.43589744 , 4132.82051282 , 4132.30769231 , 4142.05128205 , 4173.84615385 , 4770.25641026 , 4130.25641026 , 4132.30769231 , 2028.0 , 2035.0 , 7.997 , 0.0 , 0.0 , 0.0 , 0.0 , 

26.0 , 4132.82051282 , 4129.23076923 , 4105.64102564 , 4134.87179487 , 4136.41025641 , 4135.38461538 , 4129.23076923 , 4132.82051282 , 4134.87179487 , 4143.58974359 , 4175.8974359 , 4768.20512821 , 4128.71794872 , 4134.35897436 , 2030.0 , 2036.0 , 8.005 , 0.0 , 0.0 , 0.0 , 0.0 , 

27.0 , 4129.23076923 , 4129.74358974 , 4095.8974359 , 4136.41025641 , 4135.8974359 , 4135.38461538 , 4122.05128205 , 4133.33333333 , 4135.38461538 , 4143.58974359 , 4179.48717949 , 4769.74358974 , 4128.20512821 , 4136.92307692 , 2030.0 , 2036.0 , 8.013 , 0.0 , 0.0 , 0.0 , 0.0 , 

28.0 , 4133.84615385 , 4131.28205128 , 4091.79487179 , 4135.8974359 , 4136.41025641 , 4135.38461538 , 4130.76923077 , 4134.87179487 , 4131.79487179 , 4141.53846154 , 4175.8974359 , 4770.25641026 , 4130.25641026 , 4138.97435897 , 2031.0 , 2037.0 , 8.021 , 0.0 , 0.0 , 0.0 , 0.0 , 

29.0 , 4130.76923077 , 4131.28205128 , 4083.07692308 , 4135.38461538 , 4136.41025641 , 4135.38461538 , 4137.94871795 , 4131.79487179 , 4129.74358974 , 4140.51282051 , 4171.79487179 , 4765.12820513 , 4128.71794872 , 4136.92307692 , 2032.0 , 2038.0 , 8.028 , 0.0 , 0.0 , 0.0 , 0.0 , 

30.0 , 4126.15384615 , 4130.25641026 , 4073.33333333 , 4136.92307692 , 4135.8974359 , 4135.38461538 , 4134.87179487 , 4130.25641026 , 4132.82051282 , 4142.05128205 , 4173.84615385 , 4761.02564103 , 4127.69230769 , 4132.82051282 , 2031.0 , 2034.0 , 8.037 , 0.0 , 0.0 , 0.0 , 0.0 , 

31.0 , 4129.74358974 , 4132.30769231 , 4058.97435897 , 4134.35897436 , 4135.8974359 , 4135.8974359 , 4133.33333333 , 4130.76923077 , 4133.33333333 , 4138.97435897 , 4174.35897436 , 4762.05128205 , 4129.23076923 , 4135.38461538 , 2031.0 , 2034.0 , 8.045 , 0.0 , 0.0 , 0.0 , 0.0 , 

32.0 , 4132.30769231 , 4133.84615385 , 4068.20512821 , 4127.69230769 , 4136.41025641 , 4135.8974359 , 4136.41025641 , 4131.79487179 , 4132.82051282 , 4138.46153846 , 4172.82051282 , 4761.53846154 , 4130.25641026 , 4138.97435897 , 2030.0 , 2034.0 , 8.052 , 0.0 , 0.0 , 0.0 , 0.0 , 

33.0 , 4133.33333333 , 4130.76923077 , 4086.15384615 , 4129.74358974 , 4135.8974359 , 4134.87179487 , 4136.41025641 , 4132.82051282 , 4134.35897436 , 4138.46153846 , 4173.33333333 , 4759.48717949 , 4129.23076923 , 4136.92307692 , 2029.0 , 2034.0 , 8.061 , 0.0 , 0.0 , 0.0 , 0.0 , 

34.0 , 4130.76923077 , 4131.28205128 , 4091.28205128 , 4137.43589744 , 4134.35897436 , 4133.84615385 , 4133.84615385 , 4132.82051282 , 4136.92307692 , 4137.43589744 , 4175.38461538 , 4760.51282051 , 4131.28205128 , 4135.8974359 , 2032.0 , 2035.0 , 8.067 , 0.0 , 0.0 , 0.0 , 0.0 , 

35.0 , 4128.71794872 , 4133.84615385 , 4077.94871795 , 4138.46153846 , 4133.84615385 , 4134.35897436 , 4131.79487179 , 4130.76923077 , 4133.84615385 , 4138.97435897 , 4175.38461538 , 4757.94871795 , 4130.76923077 , 4136.41025641 , 2031.0 , 2037.0 , 8.076 , 0.0 , 0.0 , 0.0 , 0.0 , 

36.0 , 4130.76923077 , 4133.33333333 , 4077.43589744 , 4136.41025641 , 4134.35897436 , 4134.35897436 , 4132.30769231 , 4131.79487179 , 4130.25641026 , 4141.02564103 , 4174.87179487 , 4756.92307692 , 4128.71794872 , 4134.87179487 , 2033.0 , 2038.0 , 8.083 , 0.0 , 0.0 , 0.0 , 0.0 , 

37.0 , 4131.28205128 , 4133.84615385 , 4082.56410256 , 4136.41025641 , 4134.87179487 , 4134.35897436 , 4135.38461538 , 4134.35897436 , 4133.33333333 , 4140.0 , 4172.82051282 , 4758.46153846 , 4128.71794872 , 4135.38461538 , 2031.0 , 2040.0 , 8.092 , 0.0 , 0.0 , 0.0 , 0.0 , 

38.0 , 4128.71794872 , 4131.28205128 , 4072.82051282 , 4136.41025641 , 4134.35897436 , 4134.35897436 , 4135.38461538 , 4132.82051282 , 4137.94871795 , 4137.94871795 , 4173.84615385 , 4757.94871795 , 4128.71794872 , 4136.92307692 , 2031.0 , 2040.0 , 8.1 , 0.0 , 0.0 , 0.0 , 0.0 , 

39.0 , 4129.74358974 , 4126.15384615 , 4062.05128205 , 4135.8974359 , 4135.8974359 , 4134.35897436 , 4131.79487179 , 4131.28205128 , 4134.87179487 , 4138.97435897 , 4175.38461538 , 4755.8974359 , 4127.17948718 , 4135.8974359 , 2029.0 , 2041.0 , 8.108 , 0.0 , 0.0 , 0.0 , 0.0 , 

40.0 , 4130.76923077 , 4127.69230769 , 4065.12820513 , 4135.38461538 , 4135.8974359 , 4134.35897436 , 4131.28205128 , 4132.30769231 , 4131.28205128 , 4140.51282051 , 4174.35897436 , 4754.35897436 , 4126.66666667 , 4134.35897436 , 2029.0 , 2042.0 , 8.115 , 0.0 , 0.0 , 0.0 , 0.0 , 

41.0 , 4128.71794872 , 4133.33333333 , 4070.76923077 , 4134.87179487 , 4131.79487179 , 4134.35897436 , 4133.84615385 , 4133.33333333 , 4134.87179487 , 4141.53846154 , 4174.87179487 , 4753.33333333 , 4126.15384615 , 4134.87179487 , 2026.0 , 2039.0 , 8.123 , 0.0 , 0.0 , 0.0 , 0.0 , 

42.0 , 4128.71794872 , 4130.25641026 , 4068.71794872 , 4135.38461538 , 4131.79487179 , 4134.35897436 , 4134.87179487 , 4132.30769231 , 4138.46153846 , 4142.05128205 , 4175.8974359 , 4751.28205128 , 4127.17948718 , 4135.38461538 , 2025.0 , 2038.0 , 8.131 , 0.0 , 0.0 , 0.0 , 0.0 , 

43.0 , 4128.71794872 , 4125.12820513 , 4070.76923077 , 4134.87179487 , 4136.41025641 , 4134.35897436 , 4133.84615385 , 4132.30769231 , 4134.35897436 , 4140.0 , 4173.84615385 , 4751.28205128 , 4128.71794872 , 4136.41025641 , 2025.0 , 2038.0 , 8.139 , 0.0 , 0.0 , 0.0 , 0.0 , 

44.0 , 4129.23076923 , 4128.20512821 , 4075.38461538 , 4134.87179487 , 4135.8974359 , 4134.35897436 , 4133.84615385 , 4134.87179487 , 4133.84615385 , 4138.46153846 , 4174.87179487 , 4753.33333333 , 4129.23076923 , 4136.92307692 , 2023.0 , 2036.0 , 8.147 , 0.0 , 0.0 , 0.0 , 0.0 , 

45.0 , 4129.74358974 , 4132.82051282 , 4083.07692308 , 4136.41025641 , 4133.33333333 , 4134.35897436 , 4133.84615385 , 4136.41025641 , 4136.41025641 , 4141.53846154 , 4177.94871795 , 4751.79487179 , 4132.30769231 , 4134.35897436 , 2021.0 , 2037.0 , 8.154 , 0.0 , 0.0 , 0.0 , 0.0 , 

46.0 , 4129.74358974 , 4132.30769231 , 4082.05128205 , 4136.41025641 , 4134.87179487 , 4134.35897436 , 4133.33333333 , 4132.82051282 , 4134.35897436 , 4144.1025641 , 4175.8974359 , 4747.17948718 , 4133.84615385 , 4133.84615385 , 2022.0 , 2037.0 , 8.162 , 0.0 , 0.0 , 0.0 , 0.0 , 

47.0 , 4132.82051282 , 4131.28205128 , 4079.48717949 , 4135.38461538 , 4135.38461538 , 4134.35897436 , 4134.35897436 , 4133.33333333 , 4133.33333333 , 4140.0 , 4174.87179487 , 4745.64102564 , 4130.25641026 , 4137.43589744 , 2020.0 , 2035.0 , 8.171 , 0.0 , 0.0 , 0.0 , 0.0 , 

48.0 , 4134.35897436 , 4133.33333333 , 4080.0 , 4134.87179487 , 4134.35897436 , 4134.35897436 , 4133.84615385 , 4134.87179487 , 4135.8974359 , 4136.92307692 , 4174.35897436 , 4744.1025641 , 4128.71794872 , 4136.41025641 , 2023.0 , 2031.0 , 8.179 , 0.0 , 0.0 , 0.0 , 0.0 , 

49.0 , 4133.33333333 , 4132.30769231 , 4096.41025641 , 4135.38461538 , 4134.87179487 , 4134.35897436 , 4133.84615385 , 4134.35897436 , 4138.46153846 , 4143.58974359 , 4174.87179487 , 4742.05128205 , 4132.30769231 , 4133.33333333 , 2023.0 , 2029.0 , 8.186 , 0.0 , 0.0 , 0.0 , 0.0 , 

50.0 , 4133.84615385 , 4130.76923077 , 4108.20512821 , 4135.8974359 , 4134.87179487 , 4134.35897436 , 4134.35897436 , 4133.33333333 , 4139.48717949 , 4148.20512821 , 4176.41025641 , 4743.07692308 , 4133.33333333 , 4133.84615385 , 2023.0 , 2031.0 , 8.194 , 0.0 , 0.0 , 0.0 , 0.0 , 

51.0 , 4132.30769231 , 4132.82051282 , 4112.30769231 , 4134.35897436 , 4134.87179487 , 4134.35897436 , 4134.87179487 , 4134.35897436 , 4140.51282051 , 4145.12820513 , 4177.43589744 , 4745.12820513 , 4131.79487179 , 4136.41025641 , 2026.0 , 2030.0 , 8.202 , 0.0 , 0.0 , 0.0 , 0.0 , 

52.0 , 4130.25641026 , 4129.74358974 , 4112.30769231 , 4134.87179487 , 4135.8974359 , 4134.35897436 , 4134.35897436 , 4135.38461538 , 4140.0 , 4141.02564103 , 4175.8974359 , 4742.56410256 , 4132.82051282 , 4134.87179487 , 2026.0 , 2031.0 , 8.209 , 0.0 , 0.0 , 0.0 , 0.0 , 

53.0 , 4131.28205128 , 4124.1025641 , 4128.71794872 , 4136.92307692 , 4136.41025641 , 4134.35897436 , 4132.82051282 , 4137.94871795 , 4142.56410256 , 4144.61538462 , 4177.94871795 , 4742.56410256 , 4134.35897436 , 4131.79487179 , 2026.0 , 2034.0 , 8.218 , 0.0 , 0.0 , 0.0 , 0.0 , 

54.0 , 4132.82051282 , 4127.69230769 , 4129.74358974 , 4136.92307692 , 4135.8974359 , 4134.35897436 , 4135.8974359 , 4136.41025641 , 4141.53846154 , 4144.61538462 , 4179.48717949 , 4742.56410256 , 4133.33333333 , 4132.82051282 , 2026.0 , 2036.0 , 8.226 , 0.0 , 0.0 , 0.0 , 0.0 , 

55.0 , 4132.82051282 , 4132.82051282 , 4112.30769231 , 4135.38461538 , 4135.8974359 , 4134.35897436 , 4133.84615385 , 4133.84615385 , 4137.94871795 , 4140.0 , 4175.8974359 , 4739.48717949 , 4129.74358974 , 4135.38461538 , 2022.0 , 2039.0 , 8.233 , 0.0 , 0.0 , 0.0 , 0.0 , 

56.0 , 4131.79487179 , 4132.30769231 , 4104.61538462 , 4135.38461538 , 4135.8974359 , 4134.35897436 , 4123.07692308 , 4136.92307692 , 4138.97435897 , 4139.48717949 , 4174.87179487 , 4739.48717949 , 4127.17948718 , 4135.8974359 , 2020.0 , 2040.0 , 8.242 , 0.0 , 0.0 , 0.0 , 0.0 , 

57.0 , 4127.69230769 , 4128.20512821 , 4109.74358974 , 4136.92307692 , 4135.8974359 , 4134.35897436 , 4125.12820513 , 4140.0 , 4137.94871795 , 4140.0 , 4176.92307692 , 4740.0 , 4128.20512821 , 4136.41025641 , 2013.0 , 2041.0 , 8.25 , 0.0 , 0.0 , 0.0 , 0.0 , 

58.0 , 4127.69230769 , 4126.15384615 , 4102.05128205 , 4136.41025641 , 4135.8974359 , 4134.35897436 , 4138.46153846 , 4134.35897436 , 4134.87179487 , 4140.0 , 4175.8974359 , 4736.92307692 , 4128.71794872 , 4137.94871795 , 2010.0 , 2042.0 , 8.256 , 0.0 , 0.0 , 0.0 , 0.0 , 

59.0 , 4130.25641026 , 4128.20512821 , 4097.43589744 , 4133.84615385 , 4135.8974359 , 4134.35897436 , 4137.43589744 , 4129.74358974 , 4136.92307692 , 4140.51282051 , 4176.41025641 , 4736.41025641 , 4128.71794872 , 4137.43589744 , 2007.0 , 2044.0 , 8.265 , 0.0 , 0.0 , 0.0 , 0.0 , 

60.0 , 4131.28205128 , 4131.28205128 , 4113.33333333 , 4134.35897436 , 4135.8974359 , 4134.35897436 , 4134.35897436 , 4132.82051282 , 4135.8974359 , 4142.05128205 , 4178.46153846 , 4737.43589744 , 4129.74358974 , 4135.38461538 , 2004.0 , 2043.0 , 8.273 , 0.0 , 0.0 , 0.0 , 0.0 , 

61.0 , 4131.28205128 , 4130.76923077 , 4124.61538462 , 4137.43589744 , 4135.8974359 , 4134.35897436 , 4137.94871795 , 4135.38461538 , 4131.79487179 , 4143.58974359 , 4176.92307692 , 4735.8974359 , 4130.25641026 , 4135.8974359 , 2000.0 , 2043.0 , 8.28 , 0.0 , 0.0 , 0.0 , 0.0 , 

62.0 , 4132.30769231 , 4128.71794872 , 4127.17948718 , 4137.94871795 , 4135.8974359 , 4134.35897436 , 4129.74358974 , 4136.41025641 , 4138.97435897 , 4143.07692308 , 4175.38461538 , 4735.8974359 , 4128.71794872 , 4136.92307692 , 2000.0 , 2040.0 , 8.289 , 0.0 , 0.0 , 0.0 , 0.0 , 

63.0 , 4131.28205128 , 4130.25641026 , 4127.69230769 , 4136.41025641 , 4135.8974359 , 4133.84615385 , 4124.61538462 , 4137.43589744 , 4143.58974359 , 4142.56410256 , 4177.43589744 , 4738.46153846 , 4127.17948718 , 4135.8974359 , 2000.0 , 2041.0 , 8.296 , 0.0 , 0.0 , 0.0 , 0.0 , 

64.0 , 4129.74358974 , 4131.79487179 , 4136.92307692 , 4137.43589744 , 4135.8974359 , 4134.35897436 , 4132.30769231 , 4136.41025641 , 4138.97435897 , 4144.1025641 , 4177.94871795 , 4739.48717949 , 4130.76923077 , 4134.87179487 , 2000.0 , 2042.0 , 8.305 , 0.0 , 0.0 , 0.0 , 0.0 , 

65.0 , 4130.25641026 , 4129.23076923 , 4152.30769231 , 4137.43589744 , 4135.8974359 , 4133.84615385 , 4131.79487179 , 4137.43589744 , 4137.43589744 , 4145.64102564 , 4176.41025641 , 4738.46153846 , 4134.87179487 , 4136.92307692 , 2001.0 , 2043.0 , 8.313 , 0.0 , 0.0 , 0.0 , 0.0 , 

66.0 , 4136.41025641 , 4128.20512821 , 4174.87179487 , 4135.38461538 , 4135.8974359 , 4133.84615385 , 4127.17948718 , 4140.51282051 , 4140.51282051 , 4147.69230769 , 4176.92307692 , 4738.46153846 , 4134.87179487 , 4138.46153846 , 2002.0 , 2043.0 , 8.32 , 0.0 , 0.0 , 0.0 , 0.0 , 

67.0 , 4137.43589744 , 4131.28205128 , 4186.66666667 , 4136.41025641 , 4135.8974359 , 4134.87179487 , 4129.74358974 , 4141.53846154 , 4142.56410256 , 4147.17948718 , 4176.41025641 , 4739.48717949 , 4132.30769231 , 4136.92307692 , 2003.0 , 2045.0 , 8.328 , 0.0 , 0.0 , 0.0 , 0.0 , 

68.0 , 4131.79487179 , 4133.33333333 , 4192.30769231 , 4136.92307692 , 4135.8974359 , 4135.38461538 , 4129.74358974 , 4141.53846154 , 4142.56410256 , 4145.64102564 , 4177.94871795 , 4741.02564103 , 4133.84615385 , 4137.94871795 , 2002.0 , 2045.0 , 8.336 , 0.0 , 0.0 , 0.0 , 0.0 , 

69.0 , 4132.82051282 , 4129.23076923 , 4184.1025641 , 4135.38461538 , 4135.8974359 , 4134.87179487 , 4130.25641026 , 4137.94871795 , 4142.05128205 , 4145.12820513 , 4178.46153846 , 4740.51282051 , 4133.33333333 , 4138.46153846 , 2003.0 , 2043.0 , 8.344 , 0.0 , 0.0 , 0.0 , 0.0 , 

70.0 , 4135.38461538 , 4128.71794872 , 4180.0 , 4135.38461538 , 4135.8974359 , 4134.87179487 , 4133.84615385 , 4133.84615385 , 4141.02564103 , 4146.15384615 , 4175.8974359 , 4741.02564103 , 4131.28205128 , 4138.46153846 , 2005.0 , 2041.0 , 8.352 , 0.0 , 0.0 , 0.0 , 0.0 , 

71.0 , 4129.23076923 , 4133.33333333 , 4185.12820513 , 4136.41025641 , 4135.8974359 , 4135.8974359 , 4133.84615385 , 4135.8974359 , 4139.48717949 , 4143.58974359 , 4174.87179487 , 4741.53846154 , 4132.30769231 , 4138.46153846 , 2007.0 , 2041.0 , 8.36 , 0.0 , 0.0 , 0.0 , 0.0 , 

72.0 , 4128.20512821 , 4130.76923077 , 4195.38461538 , 4135.8974359 , 4135.8974359 , 4134.87179487 , 4132.82051282 , 4136.41025641 , 4140.51282051 , 4143.07692308 , 4178.46153846 , 4741.53846154 , 4134.35897436 , 4133.84615385 , 2009.0 , 2041.0 , 8.368 , 0.0 , 0.0 , 0.0 , 0.0 , 

73.0 , 4136.92307692 , 4127.69230769 , 4180.51282051 , 4134.87179487 , 4135.8974359 , 4133.84615385 , 4131.79487179 , 4130.76923077 , 4137.94871795 , 4144.61538462 , 4178.46153846 , 4741.02564103 , 4131.28205128 , 4130.25641026 , 2011.0 , 2040.0 , 8.376 , 0.0 , 0.0 , 0.0 , 0.0 , 

74.0 , 4135.38461538 , 4130.25641026 , 4173.33333333 , 4135.8974359 , 4135.8974359 , 4134.87179487 , 4132.82051282 , 4132.30769231 , 4134.35897436 , 4143.58974359 , 4176.92307692 , 4741.02564103 , 4131.28205128 , 4134.35897436 , 2014.0 , 2036.0 , 8.383 , 0.0 , 0.0 , 0.0 , 0.0 , 

75.0 , 4128.71794872 , 4130.76923077 , 4180.0 , 4135.38461538 , 4135.8974359 , 4135.38461538 , 4135.8974359 , 4135.8974359 , 4133.33333333 , 4143.58974359 , 4177.43589744 , 4741.02564103 , 4130.76923077 , 4138.46153846 , 2016.0 , 2036.0 , 8.392 , 0.0 , 0.0 , 0.0 , 0.0 , 

76.0 , 4128.71794872 , 4126.66666667 , 4182.56410256 , 4135.8974359 , 4135.8974359 , 4134.35897436 , 4137.94871795 , 4135.38461538 , 4137.43589744 , 4145.12820513 , 4178.46153846 , 4742.56410256 , 4128.71794872 , 4135.8974359 , 2020.0 , 2036.0 , 8.399 , 0.0 , 0.0 , 0.0 , 0.0 , 

77.0 , 4130.76923077 , 4128.71794872 , 4176.92307692 , 4135.8974359 , 4135.8974359 , 4136.41025641 , 4136.41025641 , 4135.8974359 , 4138.46153846 , 4144.61538462 , 4176.92307692 , 4744.1025641 , 4130.76923077 , 4134.35897436 , 2022.0 , 2036.0 , 8.406 , 0.0 , 0.0 , 0.0 , 0.0 , 

78.0 , 4126.15384615 , 4131.79487179 , 4179.48717949 , 4134.35897436 , 4135.8974359 , 4134.87179487 , 4132.82051282 , 4135.38461538 , 4135.38461538 , 4143.58974359 , 4176.41025641 , 4744.1025641 , 4132.30769231 , 4136.92307692 , 2026.0 , 2036.0 , 8.415 , 0.0 , 0.0 , 0.0 , 0.0 , 

79.0 , 4124.1025641 , 4128.20512821 , 4178.97435897 , 4135.38461538 , 4135.8974359 , 4131.79487179 , 4130.76923077 , 4131.28205128 , 4134.35897436 , 4143.07692308 , 4175.8974359 , 4742.56410256 , 4129.23076923 , 4136.92307692 , 2028.0 , 2036.0 , 8.422 , 0.0 , 0.0 , 0.0 , 0.0 , 

80.0 , 4129.23076923 , 4128.71794872 , 4188.71794872 , 4137.43589744 , 4135.8974359 , 4133.84615385 , 4130.25641026 , 4134.35897436 , 4138.46153846 , 4145.12820513 , 4175.38461538 , 4745.12820513 , 4131.79487179 , 4135.8974359 , 2030.0 , 2038.0 , 8.43 , 0.0 , 0.0 , 0.0 , 0.0 , 

81.0 , 4129.23076923 , 4131.79487179 , 4198.46153846 , 4137.94871795 , 4135.8974359 , 4129.74358974 , 4126.66666667 , 4135.8974359 , 4138.46153846 , 4143.58974359 , 4175.38461538 , 4746.66666667 , 4132.82051282 , 4135.8974359 , 2034.0 , 2037.0 , 8.438 , 0.0 , 0.0 , 0.0 , 0.0 , 

82.0 , 4127.69230769 , 4130.25641026 , 4189.74358974 , 4137.43589744 , 4135.8974359 , 4126.66666667 , 4126.66666667 , 4133.33333333 , 4137.43589744 , 4139.48717949 , 4176.92307692 , 4747.69230769 , 4131.79487179 , 4138.46153846 , 2035.0 , 2039.0 , 8.447 , 0.0 , 0.0 , 0.0 , 0.0 , 

83.0 , 4129.23076923 , 4129.23076923 , 4183.07692308 , 4137.43589744 , 4135.8974359 , 4133.33333333 , 4132.82051282 , 4132.82051282 , 4136.92307692 , 4140.0 , 4177.43589744 , 4748.20512821 , 4133.84615385 , 4138.46153846 , 2039.0 , 2039.0 , 8.454 , 0.0 , 0.0 , 0.0 , 0.0 , 

84.0 , 4131.28205128 , 4132.82051282 , 4189.23076923 , 4137.43589744 , 4135.8974359 , 4134.87179487 , 4135.8974359 , 4135.8974359 , 4135.38461538 , 4143.58974359 , 4175.38461538 , 4748.20512821 , 4133.84615385 , 4136.92307692 , 2040.0 , 2040.0 , 8.461 , 0.0 , 0.0 , 0.0 , 0.0 , 

85.0 , 4130.25641026 , 4131.79487179 , 4194.87179487 , 4137.94871795 , 4135.8974359 , 4131.79487179 , 4129.74358974 , 4135.8974359 , 4134.87179487 , 4142.56410256 , 4175.38461538 , 4747.69230769 , 4131.79487179 , 4137.43589744 , 2045.0 , 2044.0 , 8.469 , 0.0 , 0.0 , 0.0 , 0.0 , 

86.0 , 4131.28205128 , 4127.69230769 , 4185.64102564 , 4136.92307692 , 4135.8974359 , 4136.41025641 , 4129.23076923 , 4135.38461538 , 4138.46153846 , 4142.56410256 , 4177.94871795 , 4749.23076923 , 4131.28205128 , 4138.46153846 , 2046.0 , 2045.0 , 8.478 , 0.0 , 0.0 , 0.0 , 0.0 , 

87.0 , 4131.28205128 , 4127.69230769 , 4191.28205128 , 4133.84615385 , 4135.8974359 , 4137.94871795 , 4130.76923077 , 4135.8974359 , 4140.0 , 4143.07692308 , 4177.94871795 , 4751.28205128 , 4131.79487179 , 4137.94871795 , 2062.0 , 2045.0 , 8.486 , 0.0 , 0.0 , 0.0 , 0.0 , 

88.0 , 4129.74358974 , 4130.25641026 , 4186.66666667 , 4136.41025641 , 4135.8974359 , 4130.76923077 , 4128.20512821 , 4133.33333333 , 4134.87179487 , 4141.02564103 , 4176.41025641 , 4749.23076923 , 4131.28205128 , 4136.92307692 , 2051.0 , 2044.0 , 8.494 , 0.0 , 0.0 , 0.0 , 0.0 , 

89.0 , 4130.76923077 , 4131.28205128 , 4187.17948718 , 4134.87179487 , 4134.87179487 , 4132.30769231 , 4123.07692308 , 4135.8974359 , 4134.35897436 , 4141.53846154 , 4178.46153846 , 4752.30769231 , 4134.35897436 , 4138.97435897 , 2050.0 , 2044.0 , 8.502 , 0.0 , 0.0 , 0.0 , 0.0 , 

90.0 , 4132.82051282 , 4129.23076923 , 4179.48717949 , 4128.20512821 , 4134.35897436 , 4137.43589744 , 4123.07692308 , 4136.92307692 , 4137.43589744 , 4139.48717949 , 4180.0 , 4753.33333333 , 4134.35897436 , 4138.46153846 , 2050.0 , 2042.0 , 8.51 , 0.0 , 0.0 , 0.0 , 0.0 , 

91.0 , 4132.30769231 , 4128.71794872 , 4182.05128205 , 4130.76923077 , 4134.35897436 , 4133.33333333 , 4128.20512821 , 4134.87179487 , 4137.94871795 , 4138.97435897 , 4179.48717949 , 4753.84615385 , 4129.74358974 , 4136.92307692 , 2051.0 , 2040.0 , 8.518 , 0.0 , 0.0 , 0.0 , 0.0 , 

92.0 , 4131.28205128 , 4133.84615385 , 4184.61538462 , 4137.43589744 , 4135.8974359 , 4126.66666667 , 4128.20512821 , 4132.82051282 , 4135.38461538 , 4141.02564103 , 4175.8974359 , 4755.8974359 , 4130.25641026 , 4137.43589744 , 2051.0 , 2037.0 , 8.525 , 0.0 , 0.0 , 0.0 , 0.0 , 

93.0 , 4129.74358974 , 4132.30769231 , 4193.33333333 , 4135.8974359 , 4135.38461538 , 4129.23076923 , 4123.07692308 , 4134.87179487 , 4136.41025641 , 4142.05128205 , 4174.87179487 , 4757.94871795 , 4136.41025641 , 4137.43589744 , 2049.0 , 2038.0 , 8.533 , 0.0 , 0.0 , 0.0 , 0.0 , 

94.0 , 4130.76923077 , 4128.71794872 , 4187.17948718 , 4134.35897436 , 4132.30769231 , 4136.92307692 , 4124.61538462 , 4134.35897436 , 4138.46153846 , 4140.0 , 4176.41025641 , 4756.92307692 , 4135.8974359 , 4136.41025641 , 2051.0 , 2036.0 , 8.54 , 0.0 , 0.0 , 0.0 , 0.0 , 

95.0 , 4132.30769231 , 4130.76923077 , 4190.76923077 , 4137.43589744 , 4132.30769231 , 4134.87179487 , 4129.74358974 , 4135.8974359 , 4136.92307692 , 4143.07692308 , 4178.97435897 , 4758.97435897 , 4133.84615385 , 4136.92307692 , 2050.0 , 2036.0 , 8.548 , 0.0 , 0.0 , 0.0 , 0.0 , 

96.0 , 4131.28205128 , 4132.82051282 , 4191.28205128 , 4136.92307692 , 4133.33333333 , 4127.17948718 , 4129.23076923 , 4137.43589744 , 4135.38461538 , 4140.0 , 4178.46153846 , 4761.02564103 , 4134.35897436 , 4136.92307692 , 2051.0 , 2036.0 , 8.557 , 0.0 , 0.0 , 0.0 , 0.0 , 

97.0 , 4128.71794872 , 4131.28205128 , 4192.30769231 , 4135.8974359 , 4132.30769231 , 4127.17948718 , 4127.69230769 , 4136.41025641 , 4136.92307692 , 4136.41025641 , 4177.43589744 , 4762.05128205 , 4136.41025641 , 4136.92307692 , 2051.0 , 2037.0 , 8.564 , 0.0 , 0.0 , 0.0 , 0.0 , 

98.0 , 4131.28205128 , 4131.28205128 , 4186.15384615 , 4136.92307692 , 4133.33333333 , 4129.23076923 , 4131.28205128 , 4134.87179487 , 4135.8974359 , 4143.58974359 , 4176.41025641 , 4763.58974359 , 4133.84615385 , 4137.43589744 , 2050.0 , 2038.0 , 8.574 , 0.0 , 0.0 , 0.0 , 0.0 , 

99.0 , 4134.35897436 , 4130.76923077 , 4182.05128205 , 4135.8974359 , 4136.41025641 , 4129.23076923 , 4132.30769231 , 4136.41025641 , 4135.38461538 , 4147.17948718 , 4184.1025641 , 4763.07692308 , 4134.87179487 , 4137.43589744 , 2053.0 , 2038.0 , 8.58 , 0.0 , 0.0 , 0.0 , 0.0 , 

100.0 , 4130.25641026 , 4129.74358974 , 4178.97435897 , 4135.38461538 , 4133.33333333 , 4128.20512821 , 4128.71794872 , 4135.38461538 , 4136.92307692 , 4141.02564103 , 4184.61538462 , 4760.0 , 4135.8974359 , 4137.43589744 , 2052.0 , 2038.0 , 8.589 , 0.0 , 0.0 , 0.0 , 0.0 , 

101.0 , 4127.69230769 , 4132.30769231 , 4176.92307692 , 4134.87179487 , 4131.79487179 , 4129.23076923 , 4128.71794872 , 4134.87179487 , 4136.92307692 , 4138.46153846 , 4173.84615385 , 4763.58974359 , 4135.38461538 , 4136.41025641 , 2051.0 , 2041.0 , 8.595 , 0.0 , 0.0 , 0.0 , 0.0 , 

102.0 , 4132.82051282 , 4133.33333333 , 4176.92307692 , 4135.38461538 , 4135.8974359 , 4131.28205128 , 4128.20512821 , 4134.87179487 , 4136.41025641 , 4142.05128205 , 4173.84615385 , 4766.66666667 , 4135.38461538 , 4136.41025641 , 2052.0 , 2040.0 , 8.604 , 0.0 , 0.0 , 0.0 , 0.0 , 

103.0 , 4137.94871795 , 4131.79487179 , 4166.66666667 , 4136.41025641 , 4135.38461538 , 4133.84615385 , 4129.74358974 , 4135.38461538 , 4136.41025641 , 4142.05128205 , 4180.0 , 4766.15384615 , 4136.41025641 , 4137.43589744 , 2050.0 , 2040.0 , 8.612 , 0.0 , 0.0 , 0.0 , 0.0 , 

104.0 , 4134.35897436 , 4130.76923077 , 4169.74358974 , 4136.41025641 , 4133.33333333 , 4134.35897436 , 4130.25641026 , 4137.43589744 , 4136.41025641 , 4140.0 , 4177.43589744 , 4766.15384615 , 4136.92307692 , 4138.46153846 , 2049.0 , 2042.0 , 8.62 , 0.0 , 0.0 , 0.0 , 0.0 , 

105.0 , 4129.74358974 , 4131.28205128 , 4159.48717949 , 4135.8974359 , 4134.87179487 , 4134.87179487 , 4125.12820513 , 4132.30769231 , 4133.84615385 , 4138.46153846 , 4174.87179487 , 4767.17948718 , 4130.76923077 , 4136.41025641 , 2050.0 , 2042.0 , 8.628 , 0.0 , 0.0 , 0.0 , 0.0 , 

106.0 , 4131.28205128 , 4133.33333333 , 4158.97435897 , 4136.41025641 , 4136.92307692 , 4135.38461538 , 4129.74358974 , 4130.76923077 , 4135.8974359 , 4138.46153846 , 4178.97435897 , 4766.66666667 , 4132.30769231 , 4138.46153846 , 2050.0 , 2042.0 , 8.635 , 0.0 , 0.0 , 0.0 , 0.0 , 

107.0 , 4131.28205128 , 4134.35897436 , 4158.97435897 , 4136.92307692 , 4134.87179487 , 4128.71794872 , 4137.94871795 , 4132.82051282 , 4136.92307692 , 4138.97435897 , 4177.43589744 , 4764.1025641 , 4134.87179487 , 4142.56410256 , 2051.0 , 2038.0 , 8.643 , 0.0 , 0.0 , 0.0 , 0.0 , 

108.0 , 4131.28205128 , 4131.79487179 , 4146.66666667 , 4135.8974359 , 4134.35897436 , 4128.71794872 , 4131.79487179 , 4132.30769231 , 4134.35897436 , 4141.02564103 , 4175.38461538 , 4768.20512821 , 4130.25641026 , 4140.0 , 2052.0 , 2033.0 , 8.652 , 0.0 , 0.0 , 0.0 , 0.0 , 

109.0 , 4131.28205128 , 4129.74358974 , 4149.74358974 , 4136.41025641 , 4135.8974359 , 4135.8974359 , 4122.56410256 , 4131.79487179 , 4135.38461538 , 4143.07692308 , 4176.41025641 , 4771.28205128 , 4127.17948718 , 4137.43589744 , 2053.0 , 2028.0 , 8.659 , 0.0 , 0.0 , 0.0 , 0.0 , 

110.0 , 4131.28205128 , 4131.79487179 , 4153.84615385 , 4137.94871795 , 4135.38461538 , 4136.41025641 , 4129.23076923 , 4132.30769231 , 4137.94871795 , 4140.0 , 4175.8974359 , 4771.79487179 , 4130.25641026 , 4139.48717949 , 2053.0 , 2028.0 , 8.666 , 0.0 , 0.0 , 0.0 , 0.0 , 

111.0 , 4136.92307692 , 4133.84615385 , 4160.0 , 4136.92307692 , 4132.30769231 , 4133.84615385 , 4136.92307692 , 4133.84615385 , 4136.41025641 , 4140.0 , 4176.92307692 , 4771.79487179 , 4132.82051282 , 4139.48717949 , 2056.0 , 2028.0 , 8.674 , 0.0 , 0.0 , 0.0 , 0.0 , 

112.0 , 4137.94871795 , 4131.28205128 , 4173.33333333 , 4135.38461538 , 4131.28205128 , 4134.35897436 , 4132.82051282 , 4132.82051282 , 4134.87179487 , 4143.58974359 , 4177.43589744 , 4773.33333333 , 4132.82051282 , 4136.41025641 , 2056.0 , 2029.0 , 8.682 , 0.0 , 0.0 , 0.0 , 0.0 , 

113.0 , 4131.28205128 , 4130.25641026 , 4186.15384615 , 4136.41025641 , 4134.35897436 , 4136.41025641 , 4124.61538462 , 4133.33333333 , 4137.43589744 , 4143.58974359 , 4176.92307692 , 4772.30769231 , 4133.33333333 , 4137.43589744 , 2054.0 , 2032.0 , 8.691 , 0.0 , 0.0 , 0.0 , 0.0 , 

114.0 , 4129.23076923 , 4132.82051282 , 4168.20512821 , 4136.92307692 , 4136.41025641 , 4135.38461538 , 4123.07692308 , 4133.84615385 , 4136.92307692 , 4141.02564103 , 4176.41025641 , 4770.76923077 , 4131.28205128 , 4138.97435897 , 2054.0 , 2034.0 , 8.699 , 0.0 , 0.0 , 0.0 , 0.0 , 

115.0 , 4132.30769231 , 4131.79487179 , 4158.46153846 , 4136.92307692 , 4135.8974359 , 4135.38461538 , 4135.8974359 , 4134.35897436 , 4136.41025641 , 4142.05128205 , 4175.38461538 , 4774.87179487 , 4133.84615385 , 4137.94871795 , 2054.0 , 2035.0 , 8.707 , 0.0 , 0.0 , 0.0 , 0.0 , 

116.0 , 4132.30769231 , 4130.25641026 , 4142.56410256 , 4137.43589744 , 4135.8974359 , 4134.87179487 , 4139.48717949 , 4130.76923077 , 4132.30769231 , 4140.0 , 4175.8974359 , 4772.82051282 , 4131.79487179 , 4137.94871795 , 2054.0 , 2035.0 , 8.715 , 0.0 , 0.0 , 0.0 , 0.0 , 

117.0 , 4134.35897436 , 4133.33333333 , 4134.87179487 , 4137.94871795 , 4136.41025641 , 4135.38461538 , 4127.69230769 , 4131.79487179 , 4131.28205128 , 4138.97435897 , 4177.94871795 , 4771.79487179 , 4128.20512821 , 4136.41025641 , 2052.0 , 2038.0 , 8.723 , 0.0 , 0.0 , 0.0 , 0.0 , 

118.0 , 4134.35897436 , 4134.87179487 , 4132.30769231 , 4137.94871795 , 4135.8974359 , 4134.87179487 , 4124.61538462 , 4133.84615385 , 4131.28205128 , 4138.46153846 , 4175.8974359 , 4773.33333333 , 4128.20512821 , 4134.87179487 , 2056.0 , 2036.0 , 8.729 , 0.0 , 0.0 , 0.0 , 0.0 , 

119.0 , 4132.30769231 , 4133.84615385 , 4129.23076923 , 4136.92307692 , 4135.38461538 , 4134.87179487 , 4126.15384615 , 4133.33333333 , 4133.84615385 , 4138.97435897 , 4174.35897436 , 4775.38461538 , 4128.20512821 , 4138.46153846 , 2056.0 , 2036.0 , 8.738 , 0.0 , 0.0 , 0.0 , 0.0 , 

120.0 , 4132.82051282 , 4133.84615385 , 4125.64102564 , 4135.38461538 , 4134.87179487 , 4134.87179487 , 4121.53846154 , 4133.33333333 , 4133.84615385 , 4136.92307692 , 4176.41025641 , 4774.35897436 , 4126.66666667 , 4138.46153846 , 2058.0 , 2033.0 , 8.746 , 0.0 , 0.0 , 0.0 , 0.0 , 

121.0 , 4135.8974359 , 4135.8974359 , 4129.74358974 , 4135.8974359 , 4134.35897436 , 4134.87179487 , 4128.20512821 , 4133.33333333 , 4133.84615385 , 4135.8974359 , 4176.41025641 , 4773.33333333 , 4129.23076923 , 4134.87179487 , 2060.0 , 2030.0 , 8.754 , 0.0 , 0.0 , 0.0 , 0.0 , 

122.0 , 4135.8974359 , 4132.82051282 , 4133.33333333 , 4136.92307692 , 4134.87179487 , 4134.87179487 , 4135.8974359 , 4131.28205128 , 4133.84615385 , 4137.94871795 , 4174.87179487 , 4774.35897436 , 4128.71794872 , 4135.8974359 , 2063.0 , 2024.0 , 8.761 , 0.0 , 0.0 , 0.0 , 0.0 , 

123.0 , 4135.38461538 , 4134.87179487 , 4135.38461538 , 4135.38461538 , 4135.38461538 , 4134.87179487 , 4127.69230769 , 4134.35897436 , 4134.35897436 , 4140.0 , 4175.38461538 , 4773.84615385 , 4127.17948718 , 4138.97435897 , 2066.0 , 2021.0 , 8.77 , 0.0 , 0.0 , 0.0 , 0.0 , 

124.0 , 4132.30769231 , 4137.43589744 , 4151.79487179 , 4134.87179487 , 4134.87179487 , 4134.87179487 , 4124.1025641 , 4138.97435897 , 4137.94871795 , 4141.02564103 , 4177.94871795 , 4774.87179487 , 4129.74358974 , 4136.92307692 , 2070.0 , 2022.0 , 8.778 , 0.0 , 0.0 , 0.0 , 0.0 , 

125.0 , 4132.82051282 , 4129.23076923 , 4161.02564103 , 4136.92307692 , 4135.38461538 , 4134.87179487 , 4126.15384615 , 4137.43589744 , 4138.97435897 , 4142.56410256 , 4177.94871795 , 4774.87179487 , 4130.25641026 , 4135.8974359 , 2070.0 , 2023.0 , 8.784 , 0.0 , 0.0 , 0.0 , 0.0 , 

126.0 , 4137.94871795 , 4125.64102564 , 4168.71794872 , 4136.92307692 , 4135.38461538 , 4134.87179487 , 4126.66666667 , 4135.38461538 , 4138.97435897 , 4143.58974359 , 4175.8974359 , 4774.87179487 , 4129.74358974 , 4136.92307692 , 2073.0 , 2023.0 , 8.792 , 0.0 , 0.0 , 0.0 , 0.0 , 

127.0 , 4134.87179487 , 4133.33333333 , 4170.25641026 , 4134.87179487 , 4135.38461538 , 4134.87179487 , 4130.76923077 , 4134.35897436 , 4138.46153846 , 4144.61538462 , 4174.87179487 , 4773.84615385 , 4130.76923077 , 4136.92307692 , 2073.0 , 2023.0 , 8.8 , 0.0 , 0.0 , 0.0 , 0.0 , 

128.0 , 4128.71794872 , 4136.92307692 , 4166.66666667 , 4135.8974359 , 4135.38461538 , 4134.87179487 , 4132.30769231 , 4135.38461538 , 4136.92307692 , 4146.66666667 , 4177.43589744 , 4773.84615385 , 4131.28205128 , 4137.94871795 , 2073.0 , 2024.0 , 8.808 , 0.0 , 0.0 , 0.0 , 0.0 , 

0.0 , 4131.28205128 , 4131.28205128 , 4172.30769231 , 4137.43589744 , 4135.38461538 , 4134.87179487 , 4125.12820513 , 4138.46153846 , 4134.35897436 , 4143.58974359 , 4180.0 , 4774.87179487 , 4130.25641026 , 4138.46153846 , 2070.0 , 2026.0 , 8.816 , 0.0 , 0.0 , 0.0 , 0.0 , 

1.0 , 4135.38461538 , 4131.28205128 , 4163.07692308 , 4136.41025641 , 4135.38461538 , 4134.87179487 , 4127.17948718 , 4134.87179487 , 4132.82051282 , 4140.51282051 , 4178.46153846 , 4776.92307692 , 4131.28205128 , 4137.43589744 , 2067.0 , 2028.0 , 8.824 , 0.0 , 0.0 , 0.0 , 0.0 , 

2.0 , 4132.82051282 , 4133.33333333 , 4176.92307692 , 4135.38461538 , 4135.38461538 , 4134.87179487 , 4131.79487179 , 4132.82051282 , 4136.41025641 , 4146.15384615 , 4177.94871795 , 4782.05128205 , 4133.84615385 , 4138.46153846 , 2062.0 , 2027.0 , 8.833 , 0.0 , 0.0 , 0.0 , 0.0 , 

3.0 , 4133.84615385 , 4133.84615385 , 4181.02564103 , 4136.41025641 , 4135.38461538 , 4134.87179487 , 4128.20512821 , 4131.79487179 , 4136.92307692 , 4145.12820513 , 4178.97435897 , 4782.05128205 , 4132.82051282 , 4137.94871795 , 2060.0 , 2028.0 , 8.841 , 0.0 , 0.0 , 0.0 , 0.0 , 

4.0 , 4134.35897436 , 4133.33333333 , 4177.43589744 , 4136.92307692 , 4135.38461538 , 4134.87179487 , 4128.20512821 , 4133.84615385 , 4136.41025641 , 4141.02564103 , 4178.97435897 , 4781.53846154 , 4134.87179487 , 4137.43589744 , 2060.0 , 2027.0 , 8.849 , 0.0 , 0.0 , 0.0 , 0.0 , 

5.0 , 4130.25641026 , 4129.74358974 , 4171.79487179 , 4136.41025641 , 4135.38461538 , 4134.87179487 , 4131.28205128 , 4132.82051282 , 4136.41025641 , 4141.02564103 , 4177.43589744 , 4781.02564103 , 4133.84615385 , 4136.41025641 , 2055.0 , 2029.0 , 8.856 , 0.0 , 0.0 , 0.0 , 0.0 , 

6.0 , 4131.79487179 , 4129.74358974 , 4173.33333333 , 4136.92307692 , 4135.38461538 , 4134.87179487 , 4129.74358974 , 4134.35897436 , 4135.8974359 , 4143.58974359 , 4177.43589744 , 4782.05128205 , 4132.30769231 , 4135.8974359 , 2054.0 , 2029.0 , 8.864 , 0.0 , 0.0 , 0.0 , 0.0 , 

7.0 , 4132.30769231 , 4134.87179487 , 4172.30769231 , 4137.43589744 , 4135.38461538 , 4134.87179487 , 4127.69230769 , 4136.41025641 , 4133.33333333 , 4142.56410256 , 4177.94871795 , 4780.51282051 , 4132.82051282 , 4137.43589744 , 2053.0 , 2031.0 , 8.872 , 0.0 , 0.0 , 0.0 , 0.0 , 

8.0 , 4129.23076923 , 4136.41025641 , 4173.84615385 , 4136.92307692 , 4135.38461538 , 4134.87179487 , 4129.23076923 , 4136.41025641 , 4135.38461538 , 4141.02564103 , 4178.46153846 , 4782.05128205 , 4132.82051282 , 4140.0 , 2052.0 , 2031.0 , 8.88 , 0.0 , 0.0 , 0.0 , 0.0 , 

9.0 , 4129.74358974 , 4132.82051282 , 4180.0 , 4136.92307692 , 4135.38461538 , 4135.38461538 , 4128.71794872 , 4134.35897436 , 4137.43589744 , 4140.51282051 , 4179.48717949 , 4781.53846154 , 4130.25641026 , 4138.46153846 , 2053.0 , 2031.0 , 8.887 , 0.0 , 0.0 , 0.0 , 0.0 , 

10.0 , 4132.30769231 , 4130.76923077 , 4173.33333333 , 4137.94871795 , 4135.38461538 , 4135.38461538 , 4127.69230769 , 4133.84615385 , 4135.8974359 , 4141.02564103 , 4181.02564103 , 4781.02564103 , 4130.76923077 , 4136.41025641 , 2052.0 , 2031.0 , 8.895 , 0.0 , 0.0 , 0.0 , 0.0 , 

11.0 , 4130.76923077 , 4131.79487179 , 4179.48717949 , 4136.92307692 , 4135.38461538 , 4134.35897436 , 4127.17948718 , 4135.8974359 , 4136.41025641 , 4143.58974359 , 4179.48717949 , 4783.07692308 , 4133.84615385 , 4137.43589744 , 2050.0 , 2031.0 , 8.904 , 0.0 , 0.0 , 0.0 , 0.0 , 

12.0 , 4131.28205128 , 4133.33333333 , 4173.33333333 , 4135.38461538 , 4135.38461538 , 4135.38461538 , 4128.71794872 , 4132.82051282 , 4137.43589744 , 4143.58974359 , 4174.87179487 , 4782.56410256 , 4130.25641026 , 4137.43589744 , 2049.0 , 2031.0 , 8.912 , 0.0 , 0.0 , 0.0 , 0.0 , 

13.0 , 4131.79487179 , 4132.82051282 , 4162.56410256 , 4136.41025641 , 4135.38461538 , 4136.41025641 , 4128.20512821 , 4129.23076923 , 4137.43589744 , 4142.56410256 , 4175.38461538 , 4784.1025641 , 4129.23076923 , 4136.41025641 , 2050.0 , 2030.0 , 8.918 , 0.0 , 0.0 , 0.0 , 0.0 , 

14.0 , 4131.28205128 , 4134.35897436 , 4157.94871795 , 4136.92307692 , 4135.38461538 , 4132.30769231 , 4126.66666667 , 4130.76923077 , 4135.38461538 , 4142.56410256 , 4178.97435897 , 4787.69230769 , 4132.30769231 , 4136.41025641 , 2048.0 , 2028.0 , 8.927 , 0.0 , 0.0 , 0.0 , 0.0 , 

15.0 , 4132.30769231 , 4134.87179487 , 4171.79487179 , 4135.8974359 , 4135.38461538 , 4129.74358974 , 4127.17948718 , 4135.38461538 , 4133.84615385 , 4143.07692308 , 4181.02564103 , 4791.28205128 , 4131.28205128 , 4138.97435897 , 2049.0 , 2030.0 , 8.935 , 0.0 , 0.0 , 0.0 , 0.0 , 

16.0 , 4127.69230769 , 4131.28205128 , 4165.12820513 , 4135.38461538 , 4135.38461538 , 4136.92307692 , 4129.74358974 , 4133.33333333 , 4134.35897436 , 4140.0 , 4176.92307692 , 4788.71794872 , 4128.20512821 , 4139.48717949 , 2051.0 , 2029.0 , 8.942 , 0.0 , 0.0 , 0.0 , 0.0 , 

17.0 , 4127.69230769 , 4130.25641026 , 4159.48717949 , 4135.38461538 , 4135.38461538 , 4137.94871795 , 4128.20512821 , 4132.30769231 , 4137.94871795 , 4140.0 , 4175.38461538 , 4787.69230769 , 4131.28205128 , 4138.46153846 , 2052.0 , 2029.0 , 8.95 , 0.0 , 0.0 , 0.0 , 0.0 , 

18.0 , 4135.38461538 , 4132.82051282 , 4156.92307692 , 4135.38461538 , 4135.38461538 , 4130.25641026 , 4127.69230769 , 4131.28205128 , 4137.94871795 , 4141.02564103 , 4177.43589744 , 4788.20512821 , 4132.82051282 , 4137.94871795 , 2051.0 , 2028.0 , 8.959 , 0.0 , 0.0 , 0.0 , 0.0 , 

19.0 , 4137.94871795 , 4131.79487179 , 4146.66666667 , 4137.43589744 , 4135.38461538 , 4129.74358974 , 4131.79487179 , 4131.79487179 , 4134.35897436 , 4140.0 , 4177.43589744 , 4788.20512821 , 4130.76923077 , 4138.46153846 , 2052.0 , 2029.0 , 8.966 , 0.0 , 0.0 , 0.0 , 0.0 , 

20.0 , 4134.35897436 , 4132.30769231 , 4143.58974359 , 4137.43589744 , 4135.38461538 , 4132.82051282 , 4130.76923077 , 4134.35897436 , 4134.87179487 , 4140.0 , 4176.41025641 , 4789.23076923 , 4130.25641026 , 4138.46153846 , 2054.0 , 2030.0 , 8.974 , 0.0 , 0.0 , 0.0 , 0.0 , 

21.0 , 4135.38461538 , 4133.33333333 , 4127.69230769 , 4136.41025641 , 4135.38461538 , 4133.33333333 , 4127.69230769 , 4131.79487179 , 4134.87179487 , 4138.97435897 , 4175.38461538 , 4787.69230769 , 4130.25641026 , 4137.94871795 , 2054.0 , 2030.0 , 8.982 , 0.0 , 0.0 , 0.0 , 0.0 , 

22.0 , 4137.43589744 , 4130.76923077 , 4135.8974359 , 4136.92307692 , 4135.38461538 , 4134.35897436 , 4134.35897436 , 4131.28205128 , 4135.8974359 , 4142.05128205 , 4177.94871795 , 4789.74358974 , 4131.79487179 , 4139.48717949 , 2054.0 , 2031.0 , 8.99 , 0.0 , 0.0 , 0.0 , 0.0 , 

23.0 , 4135.38461538 , 4129.74358974 , 4112.82051282 , 4136.92307692 , 4135.38461538 , 4135.8974359 , 4137.94871795 , 4129.74358974 , 4131.79487179 , 4140.51282051 , 4177.94871795 , 4789.74358974 , 4128.71794872 , 4140.0 , 2057.0 , 2030.0 , 8.998 , 0.0 , 0.0 , 0.0 , 0.0 , 

24.0 , 4136.92307692 , 4131.79487179 , 4097.94871795 , 4136.92307692 , 4135.38461538 , 4134.87179487 , 4133.84615385 , 4130.76923077 , 4132.30769231 , 4140.0 , 4178.97435897 , 4789.23076923 , 4127.69230769 , 4140.0 , 2059.0 , 2029.0 , 9.005 , 0.0 , 0.0 , 0.0 , 0.0 , 

25.0 , 4136.41025641 , 4129.74358974 , 4083.07692308 , 4136.92307692 , 4134.87179487 , 4134.35897436 , 4130.25641026 , 4128.20512821 , 4132.82051282 , 4137.94871795 , 4177.43589744 , 4785.12820513 , 4123.58974359 , 4133.84615385 , 2058.0 , 2026.0 , 9.014 , 0.0 , 0.0 , 0.0 , 0.0 , 

26.0 , 4134.35897436 , 4134.87179487 , 4060.0 , 4136.92307692 , 4134.87179487 , 4135.8974359 , 4133.84615385 , 4126.15384615 , 4131.28205128 , 4135.38461538 , 4174.35897436 , 4780.0 , 4121.53846154 , 4132.30769231 , 2059.0 , 2026.0 , 9.022 , 0.0 , 0.0 , 0.0 , 0.0 , 

27.0 , 4134.87179487 , 4140.51282051 , 4005.64102564 , 4136.41025641 , 4135.8974359 , 4135.8974359 , 4134.35897436 , 4122.05128205 , 4127.17948718 , 4129.23076923 , 4174.87179487 , 4775.38461538 , 4121.53846154 , 4132.30769231 , 2059.0 , 2027.0 , 9.029 , 0.0 , 0.0 , 0.0 , 0.0 , 

28.0 , 4136.41025641 , 4131.79487179 , 3971.79487179 , 4136.92307692 , 4135.8974359 , 4135.8974359 , 4129.74358974 , 4120.51282051 , 4127.17948718 , 4129.23076923 , 4172.82051282 , 4774.35897436 , 4120.51282051 , 4132.30769231 , 2058.0 , 2030.0 , 9.037 , 0.0 , 0.0 , 0.0 , 0.0 , 

29.0 , 4135.38461538 , 4127.17948718 , 3961.53846154 , 4137.94871795 , 4134.87179487 , 4135.8974359 , 4129.74358974 , 4123.07692308 , 4129.74358974 , 4128.20512821 , 4172.30769231 , 4775.38461538 , 4121.02564103 , 4130.76923077 , 2058.0 , 2031.0 , 9.046 , 0.0 , 0.0 , 0.0 , 0.0 , 

30.0 , 4134.35897436 , 4134.35897436 , 3927.17948718 , 4135.8974359 , 4135.8974359 , 4135.8974359 , 4133.33333333 , 4122.05128205 , 4129.74358974 , 4122.56410256 , 4172.82051282 , 4772.30769231 , 4120.0 , 4131.28205128 , 2057.0 , 2031.0 , 9.054 , 0.0 , 0.0 , 0.0 , 0.0 , 

31.0 , 4138.46153846 , 4134.35897436 , 3891.28205128 , 4134.87179487 , 4137.94871795 , 4135.8974359 , 4133.33333333 , 4121.02564103 , 4126.66666667 , 4126.66666667 , 4170.76923077 , 4769.74358974 , 4115.8974359 , 4132.30769231 , 2056.0 , 2033.0 , 9.061 , 0.0 , 0.0 , 0.0 , 0.0 , 

32.0 , 4137.43589744 , 4129.74358974 , 3856.41025641 , 4135.38461538 , 4136.41025641 , 4135.8974359 , 4133.84615385 , 4117.94871795 , 4121.53846154 , 4128.20512821 , 4167.17948718 , 4763.58974359 , 4113.33333333 , 4127.69230769 , 2053.0 , 2031.0 , 9.068 , 0.0 , 0.0 , 0.0 , 0.0 , 

33.0 , 4135.8974359 , 4130.76923077 , 3856.92307692 , 4134.87179487 , 4134.87179487 , 4136.41025641 , 4134.35897436 , 4120.0 , 4122.56410256 , 4126.66666667 , 4169.74358974 , 4758.97435897 , 4118.46153846 , 4129.74358974 , 2052.0 , 2030.0 , 9.077 , 0.0 , 0.0 , 0.0 , 0.0 , 

34.0 , 4133.84615385 , 4129.74358974 , 3878.46153846 , 4134.87179487 , 4135.8974359 , 4135.8974359 , 4130.76923077 , 4122.05128205 , 4126.66666667 , 4129.23076923 , 4172.82051282 , 4756.41025641 , 4121.02564103 , 4135.8974359 , 2053.0 , 2027.0 , 9.084 , 0.0 , 0.0 , 0.0 , 0.0 , 

35.0 , 4132.82051282 , 4129.74358974 , 3895.8974359 , 4137.94871795 , 4135.38461538 , 4134.35897436 , 4129.23076923 , 4124.1025641 , 4130.76923077 , 4133.84615385 , 4172.82051282 , 4754.87179487 , 4121.53846154 , 4136.92307692 , 2054.0 , 2026.0 , 9.093 , 0.0 , 0.0 , 0.0 , 0.0 , 

36.0 , 4131.79487179 , 4131.28205128 , 3922.05128205 , 4135.8974359 , 4133.33333333 , 4134.35897436 , 4129.74358974 , 4129.23076923 , 4132.82051282 , 4137.94871795 , 4175.8974359 , 4755.38461538 , 4128.71794872 , 4136.41025641 , 2055.0 , 2026.0 , 9.101 , 0.0 , 0.0 , 0.0 , 0.0 , 

37.0 , 4134.35897436 , 4131.28205128 , 3970.25641026 , 4134.87179487 , 4134.87179487 , 4135.38461538 , 4128.71794872 , 4134.35897436 , 4134.87179487 , 4145.12820513 , 4177.94871795 , 4754.87179487 , 4135.38461538 , 4139.48717949 , 2052.0 , 2028.0 , 9.109 , 0.0 , 0.0 , 0.0 , 0.0 , 

38.0 , 4133.33333333 , 4131.79487179 , 4032.82051282 , 4134.87179487 , 4136.41025641 , 4134.87179487 , 4129.74358974 , 4139.48717949 , 4141.02564103 , 4148.71794872 , 4177.94871795 , 4753.84615385 , 4136.92307692 , 4142.05128205 , 2051.0 , 2030.0 , 9.116 , 0.0 , 0.0 , 0.0 , 0.0 , 

39.0 , 4129.23076923 , 4130.76923077 , 4095.8974359 , 4127.69230769 , 4135.8974359 , 4134.87179487 , 4132.30769231 , 4144.61538462 , 4146.66666667 , 4148.20512821 , 4181.53846154 , 4755.8974359 , 4140.0 , 4140.51282051 , 2047.0 , 2032.0 , 9.123 , 0.0 , 0.0 , 0.0 , 0.0 , 

40.0 , 4130.76923077 , 4129.23076923 , 4162.05128205 , 4126.66666667 , 4134.87179487 , 4136.41025641 , 4133.33333333 , 4150.25641026 , 4149.23076923 , 4156.41025641 , 4187.17948718 , 4760.0 , 4145.64102564 , 4142.05128205 , 2045.0 , 2033.0 , 9.132 , 0.0 , 0.0 , 0.0 , 0.0 , 

41.0 , 4132.82051282 , 4129.23076923 , 4211.79487179 , 4134.35897436 , 4134.87179487 , 4132.82051282 , 4134.87179487 , 4152.30769231 , 4149.23076923 , 4165.12820513 , 4189.74358974 , 4761.02564103 , 4146.15384615 , 4144.1025641 , 2043.0 , 2032.0 , 9.139 , 0.0 , 0.0 , 0.0 , 0.0 , 

42.0 , 4131.28205128 , 4128.71794872 , 4232.30769231 , 4135.38461538 , 4136.41025641 , 4130.25641026 , 4132.82051282 , 4151.28205128 , 4147.17948718 , 4161.02564103 , 4189.74358974 , 4757.43589744 , 4144.61538462 , 4142.56410256 , 2041.0 , 2031.0 , 9.148 , 0.0 , 0.0 , 0.0 , 0.0 , 

43.0 , 4129.74358974 , 4128.71794872 , 4241.53846154 , 4134.87179487 , 4134.35897436 , 4134.35897436 , 4133.33333333 , 4150.25641026 , 4147.69230769 , 4155.38461538 , 4186.66666667 , 4755.38461538 , 4145.12820513 , 4144.1025641 , 2040.0 , 2031.0 , 9.155 , 0.0 , 0.0 , 0.0 , 0.0 , 

44.0 , 4129.74358974 , 4129.74358974 , 4305.64102564 , 4136.41025641 , 4130.76923077 , 4135.38461538 , 4136.41025641 , 4152.30769231 , 4154.87179487 , 4161.53846154 , 4187.17948718 , 4763.58974359 , 4147.69230769 , 4145.12820513 , 2036.0 , 2031.0 , 9.164 , 0.0 , 0.0 , 0.0 , 0.0 , 

45.0 , 4128.71794872 , 4128.20512821 , 4343.58974359 , 4132.82051282 , 4132.82051282 , 4132.82051282 , 4133.33333333 , 4149.23076923 , 4152.82051282 , 4164.61538462 , 4187.69230769 , 4768.71794872 , 4145.12820513 , 4142.56410256 , 2035.0 , 2030.0 , 9.171 , 0.0 , 0.0 , 0.0 , 0.0 , 

46.0 , 4129.74358974 , 4127.69230769 , 4342.05128205 , 4133.33333333 , 4135.38461538 , 4134.35897436 , 4131.79487179 , 4147.69230769 , 4147.17948718 , 4161.53846154 , 4186.66666667 , 4765.64102564 , 4146.66666667 , 4143.07692308 , 2034.0 , 2028.0 , 9.179 , 0.0 , 0.0 , 0.0 , 0.0 , 

47.0 , 4129.74358974 , 4130.76923077 , 4310.76923077 , 4134.87179487 , 4133.84615385 , 4131.79487179 , 4129.74358974 , 4143.07692308 , 4142.05128205 , 4153.33333333 , 4183.58974359 , 4762.05128205 , 4141.53846154 , 4142.05128205 , 2032.0 , 2028.0 , 9.186 , 0.0 , 0.0 , 0.0 , 0.0 , 

48.0 , 4130.25641026 , 4130.76923077 , 4255.38461538 , 4130.25641026 , 4132.30769231 , 4128.71794872 , 4126.15384615 , 4135.8974359 , 4137.43589744 , 4147.17948718 , 4182.56410256 , 4763.58974359 , 4134.35897436 , 4136.92307692 , 2032.0 , 2028.0 , 9.195 , 0.0 , 0.0 , 0.0 , 0.0 , 

49.0 , 4130.76923077 , 4128.71794872 , 4232.30769231 , 4128.20512821 , 4133.84615385 , 4129.23076923 , 4125.64102564 , 4135.38461538 , 4135.38461538 , 4148.71794872 , 4181.53846154 , 4765.12820513 , 4135.8974359 , 4134.35897436 , 2032.0 , 2028.0 , 9.202 , 0.0 , 0.0 , 0.0 , 0.0 , 

50.0 , 4131.28205128 , 4131.28205128 , 4221.53846154 , 4130.25641026 , 4135.8974359 , 4128.20512821 , 4129.74358974 , 4136.92307692 , 4135.8974359 , 4150.76923077 , 4181.02564103 , 4764.1025641 , 4137.43589744 , 4137.94871795 , 2032.0 , 2029.0 , 9.21 , 0.0 , 0.0 , 0.0 , 0.0 , 

51.0 , 4131.28205128 , 4131.28205128 , 4218.97435897 , 4131.28205128 , 4135.38461538 , 4126.66666667 , 4128.71794872 , 4134.87179487 , 4135.8974359 , 4151.28205128 , 4184.1025641 , 4765.64102564 , 4134.35897436 , 4137.43589744 , 2032.0 , 2027.0 , 9.218 , 0.0 , 0.0 , 0.0 , 0.0 , 

52.0 , 4132.30769231 , 4128.71794872 , 4186.66666667 , 4133.84615385 , 4133.84615385 , 4127.69230769 , 4128.71794872 , 4133.84615385 , 4134.35897436 , 4143.58974359 , 4183.58974359 , 4764.61538462 , 4132.30769231 , 4134.35897436 , 2034.0 , 2029.0 , 9.226 , 0.0 , 0.0 , 0.0 , 0.0 , 

53.0 , 4133.84615385 , 4129.74358974 , 4198.97435897 , 4135.8974359 , 4134.87179487 , 4125.12820513 , 4130.25641026 , 4139.48717949 , 4137.43589744 , 4138.97435897 , 4184.1025641 , 4766.66666667 , 4135.8974359 , 4137.94871795 , 2036.0 , 2029.0 , 9.235 , 0.0 , 0.0 , 0.0 , 0.0 , 

54.0 , 4133.33333333 , 4132.30769231 , 4182.56410256 , 4135.8974359 , 4135.8974359 , 4124.61538462 , 4130.76923077 , 4135.8974359 , 4135.38461538 , 4134.87179487 , 4183.07692308 , 4766.66666667 , 4134.35897436 , 4137.94871795 , 2038.0 , 2030.0 , 9.242 , 0.0 , 0.0 , 0.0 , 0.0 , 

55.0 , 4132.30769231 , 4131.28205128 , 4181.53846154 , 4137.94871795 , 4133.33333333 , 4131.28205128 , 4128.20512821 , 4135.38461538 , 4134.87179487 , 4138.97435897 , 4182.56410256 , 4766.66666667 , 4134.35897436 , 4137.94871795 , 2039.0 , 2031.0 , 9.249 , 0.0 , 0.0 , 0.0 , 0.0 , 

56.0 , 4132.30769231 , 4131.28205128 , 4181.53846154 , 4137.94871795 , 4132.30769231 , 4129.23076923 , 4126.66666667 , 4135.8974359 , 4134.35897436 , 4145.64102564 , 4182.05128205 , 4765.12820513 , 4134.35897436 , 4137.94871795 , 2041.0 , 2031.0 , 9.258 , 0.0 , 0.0 , 0.0 , 0.0 , 

57.0 , 4132.30769231 , 4131.79487179 , 4181.02564103 , 4135.8974359 , 4134.87179487 , 4128.20512821 , 4128.20512821 , 4135.8974359 , 4136.92307692 , 4153.84615385 , 4182.56410256 , 4766.15384615 , 4134.87179487 , 4138.46153846 , 2043.0 , 2032.0 , 9.266 , 0.0 , 0.0 , 0.0 , 0.0 , 

58.0 , 4131.28205128 , 4129.74358974 , 4172.82051282 , 4135.38461538 , 4135.8974359 , 4132.30769231 , 4128.71794872 , 4135.8974359 , 4138.46153846 , 4148.20512821 , 4182.56410256 , 4767.69230769 , 4134.35897436 , 4137.94871795 , 2043.0 , 2030.0 , 9.274 , 0.0 , 0.0 , 0.0 , 0.0 , 

59.0 , 4131.28205128 , 4129.74358974 , 4167.17948718 , 4136.41025641 , 4134.87179487 , 4133.84615385 , 4129.23076923 , 4135.8974359 , 4137.94871795 , 4138.97435897 , 4182.56410256 , 4766.66666667 , 4134.87179487 , 4137.43589744 , 2044.0 , 2028.0 , 9.281 , 0.0 , 0.0 , 0.0 , 0.0 , 

60.0 , 4135.38461538 , 4132.82051282 , 4170.76923077 , 4137.43589744 , 4134.87179487 , 4134.35897436 , 4129.74358974 , 4135.38461538 , 4137.94871795 , 4145.64102564 , 4183.58974359 , 4766.15384615 , 4136.41025641 , 4136.92307692 , 2045.0 , 2026.0 , 9.289 , 0.0 , 0.0 , 0.0 , 0.0 , 

61.0 , 4136.41025641 , 4131.79487179 , 4166.66666667 , 4135.38461538 , 4133.84615385 , 4135.38461538 , 4128.71794872 , 4134.87179487 , 4137.94871795 , 4146.66666667 , 4183.07692308 , 4767.69230769 , 4135.38461538 , 4136.41025641 , 2045.0 , 2026.0 , 9.297 , 0.0 , 0.0 , 0.0 , 0.0 , 

62.0 , 4132.30769231 , 4130.25641026 , 4166.15384615 , 4134.87179487 , 4133.33333333 , 4135.8974359 , 4131.79487179 , 4135.8974359 , 4136.41025641 , 4139.48717949 , 4183.07692308 , 4771.28205128 , 4135.38461538 , 4136.92307692 , 2047.0 , 2023.0 , 9.306 , 0.0 , 0.0 , 0.0 , 0.0 , 

63.0 , 4129.23076923 , 4130.25641026 , 4163.07692308 , 4136.41025641 , 4134.87179487 , 4135.38461538 , 4134.87179487 , 4135.8974359 , 4135.38461538 , 4137.94871795 , 4183.58974359 , 4769.74358974 , 4134.35897436 , 4136.92307692 , 2048.0 , 2023.0 , 9.312 , 0.0 , 0.0 , 0.0 , 0.0 , 

64.0 , 4132.30769231 , 4129.23076923 , 4164.61538462 , 4136.41025641 , 4135.8974359 , 4134.87179487 , 4130.76923077 , 4136.92307692 , 4136.92307692 , 4145.12820513 , 4182.56410256 , 4771.28205128 , 4133.84615385 , 4138.46153846 , 2049.0 , 2024.0 , 9.32 , 0.0 , 0.0 , 0.0 , 0.0 , 

65.0 , 4133.33333333 , 4128.71794872 , 4153.84615385 , 4134.87179487 , 4133.84615385 , 4131.28205128 , 4127.17948718 , 4134.35897436 , 4135.8974359 , 4143.58974359 , 4181.02564103 , 4773.33333333 , 4131.28205128 , 4139.48717949 , 2049.0 , 2026.0 , 9.329 , 0.0 , 0.0 , 0.0 , 0.0 , 

66.0 , 4130.76923077 , 4130.25641026 , 4153.33333333 , 4135.38461538 , 4133.84615385 , 4133.33333333 , 4134.87179487 , 4134.87179487 , 4136.41025641 , 4140.51282051 , 4184.61538462 , 4772.30769231 , 4129.74358974 , 4138.97435897 , 2048.0 , 2025.0 , 9.337 , 0.0 , 0.0 , 0.0 , 0.0 , 

67.0 , 4131.28205128 , 4128.71794872 , 4148.20512821 , 4136.41025641 , 4134.87179487 , 4136.92307692 , 4138.97435897 , 4132.82051282 , 4136.41025641 , 4141.53846154 , 4180.0 , 4769.74358974 , 4128.20512821 , 4136.92307692 , 2049.0 , 2029.0 , 9.345 , 0.0 , 0.0 , 0.0 , 0.0 , 

68.0 , 4132.82051282 , 4131.79487179 , 4149.23076923 , 4136.41025641 , 4133.84615385 , 4134.87179487 , 4134.35897436 , 4131.79487179 , 4138.46153846 , 4143.58974359 , 4177.43589744 , 4776.41025641 , 4133.33333333 , 4137.94871795 , 2050.0 , 2029.0 , 9.353 , 0.0 , 0.0 , 0.0 , 0.0 , 

69.0 , 4132.30769231 , 4136.41025641 , 4147.69230769 , 4135.8974359 , 4134.35897436 , 4133.84615385 , 4130.25641026 , 4130.25641026 , 4136.92307692 , 4142.56410256 , 4178.46153846 , 4777.43589744 , 4132.82051282 , 4138.46153846 , 2051.0 , 2026.0 , 9.361 , 0.0 , 0.0 , 0.0 , 0.0 , 

