['COUNTER', 'AF3', 'F7', 'F3', 'FC5', 'T7', 'P7', 'O1', 'O2', 'P8', 'T8', 'FC6', 'F4', 'F8', 'AF4', 'GYROX', 'GYROY', 'TIMESTAMP', 'FUNC_ID', 'FUNC_VALUE', 'MARKER', 'SYNC_SIGNAL']
54.0 , 4132.30769231 , 4131.79487179 , 4148.20512821 , 4133.84615385 , 4129.23076923 , 4129.23076923 , 4127.17948718 , 4137.94871795 , 4134.87179487 , 4141.02564103 , 4169.74358974 , 4674.35897436 , 4136.41025641 , 4138.46153846 , 2024.0 , 2039.0 , 6.03 , 0.0 , 0.0 , 0.0 , 0.0 , 

55.0 , 4131.79487179 , 4128.20512821 , 4131.79487179 , 4133.33333333 , 4130.25641026 , 4131.28205128 , 4129.23076923 , 4138.46153846 , 4136.41025641 , 4143.07692308 , 4172.30769231 , 4674.87179487 , 4134.35897436 , 4135.8974359 , 2023.0 , 2047.0 , 6.037 , 0.0 , 0.0 , 0.0 , 0.0 , 

56.0 , 4130.25641026 , 4128.20512821 , 4121.02564103 , 4133.33333333 , 4131.28205128 , 4126.15384615 , 4130.76923077 , 4133.84615385 , 4135.38461538 , 4142.56410256 , 4172.30769231 , 4673.33333333 , 4129.74358974 , 4136.41025641 , 2022.0 , 2049.0 , 6.045 , 0.0 , 0.0 , 0.0 , 0.0 , 

57.0 , 4131.28205128 , 4130.25641026 , 4117.94871795 , 4132.82051282 , 4132.30769231 , 4131.28205128 , 4131.28205128 , 4131.79487179 , 4134.35897436 , 4141.53846154 , 4171.28205128 , 4674.87179487 , 4129.23076923 , 4137.43589744 , 2024.0 , 2048.0 , 6.054 , 0.0 , 0.0 , 0.0 , 0.0 , 

58.0 , 4132.82051282 , 4129.23076923 , 4102.05128205 , 4133.84615385 , 4131.79487179 , 4140.51282051 , 4129.23076923 , 4132.30769231 , 4133.84615385 , 4138.97435897 , 4169.74358974 , 4673.33333333 , 4127.69230769 , 4135.38461538 , 2025.0 , 2045.0 , 6.062 , 0.0 , 0.0 , 0.0 , 0.0 , 

59.0 , 4130.76923077 , 4127.69230769 , 4104.61538462 , 4137.43589744 , 4129.23076923 , 4131.79487179 , 4128.71794872 , 4134.35897436 , 4131.79487179 , 4139.48717949 , 4169.23076923 , 4667.69230769 , 4128.71794872 , 4135.38461538 , 2026.0 , 2042.0 , 6.07 , 0.0 , 0.0 , 0.0 , 0.0 , 

60.0 , 4129.74358974 , 4129.23076923 , 4095.8974359 , 4135.8974359 , 4128.20512821 , 4123.58974359 , 4130.25641026 , 4132.82051282 , 4131.79487179 , 4138.97435897 , 4169.23076923 , 4665.12820513 , 4129.23076923 , 4135.38461538 , 2031.0 , 2035.0 , 6.077 , 0.0 , 0.0 , 0.0 , 0.0 , 

61.0 , 4132.82051282 , 4130.25641026 , 4124.61538462 , 4129.74358974 , 4129.23076923 , 4130.25641026 , 4131.28205128 , 4135.38461538 , 4136.41025641 , 4142.56410256 , 4170.76923077 , 4671.28205128 , 4132.30769231 , 4137.94871795 , 2031.0 , 2033.0 , 6.085 , 0.0 , 0.0 , 0.0 , 0.0 , 

62.0 , 4134.35897436 , 4130.25641026 , 4127.69230769 , 4132.30769231 , 4128.71794872 , 4130.76923077 , 4129.74358974 , 4135.38461538 , 4133.84615385 , 4142.56410256 , 4169.74358974 , 4672.82051282 , 4131.28205128 , 4139.48717949 , 2033.0 , 2031.0 , 6.093 , 0.0 , 0.0 , 0.0 , 0.0 , 

63.0 , 4133.84615385 , 4130.76923077 , 4136.92307692 , 4136.41025641 , 4127.69230769 , 4125.12820513 , 4128.71794872 , 4135.8974359 , 4132.30769231 , 4144.1025641 , 4169.74358974 , 4670.76923077 , 4131.79487179 , 4138.46153846 , 2034.0 , 2034.0 , 6.101 , 0.0 , 0.0 , 0.0 , 0.0 , 

64.0 , 4132.82051282 , 4130.76923077 , 4135.38461538 , 4132.82051282 , 4128.20512821 , 4127.69230769 , 4131.28205128 , 4133.84615385 , 4134.35897436 , 4144.1025641 , 4171.28205128 , 4670.25641026 , 4133.84615385 , 4136.41025641 , 2033.0 , 2034.0 , 6.108 , 0.0 , 0.0 , 0.0 , 0.0 , 

65.0 , 4132.82051282 , 4129.74358974 , 4140.51282051 , 4129.23076923 , 4130.25641026 , 4128.71794872 , 4133.84615385 , 4134.87179487 , 4137.94871795 , 4144.61538462 , 4172.82051282 , 4670.25641026 , 4135.38461538 , 4137.43589744 , 2032.0 , 2036.0 , 6.117 , 0.0 , 0.0 , 0.0 , 0.0 , 

66.0 , 4134.35897436 , 4131.28205128 , 4123.58974359 , 4131.79487179 , 4133.33333333 , 4127.17948718 , 4131.79487179 , 4137.94871795 , 4136.41025641 , 4143.58974359 , 4172.82051282 , 4669.74358974 , 4133.33333333 , 4141.02564103 , 2032.0 , 2038.0 , 6.125 , 0.0 , 0.0 , 0.0 , 0.0 , 

67.0 , 4131.28205128 , 4131.79487179 , 4131.79487179 , 4131.79487179 , 4131.79487179 , 4128.20512821 , 4130.25641026 , 4137.94871795 , 4134.87179487 , 4142.56410256 , 4174.35897436 , 4670.76923077 , 4132.30769231 , 4138.97435897 , 2034.0 , 2042.0 , 6.133 , 0.0 , 0.0 , 0.0 , 0.0 , 

68.0 , 4129.23076923 , 4132.30769231 , 4132.82051282 , 4131.79487179 , 4128.71794872 , 4128.71794872 , 4131.28205128 , 4133.84615385 , 4136.41025641 , 4141.02564103 , 4174.35897436 , 4669.74358974 , 4132.30769231 , 4136.41025641 , 2034.0 , 2043.0 , 6.141 , 0.0 , 0.0 , 0.0 , 0.0 , 

69.0 , 4131.79487179 , 4133.33333333 , 4135.8974359 , 4134.87179487 , 4129.23076923 , 4129.74358974 , 4130.76923077 , 4134.35897436 , 4138.97435897 , 4143.58974359 , 4172.30769231 , 4667.69230769 , 4132.82051282 , 4136.92307692 , 2037.0 , 2043.0 , 6.149 , 0.0 , 0.0 , 0.0 , 0.0 , 

70.0 , 4134.87179487 , 4134.35897436 , 4117.43589744 , 4135.8974359 , 4130.76923077 , 4135.8974359 , 4129.23076923 , 4136.41025641 , 4134.87179487 , 4144.1025641 , 4171.79487179 , 4668.71794872 , 4130.25641026 , 4136.41025641 , 2040.0 , 2042.0 , 6.155 , 0.0 , 0.0 , 0.0 , 0.0 , 

71.0 , 4131.28205128 , 4131.79487179 , 4098.97435897 , 4131.79487179 , 4129.23076923 , 4133.84615385 , 4128.20512821 , 4133.84615385 , 4130.25641026 , 4138.46153846 , 4171.28205128 , 4666.15384615 , 4127.17948718 , 4134.35897436 , 2040.0 , 2041.0 , 6.163 , 0.0 , 0.0 , 0.0 , 0.0 , 

72.0 , 4131.28205128 , 4131.79487179 , 4111.28205128 , 4129.23076923 , 4129.74358974 , 4125.12820513 , 4129.23076923 , 4134.87179487 , 4132.82051282 , 4140.0 , 4170.25641026 , 4665.64102564 , 4128.20512821 , 4135.38461538 , 2042.0 , 2043.0 , 6.172 , 0.0 , 0.0 , 0.0 , 0.0 , 

73.0 , 4133.84615385 , 4132.30769231 , 4122.05128205 , 4129.23076923 , 4131.79487179 , 4126.66666667 , 4130.76923077 , 4135.8974359 , 4134.35897436 , 4145.64102564 , 4169.23076923 , 4667.17948718 , 4129.74358974 , 4136.92307692 , 2043.0 , 2042.0 , 6.179 , 0.0 , 0.0 , 0.0 , 0.0 , 

74.0 , 4132.30769231 , 4131.28205128 , 4126.15384615 , 4132.82051282 , 4133.33333333 , 4131.79487179 , 4129.74358974 , 4135.8974359 , 4134.87179487 , 4146.66666667 , 4171.79487179 , 4671.28205128 , 4131.28205128 , 4136.92307692 , 2043.0 , 2040.0 , 6.188 , 0.0 , 0.0 , 0.0 , 0.0 , 

75.0 , 4129.23076923 , 4129.74358974 , 4121.02564103 , 4134.35897436 , 4132.82051282 , 4127.17948718 , 4128.20512821 , 4132.82051282 , 4132.82051282 , 4140.51282051 , 4171.28205128 , 4667.69230769 , 4130.76923077 , 4135.8974359 , 2043.0 , 2040.0 , 6.195 , 0.0 , 0.0 , 0.0 , 0.0 , 

76.0 , 4131.79487179 , 4130.76923077 , 4120.51282051 , 4130.25641026 , 4131.28205128 , 4129.74358974 , 4130.25641026 , 4132.82051282 , 4133.33333333 , 4142.56410256 , 4171.28205128 , 4666.66666667 , 4133.33333333 , 4138.97435897 , 2045.0 , 2039.0 , 6.204 , 0.0 , 0.0 , 0.0 , 0.0 , 

77.0 , 4134.87179487 , 4132.30769231 , 4117.94871795 , 4131.79487179 , 4131.79487179 , 4140.0 , 4130.25641026 , 4133.33333333 , 4135.8974359 , 4145.64102564 , 4172.82051282 , 4671.28205128 , 4134.35897436 , 4139.48717949 , 2044.0 , 2038.0 , 6.212 , 0.0 , 0.0 , 0.0 , 0.0 , 

78.0 , 4132.82051282 , 4132.30769231 , 4143.07692308 , 4137.94871795 , 4132.82051282 , 4135.38461538 , 4127.69230769 , 4137.43589744 , 4136.92307692 , 4144.1025641 , 4174.35897436 , 4672.82051282 , 4134.87179487 , 4140.0 , 2046.0 , 2037.0 , 6.218 , 0.0 , 0.0 , 0.0 , 0.0 , 

79.0 , 4129.23076923 , 4131.79487179 , 4133.84615385 , 4134.87179487 , 4130.76923077 , 4126.15384615 , 4130.25641026 , 4137.94871795 , 4133.84615385 , 4140.0 , 4172.82051282 , 4665.64102564 , 4133.33333333 , 4140.0 , 2048.0 , 2039.0 , 6.231 , 0.0 , 0.0 , 0.0 , 0.0 , 

80.0 , 4128.71794872 , 4130.76923077 , 4124.1025641 , 4129.23076923 , 4130.25641026 , 4129.74358974 , 4132.30769231 , 4137.94871795 , 4133.84615385 , 4141.53846154 , 4172.82051282 , 4663.58974359 , 4133.84615385 , 4138.46153846 , 2048.0 , 2038.0 , 6.234 , 0.0 , 0.0 , 0.0 , 0.0 , 

81.0 , 4130.76923077 , 4131.28205128 , 4118.46153846 , 4132.30769231 , 4130.25641026 , 4136.92307692 , 4129.23076923 , 4134.87179487 , 4134.87179487 , 4142.05128205 , 4172.30769231 , 4665.64102564 , 4132.30769231 , 4135.8974359 , 2047.0 , 2039.0 , 6.243 , 0.0 , 0.0 , 0.0 , 0.0 , 

82.0 , 4130.76923077 , 4131.79487179 , 4133.84615385 , 4134.87179487 , 4129.74358974 , 4133.84615385 , 4128.20512821 , 4133.84615385 , 4135.38461538 , 4142.05128205 , 4171.79487179 , 4663.07692308 , 4129.74358974 , 4136.92307692 , 2046.0 , 2039.0 , 6.251 , 0.0 , 0.0 , 0.0 , 0.0 , 

83.0 , 4131.28205128 , 4133.33333333 , 4125.64102564 , 4134.87179487 , 4130.76923077 , 4129.74358974 , 4130.25641026 , 4133.33333333 , 4135.8974359 , 4143.07692308 , 4172.82051282 , 4661.02564103 , 4129.74358974 , 4137.94871795 , 2046.0 , 2037.0 , 6.259 , 0.0 , 0.0 , 0.0 , 0.0 , 

84.0 , 4129.74358974 , 4131.28205128 , 4135.38461538 , 4135.8974359 , 4131.28205128 , 4130.25641026 , 4131.28205128 , 4134.35897436 , 4136.41025641 , 4143.58974359 , 4174.35897436 , 4664.61538462 , 4132.30769231 , 4135.8974359 , 2048.0 , 2037.0 , 6.266 , 0.0 , 0.0 , 0.0 , 0.0 , 

85.0 , 4129.23076923 , 4129.74358974 , 4122.05128205 , 4134.87179487 , 4130.76923077 , 4130.76923077 , 4130.25641026 , 4134.35897436 , 4134.35897436 , 4141.02564103 , 4171.79487179 , 4664.1025641 , 4131.79487179 , 4137.43589744 , 2050.0 , 2038.0 , 6.274 , 0.0 , 0.0 , 0.0 , 0.0 , 

86.0 , 4129.74358974 , 4131.79487179 , 4137.94871795 , 4129.74358974 , 4130.25641026 , 4130.25641026 , 4128.20512821 , 4136.41025641 , 4137.43589744 , 4144.1025641 , 4172.30769231 , 4662.05128205 , 4132.30769231 , 4140.0 , 2050.0 , 2037.0 , 6.282 , 0.0 , 0.0 , 0.0 , 0.0 , 

87.0 , 4133.33333333 , 4133.33333333 , 4152.82051282 , 4131.79487179 , 4129.23076923 , 4130.76923077 , 4127.69230769 , 4135.8974359 , 4137.94871795 , 4145.64102564 , 4176.41025641 , 4665.64102564 , 4132.82051282 , 4138.46153846 , 2051.0 , 2036.0 , 6.29 , 0.0 , 0.0 , 0.0 , 0.0 , 

88.0 , 4131.79487179 , 4129.74358974 , 4134.87179487 , 4135.8974359 , 4129.74358974 , 4131.28205128 , 4128.20512821 , 4131.79487179 , 4134.35897436 , 4141.02564103 , 4173.84615385 , 4665.64102564 , 4131.79487179 , 4136.41025641 , 2053.0 , 2033.0 , 6.297 , 0.0 , 0.0 , 0.0 , 0.0 , 

89.0 , 4130.25641026 , 4129.23076923 , 4114.87179487 , 4136.41025641 , 4130.76923077 , 4133.33333333 , 4128.71794872 , 4134.35897436 , 4133.84615385 , 4141.53846154 , 4170.25641026 , 4665.12820513 , 4130.25641026 , 4139.48717949 , 2053.0 , 2030.0 , 6.306 , 0.0 , 0.0 , 0.0 , 0.0 , 

90.0 , 4130.76923077 , 4132.82051282 , 4121.53846154 , 4135.38461538 , 4129.74358974 , 4134.87179487 , 4128.71794872 , 4136.41025641 , 4135.38461538 , 4143.07692308 , 4171.28205128 , 4664.61538462 , 4130.25641026 , 4139.48717949 , 2058.0 , 2029.0 , 6.314 , 0.0 , 0.0 , 0.0 , 0.0 , 

91.0 , 4131.79487179 , 4133.33333333 , 4123.58974359 , 4135.8974359 , 4130.25641026 , 4134.35897436 , 4129.23076923 , 4134.35897436 , 4134.35897436 , 4141.53846154 , 4173.33333333 , 4665.64102564 , 4133.84615385 , 4135.8974359 , 2058.0 , 2028.0 , 6.322 , 0.0 , 0.0 , 0.0 , 0.0 , 

92.0 , 4131.28205128 , 4130.25641026 , 4122.05128205 , 4133.33333333 , 4130.76923077 , 4132.30769231 , 4129.23076923 , 4131.79487179 , 4135.8974359 , 4141.53846154 , 4171.79487179 , 4665.12820513 , 4134.35897436 , 4136.92307692 , 2059.0 , 2030.0 , 6.333 , 0.0 , 0.0 , 0.0 , 0.0 , 

93.0 , 4132.82051282 , 4129.74358974 , 4137.43589744 , 4132.82051282 , 4129.74358974 , 4130.25641026 , 4130.25641026 , 4135.38461538 , 4138.97435897 , 4145.12820513 , 4172.82051282 , 4664.1025641 , 4133.84615385 , 4139.48717949 , 2060.0 , 2030.0 , 6.338 , 0.0 , 0.0 , 0.0 , 0.0 , 

94.0 , 4130.76923077 , 4131.79487179 , 4133.84615385 , 4135.38461538 , 4130.25641026 , 4130.76923077 , 4131.28205128 , 4136.41025641 , 4134.87179487 , 4142.56410256 , 4171.79487179 , 4662.05128205 , 4134.35897436 , 4136.41025641 , 2060.0 , 2028.0 , 6.346 , 0.0 , 0.0 , 0.0 , 0.0 , 

95.0 , 4129.23076923 , 4132.30769231 , 4142.05128205 , 4134.87179487 , 4130.25641026 , 4131.79487179 , 4128.71794872 , 4136.41025641 , 4133.84615385 , 4141.53846154 , 4170.76923077 , 4664.61538462 , 4136.41025641 , 4135.38461538 , 2057.0 , 2027.0 , 6.354 , 0.0 , 0.0 , 0.0 , 0.0 , 

96.0 , 4132.82051282 , 4131.28205128 , 4124.61538462 , 4131.28205128 , 4129.74358974 , 4129.74358974 , 4128.71794872 , 4134.35897436 , 4134.35897436 , 4138.97435897 , 4171.28205128 , 4665.12820513 , 4130.25641026 , 4136.92307692 , 2056.0 , 2027.0 , 6.361 , 0.0 , 0.0 , 0.0 , 0.0 , 

97.0 , 4134.35897436 , 4130.76923077 , 4121.53846154 , 4131.79487179 , 4129.74358974 , 4128.71794872 , 4129.74358974 , 4135.38461538 , 4134.87179487 , 4138.46153846 , 4172.82051282 , 4665.12820513 , 4128.71794872 , 4137.43589744 , 2057.0 , 2027.0 , 6.369 , 0.0 , 0.0 , 0.0 , 0.0 , 

98.0 , 4131.79487179 , 4131.28205128 , 4125.64102564 , 4132.30769231 , 4129.23076923 , 4131.79487179 , 4129.23076923 , 4135.38461538 , 4134.35897436 , 4141.02564103 , 4170.25641026 , 4665.64102564 , 4131.79487179 , 4136.92307692 , 2056.0 , 2026.0 , 6.377 , 0.0 , 0.0 , 0.0 , 0.0 , 

99.0 , 4132.30769231 , 4131.28205128 , 4138.97435897 , 4130.25641026 , 4129.74358974 , 4132.30769231 , 4129.74358974 , 4133.33333333 , 4136.41025641 , 4143.58974359 , 4170.25641026 , 4667.69230769 , 4133.84615385 , 4138.46153846 , 2056.0 , 2028.0 , 6.385 , 0.0 , 0.0 , 0.0 , 0.0 , 

100.0 , 4134.87179487 , 4131.79487179 , 4123.07692308 , 4129.74358974 , 4130.76923077 , 4131.28205128 , 4130.25641026 , 4131.28205128 , 4135.8974359 , 4141.02564103 , 4174.87179487 , 4667.69230769 , 4131.28205128 , 4138.46153846 , 2055.0 , 2028.0 , 6.393 , 0.0 , 0.0 , 0.0 , 0.0 , 

101.0 , 4133.33333333 , 4132.30769231 , 4145.12820513 , 4131.79487179 , 4129.23076923 , 4132.82051282 , 4127.69230769 , 4135.38461538 , 4135.8974359 , 4142.05128205 , 4175.38461538 , 4666.66666667 , 4133.33333333 , 4138.46153846 , 2056.0 , 2025.0 , 6.401 , 0.0 , 0.0 , 0.0 , 0.0 , 

102.0 , 4134.35897436 , 4132.82051282 , 4142.56410256 , 4131.79487179 , 4129.23076923 , 4130.76923077 , 4128.20512821 , 4134.35897436 , 4135.8974359 , 4141.53846154 , 4170.76923077 , 4664.1025641 , 4132.30769231 , 4139.48717949 , 2059.0 , 2025.0 , 6.408 , 0.0 , 0.0 , 0.0 , 0.0 , 

103.0 , 4134.87179487 , 4129.74358974 , 4128.20512821 , 4130.76923077 , 4130.25641026 , 4128.71794872 , 4131.28205128 , 4132.82051282 , 4135.8974359 , 4140.0 , 4170.25641026 , 4663.58974359 , 4130.25641026 , 4138.97435897 , 2060.0 , 2024.0 , 6.416 , 0.0 , 0.0 , 0.0 , 0.0 , 

104.0 , 4134.35897436 , 4130.25641026 , 4120.0 , 4132.30769231 , 4130.76923077 , 4134.87179487 , 4131.28205128 , 4132.30769231 , 4133.84615385 , 4142.05128205 , 4171.79487179 , 4664.1025641 , 4130.76923077 , 4137.94871795 , 2061.0 , 2023.0 , 6.424 , 0.0 , 0.0 , 0.0 , 0.0 , 

105.0 , 4131.79487179 , 4133.33333333 , 4134.87179487 , 4132.30769231 , 4131.79487179 , 4135.8974359 , 4130.76923077 , 4131.28205128 , 4135.38461538 , 4144.1025641 , 4171.28205128 , 4662.56410256 , 4131.79487179 , 4139.48717949 , 2064.0 , 2022.0 , 6.436 , 0.0 , 0.0 , 0.0 , 0.0 , 

106.0 , 4132.30769231 , 4133.33333333 , 4136.41025641 , 4130.25641026 , 4131.28205128 , 4129.23076923 , 4131.79487179 , 4132.82051282 , 4136.92307692 , 4142.56410256 , 4171.28205128 , 4664.1025641 , 4130.76923077 , 4137.43589744 , 2066.0 , 2024.0 , 6.44 , 0.0 , 0.0 , 0.0 , 0.0 , 

107.0 , 4131.79487179 , 4131.28205128 , 4139.48717949 , 4129.74358974 , 4128.71794872 , 4129.23076923 , 4130.25641026 , 4136.41025641 , 4133.84615385 , 4142.56410256 , 4173.33333333 , 4662.56410256 , 4130.25641026 , 4132.82051282 , 2066.0 , 2024.0 , 6.448 , 0.0 , 0.0 , 0.0 , 0.0 , 

108.0 , 4132.82051282 , 4131.79487179 , 4136.41025641 , 4131.28205128 , 4131.79487179 , 4133.33333333 , 4130.76923077 , 4132.82051282 , 4133.33333333 , 4143.07692308 , 4172.82051282 , 4661.53846154 , 4130.25641026 , 4134.87179487 , 2067.0 , 2025.0 , 6.456 , 0.0 , 0.0 , 0.0 , 0.0 , 

109.0 , 4132.82051282 , 4129.74358974 , 4124.61538462 , 4132.30769231 , 4132.30769231 , 4130.25641026 , 4130.25641026 , 4128.71794872 , 4134.87179487 , 4138.97435897 , 4169.74358974 , 4661.02564103 , 4128.20512821 , 4136.92307692 , 2069.0 , 2025.0 , 6.464 , 0.0 , 0.0 , 0.0 , 0.0 , 

110.0 , 4134.35897436 , 4129.74358974 , 4124.61538462 , 4133.33333333 , 4129.74358974 , 4129.23076923 , 4127.69230769 , 4134.35897436 , 4134.87179487 , 4140.0 , 4170.25641026 , 4662.56410256 , 4130.76923077 , 4134.87179487 , 2070.0 , 2024.0 , 6.472 , 0.0 , 0.0 , 0.0 , 0.0 , 

111.0 , 4134.87179487 , 4131.79487179 , 4125.64102564 , 4132.82051282 , 4129.74358974 , 4133.84615385 , 4129.23076923 , 4134.35897436 , 4133.33333333 , 4141.02564103 , 4171.28205128 , 4661.02564103 , 4129.74358974 , 4133.84615385 , 2072.0 , 2023.0 , 6.48 , 0.0 , 0.0 , 0.0 , 0.0 , 

112.0 , 4134.87179487 , 4130.25641026 , 4114.87179487 , 4130.25641026 , 4131.79487179 , 4131.79487179 , 4131.79487179 , 4132.30769231 , 4133.33333333 , 4138.46153846 , 4171.79487179 , 4662.05128205 , 4127.17948718 , 4135.38461538 , 2072.0 , 2023.0 , 6.486 , 0.0 , 0.0 , 0.0 , 0.0 , 

113.0 , 4133.33333333 , 4130.25641026 , 4114.35897436 , 4131.28205128 , 4131.28205128 , 4127.17948718 , 4130.25641026 , 4134.35897436 , 4132.82051282 , 4137.94871795 , 4170.25641026 , 4662.56410256 , 4127.69230769 , 4134.87179487 , 2069.0 , 2026.0 , 6.495 , 0.0 , 0.0 , 0.0 , 0.0 , 

114.0 , 4131.79487179 , 4133.84615385 , 4156.41025641 , 4133.33333333 , 4129.74358974 , 4131.79487179 , 4128.71794872 , 4137.43589744 , 4135.8974359 , 4142.56410256 , 4172.30769231 , 4661.02564103 , 4132.30769231 , 4137.43589744 , 2068.0 , 2025.0 , 6.502 , 0.0 , 0.0 , 0.0 , 0.0 , 

115.0 , 4130.76923077 , 4131.79487179 , 4150.25641026 , 4131.79487179 , 4129.74358974 , 4137.43589744 , 4129.74358974 , 4133.33333333 , 4136.92307692 , 4140.51282051 , 4172.30769231 , 4661.02564103 , 4132.30769231 , 4137.94871795 , 2066.0 , 2026.0 , 6.51 , 0.0 , 0.0 , 0.0 , 0.0 , 

116.0 , 4129.23076923 , 4128.71794872 , 4123.58974359 , 4131.28205128 , 4130.25641026 , 4131.79487179 , 4129.23076923 , 4133.33333333 , 4133.84615385 , 4136.92307692 , 4171.28205128 , 4664.1025641 , 4131.28205128 , 4136.41025641 , 2066.0 , 2026.0 , 6.519 , 0.0 , 0.0 , 0.0 , 0.0 , 

117.0 , 4128.20512821 , 4129.74358974 , 4119.48717949 , 4132.30769231 , 4130.25641026 , 4125.64102564 , 4130.76923077 , 4134.87179487 , 4133.33333333 , 4137.94871795 , 4170.76923077 , 4662.56410256 , 4129.74358974 , 4135.38461538 , 2066.0 , 2027.0 , 6.527 , 0.0 , 0.0 , 0.0 , 0.0 , 

118.0 , 4131.28205128 , 4130.25641026 , 4149.74358974 , 4130.76923077 , 4128.71794872 , 4128.20512821 , 4129.74358974 , 4134.87179487 , 4136.41025641 , 4142.05128205 , 4172.82051282 , 4661.02564103 , 4131.28205128 , 4134.87179487 , 2064.0 , 2028.0 , 6.538 , 0.0 , 0.0 , 0.0 , 0.0 , 

119.0 , 4136.41025641 , 4131.79487179 , 4132.30769231 , 4129.74358974 , 4130.25641026 , 4131.28205128 , 4128.71794872 , 4133.33333333 , 4134.87179487 , 4141.02564103 , 4173.33333333 , 4661.53846154 , 4132.30769231 , 4134.87179487 , 2065.0 , 2029.0 , 6.542 , 0.0 , 0.0 , 0.0 , 0.0 , 

120.0 , 4131.79487179 , 4130.76923077 , 4136.41025641 , 4130.76923077 , 4131.79487179 , 4128.71794872 , 4129.74358974 , 4136.41025641 , 4135.38461538 , 4140.51282051 , 4171.28205128 , 4664.1025641 , 4132.82051282 , 4137.43589744 , 2066.0 , 2030.0 , 6.549 , 0.0 , 0.0 , 0.0 , 0.0 , 

121.0 , 4130.25641026 , 4129.23076923 , 4142.05128205 , 4131.79487179 , 4129.23076923 , 4128.71794872 , 4131.79487179 , 4136.92307692 , 4135.38461538 , 4140.51282051 , 4170.76923077 , 4664.1025641 , 4131.79487179 , 4139.48717949 , 2066.0 , 2031.0 , 6.558 , 0.0 , 0.0 , 0.0 , 0.0 , 

122.0 , 4133.33333333 , 4130.76923077 , 4145.64102564 , 4131.28205128 , 4128.20512821 , 4130.25641026 , 4132.30769231 , 4133.84615385 , 4135.38461538 , 4141.02564103 , 4172.82051282 , 4660.0 , 4132.30769231 , 4137.43589744 , 2066.0 , 2031.0 , 6.566 , 0.0 , 0.0 , 0.0 , 0.0 , 

123.0 , 4132.82051282 , 4133.33333333 , 4131.79487179 , 4130.76923077 , 4130.25641026 , 4131.28205128 , 4132.30769231 , 4133.84615385 , 4135.8974359 , 4141.02564103 , 4172.82051282 , 4656.92307692 , 4132.30769231 , 4134.35897436 , 2066.0 , 2030.0 , 6.574 , 0.0 , 0.0 , 0.0 , 0.0 , 

124.0 , 4131.28205128 , 4130.25641026 , 4141.53846154 , 4130.25641026 , 4130.25641026 , 4131.28205128 , 4130.76923077 , 4138.46153846 , 4138.46153846 , 4142.05128205 , 4171.79487179 , 4661.02564103 , 4130.76923077 , 4134.35897436 , 2065.0 , 2031.0 , 6.582 , 0.0 , 0.0 , 0.0 , 0.0 , 

125.0 , 4132.82051282 , 4129.74358974 , 4137.43589744 , 4131.28205128 , 4130.25641026 , 4127.69230769 , 4131.28205128 , 4136.92307692 , 4137.43589744 , 4141.53846154 , 4172.82051282 , 4664.61538462 , 4129.74358974 , 4135.8974359 , 2067.0 , 2034.0 , 6.59 , 0.0 , 0.0 , 0.0 , 0.0 , 

126.0 , 4131.28205128 , 4131.28205128 , 4121.53846154 , 4132.82051282 , 4130.25641026 , 4126.66666667 , 4129.74358974 , 4131.28205128 , 4135.8974359 , 4140.51282051 , 4174.35897436 , 4663.58974359 , 4129.23076923 , 4135.38461538 , 2068.0 , 2036.0 , 6.598 , 0.0 , 0.0 , 0.0 , 0.0 , 

127.0 , 4131.28205128 , 4132.30769231 , 4132.30769231 , 4131.79487179 , 4130.25641026 , 4132.82051282 , 4129.23076923 , 4132.30769231 , 4139.48717949 , 4142.05128205 , 4174.35897436 , 4665.12820513 , 4130.76923077 , 4138.46153846 , 2066.0 , 2038.0 , 6.605 , 0.0 , 0.0 , 0.0 , 0.0 , 

128.0 , 4133.33333333 , 4132.82051282 , 4131.28205128 , 4130.25641026 , 4131.28205128 , 4135.8974359 , 4131.28205128 , 4133.84615385 , 4137.94871795 , 4141.02564103 , 4172.82051282 , 4663.07692308 , 4130.76923077 , 4140.0 , 2064.0 , 2038.0 , 6.612 , 0.0 , 0.0 , 0.0 , 0.0 , 

0.0 , 4133.33333333 , 4133.33333333 , 4117.94871795 , 4132.82051282 , 4133.33333333 , 4128.20512821 , 4131.79487179 , 4134.35897436 , 4134.35897436 , 4141.02564103 , 4172.30769231 , 4661.02564103 , 4132.30769231 , 4137.94871795 , 2063.0 , 2039.0 , 6.621 , 0.0 , 0.0 , 0.0 , 0.0 , 

1.0 , 4132.82051282 , 4132.82051282 , 4106.15384615 , 4132.82051282 , 4132.30769231 , 4125.64102564 , 4131.28205128 , 4132.82051282 , 4133.33333333 , 4138.97435897 , 4171.79487179 , 4659.48717949 , 4130.76923077 , 4135.38461538 , 2061.0 , 2039.0 , 6.629 , 0.0 , 0.0 , 0.0 , 0.0 , 

2.0 , 4134.35897436 , 4131.28205128 , 4111.79487179 , 4130.76923077 , 4131.28205128 , 4134.35897436 , 4133.84615385 , 4133.33333333 , 4134.35897436 , 4136.92307692 , 4172.30769231 , 4657.94871795 , 4130.25641026 , 4134.35897436 , 2060.0 , 2036.0 , 6.641 , 0.0 , 0.0 , 0.0 , 0.0 , 

3.0 , 4132.82051282 , 4131.28205128 , 4124.61538462 , 4131.79487179 , 4131.28205128 , 4135.8974359 , 4132.82051282 , 4134.87179487 , 4133.84615385 , 4135.8974359 , 4171.79487179 , 4656.41025641 , 4133.33333333 , 4135.8974359 , 2058.0 , 2033.0 , 6.645 , 0.0 , 0.0 , 0.0 , 0.0 , 

4.0 , 4130.76923077 , 4131.79487179 , 4151.79487179 , 4132.82051282 , 4130.25641026 , 4129.74358974 , 4128.71794872 , 4136.41025641 , 4136.41025641 , 4140.0 , 4172.30769231 , 4660.0 , 4135.8974359 , 4138.97435897 , 2055.0 , 2032.0 , 6.653 , 0.0 , 0.0 , 0.0 , 0.0 , 

5.0 , 4133.33333333 , 4132.82051282 , 4145.64102564 , 4131.28205128 , 4130.76923077 , 4130.25641026 , 4130.25641026 , 4134.87179487 , 4138.46153846 , 4142.56410256 , 4173.33333333 , 4661.53846154 , 4133.84615385 , 4140.0 , 2053.0 , 2031.0 , 6.66 , 0.0 , 0.0 , 0.0 , 0.0 , 

6.0 , 4133.33333333 , 4132.82051282 , 4143.58974359 , 4130.25641026 , 4130.25641026 , 4131.79487179 , 4131.28205128 , 4133.84615385 , 4134.87179487 , 4140.51282051 , 4174.87179487 , 4657.43589744 , 4132.30769231 , 4138.97435897 , 2053.0 , 2030.0 , 6.668 , 0.0 , 0.0 , 0.0 , 0.0 , 

7.0 , 4131.28205128 , 4131.79487179 , 4148.71794872 , 4130.76923077 , 4129.74358974 , 4130.76923077 , 4128.20512821 , 4136.92307692 , 4133.84615385 , 4138.97435897 , 4176.41025641 , 4656.92307692 , 4132.82051282 , 4139.48717949 , 2050.0 , 2031.0 , 6.676 , 0.0 , 0.0 , 0.0 , 0.0 , 

8.0 , 4132.30769231 , 4131.28205128 , 4185.64102564 , 4130.76923077 , 4130.25641026 , 4130.76923077 , 4128.71794872 , 4141.02564103 , 4139.48717949 , 4145.64102564 , 4175.8974359 , 4665.12820513 , 4136.92307692 , 4140.51282051 , 2051.0 , 2030.0 , 6.683 , 0.0 , 0.0 , 0.0 , 0.0 , 

9.0 , 4132.82051282 , 4131.28205128 , 4169.74358974 , 4131.28205128 , 4130.25641026 , 4129.74358974 , 4130.25641026 , 4136.92307692 , 4138.97435897 , 4146.15384615 , 4171.79487179 , 4667.17948718 , 4134.87179487 , 4137.94871795 , 2052.0 , 2029.0 , 6.692 , 0.0 , 0.0 , 0.0 , 0.0 , 

10.0 , 4130.25641026 , 4129.74358974 , 4164.1025641 , 4131.28205128 , 4131.28205128 , 4128.20512821 , 4127.17948718 , 4135.8974359 , 4137.94871795 , 4143.07692308 , 4171.79487179 , 4664.61538462 , 4133.33333333 , 4137.43589744 , 2053.0 , 2031.0 , 6.7 , 0.0 , 0.0 , 0.0 , 0.0 , 

11.0 , 4131.79487179 , 4130.25641026 , 4146.15384615 , 4131.28205128 , 4132.82051282 , 4133.33333333 , 4127.69230769 , 4134.35897436 , 4136.92307692 , 4140.51282051 , 4172.30769231 , 4664.61538462 , 4132.30769231 , 4140.51282051 , 2052.0 , 2033.0 , 6.708 , 0.0 , 0.0 , 0.0 , 0.0 , 

12.0 , 4132.30769231 , 4129.74358974 , 4156.92307692 , 4130.25641026 , 4132.82051282 , 4132.82051282 , 4129.74358974 , 4135.38461538 , 4139.48717949 , 4143.58974359 , 4170.25641026 , 4665.64102564 , 4132.30769231 , 4141.02564103 , 2053.0 , 2032.0 , 6.716 , 0.0 , 0.0 , 0.0 , 0.0 , 

13.0 , 4132.82051282 , 4129.74358974 , 4144.61538462 , 4130.76923077 , 4132.30769231 , 4126.15384615 , 4128.71794872 , 4135.38461538 , 4138.97435897 , 4142.56410256 , 4170.25641026 , 4663.07692308 , 4130.25641026 , 4136.92307692 , 2052.0 , 2033.0 , 6.724 , 0.0 , 0.0 , 0.0 , 0.0 , 

14.0 , 4132.30769231 , 4131.28205128 , 4138.97435897 , 4132.30769231 , 4132.30769231 , 4128.20512821 , 4128.20512821 , 4133.84615385 , 4137.43589744 , 4140.51282051 , 4172.30769231 , 4663.07692308 , 4130.76923077 , 4135.8974359 , 2050.0 , 2032.0 , 6.732 , 0.0 , 0.0 , 0.0 , 0.0 , 

15.0 , 4132.82051282 , 4132.82051282 , 4137.94871795 , 4132.30769231 , 4132.30769231 , 4131.79487179 , 4130.25641026 , 4130.76923077 , 4136.92307692 , 4141.53846154 , 4171.28205128 , 4666.15384615 , 4131.28205128 , 4137.43589744 , 2050.0 , 2032.0 , 6.743 , 0.0 , 0.0 , 0.0 , 0.0 , 

16.0 , 4131.79487179 , 4130.76923077 , 4141.02564103 , 4131.28205128 , 4132.30769231 , 4131.79487179 , 4129.74358974 , 4133.84615385 , 4136.92307692 , 4141.53846154 , 4170.76923077 , 4665.64102564 , 4131.79487179 , 4137.43589744 , 2050.0 , 2032.0 , 6.746 , 0.0 , 0.0 , 0.0 , 0.0 , 

17.0 , 4131.79487179 , 4129.74358974 , 4143.58974359 , 4130.25641026 , 4131.28205128 , 4132.30769231 , 4130.25641026 , 4138.46153846 , 4137.43589744 , 4142.56410256 , 4172.82051282 , 4663.07692308 , 4132.82051282 , 4140.51282051 , 2051.0 , 2032.0 , 6.755 , 0.0 , 0.0 , 0.0 , 0.0 , 

18.0 , 4129.23076923 , 4129.23076923 , 4147.69230769 , 4130.76923077 , 4129.74358974 , 4132.30769231 , 4132.30769231 , 4134.87179487 , 4136.41025641 , 4143.07692308 , 4173.33333333 , 4663.07692308 , 4131.28205128 , 4140.0 , 2052.0 , 2033.0 , 6.762 , 0.0 , 0.0 , 0.0 , 0.0 , 

19.0 , 4129.74358974 , 4129.74358974 , 4159.48717949 , 4133.84615385 , 4131.79487179 , 4129.74358974 , 4131.79487179 , 4132.30769231 , 4137.94871795 , 4143.07692308 , 4173.33333333 , 4666.15384615 , 4132.82051282 , 4136.92307692 , 2055.0 , 2032.0 , 6.77 , 0.0 , 0.0 , 0.0 , 0.0 , 

20.0 , 4132.30769231 , 4131.28205128 , 4164.1025641 , 4133.84615385 , 4131.79487179 , 4129.74358974 , 4129.74358974 , 4135.38461538 , 4139.48717949 , 4141.53846154 , 4173.33333333 , 4665.12820513 , 4132.30769231 , 4137.94871795 , 2054.0 , 2033.0 , 6.779 , 0.0 , 0.0 , 0.0 , 0.0 , 

21.0 , 4132.30769231 , 4130.76923077 , 4174.35897436 , 4130.76923077 , 4129.74358974 , 4129.74358974 , 4129.74358974 , 4138.46153846 , 4140.0 , 4142.56410256 , 4171.79487179 , 4664.1025641 , 4130.25641026 , 4140.0 , 2057.0 , 2036.0 , 6.787 , 0.0 , 0.0 , 0.0 , 0.0 , 

22.0 , 4132.30769231 , 4130.25641026 , 4166.15384615 , 4133.84615385 , 4129.23076923 , 4127.69230769 , 4131.28205128 , 4135.8974359 , 4139.48717949 , 4143.58974359 , 4170.76923077 , 4664.61538462 , 4131.28205128 , 4137.94871795 , 2056.0 , 2037.0 , 6.795 , 0.0 , 0.0 , 0.0 , 0.0 , 

23.0 , 4129.74358974 , 4131.79487179 , 4178.46153846 , 4135.38461538 , 4127.69230769 , 4125.64102564 , 4131.28205128 , 4135.8974359 , 4139.48717949 , 4145.12820513 , 4172.30769231 , 4666.66666667 , 4132.82051282 , 4138.46153846 , 2059.0 , 2034.0 , 6.803 , 0.0 , 0.0 , 0.0 , 0.0 , 

24.0 , 4128.71794872 , 4131.79487179 , 4163.58974359 , 4131.79487179 , 4128.20512821 , 4126.66666667 , 4130.25641026 , 4134.87179487 , 4136.41025641 , 4140.51282051 , 4170.76923077 , 4667.69230769 , 4128.71794872 , 4138.97435897 , 2060.0 , 2033.0 , 6.811 , 0.0 , 0.0 , 0.0 , 0.0 , 

25.0 , 4130.76923077 , 4130.76923077 , 4156.41025641 , 4131.79487179 , 4129.23076923 , 4129.23076923 , 4129.74358974 , 4135.38461538 , 4136.41025641 , 4140.0 , 4171.79487179 , 4667.69230769 , 4130.25641026 , 4135.8974359 , 2060.0 , 2032.0 , 6.819 , 0.0 , 0.0 , 0.0 , 0.0 , 

26.0 , 4131.79487179 , 4131.79487179 , 4138.46153846 , 4135.38461538 , 4129.23076923 , 4130.25641026 , 4129.74358974 , 4133.33333333 , 4137.94871795 , 4140.51282051 , 4171.28205128 , 4666.66666667 , 4133.84615385 , 4134.87179487 , 2062.0 , 2032.0 , 6.826 , 0.0 , 0.0 , 0.0 , 0.0 , 

27.0 , 4130.25641026 , 4132.30769231 , 4165.64102564 , 4133.33333333 , 4129.74358974 , 4129.23076923 , 4129.74358974 , 4133.84615385 , 4138.46153846 , 4140.51282051 , 4169.74358974 , 4668.71794872 , 4134.87179487 , 4137.43589744 , 2062.0 , 2032.0 , 6.834 , 0.0 , 0.0 , 0.0 , 0.0 , 

28.0 , 4131.79487179 , 4132.30769231 , 4157.94871795 , 4131.79487179 , 4131.28205128 , 4128.71794872 , 4131.28205128 , 4132.82051282 , 4134.87179487 , 4141.02564103 , 4171.28205128 , 4668.71794872 , 4131.79487179 , 4136.41025641 , 2066.0 , 2033.0 , 6.842 , 0.0 , 0.0 , 0.0 , 0.0 , 

29.0 , 4133.33333333 , 4132.30769231 , 4149.74358974 , 4134.87179487 , 4131.28205128 , 4129.74358974 , 4130.25641026 , 4134.87179487 , 4136.41025641 , 4145.64102564 , 4173.84615385 , 4668.20512821 , 4133.33333333 , 4135.38461538 , 2065.0 , 2032.0 , 6.85 , 0.0 , 0.0 , 0.0 , 0.0 , 

30.0 , 4133.33333333 , 4131.79487179 , 4145.12820513 , 4135.8974359 , 4131.28205128 , 4129.74358974 , 4128.20512821 , 4135.38461538 , 4138.97435897 , 4143.07692308 , 4171.28205128 , 4668.71794872 , 4133.84615385 , 4135.38461538 , 2067.0 , 2035.0 , 6.858 , 0.0 , 0.0 , 0.0 , 0.0 , 

31.0 , 4132.82051282 , 4131.28205128 , 4154.87179487 , 4130.25641026 , 4129.74358974 , 4129.74358974 , 4130.25641026 , 4134.35897436 , 4137.94871795 , 4140.51282051 , 4172.82051282 , 4667.69230769 , 4132.30769231 , 4134.35897436 , 2064.0 , 2035.0 , 6.866 , 0.0 , 0.0 , 0.0 , 0.0 , 

32.0 , 4135.38461538 , 4130.76923077 , 4151.28205128 , 4130.25641026 , 4128.71794872 , 4130.25641026 , 4133.33333333 , 4133.33333333 , 4135.8974359 , 4143.58974359 , 4176.41025641 , 4669.23076923 , 4134.35897436 , 4137.43589744 , 2064.0 , 2035.0 , 6.873 , 0.0 , 0.0 , 0.0 , 0.0 , 

33.0 , 4132.30769231 , 4130.76923077 , 4149.23076923 , 4136.41025641 , 4129.74358974 , 4129.23076923 , 4129.23076923 , 4132.82051282 , 4135.8974359 , 4143.07692308 , 4172.82051282 , 4669.23076923 , 4133.84615385 , 4139.48717949 , 2062.0 , 2036.0 , 6.881 , 0.0 , 0.0 , 0.0 , 0.0 , 

34.0 , 4129.23076923 , 4132.30769231 , 4152.30769231 , 4136.41025641 , 4130.76923077 , 4128.20512821 , 4126.15384615 , 4135.38461538 , 4138.46153846 , 4143.58974359 , 4169.23076923 , 4668.20512821 , 4131.28205128 , 4135.8974359 , 2060.0 , 2035.0 , 6.889 , 0.0 , 0.0 , 0.0 , 0.0 , 

35.0 , 4129.23076923 , 4131.28205128 , 4156.92307692 , 4131.79487179 , 4129.74358974 , 4128.71794872 , 4129.23076923 , 4133.33333333 , 4138.46153846 , 4144.1025641 , 4173.33333333 , 4668.71794872 , 4130.25641026 , 4132.82051282 , 2056.0 , 2031.0 , 6.896 , 0.0 , 0.0 , 0.0 , 0.0 , 

36.0 , 4133.33333333 , 4129.74358974 , 4150.76923077 , 4133.33333333 , 4130.76923077 , 4129.23076923 , 4131.28205128 , 4130.76923077 , 4136.41025641 , 4139.48717949 , 4175.8974359 , 4672.30769231 , 4131.28205128 , 4136.41025641 , 2055.0 , 2030.0 , 6.905 , 0.0 , 0.0 , 0.0 , 0.0 , 

37.0 , 4131.28205128 , 4130.76923077 , 4154.35897436 , 4133.33333333 , 4131.79487179 , 4129.23076923 , 4129.23076923 , 4132.82051282 , 4137.43589744 , 4138.46153846 , 4172.82051282 , 4672.30769231 , 4130.25641026 , 4138.97435897 , 2051.0 , 2029.0 , 6.913 , 0.0 , 0.0 , 0.0 , 0.0 , 

38.0 , 4128.71794872 , 4130.76923077 , 4167.17948718 , 4130.25641026 , 4129.23076923 , 4129.74358974 , 4127.17948718 , 4134.87179487 , 4139.48717949 , 4144.1025641 , 4172.82051282 , 4672.82051282 , 4131.28205128 , 4138.97435897 , 2049.0 , 2029.0 , 6.921 , 0.0 , 0.0 , 0.0 , 0.0 , 

39.0 , 4131.28205128 , 4128.71794872 , 4164.1025641 , 4131.79487179 , 4129.23076923 , 4130.76923077 , 4126.15384615 , 4133.33333333 , 4138.46153846 , 4143.58974359 , 4175.38461538 , 4671.28205128 , 4132.30769231 , 4136.92307692 , 2032.0 , 2029.0 , 6.929 , 0.0 , 0.0 , 0.0 , 0.0 , 

40.0 , 4132.82051282 , 4130.25641026 , 4173.84615385 , 4134.87179487 , 4132.82051282 , 4130.76923077 , 4127.17948718 , 4132.82051282 , 4136.41025641 , 4140.51282051 , 4175.8974359 , 4669.74358974 , 4134.87179487 , 4137.43589744 , 2044.0 , 2032.0 , 6.937 , 0.0 , 0.0 , 0.0 , 0.0 , 

41.0 , 4133.33333333 , 4132.82051282 , 4160.51282051 , 4134.35897436 , 4132.82051282 , 4129.23076923 , 4128.71794872 , 4133.84615385 , 4135.8974359 , 4140.51282051 , 4172.30769231 , 4671.79487179 , 4134.87179487 , 4138.97435897 , 2044.0 , 2032.0 , 6.948 , 0.0 , 0.0 , 0.0 , 0.0 , 

42.0 , 4134.35897436 , 4133.84615385 , 4154.87179487 , 4132.82051282 , 4132.30769231 , 4127.69230769 , 4127.69230769 , 4135.8974359 , 4137.94871795 , 4143.07692308 , 4173.84615385 , 4675.38461538 , 4134.35897436 , 4138.46153846 , 2041.0 , 2033.0 , 6.951 , 0.0 , 0.0 , 0.0 , 0.0 , 

43.0 , 4133.84615385 , 4132.82051282 , 4141.53846154 , 4132.30769231 , 4132.82051282 , 4130.25641026 , 4127.69230769 , 4132.82051282 , 4138.46153846 , 4139.48717949 , 4175.8974359 , 4671.28205128 , 4133.33333333 , 4134.35897436 , 2039.0 , 2033.0 , 6.96 , 0.0 , 0.0 , 0.0 , 0.0 , 

44.0 , 4131.79487179 , 4129.74358974 , 4154.87179487 , 4133.84615385 , 4132.30769231 , 4133.84615385 , 4129.74358974 , 4134.35897436 , 4139.48717949 , 4138.97435897 , 4174.87179487 , 4670.76923077 , 4134.35897436 , 4133.84615385 , 2038.0 , 2034.0 , 6.968 , 0.0 , 0.0 , 0.0 , 0.0 , 

45.0 , 4132.82051282 , 4130.25641026 , 4147.69230769 , 4132.82051282 , 4131.79487179 , 4132.82051282 , 4130.25641026 , 4134.87179487 , 4136.92307692 , 4139.48717949 , 4173.33333333 , 4675.8974359 , 4132.82051282 , 4137.94871795 , 2036.0 , 2034.0 , 6.975 , 0.0 , 0.0 , 0.0 , 0.0 , 

46.0 , 4133.84615385 , 4132.82051282 , 4141.53846154 , 4131.79487179 , 4129.74358974 , 4130.25641026 , 4129.23076923 , 4131.28205128 , 4136.41025641 , 4139.48717949 , 4174.35897436 , 4675.38461538 , 4130.76923077 , 4138.46153846 , 2033.0 , 2036.0 , 6.984 , 0.0 , 0.0 , 0.0 , 0.0 , 

47.0 , 4133.84615385 , 4131.79487179 , 4132.82051282 , 4134.87179487 , 4129.23076923 , 4129.74358974 , 4128.71794872 , 4130.76923077 , 4135.8974359 , 4139.48717949 , 4174.87179487 , 4670.25641026 , 4131.28205128 , 4135.38461538 , 2032.0 , 2035.0 , 6.991 , 0.0 , 0.0 , 0.0 , 0.0 , 

48.0 , 4131.28205128 , 4129.23076923 , 4157.94871795 , 4133.33333333 , 4132.30769231 , 4128.71794872 , 4127.17948718 , 4135.38461538 , 4136.41025641 , 4143.58974359 , 4175.8974359 , 4673.84615385 , 4134.87179487 , 4136.41025641 , 2027.0 , 2036.0 , 7.0 , 0.0 , 0.0 , 0.0 , 0.0 , 

49.0 , 4130.76923077 , 4131.28205128 , 4165.12820513 , 4131.28205128 , 4133.84615385 , 4128.20512821 , 4129.74358974 , 4134.87179487 , 4135.38461538 , 4146.15384615 , 4176.92307692 , 4678.46153846 , 4135.38461538 , 4140.51282051 , 2023.0 , 2035.0 , 7.006 , 0.0 , 0.0 , 0.0 , 0.0 , 

50.0 , 4129.23076923 , 4132.30769231 , 4156.41025641 , 4132.82051282 , 4130.76923077 , 4129.23076923 , 4131.28205128 , 4131.79487179 , 4136.92307692 , 4143.58974359 , 4175.8974359 , 4675.38461538 , 4130.76923077 , 4137.43589744 , 2020.0 , 2034.0 , 7.014 , 0.0 , 0.0 , 0.0 , 0.0 , 

51.0 , 4131.79487179 , 4131.28205128 , 4144.1025641 , 4134.35897436 , 4131.28205128 , 4129.74358974 , 4129.74358974 , 4133.33333333 , 4138.46153846 , 4142.56410256 , 4174.87179487 , 4673.84615385 , 4128.20512821 , 4136.41025641 , 2013.0 , 2031.0 , 7.023 , 0.0 , 0.0 , 0.0 , 0.0 , 

52.0 , 4131.28205128 , 4130.76923077 , 4149.23076923 , 4133.33333333 , 4132.82051282 , 4128.20512821 , 4128.71794872 , 4135.38461538 , 4136.41025641 , 4141.53846154 , 4175.38461538 , 4673.33333333 , 4129.23076923 , 4138.46153846 , 2011.0 , 2033.0 , 7.03 , 0.0 , 0.0 , 0.0 , 0.0 , 

53.0 , 4131.79487179 , 4132.30769231 , 4147.69230769 , 4134.35897436 , 4132.30769231 , 4131.79487179 , 4129.74358974 , 4135.8974359 , 4136.41025641 , 4142.05128205 , 4175.38461538 , 4674.87179487 , 4133.33333333 , 4137.94871795 , 2006.0 , 2033.0 , 7.038 , 0.0 , 0.0 , 0.0 , 0.0 , 

54.0 , 4132.82051282 , 4133.33333333 , 4148.71794872 , 4136.92307692 , 4131.28205128 , 4132.30769231 , 4128.20512821 , 4133.33333333 , 4137.43589744 , 4142.05128205 , 4172.82051282 , 4676.92307692 , 4133.84615385 , 4135.8974359 , 2006.0 , 2033.0 , 7.051 , 0.0 , 0.0 , 0.0 , 0.0 , 

55.0 , 4134.35897436 , 4131.28205128 , 4139.48717949 , 4136.41025641 , 4130.76923077 , 4128.20512821 , 4128.71794872 , 4132.30769231 , 4138.46153846 , 4142.05128205 , 4170.76923077 , 4676.41025641 , 4130.76923077 , 4136.41025641 , 2005.0 , 2032.0 , 7.055 , 0.0 , 0.0 , 0.0 , 0.0 , 

56.0 , 4134.35897436 , 4127.69230769 , 4141.02564103 , 4133.84615385 , 4132.30769231 , 4129.23076923 , 4129.74358974 , 4134.35897436 , 4137.94871795 , 4142.56410256 , 4172.30769231 , 4673.84615385 , 4130.25641026 , 4134.35897436 , 2005.0 , 2031.0 , 7.063 , 0.0 , 0.0 , 0.0 , 0.0 , 

57.0 , 4133.84615385 , 4128.20512821 , 4173.84615385 , 4133.33333333 , 4133.33333333 , 4131.79487179 , 4129.23076923 , 4137.43589744 , 4139.48717949 , 4145.12820513 , 4176.92307692 , 4677.43589744 , 4136.41025641 , 4134.87179487 , 2006.0 , 2030.0 , 7.071 , 0.0 , 0.0 , 0.0 , 0.0 , 

58.0 , 4133.84615385 , 4132.30769231 , 4148.20512821 , 4134.87179487 , 4131.28205128 , 4131.28205128 , 4128.71794872 , 4131.79487179 , 4136.92307692 , 4138.97435897 , 4174.87179487 , 4676.41025641 , 4134.35897436 , 4134.87179487 , 2006.0 , 2030.0 , 7.077 , 0.0 , 0.0 , 0.0 , 0.0 , 

59.0 , 4133.84615385 , 4134.35897436 , 4120.0 , 4134.87179487 , 4130.25641026 , 4131.28205128 , 4129.74358974 , 4130.76923077 , 4136.41025641 , 4136.92307692 , 4169.74358974 , 4671.28205128 , 4129.23076923 , 4132.82051282 , 2008.0 , 2032.0 , 7.085 , 0.0 , 0.0 , 0.0 , 0.0 , 

60.0 , 4134.35897436 , 4132.82051282 , 4118.97435897 , 4132.82051282 , 4131.79487179 , 4131.28205128 , 4129.74358974 , 4132.30769231 , 4137.43589744 , 4141.02564103 , 4169.23076923 , 4672.30769231 , 4128.20512821 , 4131.28205128 , 2009.0 , 2034.0 , 7.093 , 0.0 , 0.0 , 0.0 , 0.0 , 

61.0 , 4133.33333333 , 4131.28205128 , 4137.94871795 , 4131.79487179 , 4130.76923077 , 4127.69230769 , 4129.23076923 , 4132.30769231 , 4136.92307692 , 4144.61538462 , 4172.30769231 , 4677.43589744 , 4131.28205128 , 4135.38461538 , 2006.0 , 2036.0 , 7.102 , 0.0 , 0.0 , 0.0 , 0.0 , 

62.0 , 4132.82051282 , 4132.30769231 , 4121.02564103 , 4134.87179487 , 4128.71794872 , 4129.74358974 , 4127.69230769 , 4129.74358974 , 4133.33333333 , 4140.51282051 , 4170.76923077 , 4675.38461538 , 4128.20512821 , 4135.38461538 , 2005.0 , 2038.0 , 7.11 , 0.0 , 0.0 , 0.0 , 0.0 , 

63.0 , 4133.33333333 , 4132.82051282 , 4106.15384615 , 4136.92307692 , 4131.79487179 , 4135.8974359 , 4127.69230769 , 4131.28205128 , 4132.30769231 , 4138.46153846 , 4168.71794872 , 4672.30769231 , 4124.61538462 , 4132.82051282 , 1999.0 , 2039.0 , 7.117 , 0.0 , 0.0 , 0.0 , 0.0 , 

64.0 , 4133.84615385 , 4132.30769231 , 4098.46153846 , 4137.43589744 , 4131.79487179 , 4130.76923077 , 4131.28205128 , 4132.30769231 , 4134.35897436 , 4140.0 , 4167.17948718 , 4673.84615385 , 4127.69230769 , 4134.35897436 , 1992.0 , 2042.0 , 7.124 , 0.0 , 0.0 , 0.0 , 0.0 , 

65.0 , 4131.79487179 , 4132.82051282 , 4074.87179487 , 4137.94871795 , 4131.79487179 , 4126.15384615 , 4130.25641026 , 4127.17948718 , 4131.28205128 , 4139.48717949 , 4163.58974359 , 4670.25641026 , 4128.20512821 , 4135.38461538 , 1992.0 , 2042.0 , 7.133 , 0.0 , 0.0 , 0.0 , 0.0 , 

66.0 , 4131.79487179 , 4132.82051282 , 4079.48717949 , 4140.0 , 4137.94871795 , 4138.46153846 , 4129.74358974 , 4130.76923077 , 4132.30769231 , 4141.53846154 , 4168.71794872 , 4671.79487179 , 4128.20512821 , 4135.38461538 , 1991.0 , 2042.0 , 7.14 , 0.0 , 0.0 , 0.0 , 0.0 , 

67.0 , 4130.25641026 , 4130.25641026 , 4090.76923077 , 4137.43589744 , 4135.8974359 , 4140.0 , 4129.74358974 , 4132.82051282 , 4135.38461538 , 4138.97435897 , 4173.84615385 , 4674.87179487 , 4126.66666667 , 4134.35897436 , 1991.0 , 2038.0 , 7.153 , 0.0 , 0.0 , 0.0 , 0.0 , 

68.0 , 4131.79487179 , 4130.76923077 , 4098.46153846 , 4134.35897436 , 4130.25641026 , 4126.66666667 , 4128.20512821 , 4134.87179487 , 4137.94871795 , 4139.48717949 , 4173.84615385 , 4676.41025641 , 4130.25641026 , 4138.46153846 , 1993.0 , 2037.0 , 7.157 , 0.0 , 0.0 , 0.0 , 0.0 , 

69.0 , 4131.79487179 , 4131.28205128 , 4083.58974359 , 4133.84615385 , 4131.28205128 , 4125.64102564 , 4127.69230769 , 4130.25641026 , 4133.33333333 , 4135.8974359 , 4169.23076923 , 4666.15384615 , 4126.15384615 , 4136.41025641 , 1995.0 , 2035.0 , 7.165 , 0.0 , 0.0 , 0.0 , 0.0 , 

70.0 , 4132.30769231 , 4132.30769231 , 4066.66666667 , 4135.8974359 , 4134.35897436 , 4136.41025641 , 4130.25641026 , 4131.79487179 , 4132.82051282 , 4135.38461538 , 4170.76923077 , 4667.17948718 , 4125.64102564 , 4135.38461538 , 1998.0 , 2035.0 , 7.173 , 0.0 , 0.0 , 0.0 , 0.0 , 

71.0 , 4131.28205128 , 4132.82051282 , 4077.94871795 , 4133.84615385 , 4129.23076923 , 4134.87179487 , 4128.71794872 , 4134.87179487 , 4133.33333333 , 4136.92307692 , 4171.28205128 , 4671.28205128 , 4130.25641026 , 4134.87179487 , 2004.0 , 2037.0 , 7.181 , 0.0 , 0.0 , 0.0 , 0.0 , 

72.0 , 4134.35897436 , 4133.84615385 , 4098.97435897 , 4130.76923077 , 4129.23076923 , 4134.87179487 , 4126.66666667 , 4136.92307692 , 4134.87179487 , 4141.02564103 , 4171.28205128 , 4672.30769231 , 4133.33333333 , 4134.87179487 , 2007.0 , 2037.0 , 7.188 , 0.0 , 0.0 , 0.0 , 0.0 , 

73.0 , 4134.35897436 , 4133.33333333 , 4105.12820513 , 4131.28205128 , 4131.79487179 , 4136.92307692 , 4127.69230769 , 4133.33333333 , 4136.41025641 , 4143.07692308 , 4169.74358974 , 4669.23076923 , 4130.25641026 , 4131.28205128 , 2011.0 , 2038.0 , 7.195 , 0.0 , 0.0 , 0.0 , 0.0 , 

74.0 , 4133.33333333 , 4132.82051282 , 4082.05128205 , 4136.41025641 , 4131.28205128 , 4133.33333333 , 4129.74358974 , 4133.33333333 , 4136.41025641 , 4142.05128205 , 4171.79487179 , 4669.74358974 , 4129.74358974 , 4132.82051282 , 2015.0 , 2042.0 , 7.204 , 0.0 , 0.0 , 0.0 , 0.0 , 

75.0 , 4134.87179487 , 4131.79487179 , 4075.8974359 , 4134.35897436 , 4130.76923077 , 4129.74358974 , 4130.25641026 , 4135.38461538 , 4134.87179487 , 4136.92307692 , 4173.84615385 , 4668.71794872 , 4129.74358974 , 4135.8974359 , 2017.0 , 2042.0 , 7.212 , 0.0 , 0.0 , 0.0 , 0.0 , 

76.0 , 4134.87179487 , 4131.79487179 , 4092.82051282 , 4130.25641026 , 4129.74358974 , 4131.79487179 , 4130.25641026 , 4134.35897436 , 4136.92307692 , 4136.92307692 , 4172.30769231 , 4667.17948718 , 4130.25641026 , 4134.35897436 , 2019.0 , 2042.0 , 7.22 , 0.0 , 0.0 , 0.0 , 0.0 , 

77.0 , 4131.28205128 , 4132.82051282 , 4087.69230769 , 4131.79487179 , 4129.74358974 , 4132.30769231 , 4130.25641026 , 4132.82051282 , 4136.41025641 , 4141.02564103 , 4171.79487179 , 4667.17948718 , 4130.25641026 , 4131.79487179 , 2019.0 , 2042.0 , 7.228 , 0.0 , 0.0 , 0.0 , 0.0 , 

78.0 , 4130.76923077 , 4131.79487179 , 4070.25641026 , 4134.35897436 , 4131.28205128 , 4128.71794872 , 4130.25641026 , 4133.33333333 , 4132.82051282 , 4142.05128205 , 4170.25641026 , 4664.1025641 , 4131.79487179 , 4132.82051282 , 2019.0 , 2040.0 , 7.235 , 0.0 , 0.0 , 0.0 , 0.0 , 

79.0 , 4131.79487179 , 4131.28205128 , 4065.12820513 , 4133.33333333 , 4132.30769231 , 4128.20512821 , 4128.71794872 , 4132.30769231 , 4131.28205128 , 4138.46153846 , 4166.66666667 , 4660.51282051 , 4132.30769231 , 4134.87179487 , 2019.0 , 2036.0 , 7.243 , 0.0 , 0.0 , 0.0 , 0.0 , 

80.0 , 4131.28205128 , 4133.33333333 , 4090.76923077 , 4132.30769231 , 4131.79487179 , 4129.23076923 , 4127.17948718 , 4134.35897436 , 4133.33333333 , 4138.97435897 , 4168.20512821 , 4663.07692308 , 4132.30769231 , 4135.8974359 , 2019.0 , 2034.0 , 7.255 , 0.0 , 0.0 , 0.0 , 0.0 , 

81.0 , 4132.82051282 , 4132.30769231 , 4089.23076923 , 4134.35897436 , 4130.76923077 , 4130.25641026 , 4128.71794872 , 4134.35897436 , 4135.8974359 , 4142.05128205 , 4171.28205128 , 4664.1025641 , 4130.25641026 , 4134.35897436 , 2020.0 , 2030.0 , 7.259 , 0.0 , 0.0 , 0.0 , 0.0 , 

82.0 , 4132.82051282 , 4128.20512821 , 4085.64102564 , 4134.35897436 , 4130.25641026 , 4127.17948718 , 4129.23076923 , 4131.28205128 , 4136.92307692 , 4141.02564103 , 4170.76923077 , 4662.56410256 , 4131.28205128 , 4133.84615385 , 2021.0 , 2027.0 , 7.268 , 0.0 , 0.0 , 0.0 , 0.0 , 

83.0 , 4130.25641026 , 4129.74358974 , 4089.23076923 , 4133.33333333 , 4130.76923077 , 4127.17948718 , 4130.25641026 , 4131.28205128 , 4136.92307692 , 4140.51282051 , 4168.71794872 , 4661.02564103 , 4133.33333333 , 4136.41025641 , 2021.0 , 2024.0 , 7.275 , 0.0 , 0.0 , 0.0 , 0.0 , 

84.0 , 4127.69230769 , 4131.79487179 , 4132.82051282 , 4130.25641026 , 4133.33333333 , 4130.25641026 , 4131.79487179 , 4136.92307692 , 4139.48717949 , 4146.15384615 , 4170.76923077 , 4661.02564103 , 4132.82051282 , 4136.41025641 , 2021.0 , 2024.0 , 7.282 , 0.0 , 0.0 , 0.0 , 0.0 , 

85.0 , 4131.28205128 , 4131.28205128 , 4137.43589744 , 4128.71794872 , 4133.33333333 , 4129.23076923 , 4130.25641026 , 4136.92307692 , 4138.97435897 , 4147.69230769 , 4174.35897436 , 4661.53846154 , 4133.84615385 , 4135.8974359 , 2022.0 , 2021.0 , 7.291 , 0.0 , 0.0 , 0.0 , 0.0 , 

86.0 , 4133.33333333 , 4131.79487179 , 4133.84615385 , 4129.74358974 , 4131.79487179 , 4128.71794872 , 4128.20512821 , 4135.38461538 , 4135.8974359 , 4143.07692308 , 4176.92307692 , 4663.58974359 , 4139.48717949 , 4138.97435897 , 2022.0 , 2022.0 , 7.298 , 0.0 , 0.0 , 0.0 , 0.0 , 

87.0 , 4132.82051282 , 4131.79487179 , 4122.56410256 , 4130.76923077 , 4131.28205128 , 4134.35897436 , 4129.23076923 , 4134.87179487 , 4135.38461538 , 4139.48717949 , 4174.35897436 , 4662.56410256 , 4136.92307692 , 4139.48717949 , 2023.0 , 2023.0 , 7.307 , 0.0 , 0.0 , 0.0 , 0.0 , 

88.0 , 4131.28205128 , 4128.71794872 , 4134.87179487 , 4130.25641026 , 4131.79487179 , 4136.41025641 , 4128.71794872 , 4137.94871795 , 4138.46153846 , 4140.51282051 , 4172.82051282 , 4660.0 , 4134.35897436 , 4134.87179487 , 2025.0 , 2030.0 , 7.315 , 0.0 , 0.0 , 0.0 , 0.0 , 

89.0 , 4133.33333333 , 4129.23076923 , 4144.61538462 , 4130.76923077 , 4135.38461538 , 4127.69230769 , 4128.71794872 , 4138.46153846 , 4137.94871795 , 4142.05128205 , 4173.84615385 , 4661.53846154 , 4136.92307692 , 4134.35897436 , 2026.0 , 2032.0 , 7.323 , 0.0 , 0.0 , 0.0 , 0.0 , 

90.0 , 4134.35897436 , 4131.28205128 , 4122.56410256 , 4132.82051282 , 4136.92307692 , 4125.12820513 , 4130.25641026 , 4133.33333333 , 4134.87179487 , 4140.51282051 , 4171.28205128 , 4659.48717949 , 4134.87179487 , 4134.87179487 , 2021.0 , 2037.0 , 7.33 , 0.0 , 0.0 , 0.0 , 0.0 , 

91.0 , 4131.28205128 , 4130.25641026 , 4115.38461538 , 4134.87179487 , 4132.82051282 , 4136.92307692 , 4129.74358974 , 4132.82051282 , 4135.38461538 , 4138.46153846 , 4169.74358974 , 4659.48717949 , 4132.30769231 , 4135.38461538 , 2020.0 , 2038.0 , 7.338 , 0.0 , 0.0 , 0.0 , 0.0 , 

92.0 , 4129.74358974 , 4128.71794872 , 4099.48717949 , 4133.84615385 , 4130.25641026 , 4140.0 , 4128.71794872 , 4132.82051282 , 4132.30769231 , 4136.41025641 , 4167.69230769 , 4656.92307692 , 4129.23076923 , 4133.33333333 , 2018.0 , 2038.0 , 7.345 , 0.0 , 0.0 , 0.0 , 0.0 , 

93.0 , 4132.82051282 , 4129.74358974 , 4089.23076923 , 4133.84615385 , 4131.28205128 , 4133.33333333 , 4129.74358974 , 4135.38461538 , 4131.79487179 , 4138.97435897 , 4167.69230769 , 4658.46153846 , 4130.76923077 , 4135.8974359 , 2015.0 , 2041.0 , 7.358 , 0.0 , 0.0 , 0.0 , 0.0 , 

94.0 , 4133.84615385 , 4131.79487179 , 4062.56410256 , 4134.35897436 , 4130.76923077 , 4130.76923077 , 4129.23076923 , 4132.30769231 , 4132.82051282 , 4136.41025641 , 4169.23076923 , 4656.92307692 , 4128.20512821 , 4134.35897436 , 2015.0 , 2040.0 , 7.362 , 0.0 , 0.0 , 0.0 , 0.0 , 

95.0 , 4132.82051282 , 4132.82051282 , 4065.12820513 , 4132.82051282 , 4131.28205128 , 4134.35897436 , 4128.20512821 , 4130.25641026 , 4135.8974359 , 4137.94871795 , 4171.28205128 , 4654.35897436 , 4128.20512821 , 4131.28205128 , 2019.0 , 2036.0 , 7.37 , 0.0 , 0.0 , 0.0 , 0.0 , 

96.0 , 4131.28205128 , 4130.25641026 , 4062.56410256 , 4130.76923077 , 4132.82051282 , 4133.33333333 , 4128.71794872 , 4129.23076923 , 4133.84615385 , 4138.97435897 , 4167.17948718 , 4650.76923077 , 4128.71794872 , 4131.79487179 , 2024.0 , 2034.0 , 7.378 , 0.0 , 0.0 , 0.0 , 0.0 , 

97.0 , 4130.76923077 , 4129.23076923 , 4054.87179487 , 4130.76923077 , 4129.74358974 , 4128.71794872 , 4129.23076923 , 4131.28205128 , 4133.33333333 , 4138.97435897 , 4168.71794872 , 4651.79487179 , 4129.74358974 , 4134.35897436 , 2028.0 , 2032.0 , 7.386 , 0.0 , 0.0 , 0.0 , 0.0 , 

98.0 , 4131.79487179 , 4132.82051282 , 4049.74358974 , 4132.82051282 , 4130.25641026 , 4130.25641026 , 4128.20512821 , 4131.79487179 , 4136.41025641 , 4139.48717949 , 4171.28205128 , 4651.28205128 , 4127.69230769 , 4132.30769231 , 2029.0 , 2034.0 , 7.394 , 0.0 , 0.0 , 0.0 , 0.0 , 

99.0 , 4133.33333333 , 4133.33333333 , 4065.64102564 , 4131.79487179 , 4134.35897436 , 4130.76923077 , 4126.66666667 , 4132.30769231 , 4137.43589744 , 4142.05128205 , 4169.74358974 , 4648.71794872 , 4128.20512821 , 4132.30769231 , 2030.0 , 2035.0 , 7.401 , 0.0 , 0.0 , 0.0 , 0.0 , 

100.0 , 4132.82051282 , 4132.30769231 , 4072.82051282 , 4129.74358974 , 4134.35897436 , 4128.20512821 , 4126.15384615 , 4132.30769231 , 4136.41025641 , 4143.07692308 , 4169.74358974 , 4648.71794872 , 4130.76923077 , 4136.92307692 , 2031.0 , 2036.0 , 7.409 , 0.0 , 0.0 , 0.0 , 0.0 , 

101.0 , 4131.79487179 , 4130.76923077 , 4072.82051282 , 4131.28205128 , 4131.79487179 , 4130.76923077 , 4127.17948718 , 4133.33333333 , 4134.87179487 , 4142.56410256 , 4171.79487179 , 4648.20512821 , 4129.74358974 , 4137.43589744 , 2031.0 , 2038.0 , 7.416 , 0.0 , 0.0 , 0.0 , 0.0 , 

102.0 , 4133.33333333 , 4129.23076923 , 4084.61538462 , 4133.84615385 , 4131.79487179 , 4136.92307692 , 4130.76923077 , 4138.46153846 , 4137.43589744 , 4145.12820513 , 4172.30769231 , 4649.74358974 , 4132.30769231 , 4134.87179487 , 2030.0 , 2038.0 , 7.425 , 0.0 , 0.0 , 0.0 , 0.0 , 

103.0 , 4131.28205128 , 4129.23076923 , 4118.46153846 , 4131.28205128 , 4132.30769231 , 4131.28205128 , 4131.79487179 , 4140.51282051 , 4138.97435897 , 4146.15384615 , 4172.30769231 , 4648.71794872 , 4133.84615385 , 4135.38461538 , 2030.0 , 2039.0 , 7.433 , 0.0 , 0.0 , 0.0 , 0.0 , 

104.0 , 4131.28205128 , 4130.76923077 , 4102.05128205 , 4130.76923077 , 4132.30769231 , 4124.61538462 , 4130.76923077 , 4136.41025641 , 4135.8974359 , 4143.07692308 , 4171.79487179 , 4646.15384615 , 4131.28205128 , 4135.38461538 , 2029.0 , 2038.0 , 7.44 , 0.0 , 0.0 , 0.0 , 0.0 , 

105.0 , 4131.28205128 , 4130.25641026 , 4085.12820513 , 4133.33333333 , 4131.79487179 , 4129.23076923 , 4130.76923077 , 4134.87179487 , 4133.33333333 , 4141.53846154 , 4169.74358974 , 4646.15384615 , 4131.28205128 , 4130.76923077 , 2030.0 , 2036.0 , 7.449 , 0.0 , 0.0 , 0.0 , 0.0 , 

106.0 , 4130.25641026 , 4130.76923077 , 4084.1025641 , 4133.33333333 , 4132.30769231 , 4132.30769231 , 4131.79487179 , 4135.38461538 , 4134.35897436 , 4143.07692308 , 4171.79487179 , 4645.64102564 , 4132.30769231 , 4130.76923077 , 2032.0 , 2036.0 , 7.46 , 0.0 , 0.0 , 0.0 , 0.0 , 

107.0 , 4128.20512821 , 4132.30769231 , 4088.71794872 , 4130.76923077 , 4132.82051282 , 4130.25641026 , 4128.71794872 , 4133.84615385 , 4136.41025641 , 4142.05128205 , 4173.33333333 , 4642.05128205 , 4130.76923077 , 4135.38461538 , 2035.0 , 2035.0 , 7.465 , 0.0 , 0.0 , 0.0 , 0.0 , 

108.0 , 4132.30769231 , 4131.28205128 , 4089.23076923 , 4129.74358974 , 4131.79487179 , 4130.25641026 , 4127.69230769 , 4134.35897436 , 4135.38461538 , 4141.53846154 , 4171.28205128 , 4640.51282051 , 4132.30769231 , 4138.46153846 , 2036.0 , 2036.0 , 7.472 , 0.0 , 0.0 , 0.0 , 0.0 , 

109.0 , 4134.87179487 , 4128.71794872 , 4097.94871795 , 4130.76923077 , 4131.28205128 , 4131.79487179 , 4130.25641026 , 4133.84615385 , 4136.41025641 , 4141.02564103 , 4171.28205128 , 4640.0 , 4133.84615385 , 4135.8974359 , 2040.0 , 2039.0 , 7.48 , 0.0 , 0.0 , 0.0 , 0.0 , 

110.0 , 4132.30769231 , 4129.74358974 , 4115.8974359 , 4131.79487179 , 4132.82051282 , 4133.33333333 , 4130.76923077 , 4134.35897436 , 4140.0 , 4142.56410256 , 4173.84615385 , 4643.58974359 , 4133.84615385 , 4133.84615385 , 2043.0 , 2040.0 , 7.488 , 0.0 , 0.0 , 0.0 , 0.0 , 

111.0 , 4131.28205128 , 4131.28205128 , 4099.48717949 , 4130.76923077 , 4131.79487179 , 4133.84615385 , 4128.20512821 , 4134.87179487 , 4137.94871795 , 4143.07692308 , 4173.33333333 , 4640.51282051 , 4131.28205128 , 4132.82051282 , 2047.0 , 2039.0 , 7.496 , 0.0 , 0.0 , 0.0 , 0.0 , 

112.0 , 4135.38461538 , 4131.28205128 , 4089.23076923 , 4130.25641026 , 4131.79487179 , 4130.25641026 , 4130.25641026 , 4136.92307692 , 4135.8974359 , 4143.07692308 , 4170.76923077 , 4638.46153846 , 4132.82051282 , 4134.35897436 , 2048.0 , 2038.0 , 7.504 , 0.0 , 0.0 , 0.0 , 0.0 , 

113.0 , 4133.33333333 , 4129.74358974 , 4090.25641026 , 4131.79487179 , 4132.30769231 , 4129.23076923 , 4132.82051282 , 4134.35897436 , 4136.41025641 , 4139.48717949 , 4168.71794872 , 4637.94871795 , 4134.35897436 , 4135.38461538 , 2052.0 , 2038.0 , 7.512 , 0.0 , 0.0 , 0.0 , 0.0 , 

114.0 , 4128.71794872 , 4130.25641026 , 4108.20512821 , 4133.84615385 , 4132.82051282 , 4134.87179487 , 4130.76923077 , 4134.35897436 , 4137.43589744 , 4141.02564103 , 4171.79487179 , 4639.48717949 , 4134.35897436 , 4137.94871795 , 2055.0 , 2037.0 , 7.52 , 0.0 , 0.0 , 0.0 , 0.0 , 

115.0 , 4129.74358974 , 4131.79487179 , 4087.69230769 , 4133.84615385 , 4133.33333333 , 4135.8974359 , 4129.23076923 , 4132.30769231 , 4133.84615385 , 4141.02564103 , 4171.79487179 , 4636.92307692 , 4128.71794872 , 4137.94871795 , 2058.0 , 2037.0 , 7.528 , 0.0 , 0.0 , 0.0 , 0.0 , 

116.0 , 4133.33333333 , 4131.79487179 , 4082.05128205 , 4131.28205128 , 4132.30769231 , 4129.74358974 , 4130.25641026 , 4132.82051282 , 4136.41025641 , 4142.05128205 , 4168.71794872 , 4635.8974359 , 4127.69230769 , 4135.8974359 , 2057.0 , 2035.0 , 7.536 , 0.0 , 0.0 , 0.0 , 0.0 , 

117.0 , 4132.82051282 , 4130.76923077 , 4085.64102564 , 4130.25641026 , 4129.74358974 , 4127.69230769 , 4129.74358974 , 4133.84615385 , 4140.51282051 , 4141.53846154 , 4167.69230769 , 4634.35897436 , 4130.25641026 , 4135.38461538 , 2057.0 , 2036.0 , 7.543 , 0.0 , 0.0 , 0.0 , 0.0 , 

118.0 , 4129.74358974 , 4130.25641026 , 4111.79487179 , 4131.79487179 , 4129.74358974 , 4129.74358974 , 4128.20512821 , 4136.92307692 , 4141.02564103 , 4143.07692308 , 4172.30769231 , 4634.87179487 , 4132.30769231 , 4135.8974359 , 2057.0 , 2033.0 , 7.551 , 0.0 , 0.0 , 0.0 , 0.0 , 

119.0 , 4130.76923077 , 4130.76923077 , 4097.43589744 , 4132.82051282 , 4133.33333333 , 4126.66666667 , 4130.25641026 , 4134.87179487 , 4135.8974359 , 4141.53846154 , 4172.82051282 , 4636.41025641 , 4130.76923077 , 4133.33333333 , 2057.0 , 2034.0 , 7.562 , 0.0 , 0.0 , 0.0 , 0.0 , 

120.0 , 4131.28205128 , 4130.76923077 , 4110.25641026 , 4129.74358974 , 4133.84615385 , 4127.69230769 , 4132.30769231 , 4135.38461538 , 4136.92307692 , 4143.58974359 , 4171.28205128 , 4634.87179487 , 4131.79487179 , 4131.79487179 , 2055.0 , 2032.0 , 7.566 , 0.0 , 0.0 , 0.0 , 0.0 , 

121.0 , 4133.33333333 , 4131.79487179 , 4127.69230769 , 4130.76923077 , 4131.79487179 , 4135.8974359 , 4130.25641026 , 4136.92307692 , 4140.0 , 4144.61538462 , 4173.84615385 , 4632.30769231 , 4132.30769231 , 4134.87179487 , 2056.0 , 2033.0 , 7.575 , 0.0 , 0.0 , 0.0 , 0.0 , 

122.0 , 4132.30769231 , 4132.30769231 , 4139.48717949 , 4132.30769231 , 4129.74358974 , 4136.41025641 , 4127.17948718 , 4137.94871795 , 4141.02564103 , 4144.61538462 , 4176.92307692 , 4634.35897436 , 4134.87179487 , 4138.97435897 , 2055.0 , 2031.0 , 7.583 , 0.0 , 0.0 , 0.0 , 0.0 , 

123.0 , 4130.76923077 , 4131.28205128 , 4125.12820513 , 4130.25641026 , 4130.76923077 , 4125.12820513 , 4126.66666667 , 4136.41025641 , 4136.92307692 , 4144.1025641 , 4175.38461538 , 4635.38461538 , 4137.43589744 , 4137.94871795 , 2056.0 , 2029.0 , 7.591 , 0.0 , 0.0 , 0.0 , 0.0 , 

124.0 , 4131.28205128 , 4129.74358974 , 4132.30769231 , 4129.74358974 , 4131.28205128 , 4125.12820513 , 4128.71794872 , 4137.94871795 , 4138.46153846 , 4144.61538462 , 4172.82051282 , 4632.82051282 , 4136.92307692 , 4134.87179487 , 2058.0 , 2029.0 , 7.598 , 0.0 , 0.0 , 0.0 , 0.0 , 

125.0 , 4133.33333333 , 4130.76923077 , 4138.97435897 , 4132.30769231 , 4130.76923077 , 4137.43589744 , 4130.25641026 , 4136.92307692 , 4143.07692308 , 4145.64102564 , 4171.79487179 , 4631.79487179 , 4134.87179487 , 4135.8974359 , 2059.0 , 2028.0 , 7.606 , 0.0 , 0.0 , 0.0 , 0.0 , 

126.0 , 4132.30769231 , 4132.30769231 , 4136.92307692 , 4132.30769231 , 4130.76923077 , 4138.46153846 , 4128.71794872 , 4132.82051282 , 4142.56410256 , 4146.66666667 , 4173.84615385 , 4633.84615385 , 4134.35897436 , 4138.97435897 , 2061.0 , 2030.0 , 7.613 , 0.0 , 0.0 , 0.0 , 0.0 , 

127.0 , 4131.79487179 , 4131.28205128 , 4143.07692308 , 4131.28205128 , 4132.82051282 , 4131.28205128 , 4127.17948718 , 4133.84615385 , 4139.48717949 , 4145.64102564 , 4176.92307692 , 4635.8974359 , 4135.8974359 , 4140.51282051 , 2063.0 , 2029.0 , 7.622 , 0.0 , 0.0 , 0.0 , 0.0 , 

128.0 , 4132.30769231 , 4132.30769231 , 4129.74358974 , 4131.79487179 , 4129.74358974 , 4131.28205128 , 4129.23076923 , 4134.87179487 , 4137.94871795 , 4140.0 , 4171.28205128 , 4634.35897436 , 4136.41025641 , 4138.97435897 , 2064.0 , 2031.0 , 7.629 , 0.0 , 0.0 , 0.0 , 0.0 , 

0.0 , 4132.82051282 , 4132.82051282 , 4117.43589744 , 4132.30769231 , 4129.23076923 , 4135.8974359 , 4131.28205128 , 4133.84615385 , 4140.0 , 4138.97435897 , 4166.66666667 , 4632.82051282 , 4135.8974359 , 4137.43589744 , 2066.0 , 2032.0 , 7.638 , 0.0 , 0.0 , 0.0 , 0.0 , 

1.0 , 4130.76923077 , 4130.76923077 , 4122.05128205 , 4131.79487179 , 4131.79487179 , 4132.30769231 , 4127.69230769 , 4131.79487179 , 4141.02564103 , 4142.05128205 , 4172.30769231 , 4631.79487179 , 4133.33333333 , 4135.8974359 , 2068.0 , 2034.0 , 7.645 , 0.0 , 0.0 , 0.0 , 0.0 , 

2.0 , 4128.20512821 , 4132.30769231 , 4155.8974359 , 4131.28205128 , 4130.76923077 , 4126.66666667 , 4126.15384615 , 4135.38461538 , 4142.05128205 , 4145.64102564 , 4177.43589744 , 4635.8974359 , 4135.8974359 , 4138.46153846 , 2070.0 , 2035.0 , 7.654 , 0.0 , 0.0 , 0.0 , 0.0 , 

3.0 , 4128.20512821 , 4133.33333333 , 4133.33333333 , 4134.35897436 , 4130.25641026 , 4128.71794872 , 4130.76923077 , 4134.87179487 , 4136.92307692 , 4140.51282051 , 4172.30769231 , 4635.8974359 , 4133.33333333 , 4138.97435897 , 2071.0 , 2035.0 , 7.665 , 0.0 , 0.0 , 0.0 , 0.0 , 

4.0 , 4131.79487179 , 4131.28205128 , 4106.66666667 , 4134.87179487 , 4132.82051282 , 4134.35897436 , 4131.79487179 , 4132.30769231 , 4135.8974359 , 4137.94871795 , 4170.76923077 , 4632.30769231 , 4129.23076923 , 4136.41025641 , 2071.0 , 2033.0 , 7.67 , 0.0 , 0.0 , 0.0 , 0.0 , 

5.0 , 4131.79487179 , 4129.23076923 , 4101.02564103 , 4130.25641026 , 4130.25641026 , 4135.38461538 , 4129.23076923 , 4129.74358974 , 4136.92307692 , 4138.46153846 , 4171.28205128 , 4630.25641026 , 4129.23076923 , 4133.84615385 , 2071.0 , 2028.0 , 7.677 , 0.0 , 0.0 , 0.0 , 0.0 , 

6.0 , 4130.76923077 , 4130.76923077 , 4127.69230769 , 4129.23076923 , 4131.28205128 , 4131.79487179 , 4129.74358974 , 4133.84615385 , 4137.43589744 , 4140.0 , 4171.79487179 , 4630.76923077 , 4132.82051282 , 4136.41025641 , 2071.0 , 2026.0 , 7.685 , 0.0 , 0.0 , 0.0 , 0.0 , 

7.0 , 4132.30769231 , 4131.28205128 , 4124.61538462 , 4131.28205128 , 4137.43589744 , 4133.84615385 , 4131.28205128 , 4137.94871795 , 4138.97435897 , 4141.02564103 , 4173.84615385 , 4631.79487179 , 4132.30769231 , 4140.0 , 2071.0 , 2024.0 , 7.693 , 0.0 , 0.0 , 0.0 , 0.0 , 

8.0 , 4129.74358974 , 4130.76923077 , 4147.17948718 , 4129.23076923 , 4133.84615385 , 4134.87179487 , 4129.74358974 , 4138.97435897 , 4140.51282051 , 4145.12820513 , 4176.41025641 , 4634.35897436 , 4135.38461538 , 4138.97435897 , 2069.0 , 2025.0 , 7.701 , 0.0 , 0.0 , 0.0 , 0.0 , 

9.0 , 4130.25641026 , 4129.23076923 , 4145.64102564 , 4128.20512821 , 4127.69230769 , 4130.76923077 , 4128.71794872 , 4133.84615385 , 4136.41025641 , 4143.07692308 , 4173.33333333 , 4631.28205128 , 4136.92307692 , 4135.8974359 , 2069.0 , 2025.0 , 7.709 , 0.0 , 0.0 , 0.0 , 0.0 , 

10.0 , 4133.84615385 , 4128.71794872 , 4135.38461538 , 4131.28205128 , 4130.25641026 , 4127.17948718 , 4128.71794872 , 4131.28205128 , 4135.38461538 , 4140.51282051 , 4171.79487179 , 4628.71794872 , 4135.38461538 , 4136.41025641 , 2068.0 , 2025.0 , 7.717 , 0.0 , 0.0 , 0.0 , 0.0 , 

11.0 , 4133.33333333 , 4130.25641026 , 4128.20512821 , 4132.82051282 , 4132.82051282 , 4126.66666667 , 4128.71794872 , 4133.33333333 , 4136.41025641 , 4139.48717949 , 4172.82051282 , 4630.76923077 , 4134.87179487 , 4137.94871795 , 2067.0 , 2025.0 , 7.725 , 0.0 , 0.0 , 0.0 , 0.0 , 

12.0 , 4129.74358974 , 4131.28205128 , 4156.41025641 , 4129.74358974 , 4130.76923077 , 4127.69230769 , 4128.71794872 , 4137.94871795 , 4137.43589744 , 4141.02564103 , 4173.33333333 , 4632.82051282 , 4138.46153846 , 4137.94871795 , 2067.0 , 2028.0 , 7.732 , 0.0 , 0.0 , 0.0 , 0.0 , 

13.0 , 4133.33333333 , 4130.76923077 , 4144.61538462 , 4129.74358974 , 4130.76923077 , 4128.71794872 , 4128.71794872 , 4136.41025641 , 4136.92307692 , 4142.05128205 , 4172.82051282 , 4629.23076923 , 4136.41025641 , 4137.94871795 , 2067.0 , 2028.0 , 7.74 , 0.0 , 0.0 , 0.0 , 0.0 , 

14.0 , 4133.33333333 , 4129.74358974 , 4139.48717949 , 4131.79487179 , 4131.28205128 , 4128.71794872 , 4130.25641026 , 4133.84615385 , 4138.46153846 , 4143.07692308 , 4174.35897436 , 4627.69230769 , 4134.35897436 , 4137.94871795 , 2068.0 , 2029.0 , 7.748 , 0.0 , 0.0 , 0.0 , 0.0 , 

15.0 , 4130.25641026 , 4130.76923077 , 4153.84615385 , 4131.79487179 , 4131.28205128 , 4129.23076923 , 4131.28205128 , 4134.87179487 , 4135.8974359 , 4141.53846154 , 4173.84615385 , 4633.84615385 , 4134.35897436 , 4137.94871795 , 2069.0 , 2029.0 , 7.756 , 0.0 , 0.0 , 0.0 , 0.0 , 

16.0 , 4130.25641026 , 4130.76923077 , 4154.35897436 , 4129.74358974 , 4131.79487179 , 4131.28205128 , 4130.76923077 , 4136.92307692 , 4135.38461538 , 4141.02564103 , 4170.76923077 , 4637.94871795 , 4134.35897436 , 4137.43589744 , 2069.0 , 2029.0 , 7.767 , 0.0 , 0.0 , 0.0 , 0.0 , 

17.0 , 4132.30769231 , 4130.25641026 , 4138.97435897 , 4132.30769231 , 4131.28205128 , 4129.74358974 , 4130.25641026 , 4135.38461538 , 4137.94871795 , 4142.56410256 , 4171.79487179 , 4633.84615385 , 4133.84615385 , 4136.41025641 , 2069.0 , 2028.0 , 7.771 , 0.0 , 0.0 , 0.0 , 0.0 , 

18.0 , 4129.74358974 , 4129.74358974 , 4139.48717949 , 4134.87179487 , 4131.28205128 , 4130.25641026 , 4127.69230769 , 4133.33333333 , 4139.48717949 , 4142.05128205 , 4172.30769231 , 4628.71794872 , 4131.79487179 , 4135.8974359 , 2067.0 , 2027.0 , 7.78 , 0.0 , 0.0 , 0.0 , 0.0 , 

19.0 , 4129.74358974 , 4131.79487179 , 4162.05128205 , 4135.38461538 , 4131.28205128 , 4130.76923077 , 4128.20512821 , 4135.8974359 , 4140.51282051 , 4144.61538462 , 4169.74358974 , 4632.30769231 , 4132.30769231 , 4136.92307692 , 2064.0 , 2025.0 , 7.788 , 0.0 , 0.0 , 0.0 , 0.0 , 

20.0 , 4131.28205128 , 4132.30769231 , 4145.12820513 , 4134.35897436 , 4131.79487179 , 4128.20512821 , 4130.25641026 , 4136.41025641 , 4137.43589744 , 4140.0 , 4170.25641026 , 4632.82051282 , 4133.33333333 , 4136.41025641 , 2063.0 , 2026.0 , 7.795 , 0.0 , 0.0 , 0.0 , 0.0 , 

21.0 , 4130.25641026 , 4130.76923077 , 4133.33333333 , 4131.79487179 , 4132.30769231 , 4128.20512821 , 4130.76923077 , 4135.38461538 , 4136.41025641 , 4136.41025641 , 4170.76923077 , 4631.28205128 , 4132.82051282 , 4136.41025641 , 2062.0 , 2025.0 , 7.803 , 0.0 , 0.0 , 0.0 , 0.0 , 

22.0 , 4130.76923077 , 4131.28205128 , 4142.05128205 , 4130.25641026 , 4132.30769231 , 4131.28205128 , 4129.74358974 , 4135.8974359 , 4135.8974359 , 4140.0 , 4167.17948718 , 4631.28205128 , 4130.25641026 , 4135.8974359 , 2059.0 , 2026.0 , 7.81 , 0.0 , 0.0 , 0.0 , 0.0 , 

23.0 , 4132.30769231 , 4132.82051282 , 4172.82051282 , 4131.28205128 , 4131.28205128 , 4129.74358974 , 4128.71794872 , 4137.43589744 , 4137.43589744 , 4145.12820513 , 4172.30769231 , 4634.35897436 , 4133.33333333 , 4135.38461538 , 2058.0 , 2026.0 , 7.819 , 0.0 , 0.0 , 0.0 , 0.0 , 

24.0 , 4132.30769231 , 4131.28205128 , 4152.82051282 , 4133.84615385 , 4131.28205128 , 4126.15384615 , 4127.69230769 , 4136.92307692 , 4138.97435897 , 4140.0 , 4178.46153846 , 4636.41025641 , 4132.82051282 , 4135.8974359 , 2057.0 , 2024.0 , 7.827 , 0.0 , 0.0 , 0.0 , 0.0 , 

25.0 , 4129.23076923 , 4130.76923077 , 4181.02564103 , 4133.84615385 , 4130.25641026 , 4127.69230769 , 4128.20512821 , 4139.48717949 , 4142.56410256 , 4140.51282051 , 4174.87179487 , 4638.97435897 , 4133.33333333 , 4138.97435897 , 2055.0 , 2026.0 , 7.836 , 0.0 , 0.0 , 0.0 , 0.0 , 

26.0 , 4128.71794872 , 4131.28205128 , 4177.94871795 , 4133.33333333 , 4129.74358974 , 4131.28205128 , 4130.76923077 , 4134.87179487 , 4140.0 , 4142.56410256 , 4168.20512821 , 4634.87179487 , 4132.82051282 , 4136.92307692 , 2052.0 , 2029.0 , 7.843 , 0.0 , 0.0 , 0.0 , 0.0 , 

27.0 , 4128.71794872 , 4129.23076923 , 4159.48717949 , 4132.30769231 , 4129.74358974 , 4132.30769231 , 4130.25641026 , 4130.76923077 , 4136.41025641 , 4142.05128205 , 4171.28205128 , 4633.84615385 , 4133.33333333 , 4133.84615385 , 2051.0 , 2029.0 , 7.851 , 0.0 , 0.0 , 0.0 , 0.0 , 

28.0 , 4128.71794872 , 4130.25641026 , 4144.1025641 , 4131.79487179 , 4129.74358974 , 4131.79487179 , 4127.69230769 , 4131.28205128 , 4132.30769231 , 4138.46153846 , 4175.38461538 , 4635.38461538 , 4131.79487179 , 4135.38461538 , 2050.0 , 2027.0 , 7.859 , 0.0 , 0.0 , 0.0 , 0.0 , 

29.0 , 4128.71794872 , 4130.25641026 , 4162.56410256 , 4132.30769231 , 4129.74358974 , 4131.28205128 , 4128.20512821 , 4133.84615385 , 4134.87179487 , 4140.0 , 4174.35897436 , 4634.35897436 , 4133.33333333 , 4138.46153846 , 2049.0 , 2027.0 , 7.869 , 0.0 , 0.0 , 0.0 , 0.0 , 

30.0 , 4131.28205128 , 4130.25641026 , 4154.35897436 , 4132.30769231 , 4132.30769231 , 4130.25641026 , 4130.76923077 , 4130.76923077 , 4138.97435897 , 4142.05128205 , 4170.76923077 , 4632.82051282 , 4131.79487179 , 4136.41025641 , 2048.0 , 2028.0 , 7.873 , 0.0 , 0.0 , 0.0 , 0.0 , 

31.0 , 4131.28205128 , 4131.79487179 , 4155.8974359 , 4131.79487179 , 4130.76923077 , 4130.25641026 , 4130.25641026 , 4131.79487179 , 4137.43589744 , 4141.02564103 , 4172.30769231 , 4634.87179487 , 4130.25641026 , 4135.38461538 , 2047.0 , 2029.0 , 7.882 , 0.0 , 0.0 , 0.0 , 0.0 , 

32.0 , 4129.74358974 , 4133.33333333 , 4150.25641026 , 4133.33333333 , 4128.20512821 , 4131.79487179 , 4128.20512821 , 4133.33333333 , 4133.33333333 , 4138.97435897 , 4173.33333333 , 4637.43589744 , 4132.30769231 , 4138.46153846 , 2046.0 , 2030.0 , 7.89 , 0.0 , 0.0 , 0.0 , 0.0 , 

33.0 , 4131.28205128 , 4131.28205128 , 4147.17948718 , 4133.84615385 , 4129.74358974 , 4130.76923077 , 4127.69230769 , 4133.33333333 , 4136.41025641 , 4139.48717949 , 4170.25641026 , 4637.94871795 , 4134.35897436 , 4137.43589744 , 2047.0 , 2032.0 , 7.898 , 0.0 , 0.0 , 0.0 , 0.0 , 

34.0 , 4131.79487179 , 4128.71794872 , 4154.87179487 , 4132.82051282 , 4132.82051282 , 4128.71794872 , 4130.76923077 , 4135.38461538 , 4139.48717949 , 4142.05128205 , 4170.76923077 , 4638.46153846 , 4133.84615385 , 4135.38461538 , 2045.0 , 2033.0 , 7.906 , 0.0 , 0.0 , 0.0 , 0.0 , 

35.0 , 4129.74358974 , 4128.20512821 , 4167.17948718 , 4132.82051282 , 4132.82051282 , 4131.28205128 , 4131.28205128 , 4138.46153846 , 4138.46153846 , 4143.07692308 , 4173.84615385 , 4636.41025641 , 4131.79487179 , 4135.8974359 , 2045.0 , 2036.0 , 7.914 , 0.0 , 0.0 , 0.0 , 0.0 , 

36.0 , 4133.33333333 , 4131.79487179 , 4171.28205128 , 4133.84615385 , 4131.28205128 , 4133.84615385 , 4128.71794872 , 4136.92307692 , 4137.94871795 , 4143.58974359 , 4173.33333333 , 4638.97435897 , 4132.82051282 , 4136.92307692 , 2043.0 , 2035.0 , 7.922 , 0.0 , 0.0 , 0.0 , 0.0 , 

37.0 , 4133.33333333 , 4133.84615385 , 4158.46153846 , 4133.33333333 , 4128.71794872 , 4130.25641026 , 4130.25641026 , 4132.30769231 , 4136.41025641 , 4140.51282051 , 4169.23076923 , 4638.97435897 , 4133.33333333 , 4136.41025641 , 2043.0 , 2038.0 , 7.929 , 0.0 , 0.0 , 0.0 , 0.0 , 

38.0 , 4129.74358974 , 4129.23076923 , 4160.0 , 4133.84615385 , 4129.74358974 , 4127.17948718 , 4132.82051282 , 4133.33333333 , 4137.43589744 , 4140.51282051 , 4170.76923077 , 4637.94871795 , 4132.82051282 , 4138.46153846 , 2043.0 , 2039.0 , 7.937 , 0.0 , 0.0 , 0.0 , 0.0 , 

39.0 , 4130.25641026 , 4129.23076923 , 4161.53846154 , 4133.84615385 , 4131.28205128 , 4129.74358974 , 4130.25641026 , 4133.84615385 , 4137.43589744 , 4141.53846154 , 4172.82051282 , 4637.94871795 , 4131.28205128 , 4138.97435897 , 2043.0 , 2040.0 , 7.945 , 0.0 , 0.0 , 0.0 , 0.0 , 

40.0 , 4132.82051282 , 4134.35897436 , 4160.51282051 , 4133.84615385 , 4128.71794872 , 4129.74358974 , 4128.20512821 , 4134.35897436 , 4136.92307692 , 4140.51282051 , 4172.30769231 , 4640.0 , 4132.82051282 , 4137.43589744 , 2043.0 , 2039.0 , 7.953 , 0.0 , 0.0 , 0.0 , 0.0 , 

41.0 , 4131.79487179 , 4132.30769231 , 4142.56410256 , 4132.82051282 , 4127.69230769 , 4126.66666667 , 4129.23076923 , 4132.30769231 , 4136.92307692 , 4139.48717949 , 4171.28205128 , 4639.48717949 , 4131.79487179 , 4136.92307692 , 2043.0 , 2038.0 , 7.961 , 0.0 , 0.0 , 0.0 , 0.0 , 

42.0 , 4131.28205128 , 4127.69230769 , 4164.61538462 , 4131.28205128 , 4130.25641026 , 4127.17948718 , 4129.74358974 , 4131.79487179 , 4138.97435897 , 4143.58974359 , 4173.33333333 , 4637.43589744 , 4130.76923077 , 4136.92307692 , 2044.0 , 2038.0 , 7.972 , 0.0 , 0.0 , 0.0 , 0.0 , 

43.0 , 4131.79487179 , 4127.69230769 , 4162.56410256 , 4131.79487179 , 4130.25641026 , 4130.76923077 , 4128.71794872 , 4131.79487179 , 4136.92307692 , 4142.05128205 , 4172.30769231 , 4637.43589744 , 4130.25641026 , 4133.84615385 , 2044.0 , 2037.0 , 7.977 , 0.0 , 0.0 , 0.0 , 0.0 , 

44.0 , 4129.74358974 , 4129.74358974 , 4155.8974359 , 4133.33333333 , 4129.23076923 , 4130.25641026 , 4128.20512821 , 4134.35897436 , 4137.43589744 , 4138.46153846 , 4170.76923077 , 4641.02564103 , 4132.30769231 , 4132.30769231 , 2044.0 , 2037.0 , 7.984 , 0.0 , 0.0 , 0.0 , 0.0 , 

45.0 , 4131.79487179 , 4131.79487179 , 4140.51282051 , 4134.35897436 , 4129.74358974 , 4129.23076923 , 4130.25641026 , 4134.35897436 , 4137.94871795 , 4137.94871795 , 4169.74358974 , 4645.12820513 , 4131.79487179 , 4135.38461538 , 2045.0 , 2036.0 , 7.992 , 0.0 , 0.0 , 0.0 , 0.0 , 

46.0 , 4132.30769231 , 4131.28205128 , 4160.0 , 4134.35897436 , 4128.71794872 , 4129.74358974 , 4129.74358974 , 4134.87179487 , 4137.94871795 , 4142.56410256 , 4170.76923077 , 4643.07692308 , 4132.30769231 , 4136.41025641 , 2046.0 , 2036.0 , 8.0 , 0.0 , 0.0 , 0.0 , 0.0 , 

47.0 , 4130.76923077 , 4130.25641026 , 4166.66666667 , 4133.84615385 , 4128.71794872 , 4130.25641026 , 4129.23076923 , 4134.35897436 , 4137.43589744 , 4143.58974359 , 4172.82051282 , 4640.51282051 , 4131.79487179 , 4135.8974359 , 2046.0 , 2038.0 , 8.008 , 0.0 , 0.0 , 0.0 , 0.0 , 

48.0 , 4130.25641026 , 4130.76923077 , 4173.84615385 , 4131.79487179 , 4128.71794872 , 4132.30769231 , 4130.76923077 , 4133.84615385 , 4136.92307692 , 4140.51282051 , 4172.82051282 , 4642.05128205 , 4131.28205128 , 4137.43589744 , 2047.0 , 2036.0 , 8.016 , 0.0 , 0.0 , 0.0 , 0.0 , 

49.0 , 4131.28205128 , 4132.30769231 , 4162.56410256 , 4130.76923077 , 4128.71794872 , 4130.25641026 , 4131.28205128 , 4135.38461538 , 4135.8974359 , 4141.53846154 , 4170.25641026 , 4641.53846154 , 4132.30769231 , 4138.97435897 , 2046.0 , 2038.0 , 8.024 , 0.0 , 0.0 , 0.0 , 0.0 , 

50.0 , 4130.76923077 , 4131.28205128 , 4185.12820513 , 4132.30769231 , 4130.25641026 , 4128.71794872 , 4129.23076923 , 4136.92307692 , 4138.97435897 , 4145.12820513 , 4174.35897436 , 4641.53846154 , 4134.87179487 , 4138.46153846 , 2047.0 , 2040.0 , 8.031 , 0.0 , 0.0 , 0.0 , 0.0 , 

51.0 , 4132.30769231 , 4131.28205128 , 4188.20512821 , 4134.87179487 , 4132.82051282 , 4131.28205128 , 4128.71794872 , 4132.82051282 , 4139.48717949 , 4140.51282051 , 4174.87179487 , 4644.1025641 , 4135.38461538 , 4137.94871795 , 2045.0 , 2040.0 , 8.04 , 0.0 , 0.0 , 0.0 , 0.0 , 

52.0 , 4132.30769231 , 4131.28205128 , 4185.64102564 , 4131.79487179 , 4132.30769231 , 4131.79487179 , 4129.74358974 , 4135.8974359 , 4136.92307692 , 4138.97435897 , 4173.33333333 , 4644.1025641 , 4137.94871795 , 4137.43589744 , 2045.0 , 2039.0 , 8.048 , 0.0 , 0.0 , 0.0 , 0.0 , 

53.0 , 4131.28205128 , 4129.23076923 , 4168.71794872 , 4129.23076923 , 4129.23076923 , 4128.20512821 , 4130.76923077 , 4138.46153846 , 4134.35897436 , 4140.51282051 , 4174.35897436 , 4642.05128205 , 4133.84615385 , 4136.92307692 , 2043.0 , 2037.0 , 8.056 , 0.0 , 0.0 , 0.0 , 0.0 , 

54.0 , 4132.30769231 , 4127.69230769 , 4190.25641026 , 4132.30769231 , 4129.23076923 , 4129.74358974 , 4130.25641026 , 4138.46153846 , 4136.92307692 , 4144.1025641 , 4176.41025641 , 4645.64102564 , 4134.35897436 , 4135.38461538 , 2041.0 , 2038.0 , 8.063 , 0.0 , 0.0 , 0.0 , 0.0 , 

55.0 , 4132.82051282 , 4131.28205128 , 4204.61538462 , 4133.84615385 , 4130.25641026 , 4133.33333333 , 4128.20512821 , 4137.94871795 , 4139.48717949 , 4144.61538462 , 4173.84615385 , 4647.17948718 , 4138.97435897 , 4134.35897436 , 2042.0 , 2037.0 , 8.075 , 0.0 , 0.0 , 0.0 , 0.0 , 

56.0 , 4129.23076923 , 4133.33333333 , 4185.12820513 , 4133.84615385 , 4129.23076923 , 4130.25641026 , 4129.74358974 , 4136.41025641 , 4138.97435897 , 4143.58974359 , 4171.28205128 , 4645.12820513 , 4135.38461538 , 4136.92307692 , 2041.0 , 2036.0 , 8.079 , 0.0 , 0.0 , 0.0 , 0.0 , 

57.0 , 4128.71794872 , 4131.28205128 , 4190.25641026 , 4133.84615385 , 4129.23076923 , 4127.17948718 , 4133.33333333 , 4135.38461538 , 4137.94871795 , 4142.05128205 , 4171.28205128 , 4646.15384615 , 4129.74358974 , 4137.94871795 , 2040.0 , 2034.0 , 8.087 , 0.0 , 0.0 , 0.0 , 0.0 , 

58.0 , 4130.76923077 , 4130.25641026 , 4184.61538462 , 4132.82051282 , 4130.25641026 , 4129.23076923 , 4132.30769231 , 4134.35897436 , 4135.38461538 , 4138.46153846 , 4172.30769231 , 4649.23076923 , 4130.76923077 , 4135.38461538 , 2040.0 , 2033.0 , 8.095 , 0.0 , 0.0 , 0.0 , 0.0 , 

59.0 , 4130.25641026 , 4129.23076923 , 4200.0 , 4132.30769231 , 4129.74358974 , 4130.76923077 , 4128.71794872 , 4136.92307692 , 4135.8974359 , 4140.51282051 , 4174.87179487 , 4653.33333333 , 4135.8974359 , 4136.41025641 , 2041.0 , 2032.0 , 8.103 , 0.0 , 0.0 , 0.0 , 0.0 , 

60.0 , 4130.25641026 , 4127.69230769 , 4175.38461538 , 4133.33333333 , 4130.25641026 , 4130.25641026 , 4128.20512821 , 4133.84615385 , 4134.87179487 , 4140.51282051 , 4171.28205128 , 4650.25641026 , 4133.33333333 , 4135.8974359 , 2041.0 , 2030.0 , 8.111 , 0.0 , 0.0 , 0.0 , 0.0 , 

61.0 , 4131.79487179 , 4127.69230769 , 4170.76923077 , 4133.33333333 , 4130.76923077 , 4130.25641026 , 4130.25641026 , 4133.33333333 , 4134.87179487 , 4140.51282051 , 4170.25641026 , 4647.69230769 , 4132.30769231 , 4134.35897436 , 2040.0 , 2030.0 , 8.119 , 0.0 , 0.0 , 0.0 , 0.0 , 

62.0 , 4131.79487179 , 4129.23076923 , 4164.1025641 , 4132.82051282 , 4129.74358974 , 4130.76923077 , 4130.25641026 , 4133.84615385 , 4135.8974359 , 4137.94871795 , 4172.82051282 , 4652.30769231 , 4134.35897436 , 4137.43589744 , 2040.0 , 2029.0 , 8.126 , 0.0 , 0.0 , 0.0 , 0.0 , 

63.0 , 4129.23076923 , 4129.23076923 , 4192.30769231 , 4132.30769231 , 4129.74358974 , 4129.74358974 , 4128.20512821 , 4134.35897436 , 4140.0 , 4142.05128205 , 4176.41025641 , 4656.92307692 , 4136.92307692 , 4140.51282051 , 2041.0 , 2028.0 , 8.134 , 0.0 , 0.0 , 0.0 , 0.0 , 

64.0 , 4130.25641026 , 4130.76923077 , 4185.64102564 , 4132.30769231 , 4130.76923077 , 4129.23076923 , 4128.71794872 , 4132.82051282 , 4138.46153846 , 4143.07692308 , 4173.84615385 , 4652.30769231 , 4132.82051282 , 4134.87179487 , 2040.0 , 2029.0 , 8.142 , 0.0 , 0.0 , 0.0 , 0.0 , 

65.0 , 4131.28205128 , 4129.23076923 , 4187.69230769 , 4133.33333333 , 4130.76923077 , 4129.74358974 , 4130.25641026 , 4134.35897436 , 4136.41025641 , 4141.02564103 , 4172.82051282 , 4652.82051282 , 4132.82051282 , 4133.33333333 , 2039.0 , 2030.0 , 8.15 , 0.0 , 0.0 , 0.0 , 0.0 , 

66.0 , 4132.30769231 , 4130.76923077 , 4174.35897436 , 4133.33333333 , 4132.30769231 , 4129.23076923 , 4130.76923077 , 4132.82051282 , 4134.35897436 , 4138.97435897 , 4175.8974359 , 4657.94871795 , 4132.30769231 , 4136.92307692 , 2040.0 , 2029.0 , 8.158 , 0.0 , 0.0 , 0.0 , 0.0 , 

67.0 , 4132.30769231 , 4132.30769231 , 4172.30769231 , 4130.76923077 , 4131.28205128 , 4128.71794872 , 4128.20512821 , 4131.28205128 , 4133.33333333 , 4140.0 , 4175.8974359 , 4656.41025641 , 4130.25641026 , 4135.38461538 , 2042.0 , 2027.0 , 8.165 , 0.0 , 0.0 , 0.0 , 0.0 , 

68.0 , 4133.33333333 , 4129.23076923 , 4174.87179487 , 4131.79487179 , 4130.25641026 , 4129.23076923 , 4127.69230769 , 4131.79487179 , 4134.35897436 , 4141.02564103 , 4172.82051282 , 4653.84615385 , 4130.25641026 , 4132.82051282 , 2046.0 , 2025.0 , 8.177 , 0.0 , 0.0 , 0.0 , 0.0 , 

69.0 , 4132.82051282 , 4128.71794872 , 4196.92307692 , 4133.33333333 , 4131.79487179 , 4129.74358974 , 4128.71794872 , 4134.35897436 , 4136.92307692 , 4141.53846154 , 4171.79487179 , 4658.46153846 , 4133.33333333 , 4136.41025641 , 2048.0 , 2024.0 , 8.182 , 0.0 , 0.0 , 0.0 , 0.0 , 

70.0 , 4131.79487179 , 4132.82051282 , 4185.12820513 , 4132.30769231 , 4133.33333333 , 4129.23076923 , 4127.69230769 , 4134.35897436 , 4135.8974359 , 4141.02564103 , 4174.35897436 , 4661.53846154 , 4130.76923077 , 4140.51282051 , 2051.0 , 2026.0 , 8.19 , 0.0 , 0.0 , 0.0 , 0.0 , 

71.0 , 4129.23076923 , 4131.79487179 , 4180.0 , 4131.28205128 , 4131.28205128 , 4131.28205128 , 4126.66666667 , 4134.35897436 , 4132.82051282 , 4139.48717949 , 4175.8974359 , 4660.0 , 4131.79487179 , 4139.48717949 , 2050.0 , 2027.0 , 8.197 , 0.0 , 0.0 , 0.0 , 0.0 , 

72.0 , 4129.23076923 , 4129.23076923 , 4188.20512821 , 4133.33333333 , 4129.23076923 , 4132.30769231 , 4129.23076923 , 4132.82051282 , 4133.33333333 , 4138.97435897 , 4172.82051282 , 4660.51282051 , 4135.8974359 , 4136.41025641 , 2048.0 , 2029.0 , 8.205 , 0.0 , 0.0 , 0.0 , 0.0 , 

73.0 , 4132.30769231 , 4130.76923077 , 4189.23076923 , 4132.82051282 , 4128.71794872 , 4128.71794872 , 4130.25641026 , 4133.84615385 , 4138.46153846 , 4142.56410256 , 4169.74358974 , 4661.53846154 , 4132.30769231 , 4135.38461538 , 2046.0 , 2031.0 , 8.213 , 0.0 , 0.0 , 0.0 , 0.0 , 

74.0 , 4133.84615385 , 4131.79487179 , 4177.43589744 , 4131.28205128 , 4129.74358974 , 4128.71794872 , 4127.17948718 , 4136.41025641 , 4138.97435897 , 4144.61538462 , 4173.33333333 , 4663.07692308 , 4132.30769231 , 4137.94871795 , 2046.0 , 2034.0 , 8.221 , 0.0 , 0.0 , 0.0 , 0.0 , 

75.0 , 4131.28205128 , 4132.30769231 , 4171.28205128 , 4133.84615385 , 4131.28205128 , 4131.79487179 , 4127.69230769 , 4131.28205128 , 4134.87179487 , 4142.05128205 , 4177.94871795 , 4665.12820513 , 4138.46153846 , 4137.94871795 , 2045.0 , 2037.0 , 8.229 , 0.0 , 0.0 , 0.0 , 0.0 , 

76.0 , 4129.74358974 , 4132.82051282 , 4186.66666667 , 4136.41025641 , 4131.28205128 , 4130.76923077 , 4131.79487179 , 4132.30769231 , 4134.87179487 , 4142.05128205 , 4175.38461538 , 4665.12820513 , 4136.92307692 , 4136.41025641 , 2045.0 , 2039.0 , 8.237 , 0.0 , 0.0 , 0.0 , 0.0 , 

77.0 , 4132.30769231 , 4132.30769231 , 4177.43589744 , 4134.35897436 , 4131.28205128 , 4129.23076923 , 4131.79487179 , 4137.43589744 , 4136.92307692 , 4140.51282051 , 4170.25641026 , 4661.53846154 , 4129.74358974 , 4134.87179487 , 2044.0 , 2038.0 , 8.245 , 0.0 , 0.0 , 0.0 , 0.0 , 

78.0 , 4133.33333333 , 4133.33333333 , 4170.76923077 , 4132.30769231 , 4130.76923077 , 4129.23076923 , 4128.71794872 , 4136.92307692 , 4137.94871795 , 4139.48717949 , 4169.74358974 , 4662.56410256 , 4131.79487179 , 4134.87179487 , 2044.0 , 2036.0 , 8.252 , 0.0 , 0.0 , 0.0 , 0.0 , 

79.0 , 4131.28205128 , 4133.84615385 , 4162.56410256 , 4133.84615385 , 4130.76923077 , 4128.71794872 , 4127.69230769 , 4131.79487179 , 4135.38461538 , 4138.97435897 , 4170.76923077 , 4665.64102564 , 4132.82051282 , 4136.41025641 , 2042.0 , 2031.0 , 8.26 , 0.0 , 0.0 , 0.0 , 0.0 , 

80.0 , 4131.79487179 , 4130.25641026 , 4171.79487179 , 4134.35897436 , 4131.28205128 , 4130.25641026 , 4130.76923077 , 4132.30769231 , 4133.84615385 , 4140.0 , 4173.84615385 , 4666.15384615 , 4129.74358974 , 4137.43589744 , 2041.0 , 2027.0 , 8.267 , 0.0 , 0.0 , 0.0 , 0.0 , 

81.0 , 4135.38461538 , 4128.71794872 , 4167.17948718 , 4132.30769231 , 4129.74358974 , 4134.35897436 , 4134.35897436 , 4135.38461538 , 4135.8974359 , 4140.51282051 , 4175.38461538 , 4667.69230769 , 4130.76923077 , 4139.48717949 , 2041.0 , 2025.0 , 8.28 , 0.0 , 0.0 , 0.0 , 0.0 , 

82.0 , 4132.82051282 , 4130.25641026 , 4181.02564103 , 4129.74358974 , 4127.17948718 , 4132.82051282 , 4131.79487179 , 4135.8974359 , 4137.94871795 , 4142.05128205 , 4174.35897436 , 4671.28205128 , 4131.79487179 , 4140.0 , 2039.0 , 2024.0 , 8.284 , 0.0 , 0.0 , 0.0 , 0.0 , 

83.0 , 4131.28205128 , 4131.28205128 , 4176.92307692 , 4131.79487179 , 4129.74358974 , 4131.28205128 , 4129.74358974 , 4130.76923077 , 4134.35897436 , 4141.53846154 , 4172.82051282 , 4671.28205128 , 4128.71794872 , 4134.87179487 , 2039.0 , 2023.0 , 8.291 , 0.0 , 0.0 , 0.0 , 0.0 , 

84.0 , 4131.28205128 , 4129.23076923 , 4185.12820513 , 4131.79487179 , 4130.76923077 , 4130.25641026 , 4131.79487179 , 4128.71794872 , 4136.41025641 , 4141.53846154 , 4174.87179487 , 4669.74358974 , 4131.28205128 , 4133.33333333 , 2036.0 , 2027.0 , 8.299 , 0.0 , 0.0 , 0.0 , 0.0 , 

85.0 , 4131.79487179 , 4130.76923077 , 4177.94871795 , 4133.33333333 , 4129.23076923 , 4129.23076923 , 4133.33333333 , 4132.82051282 , 4137.43589744 , 4144.61538462 , 4173.33333333 , 4671.28205128 , 4134.87179487 , 4138.97435897 , 2034.0 , 2030.0 , 8.307 , 0.0 , 0.0 , 0.0 , 0.0 , 

86.0 , 4129.74358974 , 4134.87179487 , 4161.53846154 , 4138.46153846 , 4129.74358974 , 4128.20512821 , 4132.82051282 , 4134.35897436 , 4132.30769231 , 4142.56410256 , 4168.71794872 , 4671.28205128 , 4129.74358974 , 4140.0 , 2032.0 , 2034.0 , 8.315 , 0.0 , 0.0 , 0.0 , 0.0 , 

87.0 , 4129.74358974 , 4134.87179487 , 4148.71794872 , 4138.46153846 , 4132.30769231 , 4128.71794872 , 4131.28205128 , 4133.33333333 , 4134.87179487 , 4139.48717949 , 4172.30769231 , 4671.79487179 , 4126.66666667 , 4137.43589744 , 2032.0 , 2036.0 , 8.323 , 0.0 , 0.0 , 0.0 , 0.0 , 

88.0 , 4131.28205128 , 4128.71794872 , 4165.12820513 , 4132.82051282 , 4130.25641026 , 4128.71794872 , 4130.25641026 , 4133.33333333 , 4138.97435897 , 4141.02564103 , 4174.87179487 , 4671.79487179 , 4132.30769231 , 4135.8974359 , 2034.0 , 2038.0 , 8.33 , 0.0 , 0.0 , 0.0 , 0.0 , 

89.0 , 4132.82051282 , 4128.71794872 , 4163.58974359 , 4132.30769231 , 4129.74358974 , 4129.74358974 , 4128.71794872 , 4135.8974359 , 4134.35897436 , 4142.05128205 , 4172.82051282 , 4673.33333333 , 4134.87179487 , 4136.41025641 , 2034.0 , 2037.0 , 8.339 , 0.0 , 0.0 , 0.0 , 0.0 , 

90.0 , 4132.30769231 , 4132.82051282 , 4161.53846154 , 4132.30769231 , 4130.25641026 , 4129.23076923 , 4128.71794872 , 4136.92307692 , 4131.28205128 , 4140.0 , 4172.30769231 , 4673.84615385 , 4131.28205128 , 4136.92307692 , 2036.0 , 2036.0 , 8.347 , 0.0 , 0.0 , 0.0 , 0.0 , 

91.0 , 4133.33333333 , 4133.84615385 , 4172.82051282 , 4129.74358974 , 4129.23076923 , 4128.20512821 , 4130.25641026 , 4134.87179487 , 4134.87179487 , 4140.0 , 4173.84615385 , 4672.82051282 , 4130.76923077 , 4136.92307692 , 2037.0 , 2032.0 , 8.355 , 0.0 , 0.0 , 0.0 , 0.0 , 

92.0 , 4132.30769231 , 4129.23076923 , 4174.87179487 , 4132.30769231 , 4129.23076923 , 4129.23076923 , 4130.76923077 , 4132.30769231 , 4135.38461538 , 4140.51282051 , 4172.30769231 , 4673.33333333 , 4132.82051282 , 4133.84615385 , 2038.0 , 2026.0 , 8.363 , 0.0 , 0.0 , 0.0 , 0.0 , 

93.0 , 4129.74358974 , 4128.20512821 , 4177.94871795 , 4135.38461538 , 4130.25641026 , 4129.74358974 , 4129.23076923 , 4136.92307692 , 4136.41025641 , 4140.0 , 4172.30769231 , 4676.92307692 , 4132.82051282 , 4134.87179487 , 2040.0 , 2021.0 , 8.371 , 0.0 , 0.0 , 0.0 , 0.0 , 

94.0 , 4130.25641026 , 4132.30769231 , 4168.20512821 , 4132.82051282 , 4130.25641026 , 4129.23076923 , 4129.74358974 , 4136.41025641 , 4138.46153846 , 4137.94871795 , 4171.79487179 , 4675.8974359 , 4127.69230769 , 4135.38461538 , 2040.0 , 2019.0 , 8.382 , 0.0 , 0.0 , 0.0 , 0.0 , 

95.0 , 4131.79487179 , 4134.35897436 , 4156.92307692 , 4132.30769231 , 4129.23076923 , 4130.25641026 , 4132.30769231 , 4129.74358974 , 4136.41025641 , 4138.46153846 , 4171.28205128 , 4676.41025641 , 4129.23076923 , 4133.84615385 , 2040.0 , 2020.0 , 8.386 , 0.0 , 0.0 , 0.0 , 0.0 , 

96.0 , 4130.76923077 , 4133.33333333 , 4152.30769231 , 4133.33333333 , 4129.74358974 , 4129.74358974 , 4131.28205128 , 4128.71794872 , 4131.28205128 , 4141.53846154 , 4173.33333333 , 4677.43589744 , 4132.82051282 , 4136.92307692 , 2039.0 , 2020.0 , 8.394 , 0.0 , 0.0 , 0.0 , 0.0 , 

97.0 , 4131.28205128 , 4133.33333333 , 4171.79487179 , 4132.30769231 , 4130.25641026 , 4127.17948718 , 4128.20512821 , 4134.87179487 , 4134.35897436 , 4142.56410256 , 4174.35897436 , 4677.94871795 , 4130.76923077 , 4137.94871795 , 2038.0 , 2021.0 , 8.402 , 0.0 , 0.0 , 0.0 , 0.0 , 

98.0 , 4132.82051282 , 4133.84615385 , 4157.43589744 , 4130.76923077 , 4130.25641026 , 4127.69230769 , 4128.20512821 , 4134.35897436 , 4138.97435897 , 4138.97435897 , 4173.33333333 , 4678.46153846 , 4129.74358974 , 4133.84615385 , 2039.0 , 2027.0 , 8.41 , 0.0 , 0.0 , 0.0 , 0.0 , 

99.0 , 4131.79487179 , 4133.84615385 , 4148.20512821 , 4130.76923077 , 4130.76923077 , 4130.25641026 , 4129.23076923 , 4132.30769231 , 4138.97435897 , 4140.51282051 , 4174.87179487 , 4681.02564103 , 4133.33333333 , 4134.35897436 , 2039.0 , 2029.0 , 8.418 , 0.0 , 0.0 , 0.0 , 0.0 , 

100.0 , 4133.33333333 , 4132.82051282 , 4147.69230769 , 4132.30769231 , 4130.76923077 , 4129.23076923 , 4131.28205128 , 4133.33333333 , 4138.46153846 , 4142.05128205 , 4173.33333333 , 4680.0 , 4133.84615385 , 4137.94871795 , 2039.0 , 2031.0 , 8.426 , 0.0 , 0.0 , 0.0 , 0.0 , 

101.0 , 4133.33333333 , 4130.76923077 , 4150.76923077 , 4131.79487179 , 4129.23076923 , 4128.71794872 , 4129.23076923 , 4134.35897436 , 4137.43589744 , 4141.02564103 , 4168.71794872 , 4678.46153846 , 4130.25641026 , 4136.41025641 , 2042.0 , 2034.0 , 8.434 , 0.0 , 0.0 , 0.0 , 0.0 , 

102.0 , 4132.82051282 , 4131.79487179 , 4141.02564103 , 4132.30769231 , 4129.23076923 , 4130.76923077 , 4128.71794872 , 4132.82051282 , 4134.35897436 , 4141.02564103 , 4170.76923077 , 4680.51282051 , 4130.25641026 , 4135.38461538 , 2043.0 , 2033.0 , 8.442 , 0.0 , 0.0 , 0.0 , 0.0 , 

103.0 , 4131.79487179 , 4131.28205128 , 4142.05128205 , 4132.82051282 , 4129.74358974 , 4130.25641026 , 4131.79487179 , 4131.79487179 , 4133.84615385 , 4139.48717949 , 4175.38461538 , 4678.46153846 , 4128.71794872 , 4135.38461538 , 2044.0 , 2034.0 , 8.45 , 0.0 , 0.0 , 0.0 , 0.0 , 

104.0 , 4134.35897436 , 4130.25641026 , 4140.0 , 4132.30769231 , 4129.23076923 , 4130.76923077 , 4134.87179487 , 4132.82051282 , 4135.8974359 , 4139.48717949 , 4173.84615385 , 4677.94871795 , 4128.71794872 , 4134.35897436 , 2044.0 , 2033.0 , 8.457 , 0.0 , 0.0 , 0.0 , 0.0 , 

105.0 , 4132.30769231 , 4128.71794872 , 4147.17948718 , 4130.76923077 , 4128.71794872 , 4131.28205128 , 4132.30769231 , 4132.30769231 , 4134.87179487 , 4141.02564103 , 4171.28205128 , 4676.41025641 , 4127.69230769 , 4133.84615385 , 2045.0 , 2036.0 , 8.465 , 0.0 , 0.0 , 0.0 , 0.0 , 

106.0 , 4130.25641026 , 4130.76923077 , 4155.8974359 , 4133.33333333 , 4131.79487179 , 4130.76923077 , 4130.25641026 , 4133.33333333 , 4137.43589744 , 4143.07692308 , 4176.41025641 , 4681.02564103 , 4131.28205128 , 4136.41025641 , 2044.0 , 2036.0 , 8.473 , 0.0 , 0.0 , 0.0 , 0.0 , 

107.0 , 4128.71794872 , 4131.28205128 , 4155.8974359 , 4134.35897436 , 4131.28205128 , 4129.74358974 , 4129.23076923 , 4133.33333333 , 4137.94871795 , 4139.48717949 , 4175.38461538 , 4685.12820513 , 4133.33333333 , 4136.41025641 , 2044.0 , 2036.0 , 8.484 , 0.0 , 0.0 , 0.0 , 0.0 , 

108.0 , 4129.74358974 , 4129.74358974 , 4142.05128205 , 4132.82051282 , 4129.23076923 , 4129.74358974 , 4129.74358974 , 4135.38461538 , 4134.35897436 , 4141.02564103 , 4171.79487179 , 4683.58974359 , 4132.30769231 , 4135.8974359 , 2045.0 , 2036.0 , 8.489 , 0.0 , 0.0 , 0.0 , 0.0 , 

109.0 , 4129.74358974 , 4128.71794872 , 4143.07692308 , 4133.33333333 , 4130.76923077 , 4128.71794872 , 4130.76923077 , 4135.8974359 , 4133.84615385 , 4145.64102564 , 4172.82051282 , 4679.48717949 , 4130.25641026 , 4133.84615385 , 2047.0 , 2036.0 , 8.496 , 0.0 , 0.0 , 0.0 , 0.0 , 

110.0 , 4132.30769231 , 4131.28205128 , 4150.76923077 , 4135.38461538 , 4131.79487179 , 4128.20512821 , 4130.25641026 , 4135.38461538 , 4136.41025641 , 4145.12820513 , 4172.82051282 , 4681.02564103 , 4135.38461538 , 4134.87179487 , 2048.0 , 2035.0 , 8.504 , 0.0 , 0.0 , 0.0 , 0.0 , 

111.0 , 4131.79487179 , 4132.30769231 , 4153.33333333 , 4133.84615385 , 4131.28205128 , 4128.71794872 , 4129.23076923 , 4134.35897436 , 4135.38461538 , 4140.0 , 4171.79487179 , 4682.56410256 , 4136.92307692 , 4137.94871795 , 2049.0 , 2035.0 , 8.513 , 0.0 , 0.0 , 0.0 , 0.0 , 

112.0 , 4130.25641026 , 4131.28205128 , 4148.20512821 , 4131.28205128 , 4131.28205128 , 4128.71794872 , 4129.23076923 , 4133.33333333 , 4134.35897436 , 4140.51282051 , 4174.87179487 , 4683.07692308 , 4131.79487179 , 4137.94871795 , 2049.0 , 2038.0 , 8.52 , 0.0 , 0.0 , 0.0 , 0.0 , 

113.0 , 4132.30769231 , 4130.25641026 , 4143.07692308 , 4132.30769231 , 4129.74358974 , 4129.23076923 , 4130.25641026 , 4134.35897436 , 4135.38461538 , 4143.07692308 , 4174.87179487 , 4683.07692308 , 4130.25641026 , 4135.8974359 , 2047.0 , 2038.0 , 8.528 , 0.0 , 0.0 , 0.0 , 0.0 , 

114.0 , 4133.84615385 , 4130.76923077 , 4156.41025641 , 4133.84615385 , 4128.71794872 , 4129.74358974 , 4131.28205128 , 4136.41025641 , 4137.43589744 , 4144.61538462 , 4170.25641026 , 4684.1025641 , 4134.87179487 , 4138.46153846 , 2045.0 , 2040.0 , 8.535 , 0.0 , 0.0 , 0.0 , 0.0 , 

115.0 , 4132.30769231 , 4131.28205128 , 4150.76923077 , 4132.82051282 , 4129.23076923 , 4131.28205128 , 4131.79487179 , 4133.84615385 , 4136.92307692 , 4142.05128205 , 4171.28205128 , 4685.64102564 , 4132.82051282 , 4141.02564103 , 2043.0 , 2040.0 , 8.619 , 0.0 , 0.0 , 0.0 , 0.0 , 

116.0 , 4131.79487179 , 4130.76923077 , 4152.30769231 , 4132.82051282 , 4130.25641026 , 4130.76923077 , 4131.28205128 , 4133.33333333 , 4137.43589744 , 4140.51282051 , 4175.8974359 , 4687.69230769 , 4129.74358974 , 4140.0 , 2040.0 , 2041.0 , 8.622 , 0.0 , 0.0 , 0.0 , 0.0 , 

117.0 , 4131.79487179 , 4131.28205128 , 4145.12820513 , 4133.33333333 , 4131.79487179 , 4129.74358974 , 4130.25641026 , 4133.33333333 , 4136.41025641 , 4140.51282051 , 4173.84615385 , 4686.15384615 , 4131.79487179 , 4137.43589744 , 2039.0 , 2041.0 , 8.622 , 0.0 , 0.0 , 0.0 , 0.0 , 

118.0 , 4129.74358974 , 4131.79487179 , 4146.66666667 , 4130.76923077 , 4132.82051282 , 4129.74358974 , 4129.74358974 , 4132.82051282 , 4135.8974359 , 4143.07692308 , 4170.76923077 , 4685.64102564 , 4133.33333333 , 4136.41025641 , 2039.0 , 2040.0 , 8.622 , 0.0 , 0.0 , 0.0 , 0.0 , 

119.0 , 4131.28205128 , 4132.30769231 , 4140.0 , 4132.30769231 , 4129.74358974 , 4130.76923077 , 4130.76923077 , 4133.33333333 , 4135.8974359 , 4142.56410256 , 4172.30769231 , 4686.15384615 , 4130.76923077 , 4136.41025641 , 2036.0 , 2039.0 , 8.622 , 0.0 , 0.0 , 0.0 , 0.0 , 

120.0 , 4129.74358974 , 4131.79487179 , 4151.28205128 , 4134.87179487 , 4128.71794872 , 4130.76923077 , 4130.25641026 , 4135.38461538 , 4138.97435897 , 4142.05128205 , 4170.76923077 , 4685.64102564 , 4130.25641026 , 4137.43589744 , 2037.0 , 2037.0 , 8.622 , 0.0 , 0.0 , 0.0 , 0.0 , 

121.0 , 4128.71794872 , 4131.79487179 , 4144.1025641 , 4132.82051282 , 4131.79487179 , 4130.76923077 , 4129.74358974 , 4134.35897436 , 4139.48717949 , 4143.58974359 , 4169.23076923 , 4686.15384615 , 4131.79487179 , 4138.46153846 , 2039.0 , 2032.0 , 8.622 , 0.0 , 0.0 , 0.0 , 0.0 , 

122.0 , 4129.23076923 , 4129.74358974 , 4163.07692308 , 4130.76923077 , 4131.28205128 , 4130.76923077 , 4129.74358974 , 4133.33333333 , 4138.97435897 , 4146.15384615 , 4171.79487179 , 4685.64102564 , 4133.33333333 , 4137.43589744 , 2037.0 , 2032.0 , 8.622 , 0.0 , 0.0 , 0.0 , 0.0 , 

123.0 , 4131.28205128 , 4130.25641026 , 4159.48717949 , 4133.33333333 , 4129.74358974 , 4132.82051282 , 4129.23076923 , 4133.84615385 , 4138.46153846 , 4144.61538462 , 4171.28205128 , 4685.64102564 , 4131.28205128 , 4137.43589744 , 2037.0 , 2034.0 , 8.622 , 0.0 , 0.0 , 0.0 , 0.0 , 

124.0 , 4131.79487179 , 4131.28205128 , 4153.33333333 , 4131.79487179 , 4131.28205128 , 4133.84615385 , 4129.23076923 , 4135.8974359 , 4137.94871795 , 4143.07692308 , 4170.25641026 , 4688.71794872 , 4130.25641026 , 4137.94871795 , 2036.0 , 2033.0 , 8.622 , 0.0 , 0.0 , 0.0 , 0.0 , 

125.0 , 4133.33333333 , 4130.25641026 , 4162.05128205 , 4132.30769231 , 4132.82051282 , 4132.30769231 , 4130.76923077 , 4134.87179487 , 4136.41025641 , 4143.58974359 , 4174.35897436 , 4690.25641026 , 4133.84615385 , 4136.92307692 , 2036.0 , 2036.0 , 8.625 , 0.0 , 0.0 , 0.0 , 0.0 , 

126.0 , 4132.82051282 , 4129.23076923 , 4151.28205128 , 4134.87179487 , 4131.28205128 , 4131.28205128 , 4130.25641026 , 4129.23076923 , 4134.87179487 , 4141.53846154 , 4173.33333333 , 4686.66666667 , 4132.82051282 , 4133.84615385 , 2033.0 , 2037.0 , 8.631 , 0.0 , 0.0 , 0.0 , 0.0 , 

127.0 , 4132.82051282 , 4129.74358974 , 4127.69230769 , 4133.33333333 , 4130.76923077 , 4130.76923077 , 4129.23076923 , 4128.71794872 , 4136.41025641 , 4140.51282051 , 4170.25641026 , 4685.64102564 , 4129.74358974 , 4134.87179487 , 2032.0 , 2037.0 , 8.639 , 0.0 , 0.0 , 0.0 , 0.0 , 

128.0 , 4132.30769231 , 4128.20512821 , 4117.94871795 , 4132.30769231 , 4132.30769231 , 4130.25641026 , 4128.20512821 , 4130.25641026 , 4134.87179487 , 4137.43589744 , 4170.25641026 , 4685.12820513 , 4129.23076923 , 4135.8974359 , 2029.0 , 2035.0 , 8.647 , 0.0 , 0.0 , 0.0 , 0.0 , 

0.0 , 4132.82051282 , 4129.74358974 , 4131.28205128 , 4135.38461538 , 4133.84615385 , 4131.79487179 , 4131.28205128 , 4132.30769231 , 4134.87179487 , 4140.0 , 4174.35897436 , 4687.69230769 , 4132.30769231 , 4136.92307692 , 2028.0 , 2032.0 , 8.654 , 0.0 , 0.0 , 0.0 , 0.0 , 

1.0 , 4132.30769231 , 4132.30769231 , 4113.84615385 , 4135.38461538 , 4133.84615385 , 4131.79487179 , 4132.82051282 , 4131.28205128 , 4135.8974359 , 4140.51282051 , 4173.33333333 , 4687.69230769 , 4130.76923077 , 4135.38461538 , 2024.0 , 2032.0 , 8.662 , 0.0 , 0.0 , 0.0 , 0.0 , 

2.0 , 4133.33333333 , 4131.79487179 , 4099.48717949 , 4133.33333333 , 4133.84615385 , 4129.23076923 , 4129.23076923 , 4129.74358974 , 4135.8974359 , 4139.48717949 , 4171.28205128 , 4687.17948718 , 4129.74358974 , 4134.35897436 , 2024.0 , 2031.0 , 8.67 , 0.0 , 0.0 , 0.0 , 0.0 , 

3.0 , 4132.30769231 , 4131.28205128 , 4114.87179487 , 4133.33333333 , 4132.82051282 , 4131.28205128 , 4128.71794872 , 4129.74358974 , 4134.87179487 , 4140.51282051 , 4170.25641026 , 4686.15384615 , 4130.76923077 , 4136.41025641 , 2024.0 , 2031.0 , 8.678 , 0.0 , 0.0 , 0.0 , 0.0 , 

4.0 , 4130.76923077 , 4131.28205128 , 4156.41025641 , 4131.79487179 , 4130.25641026 , 4133.84615385 , 4132.30769231 , 4135.38461538 , 4138.97435897 , 4144.61538462 , 4171.28205128 , 4687.69230769 , 4133.84615385 , 4137.94871795 , 2024.0 , 2030.0 , 8.686 , 0.0 , 0.0 , 0.0 , 0.0 , 

5.0 , 4131.79487179 , 4129.74358974 , 4151.28205128 , 4133.33333333 , 4130.25641026 , 4129.23076923 , 4131.79487179 , 4134.87179487 , 4140.0 , 4143.07692308 , 4170.25641026 , 4689.23076923 , 4129.74358974 , 4136.92307692 , 2025.0 , 2028.0 , 8.694 , 0.0 , 0.0 , 0.0 , 0.0 , 

6.0 , 4132.30769231 , 4129.74358974 , 4113.33333333 , 4137.43589744 , 4130.76923077 , 4129.23076923 , 4128.71794872 , 4130.76923077 , 4134.87179487 , 4140.0 , 4168.71794872 , 4690.76923077 , 4127.69230769 , 4137.94871795 , 2028.0 , 2027.0 , 8.702 , 0.0 , 0.0 , 0.0 , 0.0 , 

7.0 , 4131.79487179 , 4131.79487179 , 4108.20512821 , 4136.41025641 , 4130.76923077 , 4137.43589744 , 4131.28205128 , 4130.76923077 , 4133.33333333 , 4142.05128205 , 4170.25641026 , 4689.23076923 , 4131.79487179 , 4138.46153846 , 2027.0 , 2027.0 , 8.71 , 0.0 , 0.0 , 0.0 , 0.0 , 

8.0 , 4131.79487179 , 4130.76923077 , 4142.05128205 , 4130.76923077 , 4130.25641026 , 4134.87179487 , 4131.28205128 , 4134.35897436 , 4137.94871795 , 4141.53846154 , 4170.76923077 , 4686.15384615 , 4131.28205128 , 4137.43589744 , 2030.0 , 2030.0 , 8.717 , 0.0 , 0.0 , 0.0 , 0.0 , 

9.0 , 4134.35897436 , 4130.25641026 , 4142.05128205 , 4131.79487179 , 4131.79487179 , 4127.69230769 , 4130.25641026 , 4135.38461538 , 4140.51282051 , 4139.48717949 , 4170.25641026 , 4687.17948718 , 4128.20512821 , 4137.94871795 , 2029.0 , 2034.0 , 8.725 , 0.0 , 0.0 , 0.0 , 0.0 , 

10.0 , 4132.30769231 , 4130.76923077 , 4123.07692308 , 4136.92307692 , 4131.79487179 , 4129.74358974 , 4130.25641026 , 4131.79487179 , 4138.46153846 , 4141.02564103 , 4169.23076923 , 4686.66666667 , 4129.74358974 , 4135.38461538 , 2029.0 , 2038.0 , 8.733 , 0.0 , 0.0 , 0.0 , 0.0 , 

11.0 , 4131.79487179 , 4130.76923077 , 4106.15384615 , 4135.8974359 , 4132.82051282 , 4133.84615385 , 4129.74358974 , 4128.71794872 , 4136.92307692 , 4141.53846154 , 4169.23076923 , 4685.12820513 , 4133.33333333 , 4133.84615385 , 2029.0 , 2040.0 , 8.741 , 0.0 , 0.0 , 0.0 , 0.0 , 

12.0 , 4130.76923077 , 4129.74358974 , 4131.79487179 , 4131.79487179 , 4132.30769231 , 4130.25641026 , 4129.23076923 , 4130.25641026 , 4136.92307692 , 4140.0 , 4170.25641026 , 4684.61538462 , 4131.79487179 , 4137.94871795 , 2028.0 , 2043.0 , 8.749 , 0.0 , 0.0 , 0.0 , 0.0 , 

13.0 , 4131.79487179 , 4132.82051282 , 4142.05128205 , 4133.84615385 , 4129.74358974 , 4129.74358974 , 4131.79487179 , 4133.33333333 , 4136.92307692 , 4139.48717949 , 4170.76923077 , 4687.17948718 , 4131.28205128 , 4138.97435897 , 2027.0 , 2044.0 , 8.757 , 0.0 , 0.0 , 0.0 , 0.0 , 

14.0 , 4131.79487179 , 4133.84615385 , 4125.64102564 , 4134.87179487 , 4128.71794872 , 4131.79487179 , 4130.76923077 , 4131.79487179 , 4134.35897436 , 4139.48717949 , 4169.23076923 , 4686.66666667 , 4132.30769231 , 4131.79487179 , 2026.0 , 2042.0 , 8.765 , 0.0 , 0.0 , 0.0 , 0.0 , 

15.0 , 4132.30769231 , 4128.20512821 , 4112.82051282 , 4134.35897436 , 4129.74358974 , 4131.28205128 , 4129.23076923 , 4131.28205128 , 4133.33333333 , 4140.51282051 , 4170.25641026 , 4687.17948718 , 4131.79487179 , 4132.82051282 , 2028.0 , 2039.0 , 8.773 , 0.0 , 0.0 , 0.0 , 0.0 , 

16.0 , 4130.76923077 , 4125.64102564 , 4135.38461538 , 4133.84615385 , 4129.74358974 , 4130.25641026 , 4131.28205128 , 4133.33333333 , 4133.84615385 , 4144.61538462 , 4172.82051282 , 4686.66666667 , 4131.28205128 , 4137.94871795 , 2028.0 , 2035.0 , 8.781 , 0.0 , 0.0 , 0.0 , 0.0 , 

17.0 , 4131.28205128 , 4132.30769231 , 4150.76923077 , 4133.84615385 , 4129.74358974 , 4128.71794872 , 4131.79487179 , 4133.84615385 , 4134.87179487 , 4145.64102564 , 4173.33333333 , 4687.69230769 , 4132.30769231 , 4137.43589744 , 2030.0 , 2026.0 , 8.789 , 0.0 , 0.0 , 0.0 , 0.0 , 

18.0 , 4132.82051282 , 4132.82051282 , 4134.87179487 , 4133.33333333 , 4130.76923077 , 4128.71794872 , 4127.69230769 , 4131.79487179 , 4134.35897436 , 4142.05128205 , 4171.28205128 , 4686.66666667 , 4132.30769231 , 4135.8974359 , 2032.0 , 2021.0 , 8.796 , 0.0 , 0.0 , 0.0 , 0.0 , 

19.0 , 4132.82051282 , 4128.20512821 , 4140.0 , 4133.33333333 , 4131.28205128 , 4129.23076923 , 4125.12820513 , 4133.84615385 , 4135.38461538 , 4144.61538462 , 4172.30769231 , 4685.64102564 , 4131.28205128 , 4137.43589744 , 2033.0 , 2017.0 , 8.804 , 0.0 , 0.0 , 0.0 , 0.0 , 

20.0 , 4131.79487179 , 4131.28205128 , 4148.71794872 , 4133.33333333 , 4130.76923077 , 4129.23076923 , 4127.69230769 , 4133.33333333 , 4136.41025641 , 4145.12820513 , 4171.79487179 , 4686.66666667 , 4130.76923077 , 4137.43589744 , 2036.0 , 2012.0 , 8.811 , 0.0 , 0.0 , 0.0 , 0.0 , 

21.0 , 4132.30769231 , 4133.84615385 , 4147.17948718 , 4133.84615385 , 4130.25641026 , 4130.25641026 , 4129.74358974 , 4131.28205128 , 4134.87179487 , 4140.51282051 , 4169.74358974 , 4688.71794872 , 4134.35897436 , 4136.92307692 , 2037.0 , 2012.0 , 8.82 , 0.0 , 0.0 , 0.0 , 0.0 , 

22.0 , 4132.30769231 , 4130.25641026 , 4131.28205128 , 4132.82051282 , 4129.23076923 , 4130.25641026 , 4128.20512821 , 4131.28205128 , 4133.33333333 , 4139.48717949 , 4167.17948718 , 4687.69230769 , 4133.33333333 , 4134.87179487 , 2040.0 , 2017.0 , 8.828 , 0.0 , 0.0 , 0.0 , 0.0 , 

23.0 , 4131.79487179 , 4129.23076923 , 4149.23076923 , 4130.25641026 , 4129.74358974 , 4127.17948718 , 4128.71794872 , 4133.33333333 , 4136.92307692 , 4143.07692308 , 4168.71794872 , 4685.64102564 , 4130.76923077 , 4133.84615385 , 2041.0 , 2021.0 , 8.836 , 0.0 , 0.0 , 0.0 , 0.0 , 

24.0 , 4132.82051282 , 4131.79487179 , 4133.33333333 , 4131.79487179 , 4133.33333333 , 4128.20512821 , 4131.79487179 , 4130.25641026 , 4136.92307692 , 4138.97435897 , 4171.28205128 , 4685.12820513 , 4129.23076923 , 4136.41025641 , 2041.0 , 2023.0 , 8.844 , 0.0 , 0.0 , 0.0 , 0.0 , 

25.0 , 4133.33333333 , 4131.28205128 , 4118.46153846 , 4132.82051282 , 4134.35897436 , 4130.25641026 , 4132.30769231 , 4129.74358974 , 4132.82051282 , 4141.02564103 , 4171.28205128 , 4686.66666667 , 4131.79487179 , 4136.41025641 , 2042.0 , 2024.0 , 8.851 , 0.0 , 0.0 , 0.0 , 0.0 , 

26.0 , 4133.84615385 , 4130.76923077 , 4116.41025641 , 4131.79487179 , 4131.79487179 , 4128.20512821 , 4129.23076923 , 4129.23076923 , 4131.28205128 , 4145.64102564 , 4169.23076923 , 4684.61538462 , 4129.74358974 , 4134.35897436 , 2042.0 , 2023.0 , 8.859 , 0.0 , 0.0 , 0.0 , 0.0 , 

27.0 , 4131.28205128 , 4130.25641026 , 4138.97435897 , 4133.33333333 , 4130.25641026 , 4128.20512821 , 4128.71794872 , 4130.25641026 , 4134.87179487 , 4144.1025641 , 4169.23076923 , 4681.02564103 , 4129.23076923 , 4135.8974359 , 2043.0 , 2018.0 , 8.867 , 0.0 , 0.0 , 0.0 , 0.0 , 

28.0 , 4130.25641026 , 4131.79487179 , 4127.17948718 , 4137.43589744 , 4130.76923077 , 4130.25641026 , 4130.25641026 , 4130.76923077 , 4134.35897436 , 4138.97435897 , 4169.23076923 , 4682.05128205 , 4130.25641026 , 4135.8974359 , 2045.0 , 2017.0 , 8.875 , 0.0 , 0.0 , 0.0 , 0.0 , 

29.0 , 4130.25641026 , 4133.33333333 , 4126.66666667 , 4137.43589744 , 4129.74358974 , 4131.28205128 , 4128.71794872 , 4131.28205128 , 4134.87179487 , 4140.0 , 4170.25641026 , 4685.12820513 , 4132.82051282 , 4136.41025641 , 2048.0 , 2016.0 , 8.883 , 0.0 , 0.0 , 0.0 , 0.0 , 

30.0 , 4131.79487179 , 4132.82051282 , 4134.35897436 , 4135.8974359 , 4128.71794872 , 4133.33333333 , 4127.69230769 , 4130.76923077 , 4137.43589744 , 4141.53846154 , 4172.30769231 , 4686.66666667 , 4134.35897436 , 4137.94871795 , 2049.0 , 2017.0 , 8.892 , 0.0 , 0.0 , 0.0 , 0.0 , 

31.0 , 4130.25641026 , 4129.74358974 , 4134.35897436 , 4134.35897436 , 4129.74358974 , 4131.79487179 , 4128.20512821 , 4129.74358974 , 4133.84615385 , 4141.02564103 , 4171.79487179 , 4687.17948718 , 4133.33333333 , 4133.84615385 , 2048.0 , 2019.0 , 8.899 , 0.0 , 0.0 , 0.0 , 0.0 , 

32.0 , 4130.76923077 , 4131.28205128 , 4125.64102564 , 4134.35897436 , 4131.28205128 , 4129.23076923 , 4130.25641026 , 4131.79487179 , 4131.79487179 , 4144.1025641 , 4171.28205128 , 4689.23076923 , 4132.82051282 , 4135.38461538 , 2049.0 , 2020.0 , 8.907 , 0.0 , 0.0 , 0.0 , 0.0 , 

33.0 , 4131.79487179 , 4132.82051282 , 4105.12820513 , 4135.38461538 , 4130.25641026 , 4130.25641026 , 4128.71794872 , 4130.25641026 , 4132.82051282 , 4141.02564103 , 4169.23076923 , 4683.58974359 , 4130.76923077 , 4136.92307692 , 2049.0 , 2021.0 , 8.915 , 0.0 , 0.0 , 0.0 , 0.0 , 

34.0 , 4135.8974359 , 4131.79487179 , 4093.84615385 , 4136.92307692 , 4129.74358974 , 4132.30769231 , 4130.76923077 , 4131.28205128 , 4134.87179487 , 4140.0 , 4168.71794872 , 4682.05128205 , 4131.28205128 , 4135.38461538 , 2049.0 , 2020.0 , 8.921 , 0.0 , 0.0 , 0.0 , 0.0 , 

35.0 , 4134.35897436 , 4129.74358974 , 4093.33333333 , 4133.84615385 , 4130.25641026 , 4129.23076923 , 4132.30769231 , 4133.84615385 , 4131.79487179 , 4137.94871795 , 4169.74358974 , 4682.56410256 , 4129.23076923 , 4133.84615385 , 2049.0 , 2020.0 , 8.93 , 0.0 , 0.0 , 0.0 , 0.0 , 

36.0 , 4131.79487179 , 4130.25641026 , 4096.92307692 , 4130.25641026 , 4130.25641026 , 4128.20512821 , 4131.79487179 , 4135.8974359 , 4131.79487179 , 4140.0 , 4173.84615385 , 4684.1025641 , 4130.25641026 , 4136.92307692 , 2050.0 , 2022.0 , 8.938 , 0.0 , 0.0 , 0.0 , 0.0 , 

37.0 , 4132.30769231 , 4131.79487179 , 4086.15384615 , 4132.82051282 , 4131.28205128 , 4128.71794872 , 4130.25641026 , 4131.28205128 , 4133.84615385 , 4138.97435897 , 4170.76923077 , 4682.56410256 , 4129.23076923 , 4134.87179487 , 2050.0 , 2023.0 , 8.945 , 0.0 , 0.0 , 0.0 , 0.0 , 

38.0 , 4134.35897436 , 4132.82051282 , 4083.58974359 , 4135.8974359 , 4131.79487179 , 4129.74358974 , 4129.23076923 , 4129.74358974 , 4135.8974359 , 4136.41025641 , 4168.20512821 , 4682.56410256 , 4129.74358974 , 4133.33333333 , 2050.0 , 2030.0 , 8.954 , 0.0 , 0.0 , 0.0 , 0.0 , 

39.0 , 4130.25641026 , 4132.82051282 , 4092.30769231 , 4131.79487179 , 4130.25641026 , 4131.28205128 , 4128.71794872 , 4131.28205128 , 4133.84615385 , 4136.41025641 , 4172.82051282 , 4682.05128205 , 4131.28205128 , 4134.87179487 , 2051.0 , 2033.0 , 8.962 , 0.0 , 0.0 , 0.0 , 0.0 , 

40.0 , 4130.25641026 , 4133.33333333 , 4102.56410256 , 4130.25641026 , 4128.71794872 , 4129.74358974 , 4130.25641026 , 4133.84615385 , 4133.33333333 , 4141.02564103 , 4175.8974359 , 4681.53846154 , 4133.84615385 , 4137.94871795 , 2051.0 , 2033.0 , 8.97 , 0.0 , 0.0 , 0.0 , 0.0 , 

41.0 , 4134.35897436 , 4132.82051282 , 4091.79487179 , 4132.82051282 , 4128.71794872 , 4127.17948718 , 4131.79487179 , 4132.30769231 , 4133.84615385 , 4139.48717949 , 4171.28205128 , 4679.48717949 , 4131.28205128 , 4137.94871795 , 2049.0 , 2031.0 , 8.977 , 0.0 , 0.0 , 0.0 , 0.0 , 

42.0 , 4134.35897436 , 4130.76923077 , 4083.07692308 , 4132.82051282 , 4129.74358974 , 4132.30769231 , 4128.71794872 , 4130.25641026 , 4132.82051282 , 4137.43589744 , 4168.71794872 , 4676.92307692 , 4130.25641026 , 4134.87179487 , 2049.0 , 2030.0 , 8.985 , 0.0 , 0.0 , 0.0 , 0.0 , 

43.0 , 4132.30769231 , 4130.76923077 , 4086.66666667 , 4132.82051282 , 4131.28205128 , 4136.41025641 , 4128.20512821 , 4131.28205128 , 4133.33333333 , 4141.53846154 , 4170.76923077 , 4677.43589744 , 4134.35897436 , 4134.35897436 , 2048.0 , 2025.0 , 8.994 , 0.0 , 0.0 , 0.0 , 0.0 , 

44.0 , 4130.76923077 , 4131.79487179 , 4080.0 , 4132.30769231 , 4132.30769231 , 4132.82051282 , 4132.30769231 , 4130.76923077 , 4132.30769231 , 4140.51282051 , 4171.28205128 , 4678.46153846 , 4131.79487179 , 4135.8974359 , 2050.0 , 2025.0 , 9.001 , 0.0 , 0.0 , 0.0 , 0.0 , 

45.0 , 4134.35897436 , 4132.30769231 , 4069.23076923 , 4130.76923077 , 4132.30769231 , 4132.82051282 , 4132.82051282 , 4131.79487179 , 4130.76923077 , 4136.92307692 , 4170.76923077 , 4677.94871795 , 4128.20512821 , 4137.43589744 , 2048.0 , 2026.0 , 9.009 , 0.0 , 0.0 , 0.0 , 0.0 , 

46.0 , 4134.87179487 , 4131.79487179 , 4098.97435897 , 4131.28205128 , 4130.76923077 , 4132.82051282 , 4128.20512821 , 4134.87179487 , 4133.84615385 , 4139.48717949 , 4171.28205128 , 4676.41025641 , 4130.76923077 , 4137.94871795 , 2048.0 , 2027.0 , 9.017 , 0.0 , 0.0 , 0.0 , 0.0 , 

47.0 , 4132.82051282 , 4132.30769231 , 4104.1025641 , 4134.35897436 , 4131.28205128 , 4129.74358974 , 4128.20512821 , 4135.8974359 , 4136.41025641 , 4142.05128205 , 4174.35897436 , 4676.41025641 , 4132.82051282 , 4138.46153846 , 2045.0 , 2031.0 , 9.025 , 0.0 , 0.0 , 0.0 , 0.0 , 

48.0 , 4130.25641026 , 4132.30769231 , 4102.05128205 , 4133.84615385 , 4132.82051282 , 4128.71794872 , 4129.23076923 , 4134.87179487 , 4137.43589744 , 4142.56410256 , 4175.8974359 , 4675.8974359 , 4132.82051282 , 4137.43589744 , 2043.0 , 2032.0 , 9.033 , 0.0 , 0.0 , 0.0 , 0.0 , 

49.0 , 4132.82051282 , 4130.76923077 , 4096.92307692 , 4133.33333333 , 4133.33333333 , 4128.20512821 , 4129.74358974 , 4135.8974359 , 4136.92307692 , 4142.56410256 , 4172.82051282 , 4674.87179487 , 4131.28205128 , 4135.8974359 , 2043.0 , 2033.0 , 9.041 , 0.0 , 0.0 , 0.0 , 0.0 , 

50.0 , 4132.30769231 , 4129.74358974 , 4100.51282051 , 4133.84615385 , 4131.28205128 , 4127.69230769 , 4130.25641026 , 4135.38461538 , 4134.35897436 , 4140.51282051 , 4169.74358974 , 4673.84615385 , 4128.20512821 , 4135.8974359 , 2041.0 , 2034.0 , 9.048 , 0.0 , 0.0 , 0.0 , 0.0 , 

51.0 , 4132.30769231 , 4130.76923077 , 4099.48717949 , 4135.38461538 , 4129.74358974 , 4126.66666667 , 4130.25641026 , 4133.84615385 , 4135.38461538 , 4141.02564103 , 4169.74358974 , 4675.38461538 , 4129.23076923 , 4137.94871795 , 2040.0 , 2034.0 , 9.055 , 0.0 , 0.0 , 0.0 , 0.0 , 

52.0 , 4132.82051282 , 4130.76923077 , 4089.74358974 , 4136.41025641 , 4130.76923077 , 4127.17948718 , 4127.69230769 , 4132.30769231 , 4137.94871795 , 4139.48717949 , 4167.69230769 , 4672.30769231 , 4133.33333333 , 4134.87179487 , 2039.0 , 2035.0 , 9.064 , 0.0 , 0.0 , 0.0 , 0.0 , 

53.0 , 4133.84615385 , 4131.79487179 , 4085.12820513 , 4135.8974359 , 4132.82051282 , 4134.87179487 , 4128.20512821 , 4132.30769231 , 4137.94871795 , 4139.48717949 , 4168.71794872 , 4673.84615385 , 4133.33333333 , 4134.87179487 , 2039.0 , 2036.0 , 9.072 , 0.0 , 0.0 , 0.0 , 0.0 , 

54.0 , 4132.30769231 , 4131.28205128 , 4074.35897436 , 4134.35897436 , 4131.28205128 , 4137.43589744 , 4130.76923077 , 4132.30769231 , 4134.35897436 , 4137.94871795 , 4167.69230769 , 4672.30769231 , 4125.64102564 , 4135.8974359 , 2040.0 , 2034.0 , 9.08 , 0.0 , 0.0 , 0.0 , 0.0 , 

55.0 , 4131.79487179 , 4129.74358974 , 4071.28205128 , 4133.33333333 , 4130.25641026 , 4129.23076923 , 4129.74358974 , 4134.87179487 , 4135.38461538 , 4140.0 , 4167.69230769 , 4667.17948718 , 4125.64102564 , 4134.87179487 , 2041.0 , 2033.0 , 9.088 , 0.0 , 0.0 , 0.0 , 0.0 , 

56.0 , 4132.82051282 , 4129.23076923 , 4069.74358974 , 4131.79487179 , 4131.79487179 , 4125.12820513 , 4128.20512821 , 4133.84615385 , 4136.92307692 , 4141.02564103 , 4173.33333333 , 4665.12820513 , 4130.25641026 , 4133.33333333 , 2042.0 , 2030.0 , 9.097 , 0.0 , 0.0 , 0.0 , 0.0 , 

57.0 , 4133.33333333 , 4131.79487179 , 4070.25641026 , 4131.28205128 , 4131.79487179 , 4130.25641026 , 4129.74358974 , 4134.35897436 , 4136.92307692 , 4141.53846154 , 4173.84615385 , 4667.69230769 , 4130.25641026 , 4136.41025641 , 2042.0 , 2030.0 , 9.105 , 0.0 , 0.0 , 0.0 , 0.0 , 

58.0 , 4133.84615385 , 4132.82051282 , 4068.20512821 , 4131.28205128 , 4129.74358974 , 4130.76923077 , 4129.74358974 , 4136.41025641 , 4135.8974359 , 4141.02564103 , 4168.71794872 , 4665.12820513 , 4126.15384615 , 4137.43589744 , 2042.0 , 2029.0 , 9.112 , 0.0 , 0.0 , 0.0 , 0.0 , 

59.0 , 4132.82051282 , 4130.76923077 , 4105.64102564 , 4131.79487179 , 4129.74358974 , 4127.69230769 , 4128.71794872 , 4136.41025641 , 4139.48717949 , 4146.15384615 , 4170.25641026 , 4663.58974359 , 4131.79487179 , 4136.41025641 , 2042.0 , 2032.0 , 9.119 , 0.0 , 0.0 , 0.0 , 0.0 , 

60.0 , 4132.82051282 , 4130.76923077 , 4125.12820513 , 4132.30769231 , 4130.25641026 , 4130.76923077 , 4129.23076923 , 4134.35897436 , 4141.53846154 , 4148.20512821 , 4172.30769231 , 4665.64102564 , 4137.43589744 , 4137.43589744 , 2040.0 , 2032.0 , 9.127 , 0.0 , 0.0 , 0.0 , 0.0 , 

61.0 , 4133.33333333 , 4131.28205128 , 4135.38461538 , 4131.28205128 , 4127.69230769 , 4131.79487179 , 4128.71794872 , 4138.46153846 , 4141.02564103 , 4147.17948718 , 4173.84615385 , 4667.69230769 , 4135.8974359 , 4138.97435897 , 2040.0 , 2030.0 , 9.135 , 0.0 , 0.0 , 0.0 , 0.0 , 

62.0 , 4132.82051282 , 4130.76923077 , 4126.66666667 , 4129.74358974 , 4126.66666667 , 4127.17948718 , 4128.71794872 , 4137.43589744 , 4140.0 , 4145.12820513 , 4173.33333333 , 4668.20512821 , 4132.82051282 , 4137.43589744 , 2041.0 , 2029.0 , 9.143 , 0.0 , 0.0 , 0.0 , 0.0 , 

63.0 , 4129.74358974 , 4130.76923077 , 4130.76923077 , 4131.28205128 , 4130.25641026 , 4127.69230769 , 4132.30769231 , 4135.8974359 , 4141.02564103 , 4145.12820513 , 4171.28205128 , 4669.74358974 , 4133.84615385 , 4138.46153846 , 2041.0 , 2030.0 , 9.151 , 0.0 , 0.0 , 0.0 , 0.0 , 

64.0 , 4130.76923077 , 4131.28205128 , 4107.17948718 , 4133.33333333 , 4133.84615385 , 4134.35897436 , 4133.84615385 , 4135.8974359 , 4138.46153846 , 4141.02564103 , 4169.74358974 , 4665.64102564 , 4129.23076923 , 4138.97435897 , 2042.0 , 2028.0 , 9.159 , 0.0 , 0.0 , 0.0 , 0.0 , 

65.0 , 4132.30769231 , 4130.76923077 , 4101.53846154 , 4131.28205128 , 4133.33333333 , 4135.38461538 , 4130.76923077 , 4136.41025641 , 4136.92307692 , 4141.02564103 , 4173.33333333 , 4662.56410256 , 4126.15384615 , 4137.43589744 , 2042.0 , 2029.0 , 9.167 , 0.0 , 0.0 , 0.0 , 0.0 , 

66.0 , 4131.79487179 , 4131.79487179 , 4085.12820513 , 4130.25641026 , 4131.28205128 , 4130.25641026 , 4130.25641026 , 4133.33333333 , 4134.87179487 , 4140.0 , 4172.30769231 , 4663.58974359 , 4128.20512821 , 4136.41025641 , 2045.0 , 2031.0 , 9.175 , 0.0 , 0.0 , 0.0 , 0.0 , 

67.0 , 4129.23076923 , 4130.76923077 , 4090.76923077 , 4130.25641026 , 4131.79487179 , 4133.84615385 , 4131.28205128 , 4132.30769231 , 4135.38461538 , 4137.94871795 , 4169.23076923 , 4661.53846154 , 4131.28205128 , 4136.92307692 , 2047.0 , 2030.0 , 9.182 , 0.0 , 0.0 , 0.0 , 0.0 , 

68.0 , 4131.79487179 , 4131.28205128 , 4104.1025641 , 4130.25641026 , 4132.82051282 , 4137.94871795 , 4131.79487179 , 4134.35897436 , 4136.92307692 , 4140.51282051 , 4170.76923077 , 4656.92307692 , 4127.69230769 , 4137.43589744 , 2048.0 , 2032.0 , 9.189 , 0.0 , 0.0 , 0.0 , 0.0 , 

69.0 , 4133.33333333 , 4132.30769231 , 4103.07692308 , 4131.28205128 , 4131.79487179 , 4134.87179487 , 4131.79487179 , 4136.92307692 , 4137.43589744 , 4144.1025641 , 4171.28205128 , 4657.94871795 , 4125.12820513 , 4137.43589744 , 2049.0 , 2032.0 , 9.199 , 0.0 , 0.0 , 0.0 , 0.0 , 

70.0 , 4132.30769231 , 4133.33333333 , 4098.46153846 , 4133.33333333 , 4131.79487179 , 4136.41025641 , 4130.76923077 , 4137.94871795 , 4135.38461538 , 4141.53846154 , 4173.84615385 , 4662.56410256 , 4129.23076923 , 4137.43589744 , 2050.0 , 2032.0 , 9.206 , 0.0 , 0.0 , 0.0 , 0.0 , 

71.0 , 4131.79487179 , 4132.30769231 , 4100.51282051 , 4132.30769231 , 4129.74358974 , 4135.8974359 , 4130.25641026 , 4133.33333333 , 4131.79487179 , 4135.8974359 , 4176.41025641 , 4659.48717949 , 4131.79487179 , 4136.92307692 , 2052.0 , 2032.0 , 9.214 , 0.0 , 0.0 , 0.0 , 0.0 , 

72.0 , 4133.84615385 , 4131.28205128 , 4114.35897436 , 4131.28205128 , 4128.71794872 , 4134.35897436 , 4130.25641026 , 4132.82051282 , 4134.87179487 , 4141.02564103 , 4174.35897436 , 4658.97435897 , 4133.33333333 , 4139.48717949 , 2053.0 , 2032.0 , 9.222 , 0.0 , 0.0 , 0.0 , 0.0 , 

73.0 , 4132.82051282 , 4130.25641026 , 4112.30769231 , 4131.28205128 , 4131.79487179 , 4132.82051282 , 4127.69230769 , 4134.35897436 , 4137.94871795 , 4145.12820513 , 4169.74358974 , 4660.0 , 4131.28205128 , 4137.94871795 , 2052.0 , 2030.0 , 9.23 , 0.0 , 0.0 , 0.0 , 0.0 , 

74.0 , 4132.82051282 , 4130.76923077 , 4108.20512821 , 4133.84615385 , 4132.82051282 , 4128.71794872 , 4128.20512821 , 4137.94871795 , 4136.41025641 , 4143.07692308 , 4171.28205128 , 4660.51282051 , 4130.25641026 , 4136.41025641 , 2051.0 , 2029.0 , 9.238 , 0.0 , 0.0 , 0.0 , 0.0 , 

75.0 , 4134.35897436 , 4129.23076923 , 4108.20512821 , 4132.82051282 , 4129.74358974 , 4125.12820513 , 4130.25641026 , 4137.43589744 , 4132.82051282 , 4140.51282051 , 4172.82051282 , 4658.97435897 , 4130.25641026 , 4136.41025641 , 2052.0 , 2026.0 , 9.246 , 0.0 , 0.0 , 0.0 , 0.0 , 

76.0 , 4133.84615385 , 4128.20512821 , 4116.41025641 , 4129.74358974 , 4131.28205128 , 4131.28205128 , 4130.25641026 , 4135.38461538 , 4132.82051282 , 4142.05128205 , 4170.76923077 , 4658.97435897 , 4131.28205128 , 4135.38461538 , 2054.0 , 2025.0 , 9.253 , 0.0 , 0.0 , 0.0 , 0.0 , 

77.0 , 4133.33333333 , 4130.25641026 , 4115.8974359 , 4129.74358974 , 4134.35897436 , 4138.46153846 , 4131.28205128 , 4133.33333333 , 4135.8974359 , 4143.58974359 , 4171.28205128 , 4657.43589744 , 4131.28205128 , 4136.92307692 , 2053.0 , 2025.0 , 9.261 , 0.0 , 0.0 , 0.0 , 0.0 , 

78.0 , 4133.84615385 , 4131.28205128 , 4138.46153846 , 4131.79487179 , 4130.76923077 , 4130.76923077 , 4131.79487179 , 4135.8974359 , 4141.53846154 , 4144.1025641 , 4171.79487179 , 4657.94871795 , 4133.84615385 , 4140.51282051 , 2054.0 , 2025.0 , 9.269 , 0.0 , 0.0 , 0.0 , 0.0 , 

79.0 , 4132.30769231 , 4131.28205128 , 4140.0 , 4133.33333333 , 4127.69230769 , 4128.20512821 , 4129.23076923 , 4136.41025641 , 4142.56410256 , 4143.58974359 , 4169.74358974 , 4658.97435897 , 4133.84615385 , 4139.48717949 , 2052.0 , 2028.0 , 9.277 , 0.0 , 0.0 , 0.0 , 0.0 , 

80.0 , 4129.74358974 , 4131.28205128 , 4167.69230769 , 4132.82051282 , 4130.76923077 , 4127.69230769 , 4128.71794872 , 4137.94871795 , 4140.51282051 , 4145.12820513 , 4171.79487179 , 4660.0 , 4135.8974359 , 4138.46153846 , 2053.0 , 2032.0 , 9.287 , 0.0 , 0.0 , 0.0 , 0.0 , 

81.0 , 4130.76923077 , 4130.25641026 , 4149.74358974 , 4132.30769231 , 4131.79487179 , 4126.66666667 , 4131.79487179 , 4135.38461538 , 4135.38461538 , 4142.56410256 , 4171.79487179 , 4658.97435897 , 4135.8974359 , 4137.94871795 , 2052.0 , 2034.0 , 9.293 , 0.0 , 0.0 , 0.0 , 0.0 , 

82.0 , 4130.76923077 , 4129.23076923 , 4142.56410256 , 4131.79487179 , 4130.76923077 , 4130.25641026 , 4131.28205128 , 4134.87179487 , 4137.43589744 , 4143.58974359 , 4172.30769231 , 4657.94871795 , 4135.8974359 , 4138.46153846 , 2049.0 , 2038.0 , 9.301 , 0.0 , 0.0 , 0.0 , 0.0 , 

83.0 , 4131.28205128 , 4129.74358974 , 4130.76923077 , 4132.30769231 , 4130.76923077 , 4129.74358974 , 4129.23076923 , 4134.35897436 , 4136.92307692 , 4141.53846154 , 4172.30769231 , 4654.35897436 , 4129.23076923 , 4137.94871795 , 2048.0 , 2037.0 , 9.309 , 0.0 , 0.0 , 0.0 , 0.0 , 

84.0 , 4133.33333333 , 4130.25641026 , 4151.28205128 , 4130.25641026 , 4130.25641026 , 4129.23076923 , 4130.25641026 , 4137.43589744 , 4136.92307692 , 4143.07692308 , 4171.28205128 , 4656.92307692 , 4128.71794872 , 4135.8974359 , 2047.0 , 2036.0 , 9.316 , 0.0 , 0.0 , 0.0 , 0.0 , 

85.0 , 4134.87179487 , 4132.30769231 , 4143.07692308 , 4131.79487179 , 4128.71794872 , 4132.30769231 , 4131.28205128 , 4135.8974359 , 4138.46153846 , 4141.53846154 , 4169.74358974 , 4660.51282051 , 4130.25641026 , 4137.43589744 , 2047.0 , 2037.0 , 9.324 , 0.0 , 0.0 , 0.0 , 0.0 , 

86.0 , 4132.30769231 , 4130.76923077 , 4136.92307692 , 4136.41025641 , 4128.20512821 , 4131.28205128 , 4130.76923077 , 4132.82051282 , 4138.97435897 , 4142.05128205 , 4171.28205128 , 4657.43589744 , 4129.74358974 , 4139.48717949 , 2045.0 , 2035.0 , 9.331 , 0.0 , 0.0 , 0.0 , 0.0 , 

87.0 , 4131.79487179 , 4130.76923077 , 4130.76923077 , 4136.41025641 , 4130.76923077 , 4128.20512821 , 4129.23076923 , 4132.82051282 , 4133.84615385 , 4144.1025641 , 4170.76923077 , 4654.87179487 , 4129.23076923 , 4136.92307692 , 2046.0 , 2033.0 , 9.34 , 0.0 , 0.0 , 0.0 , 0.0 , 

88.0 , 4130.76923077 , 4131.79487179 , 4140.0 , 4134.35897436 , 4132.82051282 , 4129.74358974 , 4129.23076923 , 4134.87179487 , 4133.33333333 , 4144.61538462 , 4171.79487179 , 4658.97435897 , 4131.28205128 , 4134.35897436 , 2047.0 , 2032.0 , 9.347 , 0.0 , 0.0 , 0.0 , 0.0 , 

89.0 , 4131.79487179 , 4132.30769231 , 4151.79487179 , 4135.38461538 , 4131.79487179 , 4128.20512821 , 4131.28205128 , 4135.38461538 , 4137.94871795 , 4145.12820513 , 4175.38461538 , 4662.05128205 , 4130.76923077 , 4138.46153846 , 2050.0 , 2026.0 , 9.356 , 0.0 , 0.0 , 0.0 , 0.0 , 

90.0 , 4131.28205128 , 4129.74358974 , 4149.23076923 , 4134.87179487 , 4129.74358974 , 4127.17948718 , 4132.82051282 , 4135.38461538 , 4138.46153846 , 4143.58974359 , 4171.79487179 , 4656.41025641 , 4129.74358974 , 4136.92307692 , 2051.0 , 2025.0 , 9.364 , 0.0 , 0.0 , 0.0 , 0.0 , 

91.0 , 4130.76923077 , 4129.23076923 , 4159.48717949 , 4132.30769231 , 4128.71794872 , 4130.25641026 , 4130.76923077 , 4136.92307692 , 4136.92307692 , 4143.07692308 , 4169.74358974 , 4656.92307692 , 4132.82051282 , 4134.87179487 , 2056.0 , 2025.0 , 9.378 , 0.0 , 0.0 , 0.0 , 0.0 , 

