['COUNTER', 'AF3', 'F7', 'F3', 'FC5', 'T7', 'P7', 'O1', 'O2', 'P8', 'T8', 'FC6', 'F4', 'F8', 'AF4', 'GYROX', 'GYROY', 'TIMESTAMP', 'FUNC_ID', 'FUNC_VALUE', 'MARKER', 'SYNC_SIGNAL']
16.0 , 4136.92307692 , 4137.43589744 , 4153.84615385 , 4134.35897436 , 4135.8974359 , 4133.84615385 , 4137.43589744 , 4135.38461538 , 4141.02564103 , 4143.58974359 , 4173.84615385 , 4667.69230769 , 4133.33333333 , 4137.43589744 , 2025.0 , 2040.0 , 6.039 , 0.0 , 0.0 , 0.0 , 0.0 , 

17.0 , 4134.35897436 , 4135.8974359 , 4147.17948718 , 4135.38461538 , 4135.8974359 , 4134.35897436 , 4137.43589744 , 4133.84615385 , 4137.43589744 , 4144.61538462 , 4175.38461538 , 4668.20512821 , 4132.82051282 , 4133.33333333 , 2026.0 , 2040.0 , 6.047 , 0.0 , 0.0 , 0.0 , 0.0 , 

18.0 , 4131.28205128 , 4134.35897436 , 4144.1025641 , 4136.41025641 , 4135.8974359 , 4134.35897436 , 4137.43589744 , 4135.38461538 , 4135.38461538 , 4143.58974359 , 4175.38461538 , 4666.66666667 , 4128.71794872 , 4132.82051282 , 2027.0 , 2040.0 , 6.055 , 0.0 , 0.0 , 0.0 , 0.0 , 

19.0 , 4134.87179487 , 4133.84615385 , 4141.53846154 , 4135.38461538 , 4135.8974359 , 4133.84615385 , 4137.43589744 , 4137.43589744 , 4136.92307692 , 4144.61538462 , 4175.38461538 , 4666.66666667 , 4127.17948718 , 4136.41025641 , 2026.0 , 2039.0 , 6.063 , 0.0 , 0.0 , 0.0 , 0.0 , 

20.0 , 4138.46153846 , 4137.43589744 , 4138.46153846 , 4134.87179487 , 4135.8974359 , 4134.35897436 , 4137.43589744 , 4133.84615385 , 4136.92307692 , 4144.1025641 , 4174.87179487 , 4668.71794872 , 4131.79487179 , 4135.38461538 , 2029.0 , 2039.0 , 6.071 , 0.0 , 0.0 , 0.0 , 0.0 , 

21.0 , 4135.38461538 , 4135.8974359 , 4150.76923077 , 4135.8974359 , 4135.8974359 , 4133.84615385 , 4137.43589744 , 4133.33333333 , 4134.35897436 , 4144.61538462 , 4175.38461538 , 4670.76923077 , 4133.33333333 , 4133.33333333 , 2030.0 , 2037.0 , 6.079 , 0.0 , 0.0 , 0.0 , 0.0 , 

22.0 , 4132.82051282 , 4132.30769231 , 4161.02564103 , 4136.41025641 , 4135.8974359 , 4133.84615385 , 4137.43589744 , 4135.38461538 , 4132.30769231 , 4143.07692308 , 4174.87179487 , 4669.74358974 , 4129.74358974 , 4134.87179487 , 2030.0 , 2036.0 , 6.087 , 0.0 , 0.0 , 0.0 , 0.0 , 

23.0 , 4134.35897436 , 4131.79487179 , 4157.94871795 , 4135.38461538 , 4135.8974359 , 4133.84615385 , 4137.94871795 , 4134.35897436 , 4135.38461538 , 4143.58974359 , 4173.84615385 , 4667.69230769 , 4129.23076923 , 4136.41025641 , 2030.0 , 2035.0 , 6.095 , 0.0 , 0.0 , 0.0 , 0.0 , 

24.0 , 4134.87179487 , 4130.25641026 , 4155.38461538 , 4135.8974359 , 4135.8974359 , 4134.35897436 , 4135.8974359 , 4135.8974359 , 4137.43589744 , 4145.12820513 , 4175.38461538 , 4666.66666667 , 4132.30769231 , 4134.87179487 , 2031.0 , 2034.0 , 6.102 , 0.0 , 0.0 , 0.0 , 0.0 , 

25.0 , 4132.30769231 , 4130.25641026 , 4165.12820513 , 4135.8974359 , 4135.8974359 , 4133.84615385 , 4133.84615385 , 4137.94871795 , 4136.41025641 , 4144.61538462 , 4177.43589744 , 4668.71794872 , 4132.82051282 , 4136.92307692 , 2031.0 , 2034.0 , 6.11 , 0.0 , 0.0 , 0.0 , 0.0 , 

26.0 , 4131.28205128 , 4130.25641026 , 4178.46153846 , 4135.38461538 , 4135.8974359 , 4134.35897436 , 4134.35897436 , 4137.94871795 , 4135.8974359 , 4143.58974359 , 4175.8974359 , 4670.25641026 , 4130.76923077 , 4138.46153846 , 2032.0 , 2033.0 , 6.118 , 0.0 , 0.0 , 0.0 , 0.0 , 

27.0 , 4132.82051282 , 4129.74358974 , 4178.97435897 , 4136.92307692 , 4135.8974359 , 4135.38461538 , 4133.84615385 , 4139.48717949 , 4136.92307692 , 4145.12820513 , 4174.87179487 , 4669.23076923 , 4131.28205128 , 4135.8974359 , 2031.0 , 2034.0 , 6.126 , 0.0 , 0.0 , 0.0 , 0.0 , 

28.0 , 4135.38461538 , 4133.84615385 , 4175.38461538 , 4136.92307692 , 4135.8974359 , 4133.33333333 , 4132.82051282 , 4138.97435897 , 4137.94871795 , 4145.12820513 , 4176.41025641 , 4667.69230769 , 4132.82051282 , 4135.38461538 , 2032.0 , 2032.0 , 6.134 , 0.0 , 0.0 , 0.0 , 0.0 , 

29.0 , 4135.8974359 , 4137.43589744 , 4172.30769231 , 4134.35897436 , 4135.8974359 , 4132.30769231 , 4133.84615385 , 4134.87179487 , 4134.35897436 , 4145.12820513 , 4175.8974359 , 4668.71794872 , 4130.25641026 , 4137.94871795 , 2030.0 , 2033.0 , 6.142 , 0.0 , 0.0 , 0.0 , 0.0 , 

30.0 , 4134.87179487 , 4134.35897436 , 4178.46153846 , 4134.35897436 , 4135.8974359 , 4134.87179487 , 4134.87179487 , 4135.8974359 , 4133.33333333 , 4146.66666667 , 4174.35897436 , 4671.79487179 , 4130.76923077 , 4137.43589744 , 2029.0 , 2033.0 , 6.151 , 0.0 , 0.0 , 0.0 , 0.0 , 

31.0 , 4134.87179487 , 4132.30769231 , 4181.02564103 , 4134.87179487 , 4135.8974359 , 4135.38461538 , 4133.84615385 , 4137.43589744 , 4140.0 , 4145.64102564 , 4174.35897436 , 4672.30769231 , 4135.38461538 , 4133.33333333 , 2028.0 , 2034.0 , 6.158 , 0.0 , 0.0 , 0.0 , 0.0 , 

32.0 , 4136.92307692 , 4134.35897436 , 4187.17948718 , 4133.33333333 , 4135.8974359 , 4134.35897436 , 4133.84615385 , 4136.92307692 , 4143.58974359 , 4146.15384615 , 4174.87179487 , 4672.82051282 , 4135.38461538 , 4133.33333333 , 2029.0 , 2035.0 , 6.166 , 0.0 , 0.0 , 0.0 , 0.0 , 

33.0 , 4136.41025641 , 4132.82051282 , 4191.28205128 , 4134.35897436 , 4135.8974359 , 4134.87179487 , 4134.35897436 , 4135.8974359 , 4135.38461538 , 4147.69230769 , 4174.87179487 , 4673.84615385 , 4130.25641026 , 4134.35897436 , 2028.0 , 2037.0 , 6.174 , 0.0 , 0.0 , 0.0 , 0.0 , 

34.0 , 4135.38461538 , 4133.84615385 , 4197.94871795 , 4136.92307692 , 4135.8974359 , 4135.8974359 , 4134.35897436 , 4135.38461538 , 4132.30769231 , 4147.17948718 , 4175.38461538 , 4678.46153846 , 4131.79487179 , 4133.84615385 , 2027.0 , 2037.0 , 6.181 , 0.0 , 0.0 , 0.0 , 0.0 , 

35.0 , 4134.35897436 , 4135.8974359 , 4198.46153846 , 4136.92307692 , 4135.8974359 , 4135.8974359 , 4133.84615385 , 4134.87179487 , 4138.97435897 , 4144.1025641 , 4174.87179487 , 4677.94871795 , 4135.38461538 , 4135.38461538 , 2028.0 , 2036.0 , 6.189 , 0.0 , 0.0 , 0.0 , 0.0 , 

36.0 , 4135.38461538 , 4130.76923077 , 4195.38461538 , 4136.41025641 , 4135.8974359 , 4133.33333333 , 4134.87179487 , 4136.41025641 , 4139.48717949 , 4144.1025641 , 4174.35897436 , 4675.8974359 , 4132.30769231 , 4137.43589744 , 2029.0 , 2031.0 , 6.197 , 0.0 , 0.0 , 0.0 , 0.0 , 

37.0 , 4135.8974359 , 4128.71794872 , 4187.69230769 , 4135.8974359 , 4135.8974359 , 4131.79487179 , 4135.8974359 , 4136.92307692 , 4135.38461538 , 4143.58974359 , 4174.87179487 , 4677.94871795 , 4128.71794872 , 4136.92307692 , 2030.0 , 2033.0 , 6.205 , 0.0 , 0.0 , 0.0 , 0.0 , 

38.0 , 4133.84615385 , 4132.30769231 , 4197.43589744 , 4135.8974359 , 4135.8974359 , 4134.35897436 , 4134.35897436 , 4137.94871795 , 4137.94871795 , 4144.1025641 , 4175.38461538 , 4683.07692308 , 4131.28205128 , 4133.84615385 , 2031.0 , 2035.0 , 6.213 , 0.0 , 0.0 , 0.0 , 0.0 , 

39.0 , 4134.35897436 , 4134.87179487 , 4197.94871795 , 4135.8974359 , 4135.8974359 , 4135.38461538 , 4134.35897436 , 4134.87179487 , 4136.92307692 , 4144.1025641 , 4172.82051282 , 4683.07692308 , 4130.25641026 , 4132.82051282 , 2032.0 , 2037.0 , 6.221 , 0.0 , 0.0 , 0.0 , 0.0 , 

40.0 , 4136.41025641 , 4132.82051282 , 4193.84615385 , 4135.8974359 , 4135.8974359 , 4133.84615385 , 4135.38461538 , 4133.33333333 , 4134.35897436 , 4145.12820513 , 4174.35897436 , 4682.56410256 , 4130.76923077 , 4138.46153846 , 2033.0 , 2039.0 , 6.228 , 0.0 , 0.0 , 0.0 , 0.0 , 

41.0 , 4133.84615385 , 4131.79487179 , 4189.23076923 , 4136.41025641 , 4135.8974359 , 4133.84615385 , 4134.87179487 , 4135.38461538 , 4136.92307692 , 4145.12820513 , 4175.8974359 , 4682.56410256 , 4131.79487179 , 4139.48717949 , 2032.0 , 2037.0 , 6.236 , 0.0 , 0.0 , 0.0 , 0.0 , 

42.0 , 4133.33333333 , 4132.82051282 , 4180.51282051 , 4135.38461538 , 4135.8974359 , 4134.35897436 , 4133.84615385 , 4134.35897436 , 4138.97435897 , 4144.1025641 , 4174.35897436 , 4682.56410256 , 4129.74358974 , 4133.84615385 , 2030.0 , 2037.0 , 6.244 , 0.0 , 0.0 , 0.0 , 0.0 , 

43.0 , 4135.8974359 , 4128.71794872 , 4169.74358974 , 4135.8974359 , 4135.8974359 , 4132.82051282 , 4134.35897436 , 4130.76923077 , 4135.38461538 , 4142.05128205 , 4173.84615385 , 4681.53846154 , 4128.71794872 , 4132.82051282 , 2030.0 , 2040.0 , 6.253 , 0.0 , 0.0 , 0.0 , 0.0 , 

44.0 , 4136.41025641 , 4128.71794872 , 4172.30769231 , 4136.41025641 , 4135.8974359 , 4132.82051282 , 4136.41025641 , 4133.33333333 , 4136.41025641 , 4140.51282051 , 4176.41025641 , 4682.05128205 , 4130.25641026 , 4138.46153846 , 2030.0 , 2039.0 , 6.26 , 0.0 , 0.0 , 0.0 , 0.0 , 

45.0 , 4135.8974359 , 4135.8974359 , 4181.02564103 , 4134.35897436 , 4135.8974359 , 4133.33333333 , 4133.84615385 , 4135.8974359 , 4138.97435897 , 4140.51282051 , 4175.38461538 , 4682.56410256 , 4128.20512821 , 4136.92307692 , 2029.0 , 2040.0 , 6.268 , 0.0 , 0.0 , 0.0 , 0.0 , 

46.0 , 4134.87179487 , 4137.94871795 , 4172.30769231 , 4132.82051282 , 4135.8974359 , 4132.82051282 , 4127.69230769 , 4134.87179487 , 4136.41025641 , 4141.02564103 , 4172.30769231 , 4683.58974359 , 4127.17948718 , 4132.82051282 , 2031.0 , 2038.0 , 6.275 , 0.0 , 0.0 , 0.0 , 0.0 , 

47.0 , 4134.35897436 , 4134.35897436 , 4170.76923077 , 4133.84615385 , 4135.8974359 , 4133.33333333 , 4128.71794872 , 4134.87179487 , 4134.87179487 , 4144.1025641 , 4173.84615385 , 4687.17948718 , 4131.28205128 , 4135.8974359 , 2031.0 , 2036.0 , 6.284 , 0.0 , 0.0 , 0.0 , 0.0 , 

48.0 , 4135.8974359 , 4133.33333333 , 4165.12820513 , 4135.38461538 , 4135.8974359 , 4133.33333333 , 4133.84615385 , 4134.87179487 , 4135.38461538 , 4141.02564103 , 4176.92307692 , 4689.74358974 , 4131.28205128 , 4136.92307692 , 2034.0 , 2032.0 , 6.292 , 0.0 , 0.0 , 0.0 , 0.0 , 

49.0 , 4137.43589744 , 4130.25641026 , 4153.33333333 , 4135.8974359 , 4135.8974359 , 4133.33333333 , 4136.92307692 , 4133.33333333 , 4133.84615385 , 4136.92307692 , 4174.87179487 , 4688.20512821 , 4127.17948718 , 4135.38461538 , 2035.0 , 2030.0 , 6.299 , 0.0 , 0.0 , 0.0 , 0.0 , 

50.0 , 4135.38461538 , 4125.64102564 , 4146.66666667 , 4134.87179487 , 4135.8974359 , 4133.33333333 , 4135.38461538 , 4131.28205128 , 4132.30769231 , 4138.97435897 , 4171.28205128 , 4684.61538462 , 4126.15384615 , 4134.35897436 , 2039.0 , 2027.0 , 6.307 , 0.0 , 0.0 , 0.0 , 0.0 , 

51.0 , 4135.38461538 , 4132.30769231 , 4153.33333333 , 4133.84615385 , 4135.8974359 , 4133.33333333 , 4133.33333333 , 4132.82051282 , 4137.43589744 , 4142.05128205 , 4172.82051282 , 4687.17948718 , 4128.20512821 , 4134.35897436 , 2039.0 , 2027.0 , 6.315 , 0.0 , 0.0 , 0.0 , 0.0 , 

52.0 , 4136.41025641 , 4135.38461538 , 4152.30769231 , 4135.8974359 , 4135.8974359 , 4133.33333333 , 4132.30769231 , 4132.82051282 , 4135.8974359 , 4140.51282051 , 4173.84615385 , 4689.23076923 , 4127.17948718 , 4132.82051282 , 2041.0 , 2026.0 , 6.323 , 0.0 , 0.0 , 0.0 , 0.0 , 

53.0 , 4135.8974359 , 4133.33333333 , 4144.61538462 , 4136.92307692 , 4135.8974359 , 4133.33333333 , 4132.30769231 , 4132.30769231 , 4131.79487179 , 4139.48717949 , 4173.84615385 , 4686.66666667 , 4127.69230769 , 4132.82051282 , 2042.0 , 2028.0 , 6.331 , 0.0 , 0.0 , 0.0 , 0.0 , 

54.0 , 4135.8974359 , 4136.92307692 , 4144.61538462 , 4135.8974359 , 4135.8974359 , 4133.33333333 , 4133.33333333 , 4132.82051282 , 4134.87179487 , 4141.53846154 , 4173.84615385 , 4686.66666667 , 4130.76923077 , 4133.84615385 , 2043.0 , 2028.0 , 6.339 , 0.0 , 0.0 , 0.0 , 0.0 , 

55.0 , 4135.38461538 , 4134.35897436 , 4146.15384615 , 4136.92307692 , 4135.8974359 , 4133.33333333 , 4132.82051282 , 4134.35897436 , 4137.43589744 , 4140.0 , 4173.33333333 , 4691.28205128 , 4131.79487179 , 4134.35897436 , 2042.0 , 2032.0 , 6.347 , 0.0 , 0.0 , 0.0 , 0.0 , 

56.0 , 4136.92307692 , 4126.66666667 , 4133.33333333 , 4136.92307692 , 4135.8974359 , 4133.33333333 , 4132.82051282 , 4132.82051282 , 4134.35897436 , 4138.97435897 , 4173.84615385 , 4691.79487179 , 4129.74358974 , 4134.87179487 , 2041.0 , 2035.0 , 6.355 , 0.0 , 0.0 , 0.0 , 0.0 , 

57.0 , 4135.38461538 , 4129.74358974 , 4120.0 , 4134.87179487 , 4135.8974359 , 4133.33333333 , 4134.35897436 , 4131.79487179 , 4132.82051282 , 4143.07692308 , 4174.35897436 , 4689.74358974 , 4127.69230769 , 4133.84615385 , 2039.0 , 2037.0 , 6.362 , 0.0 , 0.0 , 0.0 , 0.0 , 

58.0 , 4131.79487179 , 4132.82051282 , 4107.17948718 , 4136.92307692 , 4135.8974359 , 4133.33333333 , 4136.41025641 , 4130.25641026 , 4131.79487179 , 4142.05128205 , 4169.74358974 , 4688.20512821 , 4125.64102564 , 4131.79487179 , 2038.0 , 2041.0 , 6.37 , 0.0 , 0.0 , 0.0 , 0.0 , 

59.0 , 4133.33333333 , 4130.76923077 , 4094.87179487 , 4137.43589744 , 4135.8974359 , 4133.33333333 , 4135.8974359 , 4129.23076923 , 4131.28205128 , 4135.38461538 , 4167.17948718 , 4686.66666667 , 4126.15384615 , 4131.79487179 , 2038.0 , 2043.0 , 6.377 , 0.0 , 0.0 , 0.0 , 0.0 , 

60.0 , 4135.38461538 , 4136.41025641 , 4082.05128205 , 4132.82051282 , 4135.8974359 , 4132.82051282 , 4132.30769231 , 4129.23076923 , 4132.82051282 , 4132.82051282 , 4170.76923077 , 4685.64102564 , 4128.71794872 , 4131.79487179 , 2036.0 , 2043.0 , 6.385 , 0.0 , 0.0 , 0.0 , 0.0 , 

61.0 , 4133.84615385 , 4138.46153846 , 4070.25641026 , 4131.28205128 , 4135.8974359 , 4132.82051282 , 4132.30769231 , 4130.25641026 , 4132.82051282 , 4134.35897436 , 4172.82051282 , 4684.61538462 , 4128.20512821 , 4132.30769231 , 2034.0 , 2040.0 , 6.394 , 0.0 , 0.0 , 0.0 , 0.0 , 

62.0 , 4133.84615385 , 4129.23076923 , 4062.56410256 , 4135.38461538 , 4135.8974359 , 4133.33333333 , 4134.87179487 , 4131.28205128 , 4130.25641026 , 4135.38461538 , 4169.74358974 , 4682.05128205 , 4126.15384615 , 4133.33333333 , 2035.0 , 2036.0 , 6.402 , 0.0 , 0.0 , 0.0 , 0.0 , 

63.0 , 4137.43589744 , 4129.23076923 , 4056.41025641 , 4135.8974359 , 4135.8974359 , 4133.33333333 , 4133.84615385 , 4132.30769231 , 4131.28205128 , 4137.43589744 , 4169.23076923 , 4682.05128205 , 4126.66666667 , 4133.33333333 , 2035.0 , 2034.0 , 6.41 , 0.0 , 0.0 , 0.0 , 0.0 , 

64.0 , 4134.35897436 , 4136.92307692 , 4057.43589744 , 4134.87179487 , 4136.41025641 , 4132.30769231 , 4133.84615385 , 4133.33333333 , 4132.82051282 , 4137.43589744 , 4173.33333333 , 4683.07692308 , 4126.66666667 , 4131.28205128 , 2036.0 , 2030.0 , 6.418 , 0.0 , 0.0 , 0.0 , 0.0 , 

65.0 , 4131.28205128 , 4135.8974359 , 4066.66666667 , 4135.8974359 , 4135.38461538 , 4134.35897436 , 4134.35897436 , 4131.79487179 , 4132.82051282 , 4137.43589744 , 4174.87179487 , 4682.56410256 , 4127.17948718 , 4131.28205128 , 2038.0 , 2030.0 , 6.425 , 0.0 , 0.0 , 0.0 , 0.0 , 

66.0 , 4135.38461538 , 4134.35897436 , 4085.64102564 , 4133.84615385 , 4136.41025641 , 4136.92307692 , 4127.69230769 , 4130.76923077 , 4135.38461538 , 4141.53846154 , 4175.38461538 , 4684.1025641 , 4131.28205128 , 4132.30769231 , 2038.0 , 2031.0 , 6.433 , 0.0 , 0.0 , 0.0 , 0.0 , 

67.0 , 4136.92307692 , 4136.41025641 , 4098.97435897 , 4133.33333333 , 4136.92307692 , 4135.8974359 , 4123.58974359 , 4133.33333333 , 4137.94871795 , 4145.64102564 , 4176.41025641 , 4685.12820513 , 4132.30769231 , 4134.87179487 , 2037.0 , 2032.0 , 6.441 , 0.0 , 0.0 , 0.0 , 0.0 , 

68.0 , 4134.87179487 , 4136.41025641 , 4110.76923077 , 4132.82051282 , 4133.33333333 , 4134.35897436 , 4133.33333333 , 4137.43589744 , 4138.46153846 , 4145.64102564 , 4177.43589744 , 4683.58974359 , 4130.76923077 , 4141.53846154 , 2038.0 , 2035.0 , 6.449 , 0.0 , 0.0 , 0.0 , 0.0 , 

69.0 , 4134.35897436 , 4133.33333333 , 4113.84615385 , 4131.79487179 , 4133.33333333 , 4134.35897436 , 4138.46153846 , 4138.46153846 , 4137.94871795 , 4144.1025641 , 4174.87179487 , 4681.02564103 , 4130.76923077 , 4142.56410256 , 2036.0 , 2038.0 , 6.457 , 0.0 , 0.0 , 0.0 , 0.0 , 

70.0 , 4135.8974359 , 4134.35897436 , 4113.84615385 , 4133.84615385 , 4136.92307692 , 4134.87179487 , 4132.82051282 , 4138.97435897 , 4135.8974359 , 4143.58974359 , 4174.87179487 , 4681.53846154 , 4133.33333333 , 4136.92307692 , 2035.0 , 2040.0 , 6.465 , 0.0 , 0.0 , 0.0 , 0.0 , 

71.0 , 4136.41025641 , 4137.43589744 , 4110.25641026 , 4137.94871795 , 4135.8974359 , 4133.84615385 , 4131.79487179 , 4136.92307692 , 4135.38461538 , 4143.58974359 , 4174.87179487 , 4682.56410256 , 4130.25641026 , 4134.35897436 , 2033.0 , 2044.0 , 6.473 , 0.0 , 0.0 , 0.0 , 0.0 , 

72.0 , 4133.84615385 , 4134.87179487 , 4121.53846154 , 4136.41025641 , 4133.33333333 , 4134.35897436 , 4135.38461538 , 4135.8974359 , 4140.0 , 4144.61538462 , 4174.87179487 , 4682.56410256 , 4131.28205128 , 4138.46153846 , 2032.0 , 2045.0 , 6.481 , 0.0 , 0.0 , 0.0 , 0.0 , 

73.0 , 4132.30769231 , 4131.79487179 , 4139.48717949 , 4132.30769231 , 4135.38461538 , 4134.87179487 , 4133.33333333 , 4137.94871795 , 4141.53846154 , 4144.1025641 , 4174.87179487 , 4679.48717949 , 4136.41025641 , 4136.41025641 , 2030.0 , 2044.0 , 6.489 , 0.0 , 0.0 , 0.0 , 0.0 , 

74.0 , 4132.82051282 , 4132.82051282 , 4158.97435897 , 4133.84615385 , 4135.8974359 , 4131.79487179 , 4131.79487179 , 4139.48717949 , 4140.51282051 , 4145.64102564 , 4176.92307692 , 4680.0 , 4136.92307692 , 4132.30769231 , 2030.0 , 2043.0 , 6.496 , 0.0 , 0.0 , 0.0 , 0.0 , 

75.0 , 4132.30769231 , 4134.87179487 , 4179.48717949 , 4136.92307692 , 4134.87179487 , 4129.74358974 , 4134.87179487 , 4140.51282051 , 4143.07692308 , 4148.20512821 , 4178.46153846 , 4684.61538462 , 4135.38461538 , 4136.41025641 , 2029.0 , 2044.0 , 6.504 , 0.0 , 0.0 , 0.0 , 0.0 , 

76.0 , 4132.30769231 , 4132.82051282 , 4209.23076923 , 4134.87179487 , 4134.87179487 , 4132.82051282 , 4134.87179487 , 4145.12820513 , 4145.64102564 , 4150.76923077 , 4177.94871795 , 4689.23076923 , 4137.43589744 , 4142.05128205 , 2031.0 , 2037.0 , 6.512 , 0.0 , 0.0 , 0.0 , 0.0 , 

77.0 , 4136.92307692 , 4133.33333333 , 4239.48717949 , 4131.79487179 , 4131.28205128 , 4136.41025641 , 4132.82051282 , 4146.66666667 , 4143.07692308 , 4151.79487179 , 4178.97435897 , 4691.28205128 , 4140.0 , 4142.05128205 , 2031.0 , 2034.0 , 6.52 , 0.0 , 0.0 , 0.0 , 0.0 , 

78.0 , 4137.43589744 , 4134.35897436 , 4267.69230769 , 4133.84615385 , 4131.79487179 , 4135.38461538 , 4133.84615385 , 4144.61538462 , 4143.58974359 , 4150.76923077 , 4181.02564103 , 4691.79487179 , 4141.02564103 , 4142.05128205 , 2033.0 , 2030.0 , 6.528 , 0.0 , 0.0 , 0.0 , 0.0 , 

79.0 , 4134.35897436 , 4130.25641026 , 4264.1025641 , 4134.87179487 , 4136.41025641 , 4135.38461538 , 4133.33333333 , 4141.53846154 , 4141.53846154 , 4148.71794872 , 4177.43589744 , 4687.69230769 , 4139.48717949 , 4142.05128205 , 2033.0 , 2029.0 , 6.536 , 0.0 , 0.0 , 0.0 , 0.0 , 

80.0 , 4134.87179487 , 4129.74358974 , 4262.05128205 , 4131.79487179 , 4135.38461538 , 4134.35897436 , 4130.76923077 , 4143.07692308 , 4140.0 , 4148.20512821 , 4176.41025641 , 4689.74358974 , 4138.46153846 , 4139.48717949 , 2035.0 , 2032.0 , 6.544 , 0.0 , 0.0 , 0.0 , 0.0 , 

81.0 , 4134.35897436 , 4134.35897436 , 4241.53846154 , 4130.76923077 , 4133.33333333 , 4133.84615385 , 4135.8974359 , 4136.92307692 , 4137.94871795 , 4144.1025641 , 4177.43589744 , 4692.30769231 , 4134.87179487 , 4135.8974359 , 2033.0 , 2035.0 , 6.552 , 0.0 , 0.0 , 0.0 , 0.0 , 

82.0 , 4131.79487179 , 4133.33333333 , 4227.17948718 , 4133.33333333 , 4135.8974359 , 4132.30769231 , 4136.41025641 , 4136.41025641 , 4140.0 , 4144.1025641 , 4176.41025641 , 4693.33333333 , 4134.35897436 , 4136.41025641 , 2034.0 , 2036.0 , 6.559 , 0.0 , 0.0 , 0.0 , 0.0 , 

83.0 , 4129.23076923 , 4127.17948718 , 4215.8974359 , 4135.8974359 , 4134.35897436 , 4125.64102564 , 4129.74358974 , 4137.43589744 , 4137.94871795 , 4144.61538462 , 4175.8974359 , 4694.35897436 , 4132.82051282 , 4135.8974359 , 2036.0 , 2041.0 , 6.567 , 0.0 , 0.0 , 0.0 , 0.0 , 

84.0 , 4130.25641026 , 4127.17948718 , 4213.84615385 , 4135.8974359 , 4132.82051282 , 4127.17948718 , 4130.25641026 , 4138.97435897 , 4134.87179487 , 4143.58974359 , 4177.43589744 , 4696.92307692 , 4134.35897436 , 4138.46153846 , 2038.0 , 2047.0 , 6.575 , 0.0 , 0.0 , 0.0 , 0.0 , 

85.0 , 4130.25641026 , 4130.25641026 , 4207.69230769 , 4135.8974359 , 4136.41025641 , 4135.8974359 , 4130.25641026 , 4135.8974359 , 4134.87179487 , 4140.51282051 , 4174.35897436 , 4694.35897436 , 4133.33333333 , 4138.46153846 , 2038.0 , 2049.0 , 6.583 , 0.0 , 0.0 , 0.0 , 0.0 , 

86.0 , 4129.74358974 , 4130.76923077 , 4201.53846154 , 4137.43589744 , 4137.43589744 , 4139.48717949 , 4127.69230769 , 4135.38461538 , 4138.46153846 , 4141.02564103 , 4172.30769231 , 4694.87179487 , 4134.35897436 , 4136.92307692 , 2037.0 , 2047.0 , 6.591 , 0.0 , 0.0 , 0.0 , 0.0 , 

87.0 , 4129.74358974 , 4129.74358974 , 4205.12820513 , 4138.46153846 , 4132.82051282 , 4133.84615385 , 4131.28205128 , 4136.41025641 , 4138.97435897 , 4140.51282051 , 4176.92307692 , 4696.92307692 , 4136.41025641 , 4135.8974359 , 2039.0 , 2043.0 , 6.599 , 0.0 , 0.0 , 0.0 , 0.0 , 

88.0 , 4131.28205128 , 4130.76923077 , 4202.05128205 , 4136.92307692 , 4132.30769231 , 4131.28205128 , 4136.92307692 , 4136.41025641 , 4136.92307692 , 4141.02564103 , 4177.94871795 , 4696.92307692 , 4135.38461538 , 4136.41025641 , 2041.0 , 2038.0 , 6.607 , 0.0 , 0.0 , 0.0 , 0.0 , 

89.0 , 4129.74358974 , 4130.76923077 , 4208.20512821 , 4137.43589744 , 4134.87179487 , 4133.84615385 , 4130.76923077 , 4136.41025641 , 4136.92307692 , 4144.1025641 , 4174.35897436 , 4697.94871795 , 4134.35897436 , 4138.97435897 , 2044.0 , 2017.0 , 6.615 , 0.0 , 0.0 , 0.0 , 0.0 , 

90.0 , 4130.76923077 , 4130.25641026 , 4205.12820513 , 4136.41025641 , 4133.33333333 , 4134.87179487 , 4126.66666667 , 4134.87179487 , 4136.92307692 , 4142.05128205 , 4174.87179487 , 4701.53846154 , 4132.82051282 , 4138.97435897 , 2047.0 , 2023.0 , 6.623 , 0.0 , 0.0 , 0.0 , 0.0 , 

91.0 , 4132.30769231 , 4131.28205128 , 4212.82051282 , 4133.33333333 , 4132.82051282 , 4131.28205128 , 4128.20512821 , 4135.38461538 , 4137.43589744 , 4140.0 , 4176.92307692 , 4703.58974359 , 4133.33333333 , 4137.43589744 , 2049.0 , 2021.0 , 6.63 , 0.0 , 0.0 , 0.0 , 0.0 , 

92.0 , 4132.30769231 , 4130.25641026 , 4213.33333333 , 4137.43589744 , 4136.41025641 , 4133.33333333 , 4129.74358974 , 4135.38461538 , 4134.35897436 , 4141.53846154 , 4172.30769231 , 4702.05128205 , 4134.87179487 , 4137.43589744 , 2052.0 , 2017.0 , 6.638 , 0.0 , 0.0 , 0.0 , 0.0 , 

93.0 , 4130.25641026 , 4129.74358974 , 4210.76923077 , 4135.8974359 , 4134.35897436 , 4134.35897436 , 4131.28205128 , 4136.92307692 , 4131.79487179 , 4143.07692308 , 4170.76923077 , 4704.1025641 , 4136.41025641 , 4138.46153846 , 2052.0 , 2019.0 , 6.646 , 0.0 , 0.0 , 0.0 , 0.0 , 

94.0 , 4128.20512821 , 4134.87179487 , 4209.23076923 , 4126.66666667 , 4131.28205128 , 4127.69230769 , 4130.25641026 , 4137.43589744 , 4132.30769231 , 4140.51282051 , 4176.92307692 , 4706.66666667 , 4135.8974359 , 4136.92307692 , 2056.0 , 2019.0 , 6.654 , 0.0 , 0.0 , 0.0 , 0.0 , 

95.0 , 4132.30769231 , 4134.35897436 , 4215.38461538 , 4130.25641026 , 4134.35897436 , 4127.17948718 , 4127.17948718 , 4136.92307692 , 4132.82051282 , 4136.92307692 , 4181.02564103 , 4708.20512821 , 4136.41025641 , 4136.41025641 , 2056.0 , 2022.0 , 6.662 , 0.0 , 0.0 , 0.0 , 0.0 , 

96.0 , 4134.87179487 , 4129.74358974 , 4205.64102564 , 4138.97435897 , 4135.8974359 , 4128.71794872 , 4128.71794872 , 4136.41025641 , 4132.30769231 , 4137.43589744 , 4175.8974359 , 4707.69230769 , 4135.8974359 , 4137.94871795 , 2058.0 , 2024.0 , 6.67 , 0.0 , 0.0 , 0.0 , 0.0 , 

97.0 , 4132.30769231 , 4130.76923077 , 4197.43589744 , 4136.41025641 , 4134.35897436 , 4127.69230769 , 4132.82051282 , 4136.92307692 , 4132.82051282 , 4145.12820513 , 4173.84615385 , 4707.69230769 , 4134.87179487 , 4138.97435897 , 2059.0 , 2027.0 , 6.677 , 0.0 , 0.0 , 0.0 , 0.0 , 

98.0 , 4132.30769231 , 4133.84615385 , 4194.35897436 , 4133.84615385 , 4134.87179487 , 4134.35897436 , 4128.20512821 , 4136.41025641 , 4132.82051282 , 4149.23076923 , 4177.94871795 , 4710.25641026 , 4134.87179487 , 4136.92307692 , 2059.0 , 2030.0 , 6.686 , 0.0 , 0.0 , 0.0 , 0.0 , 

99.0 , 4134.35897436 , 4132.30769231 , 4196.92307692 , 4136.92307692 , 4135.8974359 , 4138.46153846 , 4125.64102564 , 4137.43589744 , 4132.82051282 , 4145.64102564 , 4177.94871795 , 4711.28205128 , 4136.92307692 , 4136.92307692 , 2059.0 , 2033.0 , 6.693 , 0.0 , 0.0 , 0.0 , 0.0 , 

100.0 , 4134.87179487 , 4128.71794872 , 4191.79487179 , 4137.43589744 , 4135.38461538 , 4133.33333333 , 4134.35897436 , 4137.43589744 , 4132.82051282 , 4138.97435897 , 4172.82051282 , 4711.28205128 , 4136.92307692 , 4138.97435897 , 2059.0 , 2035.0 , 6.701 , 0.0 , 0.0 , 0.0 , 0.0 , 

101.0 , 4134.35897436 , 4127.69230769 , 4192.82051282 , 4136.41025641 , 4135.8974359 , 4132.30769231 , 4132.82051282 , 4134.87179487 , 4132.82051282 , 4136.41025641 , 4182.05128205 , 4716.92307692 , 4136.41025641 , 4139.48717949 , 2060.0 , 2039.0 , 6.709 , 0.0 , 0.0 , 0.0 , 0.0 , 

102.0 , 4135.8974359 , 4130.25641026 , 4194.87179487 , 4135.38461538 , 4135.8974359 , 4133.33333333 , 4123.07692308 , 4133.84615385 , 4132.82051282 , 4137.43589744 , 4186.15384615 , 4718.97435897 , 4135.8974359 , 4136.92307692 , 2060.0 , 2041.0 , 6.717 , 0.0 , 0.0 , 0.0 , 0.0 , 

103.0 , 4135.38461538 , 4132.30769231 , 4191.79487179 , 4133.84615385 , 4135.8974359 , 4127.17948718 , 4126.15384615 , 4135.38461538 , 4132.82051282 , 4141.02564103 , 4174.87179487 , 4716.41025641 , 4135.8974359 , 4138.97435897 , 2060.0 , 2043.0 , 6.725 , 0.0 , 0.0 , 0.0 , 0.0 , 

104.0 , 4132.30769231 , 4131.79487179 , 4193.84615385 , 4135.38461538 , 4136.41025641 , 4126.66666667 , 4133.33333333 , 4135.38461538 , 4132.82051282 , 4141.02564103 , 4174.87179487 , 4718.97435897 , 4135.8974359 , 4141.53846154 , 2058.0 , 2044.0 , 6.733 , 0.0 , 0.0 , 0.0 , 0.0 , 

105.0 , 4129.74358974 , 4130.25641026 , 4197.43589744 , 4135.8974359 , 4135.38461538 , 4129.23076923 , 4131.28205128 , 4133.84615385 , 4132.82051282 , 4135.38461538 , 4183.07692308 , 4722.05128205 , 4135.8974359 , 4140.0 , 2058.0 , 2044.0 , 6.741 , 0.0 , 0.0 , 0.0 , 0.0 , 

106.0 , 4132.82051282 , 4131.28205128 , 4193.33333333 , 4136.92307692 , 4134.35897436 , 4128.20512821 , 4129.74358974 , 4135.38461538 , 4132.82051282 , 4132.30769231 , 4180.0 , 4721.53846154 , 4135.8974359 , 4138.46153846 , 2058.0 , 2041.0 , 6.749 , 0.0 , 0.0 , 0.0 , 0.0 , 

107.0 , 4133.84615385 , 4132.82051282 , 4187.17948718 , 4137.94871795 , 4134.35897436 , 4129.74358974 , 4130.25641026 , 4135.38461538 , 4132.30769231 , 4137.94871795 , 4175.38461538 , 4721.02564103 , 4135.8974359 , 4137.94871795 , 2057.0 , 2038.0 , 6.756 , 0.0 , 0.0 , 0.0 , 0.0 , 

108.0 , 4133.84615385 , 4130.76923077 , 4188.71794872 , 4138.46153846 , 4134.35897436 , 4129.74358974 , 4129.23076923 , 4133.84615385 , 4132.82051282 , 4149.74358974 , 4178.46153846 , 4722.05128205 , 4135.8974359 , 4137.43589744 , 2057.0 , 2031.0 , 6.764 , 0.0 , 0.0 , 0.0 , 0.0 , 

109.0 , 4139.48717949 , 4126.15384615 , 4188.20512821 , 4137.43589744 , 4134.87179487 , 4128.20512821 , 4131.28205128 , 4135.8974359 , 4132.82051282 , 4153.84615385 , 4178.46153846 , 4722.05128205 , 4135.8974359 , 4138.97435897 , 2059.0 , 2029.0 , 6.772 , 0.0 , 0.0 , 0.0 , 0.0 , 

110.0 , 4135.8974359 , 4132.30769231 , 4184.61538462 , 4136.92307692 , 4136.41025641 , 4128.20512821 , 4130.25641026 , 4136.92307692 , 4132.30769231 , 4148.20512821 , 4175.38461538 , 4724.61538462 , 4135.8974359 , 4139.48717949 , 2059.0 , 2024.0 , 6.779 , 0.0 , 0.0 , 0.0 , 0.0 , 

111.0 , 4127.69230769 , 4140.0 , 4185.64102564 , 4137.94871795 , 4135.8974359 , 4128.20512821 , 4130.25641026 , 4135.38461538 , 4134.87179487 , 4142.56410256 , 4174.35897436 , 4727.69230769 , 4135.8974359 , 4139.48717949 , 2059.0 , 2025.0 , 6.788 , 0.0 , 0.0 , 0.0 , 0.0 , 

112.0 , 4133.33333333 , 4136.92307692 , 4188.20512821 , 4136.92307692 , 4134.35897436 , 4129.74358974 , 4129.74358974 , 4134.87179487 , 4137.94871795 , 4139.48717949 , 4175.38461538 , 4731.79487179 , 4135.8974359 , 4138.97435897 , 2060.0 , 2026.0 , 6.796 , 0.0 , 0.0 , 0.0 , 0.0 , 

113.0 , 4138.46153846 , 4134.35897436 , 4183.58974359 , 4135.8974359 , 4134.87179487 , 4134.87179487 , 4127.17948718 , 4135.38461538 , 4137.94871795 , 4136.41025641 , 4175.38461538 , 4732.30769231 , 4135.8974359 , 4138.97435897 , 2059.0 , 2027.0 , 6.804 , 0.0 , 0.0 , 0.0 , 0.0 , 

114.0 , 4132.30769231 , 4135.8974359 , 4180.0 , 4135.38461538 , 4135.38461538 , 4136.41025641 , 4126.66666667 , 4134.87179487 , 4136.41025641 , 4137.94871795 , 4173.84615385 , 4728.20512821 , 4135.8974359 , 4138.46153846 , 2058.0 , 2028.0 , 6.812 , 0.0 , 0.0 , 0.0 , 0.0 , 

115.0 , 4134.87179487 , 4133.84615385 , 4178.46153846 , 4136.41025641 , 4135.8974359 , 4132.30769231 , 4129.23076923 , 4135.38461538 , 4136.41025641 , 4140.51282051 , 4178.97435897 , 4731.28205128 , 4135.8974359 , 4139.48717949 , 2058.0 , 2031.0 , 6.82 , 0.0 , 0.0 , 0.0 , 0.0 , 

116.0 , 4139.48717949 , 4130.25641026 , 4178.46153846 , 4135.38461538 , 4135.8974359 , 4132.82051282 , 4128.20512821 , 4136.92307692 , 4136.41025641 , 4138.46153846 , 4178.97435897 , 4733.84615385 , 4135.8974359 , 4138.46153846 , 2056.0 , 2034.0 , 6.827 , 0.0 , 0.0 , 0.0 , 0.0 , 

117.0 , 4130.76923077 , 4128.71794872 , 4182.05128205 , 4135.38461538 , 4136.41025641 , 4137.43589744 , 4129.23076923 , 4136.92307692 , 4135.8974359 , 4137.94871795 , 4169.23076923 , 4730.76923077 , 4135.8974359 , 4137.43589744 , 2056.0 , 2037.0 , 6.836 , 0.0 , 0.0 , 0.0 , 0.0 , 

118.0 , 4128.71794872 , 4127.69230769 , 4181.02564103 , 4136.41025641 , 4135.8974359 , 4136.92307692 , 4133.84615385 , 4136.92307692 , 4135.8974359 , 4141.02564103 , 4169.74358974 , 4732.30769231 , 4135.8974359 , 4137.94871795 , 2056.0 , 2038.0 , 6.843 , 0.0 , 0.0 , 0.0 , 0.0 , 

119.0 , 4135.8974359 , 4129.23076923 , 4185.12820513 , 4136.41025641 , 4135.8974359 , 4131.79487179 , 4128.71794872 , 4137.94871795 , 4135.8974359 , 4142.56410256 , 4173.33333333 , 4735.8974359 , 4135.8974359 , 4137.43589744 , 2057.0 , 2037.0 , 6.851 , 0.0 , 0.0 , 0.0 , 0.0 , 

120.0 , 4135.8974359 , 4132.82051282 , 4182.56410256 , 4134.87179487 , 4135.8974359 , 4125.64102564 , 4125.12820513 , 4136.92307692 , 4135.8974359 , 4137.94871795 , 4171.79487179 , 4735.8974359 , 4135.8974359 , 4137.94871795 , 2056.0 , 2037.0 , 6.859 , 0.0 , 0.0 , 0.0 , 0.0 , 

121.0 , 4129.74358974 , 4132.82051282 , 4180.0 , 4135.38461538 , 4133.84615385 , 4124.1025641 , 4129.23076923 , 4134.87179487 , 4135.8974359 , 4136.41025641 , 4175.8974359 , 4732.82051282 , 4135.8974359 , 4137.94871795 , 2056.0 , 2035.0 , 6.866 , 0.0 , 0.0 , 0.0 , 0.0 , 

122.0 , 4128.20512821 , 4131.28205128 , 4184.61538462 , 4137.43589744 , 4131.79487179 , 4126.66666667 , 4130.25641026 , 4135.38461538 , 4135.8974359 , 4145.12820513 , 4180.51282051 , 4733.84615385 , 4135.8974359 , 4137.43589744 , 2056.0 , 2033.0 , 6.875 , 0.0 , 0.0 , 0.0 , 0.0 , 

123.0 , 4133.33333333 , 4130.76923077 , 4191.28205128 , 4136.92307692 , 4133.33333333 , 4128.71794872 , 4126.66666667 , 4136.92307692 , 4135.8974359 , 4154.87179487 , 4177.43589744 , 4738.46153846 , 4135.8974359 , 4137.94871795 , 2056.0 , 2033.0 , 6.883 , 0.0 , 0.0 , 0.0 , 0.0 , 

124.0 , 4138.97435897 , 4132.30769231 , 4182.56410256 , 4135.38461538 , 4135.8974359 , 4127.69230769 , 4128.71794872 , 4136.92307692 , 4135.8974359 , 4146.66666667 , 4177.94871795 , 4739.48717949 , 4136.92307692 , 4138.46153846 , 2057.0 , 2031.0 , 6.89 , 0.0 , 0.0 , 0.0 , 0.0 , 

125.0 , 4134.35897436 , 4133.33333333 , 4180.51282051 , 4136.41025641 , 4135.8974359 , 4131.28205128 , 4132.30769231 , 4135.38461538 , 4136.41025641 , 4136.41025641 , 4181.02564103 , 4738.97435897 , 4137.94871795 , 4138.46153846 , 2056.0 , 2033.0 , 6.898 , 0.0 , 0.0 , 0.0 , 0.0 , 

126.0 , 4128.71794872 , 4132.82051282 , 4179.48717949 , 4137.94871795 , 4135.38461538 , 4134.87179487 , 4129.74358974 , 4134.87179487 , 4137.43589744 , 4141.53846154 , 4174.87179487 , 4740.51282051 , 4134.87179487 , 4139.48717949 , 2057.0 , 2034.0 , 6.906 , 0.0 , 0.0 , 0.0 , 0.0 , 

127.0 , 4131.79487179 , 4132.30769231 , 4171.28205128 , 4136.41025641 , 4135.38461538 , 4133.84615385 , 4129.74358974 , 4135.38461538 , 4138.46153846 , 4144.1025641 , 4173.33333333 , 4743.58974359 , 4135.38461538 , 4138.97435897 , 2055.0 , 2036.0 , 6.914 , 0.0 , 0.0 , 0.0 , 0.0 , 

128.0 , 4133.33333333 , 4129.23076923 , 4172.82051282 , 4136.92307692 , 4135.38461538 , 4132.30769231 , 4131.79487179 , 4135.38461538 , 4137.43589744 , 4138.46153846 , 4180.0 , 4741.53846154 , 4136.41025641 , 4137.94871795 , 2054.0 , 2036.0 , 6.922 , 0.0 , 0.0 , 0.0 , 0.0 , 

0.0 , 4131.28205128 , 4127.17948718 , 4175.8974359 , 4135.8974359 , 4134.87179487 , 4133.84615385 , 4129.23076923 , 4135.8974359 , 4136.92307692 , 4138.97435897 , 4180.51282051 , 4743.58974359 , 4132.82051282 , 4138.97435897 , 2056.0 , 2038.0 , 6.93 , 0.0 , 0.0 , 0.0 , 0.0 , 

1.0 , 4134.35897436 , 4130.76923077 , 4168.71794872 , 4132.82051282 , 4134.35897436 , 4135.38461538 , 4126.15384615 , 4136.41025641 , 4136.92307692 , 4140.0 , 4174.87179487 , 4747.17948718 , 4131.79487179 , 4137.94871795 , 2056.0 , 2039.0 , 6.938 , 0.0 , 0.0 , 0.0 , 0.0 , 

2.0 , 4132.82051282 , 4131.79487179 , 4167.69230769 , 4132.30769231 , 4134.87179487 , 4133.33333333 , 4128.71794872 , 4136.92307692 , 4136.41025641 , 4137.94871795 , 4173.84615385 , 4743.07692308 , 4135.38461538 , 4136.41025641 , 2056.0 , 2040.0 , 6.946 , 0.0 , 0.0 , 0.0 , 0.0 , 

3.0 , 4129.74358974 , 4130.25641026 , 4177.94871795 , 4135.38461538 , 4136.41025641 , 4126.66666667 , 4130.76923077 , 4136.92307692 , 4134.87179487 , 4140.51282051 , 4177.43589744 , 4743.58974359 , 4137.43589744 , 4138.46153846 , 2056.0 , 2041.0 , 6.954 , 0.0 , 0.0 , 0.0 , 0.0 , 

4.0 , 4130.76923077 , 4130.25641026 , 4182.05128205 , 4135.8974359 , 4135.8974359 , 4126.66666667 , 4128.20512821 , 4135.8974359 , 4135.38461538 , 4141.53846154 , 4177.43589744 , 4747.17948718 , 4134.87179487 , 4138.46153846 , 2056.0 , 2042.0 , 6.961 , 0.0 , 0.0 , 0.0 , 0.0 , 

5.0 , 4133.33333333 , 4130.76923077 , 4176.41025641 , 4134.87179487 , 4134.87179487 , 4135.38461538 , 4125.12820513 , 4135.8974359 , 4134.87179487 , 4138.97435897 , 4175.38461538 , 4747.69230769 , 4130.25641026 , 4136.41025641 , 2056.0 , 2043.0 , 6.969 , 0.0 , 0.0 , 0.0 , 0.0 , 

6.0 , 4132.82051282 , 4129.23076923 , 4174.35897436 , 4136.41025641 , 4135.38461538 , 4136.41025641 , 4125.64102564 , 4136.92307692 , 4134.35897436 , 4139.48717949 , 4177.94871795 , 4749.74358974 , 4133.33333333 , 4137.43589744 , 2056.0 , 2043.0 , 6.977 , 0.0 , 0.0 , 0.0 , 0.0 , 

7.0 , 4131.79487179 , 4130.25641026 , 4174.87179487 , 4136.92307692 , 4135.8974359 , 4134.87179487 , 4133.33333333 , 4137.43589744 , 4136.92307692 , 4141.53846154 , 4178.97435897 , 4751.28205128 , 4138.46153846 , 4140.0 , 2056.0 , 2040.0 , 6.985 , 0.0 , 0.0 , 0.0 , 0.0 , 

8.0 , 4129.23076923 , 4130.25641026 , 4162.56410256 , 4135.8974359 , 4135.8974359 , 4136.41025641 , 4134.87179487 , 4135.8974359 , 4137.94871795 , 4142.56410256 , 4175.8974359 , 4749.74358974 , 4130.76923077 , 4140.0 , 2056.0 , 2039.0 , 6.993 , 0.0 , 0.0 , 0.0 , 0.0 , 

9.0 , 4128.20512821 , 4130.25641026 , 4163.07692308 , 4135.38461538 , 4134.35897436 , 4131.79487179 , 4131.28205128 , 4135.8974359 , 4137.43589744 , 4141.02564103 , 4176.41025641 , 4747.17948718 , 4127.17948718 , 4138.97435897 , 2056.0 , 2036.0 , 7.001 , 0.0 , 0.0 , 0.0 , 0.0 , 

10.0 , 4131.28205128 , 4132.30769231 , 4156.41025641 , 4135.8974359 , 4133.84615385 , 4127.69230769 , 4132.82051282 , 4136.41025641 , 4135.8974359 , 4137.43589744 , 4177.94871795 , 4749.23076923 , 4132.30769231 , 4137.43589744 , 2057.0 , 2035.0 , 7.009 , 0.0 , 0.0 , 0.0 , 0.0 , 

11.0 , 4132.82051282 , 4132.30769231 , 4153.33333333 , 4136.92307692 , 4135.38461538 , 4133.33333333 , 4134.35897436 , 4138.97435897 , 4136.92307692 , 4140.51282051 , 4177.94871795 , 4751.79487179 , 4133.84615385 , 4139.48717949 , 2057.0 , 2032.0 , 7.016 , 0.0 , 0.0 , 0.0 , 0.0 , 

12.0 , 4130.76923077 , 4130.25641026 , 4148.20512821 , 4136.41025641 , 4135.38461538 , 4135.38461538 , 4131.28205128 , 4135.8974359 , 4137.94871795 , 4143.58974359 , 4176.92307692 , 4751.28205128 , 4129.74358974 , 4140.51282051 , 2058.0 , 2031.0 , 7.024 , 0.0 , 0.0 , 0.0 , 0.0 , 

13.0 , 4133.33333333 , 4131.79487179 , 4155.8974359 , 4136.41025641 , 4134.35897436 , 4131.79487179 , 4129.74358974 , 4131.79487179 , 4137.43589744 , 4140.51282051 , 4176.41025641 , 4753.84615385 , 4131.28205128 , 4138.46153846 , 2058.0 , 2030.0 , 7.032 , 0.0 , 0.0 , 0.0 , 0.0 , 

14.0 , 4137.43589744 , 4132.82051282 , 4160.0 , 4136.41025641 , 4136.41025641 , 4132.30769231 , 4129.23076923 , 4130.76923077 , 4135.38461538 , 4137.94871795 , 4176.92307692 , 4756.41025641 , 4133.84615385 , 4136.92307692 , 2059.0 , 2031.0 , 7.039 , 0.0 , 0.0 , 0.0 , 0.0 , 

15.0 , 4133.33333333 , 4131.79487179 , 4165.12820513 , 4136.92307692 , 4136.92307692 , 4134.35897436 , 4127.69230769 , 4134.35897436 , 4137.43589744 , 4141.53846154 , 4177.43589744 , 4757.43589744 , 4134.35897436 , 4137.94871795 , 2058.0 , 2029.0 , 7.048 , 0.0 , 0.0 , 0.0 , 0.0 , 

16.0 , 4127.69230769 , 4131.28205128 , 4164.1025641 , 4136.92307692 , 4134.35897436 , 4137.43589744 , 4127.17948718 , 4134.87179487 , 4138.97435897 , 4142.05128205 , 4175.8974359 , 4755.8974359 , 4132.30769231 , 4138.46153846 , 2057.0 , 2031.0 , 7.056 , 0.0 , 0.0 , 0.0 , 0.0 , 

17.0 , 4132.82051282 , 4129.23076923 , 4162.56410256 , 4135.8974359 , 4134.87179487 , 4133.84615385 , 4129.23076923 , 4133.33333333 , 4134.87179487 , 4141.02564103 , 4175.38461538 , 4755.38461538 , 4130.25641026 , 4137.43589744 , 2057.0 , 2032.0 , 7.064 , 0.0 , 0.0 , 0.0 , 0.0 , 

18.0 , 4137.43589744 , 4129.23076923 , 4169.74358974 , 4135.38461538 , 4135.8974359 , 4127.69230769 , 4131.28205128 , 4134.35897436 , 4133.84615385 , 4144.1025641 , 4175.8974359 , 4755.8974359 , 4132.82051282 , 4137.94871795 , 2057.0 , 2033.0 , 7.079 , 0.0 , 0.0 , 0.0 , 0.0 , 

19.0 , 4133.84615385 , 4129.23076923 , 4153.33333333 , 4136.41025641 , 4134.87179487 , 4131.28205128 , 4132.30769231 , 4132.82051282 , 4135.8974359 , 4142.05128205 , 4174.35897436 , 4756.41025641 , 4132.30769231 , 4137.43589744 , 2057.0 , 2031.0 , 7.082 , 0.0 , 0.0 , 0.0 , 0.0 , 

20.0 , 4130.76923077 , 4129.23076923 , 4160.51282051 , 4137.43589744 , 4135.8974359 , 4135.8974359 , 4132.30769231 , 4133.84615385 , 4136.92307692 , 4142.05128205 , 4175.38461538 , 4757.43589744 , 4131.28205128 , 4137.94871795 , 2058.0 , 2031.0 , 7.088 , 0.0 , 0.0 , 0.0 , 0.0 , 

21.0 , 4131.28205128 , 4130.25641026 , 4189.23076923 , 4135.38461538 , 4136.92307692 , 4131.79487179 , 4131.79487179 , 4135.8974359 , 4136.41025641 , 4146.15384615 , 4177.94871795 , 4756.41025641 , 4134.87179487 , 4138.46153846 , 2058.0 , 2030.0 , 7.095 , 0.0 , 0.0 , 0.0 , 0.0 , 

22.0 , 4131.79487179 , 4131.28205128 , 4188.20512821 , 4135.8974359 , 4136.92307692 , 4134.35897436 , 4129.74358974 , 4135.38461538 , 4136.41025641 , 4143.58974359 , 4176.41025641 , 4758.46153846 , 4136.92307692 , 4136.92307692 , 2057.0 , 2031.0 , 7.103 , 0.0 , 0.0 , 0.0 , 0.0 , 

23.0 , 4129.74358974 , 4128.71794872 , 4175.8974359 , 4135.8974359 , 4135.38461538 , 4134.87179487 , 4129.23076923 , 4133.84615385 , 4137.94871795 , 4137.94871795 , 4176.41025641 , 4761.02564103 , 4135.38461538 , 4135.8974359 , 2057.0 , 2032.0 , 7.111 , 0.0 , 0.0 , 0.0 , 0.0 , 

24.0 , 4129.74358974 , 4128.71794872 , 4180.51282051 , 4132.82051282 , 4132.82051282 , 4126.15384615 , 4130.25641026 , 4132.82051282 , 4137.43589744 , 4140.0 , 4177.94871795 , 4760.51282051 , 4132.82051282 , 4135.8974359 , 2055.0 , 2033.0 , 7.118 , 0.0 , 0.0 , 0.0 , 0.0 , 

25.0 , 4131.28205128 , 4130.76923077 , 4205.12820513 , 4132.30769231 , 4132.82051282 , 4126.66666667 , 4129.23076923 , 4135.8974359 , 4137.94871795 , 4145.12820513 , 4176.92307692 , 4761.02564103 , 4137.43589744 , 4137.94871795 , 2052.0 , 2035.0 , 7.127 , 0.0 , 0.0 , 0.0 , 0.0 , 

26.0 , 4130.25641026 , 4130.76923077 , 4197.94871795 , 4131.79487179 , 4135.38461538 , 4128.71794872 , 4128.20512821 , 4134.35897436 , 4137.43589744 , 4142.56410256 , 4175.38461538 , 4761.53846154 , 4136.41025641 , 4137.43589744 , 2052.0 , 2034.0 , 7.135 , 0.0 , 0.0 , 0.0 , 0.0 , 

27.0 , 4130.76923077 , 4129.74358974 , 4172.82051282 , 4130.25641026 , 4136.41025641 , 4128.20512821 , 4128.20512821 , 4135.38461538 , 4136.92307692 , 4141.53846154 , 4177.94871795 , 4765.64102564 , 4134.35897436 , 4136.92307692 , 2052.0 , 2035.0 , 7.143 , 0.0 , 0.0 , 0.0 , 0.0 , 

28.0 , 4130.76923077 , 4130.25641026 , 4167.69230769 , 4132.82051282 , 4136.41025641 , 4133.33333333 , 4129.23076923 , 4136.41025641 , 4135.38461538 , 4144.1025641 , 4178.97435897 , 4766.66666667 , 4135.8974359 , 4136.92307692 , 2052.0 , 2034.0 , 7.151 , 0.0 , 0.0 , 0.0 , 0.0 , 

29.0 , 4127.69230769 , 4129.74358974 , 4170.76923077 , 4137.43589744 , 4136.41025641 , 4134.87179487 , 4130.25641026 , 4134.87179487 , 4135.8974359 , 4145.64102564 , 4178.46153846 , 4764.61538462 , 4136.41025641 , 4138.46153846 , 2051.0 , 2034.0 , 7.158 , 0.0 , 0.0 , 0.0 , 0.0 , 

30.0 , 4127.17948718 , 4130.76923077 , 4168.20512821 , 4137.43589744 , 4135.38461538 , 4132.82051282 , 4130.76923077 , 4133.84615385 , 4137.43589744 , 4142.56410256 , 4176.41025641 , 4762.56410256 , 4134.35897436 , 4138.46153846 , 2051.0 , 2034.0 , 7.166 , 0.0 , 0.0 , 0.0 , 0.0 , 

31.0 , 4131.28205128 , 4131.28205128 , 4155.38461538 , 4136.92307692 , 4134.87179487 , 4136.41025641 , 4129.74358974 , 4135.38461538 , 4136.92307692 , 4139.48717949 , 4174.87179487 , 4765.12820513 , 4133.33333333 , 4135.38461538 , 2052.0 , 2033.0 , 7.174 , 0.0 , 0.0 , 0.0 , 0.0 , 

32.0 , 4131.79487179 , 4129.74358974 , 4166.15384615 , 4136.41025641 , 4135.38461538 , 4136.92307692 , 4127.17948718 , 4136.92307692 , 4135.8974359 , 4140.51282051 , 4175.38461538 , 4764.61538462 , 4133.84615385 , 4136.41025641 , 2049.0 , 2034.0 , 7.182 , 0.0 , 0.0 , 0.0 , 0.0 , 

33.0 , 4130.25641026 , 4129.74358974 , 4166.66666667 , 4134.87179487 , 4134.87179487 , 4131.79487179 , 4127.17948718 , 4133.84615385 , 4136.92307692 , 4141.02564103 , 4176.41025641 , 4763.58974359 , 4134.35897436 , 4138.97435897 , 2051.0 , 2034.0 , 7.19 , 0.0 , 0.0 , 0.0 , 0.0 , 

34.0 , 4129.74358974 , 4131.79487179 , 4160.51282051 , 4135.38461538 , 4134.87179487 , 4129.74358974 , 4129.23076923 , 4134.35897436 , 4136.92307692 , 4141.02564103 , 4175.8974359 , 4766.15384615 , 4134.35897436 , 4138.97435897 , 2052.0 , 2035.0 , 7.198 , 0.0 , 0.0 , 0.0 , 0.0 , 

35.0 , 4130.25641026 , 4132.82051282 , 4158.97435897 , 4134.35897436 , 4135.38461538 , 4128.20512821 , 4130.25641026 , 4134.35897436 , 4133.33333333 , 4140.0 , 4172.82051282 , 4765.12820513 , 4131.28205128 , 4138.46153846 , 2049.0 , 2036.0 , 7.206 , 0.0 , 0.0 , 0.0 , 0.0 , 

36.0 , 4132.30769231 , 4131.79487179 , 4166.15384615 , 4133.84615385 , 4135.38461538 , 4130.76923077 , 4129.74358974 , 4132.30769231 , 4135.8974359 , 4140.51282051 , 4174.35897436 , 4767.17948718 , 4133.84615385 , 4138.46153846 , 2049.0 , 2036.0 , 7.214 , 0.0 , 0.0 , 0.0 , 0.0 , 

37.0 , 4131.79487179 , 4131.79487179 , 4167.69230769 , 4135.38461538 , 4135.38461538 , 4129.74358974 , 4128.20512821 , 4132.30769231 , 4137.43589744 , 4141.53846154 , 4175.8974359 , 4769.74358974 , 4136.41025641 , 4138.46153846 , 2048.0 , 2034.0 , 7.221 , 0.0 , 0.0 , 0.0 , 0.0 , 

38.0 , 4128.71794872 , 4132.82051282 , 4152.82051282 , 4135.38461538 , 4134.87179487 , 4127.17948718 , 4126.15384615 , 4134.87179487 , 4131.28205128 , 4143.07692308 , 4176.41025641 , 4770.25641026 , 4130.76923077 , 4138.97435897 , 2048.0 , 2035.0 , 7.229 , 0.0 , 0.0 , 0.0 , 0.0 , 

39.0 , 4129.74358974 , 4132.82051282 , 4156.92307692 , 4135.38461538 , 4134.35897436 , 4136.41025641 , 4128.71794872 , 4135.8974359 , 4130.76923077 , 4142.56410256 , 4178.97435897 , 4770.76923077 , 4130.25641026 , 4138.97435897 , 2047.0 , 2037.0 , 7.237 , 0.0 , 0.0 , 0.0 , 0.0 , 

40.0 , 4131.79487179 , 4130.76923077 , 4170.76923077 , 4135.38461538 , 4134.35897436 , 4136.92307692 , 4130.76923077 , 4135.8974359 , 4136.92307692 , 4139.48717949 , 4178.97435897 , 4771.28205128 , 4134.35897436 , 4138.46153846 , 2047.0 , 2037.0 , 7.245 , 0.0 , 0.0 , 0.0 , 0.0 , 

41.0 , 4131.28205128 , 4131.28205128 , 4170.25641026 , 4137.43589744 , 4134.35897436 , 4126.15384615 , 4128.20512821 , 4136.41025641 , 4139.48717949 , 4141.53846154 , 4175.38461538 , 4771.28205128 , 4133.33333333 , 4138.97435897 , 2046.0 , 2036.0 , 7.253 , 0.0 , 0.0 , 0.0 , 0.0 , 

42.0 , 4130.76923077 , 4133.33333333 , 4161.02564103 , 4138.97435897 , 4134.35897436 , 4130.76923077 , 4127.17948718 , 4131.28205128 , 4136.92307692 , 4144.1025641 , 4176.92307692 , 4771.79487179 , 4130.25641026 , 4137.43589744 , 2047.0 , 2035.0 , 7.261 , 0.0 , 0.0 , 0.0 , 0.0 , 

43.0 , 4133.33333333 , 4132.30769231 , 4155.8974359 , 4135.8974359 , 4135.38461538 , 4137.43589744 , 4127.69230769 , 4128.71794872 , 4135.8974359 , 4142.05128205 , 4177.94871795 , 4775.38461538 , 4132.30769231 , 4136.41025641 , 2047.0 , 2035.0 , 7.268 , 0.0 , 0.0 , 0.0 , 0.0 , 

44.0 , 4132.30769231 , 4128.20512821 , 4171.28205128 , 4132.30769231 , 4134.87179487 , 4130.76923077 , 4125.64102564 , 4134.35897436 , 4136.41025641 , 4138.97435897 , 4174.87179487 , 4774.87179487 , 4133.33333333 , 4136.92307692 , 2047.0 , 2034.0 , 7.277 , 0.0 , 0.0 , 0.0 , 0.0 , 

45.0 , 4130.76923077 , 4129.23076923 , 4178.46153846 , 4133.33333333 , 4133.84615385 , 4132.30769231 , 4127.17948718 , 4136.92307692 , 4136.92307692 , 4141.53846154 , 4176.41025641 , 4773.33333333 , 4131.79487179 , 4137.43589744 , 2046.0 , 2034.0 , 7.284 , 0.0 , 0.0 , 0.0 , 0.0 , 

46.0 , 4131.28205128 , 4130.76923077 , 4167.69230769 , 4134.87179487 , 4135.38461538 , 4138.46153846 , 4128.20512821 , 4136.41025641 , 4136.92307692 , 4144.61538462 , 4177.94871795 , 4773.84615385 , 4130.76923077 , 4138.97435897 , 2046.0 , 2032.0 , 7.292 , 0.0 , 0.0 , 0.0 , 0.0 , 

47.0 , 4132.30769231 , 4128.71794872 , 4160.0 , 4134.87179487 , 4135.38461538 , 4136.41025641 , 4126.15384615 , 4136.92307692 , 4137.43589744 , 4143.58974359 , 4175.38461538 , 4775.8974359 , 4131.79487179 , 4138.46153846 , 2044.0 , 2033.0 , 7.3 , 0.0 , 0.0 , 0.0 , 0.0 , 

48.0 , 4133.33333333 , 4128.71794872 , 4162.56410256 , 4135.8974359 , 4133.84615385 , 4135.38461538 , 4127.69230769 , 4136.92307692 , 4137.94871795 , 4141.53846154 , 4176.41025641 , 4777.43589744 , 4131.28205128 , 4136.41025641 , 2044.0 , 2030.0 , 7.308 , 0.0 , 0.0 , 0.0 , 0.0 , 

49.0 , 4132.82051282 , 4129.74358974 , 4159.48717949 , 4134.87179487 , 4135.38461538 , 4134.87179487 , 4129.74358974 , 4136.92307692 , 4135.8974359 , 4140.51282051 , 4178.46153846 , 4777.94871795 , 4129.74358974 , 4138.46153846 , 2045.0 , 2032.0 , 7.316 , 0.0 , 0.0 , 0.0 , 0.0 , 

50.0 , 4130.25641026 , 4129.23076923 , 4157.43589744 , 4132.30769231 , 4137.43589744 , 4132.30769231 , 4128.20512821 , 4137.43589744 , 4136.41025641 , 4140.51282051 , 4177.43589744 , 4777.94871795 , 4131.28205128 , 4140.0 , 2046.0 , 2034.0 , 7.324 , 0.0 , 0.0 , 0.0 , 0.0 , 

51.0 , 4131.28205128 , 4130.25641026 , 4163.58974359 , 4134.35897436 , 4136.92307692 , 4132.82051282 , 4129.23076923 , 4134.87179487 , 4138.46153846 , 4140.0 , 4177.94871795 , 4775.8974359 , 4134.35897436 , 4138.46153846 , 2046.0 , 2034.0 , 7.332 , 0.0 , 0.0 , 0.0 , 0.0 , 

52.0 , 4133.84615385 , 4133.33333333 , 4161.02564103 , 4137.94871795 , 4135.8974359 , 4132.30769231 , 4128.20512821 , 4134.35897436 , 4135.38461538 , 4138.46153846 , 4176.92307692 , 4777.94871795 , 4133.33333333 , 4138.46153846 , 2045.0 , 2035.0 , 7.34 , 0.0 , 0.0 , 0.0 , 0.0 , 

53.0 , 4132.30769231 , 4131.79487179 , 4162.05128205 , 4136.41025641 , 4135.38461538 , 4131.79487179 , 4127.69230769 , 4136.92307692 , 4135.38461538 , 4140.51282051 , 4175.38461538 , 4782.56410256 , 4132.82051282 , 4138.97435897 , 2045.0 , 2035.0 , 7.348 , 0.0 , 0.0 , 0.0 , 0.0 , 

54.0 , 4130.76923077 , 4128.71794872 , 4161.53846154 , 4133.33333333 , 4136.41025641 , 4135.8974359 , 4134.87179487 , 4135.38461538 , 4138.97435897 , 4144.1025641 , 4176.92307692 , 4781.02564103 , 4132.82051282 , 4136.92307692 , 2044.0 , 2037.0 , 7.355 , 0.0 , 0.0 , 0.0 , 0.0 , 

55.0 , 4130.76923077 , 4128.71794872 , 4160.51282051 , 4134.35897436 , 4135.8974359 , 4137.43589744 , 4131.28205128 , 4132.30769231 , 4137.43589744 , 4143.58974359 , 4177.94871795 , 4777.43589744 , 4132.30769231 , 4135.38461538 , 2044.0 , 2038.0 , 7.363 , 0.0 , 0.0 , 0.0 , 0.0 , 

56.0 , 4130.76923077 , 4129.23076923 , 4161.53846154 , 4137.43589744 , 4131.28205128 , 4134.87179487 , 4125.12820513 , 4131.79487179 , 4133.84615385 , 4141.02564103 , 4175.38461538 , 4778.46153846 , 4131.79487179 , 4136.92307692 , 2043.0 , 2038.0 , 7.371 , 0.0 , 0.0 , 0.0 , 0.0 , 

57.0 , 4132.82051282 , 4130.76923077 , 4170.25641026 , 4138.46153846 , 4131.28205128 , 4134.87179487 , 4130.76923077 , 4133.84615385 , 4137.43589744 , 4141.53846154 , 4174.87179487 , 4779.48717949 , 4133.84615385 , 4137.43589744 , 2043.0 , 2038.0 , 7.379 , 0.0 , 0.0 , 0.0 , 0.0 , 

58.0 , 4132.30769231 , 4133.33333333 , 4166.15384615 , 4135.38461538 , 4135.8974359 , 4136.92307692 , 4130.76923077 , 4134.35897436 , 4139.48717949 , 4139.48717949 , 4177.43589744 , 4778.46153846 , 4131.28205128 , 4137.94871795 , 2044.0 , 2037.0 , 7.387 , 0.0 , 0.0 , 0.0 , 0.0 , 

59.0 , 4130.76923077 , 4131.28205128 , 4162.05128205 , 4132.82051282 , 4136.41025641 , 4134.35897436 , 4124.61538462 , 4134.87179487 , 4133.33333333 , 4138.46153846 , 4178.46153846 , 4780.0 , 4128.71794872 , 4137.94871795 , 2042.0 , 2039.0 , 7.395 , 0.0 , 0.0 , 0.0 , 0.0 , 

60.0 , 4136.92307692 , 4130.25641026 , 4157.94871795 , 4135.8974359 , 4135.8974359 , 4132.82051282 , 4129.23076923 , 4136.41025641 , 4131.79487179 , 4143.58974359 , 4176.41025641 , 4780.51282051 , 4131.79487179 , 4138.46153846 , 2042.0 , 2039.0 , 7.403 , 0.0 , 0.0 , 0.0 , 0.0 , 

61.0 , 4137.43589744 , 4132.30769231 , 4155.8974359 , 4137.94871795 , 4137.43589744 , 4132.82051282 , 4130.76923077 , 4135.8974359 , 4137.94871795 , 4144.61538462 , 4175.38461538 , 4781.53846154 , 4134.35897436 , 4139.48717949 , 2041.0 , 2038.0 , 7.411 , 0.0 , 0.0 , 0.0 , 0.0 , 

62.0 , 4132.82051282 , 4131.28205128 , 4153.33333333 , 4136.41025641 , 4135.8974359 , 4132.82051282 , 4124.61538462 , 4135.38461538 , 4137.94871795 , 4138.46153846 , 4177.43589744 , 4783.07692308 , 4132.30769231 , 4138.46153846 , 2040.0 , 2040.0 , 7.418 , 0.0 , 0.0 , 0.0 , 0.0 , 

63.0 , 4132.30769231 , 4128.71794872 , 4152.82051282 , 4136.41025641 , 4135.38461538 , 4134.35897436 , 4126.15384615 , 4136.41025641 , 4134.87179487 , 4138.46153846 , 4177.94871795 , 4783.07692308 , 4130.76923077 , 4136.92307692 , 2040.0 , 2040.0 , 7.426 , 0.0 , 0.0 , 0.0 , 0.0 , 

64.0 , 4132.30769231 , 4129.74358974 , 4152.30769231 , 4136.92307692 , 4134.87179487 , 4133.33333333 , 4131.28205128 , 4135.38461538 , 4137.43589744 , 4142.56410256 , 4177.43589744 , 4784.1025641 , 4134.35897436 , 4137.94871795 , 2040.0 , 2040.0 , 7.434 , 0.0 , 0.0 , 0.0 , 0.0 , 

65.0 , 4130.76923077 , 4130.76923077 , 4146.66666667 , 4135.8974359 , 4131.79487179 , 4129.74358974 , 4130.76923077 , 4135.38461538 , 4137.94871795 , 4140.51282051 , 4177.43589744 , 4785.12820513 , 4133.84615385 , 4138.97435897 , 2036.0 , 2038.0 , 7.443 , 0.0 , 0.0 , 0.0 , 0.0 , 

66.0 , 4133.33333333 , 4133.33333333 , 4147.17948718 , 4135.8974359 , 4133.84615385 , 4130.25641026 , 4127.17948718 , 4139.48717949 , 4136.41025641 , 4138.97435897 , 4176.92307692 , 4784.61538462 , 4129.74358974 , 4139.48717949 , 2035.0 , 2037.0 , 7.45 , 0.0 , 0.0 , 0.0 , 0.0 , 

67.0 , 4132.82051282 , 4134.87179487 , 4141.53846154 , 4135.8974359 , 4136.41025641 , 4133.84615385 , 4127.17948718 , 4136.92307692 , 4135.8974359 , 4141.02564103 , 4176.41025641 , 4784.1025641 , 4129.23076923 , 4138.46153846 , 2033.0 , 2032.0 , 7.458 , 0.0 , 0.0 , 0.0 , 0.0 , 

68.0 , 4132.30769231 , 4131.28205128 , 4140.0 , 4135.38461538 , 4134.87179487 , 4133.84615385 , 4132.82051282 , 4134.35897436 , 4136.41025641 , 4142.56410256 , 4177.94871795 , 4787.69230769 , 4133.84615385 , 4138.46153846 , 2032.0 , 2031.0 , 7.466 , 0.0 , 0.0 , 0.0 , 0.0 , 

69.0 , 4134.35897436 , 4128.71794872 , 4138.46153846 , 4134.87179487 , 4133.84615385 , 4132.30769231 , 4133.33333333 , 4132.82051282 , 4134.87179487 , 4140.51282051 , 4175.8974359 , 4784.61538462 , 4133.33333333 , 4135.38461538 , 2031.0 , 2028.0 , 7.474 , 0.0 , 0.0 , 0.0 , 0.0 , 

70.0 , 4133.33333333 , 4130.76923077 , 4140.0 , 4135.8974359 , 4135.8974359 , 4135.38461538 , 4130.76923077 , 4132.82051282 , 4136.41025641 , 4141.53846154 , 4174.35897436 , 4783.07692308 , 4131.28205128 , 4135.38461538 , 2030.0 , 2030.0 , 7.482 , 0.0 , 0.0 , 0.0 , 0.0 , 

71.0 , 4131.28205128 , 4130.76923077 , 4142.56410256 , 4136.41025641 , 4135.38461538 , 4135.8974359 , 4132.82051282 , 4134.35897436 , 4137.43589744 , 4145.12820513 , 4177.43589744 , 4786.15384615 , 4133.33333333 , 4135.8974359 , 2029.0 , 2030.0 , 7.489 , 0.0 , 0.0 , 0.0 , 0.0 , 

72.0 , 4133.84615385 , 4130.76923077 , 4136.92307692 , 4135.38461538 , 4134.35897436 , 4134.35897436 , 4132.30769231 , 4137.94871795 , 4137.43589744 , 4144.61538462 , 4179.48717949 , 4784.61538462 , 4133.33333333 , 4135.38461538 , 2029.0 , 2030.0 , 7.497 , 0.0 , 0.0 , 0.0 , 0.0 , 

73.0 , 4136.41025641 , 4130.25641026 , 4136.41025641 , 4136.92307692 , 4133.84615385 , 4134.35897436 , 4125.12820513 , 4136.41025641 , 4137.94871795 , 4142.05128205 , 4176.41025641 , 4783.58974359 , 4129.74358974 , 4134.35897436 , 2029.0 , 2030.0 , 7.505 , 0.0 , 0.0 , 0.0 , 0.0 , 

74.0 , 4135.8974359 , 4131.79487179 , 4136.41025641 , 4137.43589744 , 4135.38461538 , 4135.8974359 , 4127.17948718 , 4132.30769231 , 4138.97435897 , 4142.05128205 , 4176.41025641 , 4786.15384615 , 4128.20512821 , 4136.41025641 , 2028.0 , 2031.0 , 7.513 , 0.0 , 0.0 , 0.0 , 0.0 , 

75.0 , 4136.41025641 , 4136.92307692 , 4139.48717949 , 4135.38461538 , 4136.41025641 , 4135.38461538 , 4136.92307692 , 4131.28205128 , 4136.92307692 , 4143.58974359 , 4177.94871795 , 4787.17948718 , 4130.76923077 , 4138.97435897 , 2029.0 , 2033.0 , 7.521 , 0.0 , 0.0 , 0.0 , 0.0 , 

76.0 , 4136.41025641 , 4133.84615385 , 4139.48717949 , 4135.8974359 , 4135.8974359 , 4134.87179487 , 4135.8974359 , 4131.79487179 , 4132.82051282 , 4142.56410256 , 4176.92307692 , 4786.66666667 , 4130.25641026 , 4138.46153846 , 2029.0 , 2033.0 , 7.529 , 0.0 , 0.0 , 0.0 , 0.0 , 

77.0 , 4133.84615385 , 4125.64102564 , 4141.02564103 , 4137.43589744 , 4135.8974359 , 4134.35897436 , 4131.79487179 , 4134.35897436 , 4135.38461538 , 4143.07692308 , 4175.38461538 , 4788.20512821 , 4129.23076923 , 4138.97435897 , 2028.0 , 2035.0 , 7.537 , 0.0 , 0.0 , 0.0 , 0.0 , 

78.0 , 4131.79487179 , 4127.17948718 , 4132.82051282 , 4136.41025641 , 4136.41025641 , 4133.84615385 , 4132.82051282 , 4133.33333333 , 4135.8974359 , 4142.56410256 , 4175.38461538 , 4786.66666667 , 4129.74358974 , 4137.94871795 , 2028.0 , 2034.0 , 7.546 , 0.0 , 0.0 , 0.0 , 0.0 , 

79.0 , 4136.92307692 , 4137.43589744 , 4133.84615385 , 4135.8974359 , 4135.38461538 , 4134.35897436 , 4132.82051282 , 4134.35897436 , 4134.35897436 , 4143.58974359 , 4175.38461538 , 4786.15384615 , 4131.79487179 , 4138.46153846 , 2028.0 , 2035.0 , 7.552 , 0.0 , 0.0 , 0.0 , 0.0 , 

80.0 , 4138.46153846 , 4135.38461538 , 4133.33333333 , 4136.92307692 , 4135.38461538 , 4134.35897436 , 4131.28205128 , 4135.38461538 , 4135.38461538 , 4143.07692308 , 4177.94871795 , 4784.61538462 , 4131.28205128 , 4136.92307692 , 2026.0 , 2035.0 , 7.56 , 0.0 , 0.0 , 0.0 , 0.0 , 

81.0 , 4129.23076923 , 4128.20512821 , 4126.15384615 , 4137.94871795 , 4135.8974359 , 4134.35897436 , 4134.35897436 , 4132.82051282 , 4136.92307692 , 4140.0 , 4178.46153846 , 4782.05128205 , 4130.25641026 , 4133.84615385 , 2023.0 , 2034.0 , 7.568 , 0.0 , 0.0 , 0.0 , 0.0 , 

82.0 , 4128.20512821 , 4128.71794872 , 4117.43589744 , 4136.92307692 , 4135.38461538 , 4134.35897436 , 4135.38461538 , 4130.76923077 , 4133.33333333 , 4139.48717949 , 4174.87179487 , 4783.58974359 , 4130.25641026 , 4132.30769231 , 2024.0 , 2035.0 , 7.576 , 0.0 , 0.0 , 0.0 , 0.0 , 

83.0 , 4137.43589744 , 4132.30769231 , 4113.33333333 , 4135.38461538 , 4134.87179487 , 4134.35897436 , 4135.8974359 , 4133.84615385 , 4132.82051282 , 4142.05128205 , 4175.8974359 , 4786.66666667 , 4129.23076923 , 4133.33333333 , 2024.0 , 2036.0 , 7.584 , 0.0 , 0.0 , 0.0 , 0.0 , 

84.0 , 4136.92307692 , 4131.28205128 , 4109.23076923 , 4134.87179487 , 4134.87179487 , 4134.35897436 , 4136.41025641 , 4134.87179487 , 4134.35897436 , 4139.48717949 , 4177.43589744 , 4785.12820513 , 4129.23076923 , 4131.79487179 , 2024.0 , 2036.0 , 7.592 , 0.0 , 0.0 , 0.0 , 0.0 , 

85.0 , 4131.28205128 , 4129.74358974 , 4100.51282051 , 4134.87179487 , 4134.35897436 , 4134.35897436 , 4137.94871795 , 4132.82051282 , 4133.33333333 , 4137.43589744 , 4174.87179487 , 4782.05128205 , 4128.71794872 , 4130.25641026 , 2024.0 , 2038.0 , 7.599 , 0.0 , 0.0 , 0.0 , 0.0 , 

86.0 , 4132.82051282 , 4131.28205128 , 4074.35897436 , 4136.92307692 , 4135.38461538 , 4134.35897436 , 4138.46153846 , 4131.28205128 , 4131.79487179 , 4135.8974359 , 4172.30769231 , 4780.0 , 4125.64102564 , 4129.74358974 , 2025.0 , 2040.0 , 7.614 , 0.0 , 0.0 , 0.0 , 0.0 , 

87.0 , 4133.84615385 , 4129.74358974 , 4048.71794872 , 4137.94871795 , 4136.41025641 , 4134.35897436 , 4135.8974359 , 4130.76923077 , 4130.76923077 , 4133.84615385 , 4173.84615385 , 4778.46153846 , 4124.61538462 , 4131.79487179 , 2026.0 , 2040.0 , 7.617 , 0.0 , 0.0 , 0.0 , 0.0 , 

88.0 , 4132.82051282 , 4128.71794872 , 4042.56410256 , 4135.8974359 , 4134.87179487 , 4134.35897436 , 4130.76923077 , 4130.25641026 , 4130.25641026 , 4133.84615385 , 4174.87179487 , 4780.0 , 4126.15384615 , 4134.35897436 , 2028.0 , 2038.0 , 7.634 , 0.0 , 0.0 , 0.0 , 0.0 , 

89.0 , 4134.35897436 , 4133.33333333 , 4044.1025641 , 4134.35897436 , 4134.35897436 , 4134.35897436 , 4132.30769231 , 4131.79487179 , 4131.28205128 , 4135.8974359 , 4175.38461538 , 4777.43589744 , 4127.17948718 , 4133.84615385 , 2028.0 , 2038.0 , 7.641 , 0.0 , 0.0 , 0.0 , 0.0 , 

90.0 , 4135.8974359 , 4135.38461538 , 4039.48717949 , 4135.8974359 , 4134.35897436 , 4134.35897436 , 4135.8974359 , 4133.33333333 , 4133.33333333 , 4138.46153846 , 4175.38461538 , 4773.84615385 , 4127.17948718 , 4131.28205128 , 2031.0 , 2038.0 , 7.647 , 0.0 , 0.0 , 0.0 , 0.0 , 

91.0 , 4134.87179487 , 4130.76923077 , 4038.97435897 , 4136.41025641 , 4134.87179487 , 4133.84615385 , 4133.84615385 , 4133.33333333 , 4132.82051282 , 4138.46153846 , 4174.35897436 , 4775.8974359 , 4129.74358974 , 4133.84615385 , 2032.0 , 2040.0 , 7.655 , 0.0 , 0.0 , 0.0 , 0.0 , 

92.0 , 4134.87179487 , 4127.17948718 , 4035.8974359 , 4135.38461538 , 4134.35897436 , 4134.87179487 , 4132.82051282 , 4130.76923077 , 4129.74358974 , 4136.92307692 , 4174.35897436 , 4777.43589744 , 4130.25641026 , 4135.8974359 , 2029.0 , 2040.0 , 7.662 , 0.0 , 0.0 , 0.0 , 0.0 , 

93.0 , 4133.33333333 , 4129.74358974 , 4036.41025641 , 4134.87179487 , 4134.35897436 , 4135.38461538 , 4134.87179487 , 4131.28205128 , 4132.82051282 , 4138.46153846 , 4176.41025641 , 4774.87179487 , 4129.74358974 , 4134.35897436 , 2030.0 , 2038.0 , 7.671 , 0.0 , 0.0 , 0.0 , 0.0 , 

94.0 , 4132.82051282 , 4129.74358974 , 4034.35897436 , 4134.87179487 , 4134.87179487 , 4133.84615385 , 4137.43589744 , 4135.38461538 , 4135.38461538 , 4140.51282051 , 4176.41025641 , 4770.76923077 , 4129.74358974 , 4132.82051282 , 2032.0 , 2037.0 , 7.678 , 0.0 , 0.0 , 0.0 , 0.0 , 

95.0 , 4133.84615385 , 4127.69230769 , 4040.51282051 , 4135.38461538 , 4134.35897436 , 4132.82051282 , 4133.33333333 , 4137.43589744 , 4132.30769231 , 4142.05128205 , 4173.33333333 , 4771.79487179 , 4132.82051282 , 4133.33333333 , 2031.0 , 2037.0 , 7.686 , 0.0 , 0.0 , 0.0 , 0.0 , 

96.0 , 4132.82051282 , 4129.74358974 , 4049.23076923 , 4135.8974359 , 4134.35897436 , 4134.35897436 , 4128.20512821 , 4133.84615385 , 4134.35897436 , 4144.1025641 , 4173.84615385 , 4770.25641026 , 4132.82051282 , 4135.38461538 , 2031.0 , 2038.0 , 7.694 , 0.0 , 0.0 , 0.0 , 0.0 , 

97.0 , 4132.82051282 , 4131.79487179 , 4057.94871795 , 4135.8974359 , 4134.35897436 , 4135.8974359 , 4128.71794872 , 4133.33333333 , 4141.02564103 , 4143.58974359 , 4177.94871795 , 4769.74358974 , 4130.76923077 , 4139.48717949 , 2032.0 , 2036.0 , 7.702 , 0.0 , 0.0 , 0.0 , 0.0 , 

98.0 , 4135.38461538 , 4130.76923077 , 4066.66666667 , 4135.8974359 , 4133.84615385 , 4134.87179487 , 4126.15384615 , 4136.41025641 , 4138.46153846 , 4141.53846154 , 4177.94871795 , 4770.76923077 , 4131.28205128 , 4138.97435897 , 2031.0 , 2036.0 , 7.71 , 0.0 , 0.0 , 0.0 , 0.0 , 

99.0 , 4135.38461538 , 4129.23076923 , 4080.0 , 4135.38461538 , 4133.33333333 , 4132.82051282 , 4126.15384615 , 4137.43589744 , 4136.92307692 , 4145.12820513 , 4175.8974359 , 4768.20512821 , 4133.33333333 , 4138.46153846 , 2032.0 , 2040.0 , 7.718 , 0.0 , 0.0 , 0.0 , 0.0 , 

100.0 , 4135.38461538 , 4129.74358974 , 4098.46153846 , 4136.41025641 , 4133.84615385 , 4133.33333333 , 4134.87179487 , 4138.46153846 , 4142.56410256 , 4147.17948718 , 4176.92307692 , 4765.64102564 , 4135.8974359 , 4140.51282051 , 2032.0 , 2041.0 , 7.726 , 0.0 , 0.0 , 0.0 , 0.0 , 

101.0 , 4136.41025641 , 4132.82051282 , 4094.87179487 , 4135.8974359 , 4135.38461538 , 4134.35897436 , 4138.46153846 , 4137.43589744 , 4140.51282051 , 4142.56410256 , 4177.43589744 , 4764.61538462 , 4134.87179487 , 4136.92307692 , 2032.0 , 2041.0 , 7.734 , 0.0 , 0.0 , 0.0 , 0.0 , 

102.0 , 4133.33333333 , 4133.84615385 , 4084.1025641 , 4135.38461538 , 4135.8974359 , 4134.35897436 , 4134.35897436 , 4135.8974359 , 4134.35897436 , 4142.56410256 , 4175.8974359 , 4766.15384615 , 4132.82051282 , 4133.84615385 , 2031.0 , 2042.0 , 7.741 , 0.0 , 0.0 , 0.0 , 0.0 , 

103.0 , 4130.76923077 , 4131.28205128 , 4083.07692308 , 4136.92307692 , 4134.87179487 , 4134.87179487 , 4134.87179487 , 4137.43589744 , 4134.35897436 , 4145.12820513 , 4175.8974359 , 4766.66666667 , 4131.79487179 , 4135.38461538 , 2031.0 , 2043.0 , 7.749 , 0.0 , 0.0 , 0.0 , 0.0 , 

104.0 , 4134.87179487 , 4129.74358974 , 4078.97435897 , 4137.43589744 , 4134.35897436 , 4135.38461538 , 4133.84615385 , 4135.8974359 , 4136.92307692 , 4140.0 , 4177.94871795 , 4763.07692308 , 4130.76923077 , 4135.8974359 , 2033.0 , 2040.0 , 7.757 , 0.0 , 0.0 , 0.0 , 0.0 , 

105.0 , 4135.8974359 , 4130.25641026 , 4053.33333333 , 4135.38461538 , 4134.35897436 , 4133.84615385 , 4128.71794872 , 4130.25641026 , 4135.38461538 , 4134.35897436 , 4176.41025641 , 4757.43589744 , 4128.20512821 , 4132.82051282 , 2033.0 , 2040.0 , 7.765 , 0.0 , 0.0 , 0.0 , 0.0 , 

106.0 , 4135.8974359 , 4129.74358974 , 4042.05128205 , 4135.8974359 , 4134.35897436 , 4132.82051282 , 4130.25641026 , 4130.76923077 , 4134.87179487 , 4140.0 , 4174.87179487 , 4755.8974359 , 4129.23076923 , 4132.30769231 , 2034.0 , 2037.0 , 7.773 , 0.0 , 0.0 , 0.0 , 0.0 , 

107.0 , 4135.8974359 , 4129.23076923 , 4049.23076923 , 4136.92307692 , 4133.84615385 , 4133.33333333 , 4133.84615385 , 4131.28205128 , 4135.38461538 , 4145.12820513 , 4174.87179487 , 4755.38461538 , 4130.25641026 , 4133.33333333 , 2034.0 , 2035.0 , 7.781 , 0.0 , 0.0 , 0.0 , 0.0 , 

108.0 , 4135.38461538 , 4129.74358974 , 4062.56410256 , 4134.87179487 , 4134.35897436 , 4133.33333333 , 4134.35897436 , 4131.28205128 , 4135.38461538 , 4140.51282051 , 4177.43589744 , 4754.87179487 , 4130.76923077 , 4134.35897436 , 2033.0 , 2034.0 , 7.789 , 0.0 , 0.0 , 0.0 , 0.0 , 

109.0 , 4135.38461538 , 4128.71794872 , 4073.84615385 , 4134.35897436 , 4134.35897436 , 4132.82051282 , 4131.28205128 , 4134.87179487 , 4137.43589744 , 4138.97435897 , 4178.97435897 , 4756.92307692 , 4132.30769231 , 4135.8974359 , 2033.0 , 2032.0 , 7.797 , 0.0 , 0.0 , 0.0 , 0.0 , 

110.0 , 4135.8974359 , 4130.76923077 , 4094.87179487 , 4135.8974359 , 4133.84615385 , 4133.33333333 , 4128.20512821 , 4136.92307692 , 4140.0 , 4144.61538462 , 4177.94871795 , 4758.46153846 , 4134.35897436 , 4137.43589744 , 2032.0 , 2033.0 , 7.805 , 0.0 , 0.0 , 0.0 , 0.0 , 

111.0 , 4135.38461538 , 4134.87179487 , 4102.05128205 , 4134.87179487 , 4134.87179487 , 4133.33333333 , 4131.79487179 , 4136.41025641 , 4140.51282051 , 4144.61538462 , 4176.41025641 , 4755.38461538 , 4134.35897436 , 4138.46153846 , 2032.0 , 2031.0 , 7.812 , 0.0 , 0.0 , 0.0 , 0.0 , 

112.0 , 4135.8974359 , 4134.87179487 , 4100.0 , 4134.87179487 , 4135.8974359 , 4132.82051282 , 4135.38461538 , 4138.97435897 , 4140.0 , 4143.07692308 , 4175.8974359 , 4754.35897436 , 4135.38461538 , 4138.46153846 , 2031.0 , 2031.0 , 7.82 , 0.0 , 0.0 , 0.0 , 0.0 , 

113.0 , 4137.43589744 , 4133.84615385 , 4098.46153846 , 4135.8974359 , 4134.87179487 , 4133.84615385 , 4131.79487179 , 4136.41025641 , 4137.43589744 , 4143.58974359 , 4175.38461538 , 4752.82051282 , 4133.84615385 , 4137.94871795 , 2030.0 , 2035.0 , 7.829 , 0.0 , 0.0 , 0.0 , 0.0 , 

114.0 , 4134.87179487 , 4132.30769231 , 4098.46153846 , 4135.8974359 , 4134.35897436 , 4135.38461538 , 4131.28205128 , 4132.30769231 , 4136.41025641 , 4145.64102564 , 4176.41025641 , 4750.25641026 , 4132.82051282 , 4140.0 , 2030.0 , 2034.0 , 7.836 , 0.0 , 0.0 , 0.0 , 0.0 , 

115.0 , 4131.79487179 , 4130.25641026 , 4090.76923077 , 4135.38461538 , 4135.38461538 , 4134.87179487 , 4135.38461538 , 4132.82051282 , 4135.38461538 , 4143.58974359 , 4174.35897436 , 4749.74358974 , 4131.79487179 , 4140.0 , 2028.0 , 2035.0 , 7.844 , 0.0 , 0.0 , 0.0 , 0.0 , 

116.0 , 4132.82051282 , 4130.25641026 , 4086.66666667 , 4134.87179487 , 4135.38461538 , 4133.84615385 , 4136.41025641 , 4135.38461538 , 4134.87179487 , 4143.07692308 , 4174.35897436 , 4749.74358974 , 4130.76923077 , 4136.41025641 , 2028.0 , 2035.0 , 7.852 , 0.0 , 0.0 , 0.0 , 0.0 , 

117.0 , 4136.41025641 , 4133.84615385 , 4090.25641026 , 4135.38461538 , 4135.38461538 , 4134.35897436 , 4132.82051282 , 4135.38461538 , 4136.41025641 , 4144.61538462 , 4177.43589744 , 4747.69230769 , 4129.23076923 , 4134.87179487 , 2028.0 , 2034.0 , 7.86 , 0.0 , 0.0 , 0.0 , 0.0 , 

118.0 , 4135.8974359 , 4133.84615385 , 4092.30769231 , 4135.38461538 , 4135.38461538 , 4134.35897436 , 4131.28205128 , 4134.35897436 , 4140.0 , 4145.12820513 , 4178.46153846 , 4744.1025641 , 4130.25641026 , 4135.38461538 , 2030.0 , 2035.0 , 7.868 , 0.0 , 0.0 , 0.0 , 0.0 , 

119.0 , 4133.84615385 , 4130.25641026 , 4100.51282051 , 4134.35897436 , 4135.38461538 , 4134.35897436 , 4134.35897436 , 4134.87179487 , 4138.46153846 , 4146.66666667 , 4176.92307692 , 4745.64102564 , 4131.28205128 , 4135.8974359 , 2028.0 , 2035.0 , 7.876 , 0.0 , 0.0 , 0.0 , 0.0 , 

120.0 , 4136.41025641 , 4128.20512821 , 4109.23076923 , 4134.87179487 , 4135.8974359 , 4134.35897436 , 4134.35897436 , 4135.8974359 , 4137.43589744 , 4146.66666667 , 4177.43589744 , 4748.71794872 , 4130.76923077 , 4135.38461538 , 2030.0 , 2032.0 , 7.883 , 0.0 , 0.0 , 0.0 , 0.0 , 

121.0 , 4136.92307692 , 4133.33333333 , 4114.35897436 , 4136.92307692 , 4135.8974359 , 4134.35897436 , 4132.82051282 , 4137.43589744 , 4139.48717949 , 4146.15384615 , 4177.43589744 , 4745.64102564 , 4131.28205128 , 4137.94871795 , 2030.0 , 2033.0 , 7.891 , 0.0 , 0.0 , 0.0 , 0.0 , 

122.0 , 4134.35897436 , 4134.87179487 , 4108.71794872 , 4136.41025641 , 4134.87179487 , 4134.35897436 , 4133.33333333 , 4134.87179487 , 4138.46153846 , 4145.64102564 , 4176.92307692 , 4742.56410256 , 4130.76923077 , 4136.41025641 , 2029.0 , 2033.0 , 7.899 , 0.0 , 0.0 , 0.0 , 0.0 , 

123.0 , 4134.87179487 , 4133.33333333 , 4106.15384615 , 4134.87179487 , 4134.87179487 , 4134.35897436 , 4135.38461538 , 4134.35897436 , 4138.97435897 , 4145.12820513 , 4178.46153846 , 4742.56410256 , 4130.76923077 , 4133.33333333 , 2029.0 , 2033.0 , 7.907 , 0.0 , 0.0 , 0.0 , 0.0 , 

124.0 , 4135.8974359 , 4135.38461538 , 4102.05128205 , 4134.35897436 , 4135.8974359 , 4134.35897436 , 4134.87179487 , 4136.92307692 , 4138.46153846 , 4143.58974359 , 4176.92307692 , 4743.07692308 , 4131.79487179 , 4134.35897436 , 2027.0 , 2034.0 , 7.915 , 0.0 , 0.0 , 0.0 , 0.0 , 

125.0 , 4135.38461538 , 4133.33333333 , 4099.48717949 , 4135.38461538 , 4136.41025641 , 4134.35897436 , 4133.84615385 , 4136.41025641 , 4136.41025641 , 4143.58974359 , 4175.8974359 , 4742.05128205 , 4132.82051282 , 4135.8974359 , 2026.0 , 2033.0 , 7.923 , 0.0 , 0.0 , 0.0 , 0.0 , 

126.0 , 4133.84615385 , 4128.71794872 , 4089.74358974 , 4137.43589744 , 4135.38461538 , 4134.35897436 , 4131.28205128 , 4131.28205128 , 4135.8974359 , 4143.07692308 , 4177.94871795 , 4738.97435897 , 4131.79487179 , 4134.35897436 , 2027.0 , 2031.0 , 7.931 , 0.0 , 0.0 , 0.0 , 0.0 , 

127.0 , 4134.87179487 , 4131.28205128 , 4084.61538462 , 4137.43589744 , 4134.87179487 , 4134.35897436 , 4131.79487179 , 4132.30769231 , 4134.87179487 , 4143.07692308 , 4178.97435897 , 4740.0 , 4132.82051282 , 4134.35897436 , 2029.0 , 2031.0 , 7.938 , 0.0 , 0.0 , 0.0 , 0.0 , 

128.0 , 4134.87179487 , 4131.79487179 , 4083.07692308 , 4135.8974359 , 4134.87179487 , 4134.35897436 , 4135.8974359 , 4136.92307692 , 4131.79487179 , 4141.53846154 , 4176.41025641 , 4739.48717949 , 4132.30769231 , 4135.38461538 , 2028.0 , 2032.0 , 7.946 , 0.0 , 0.0 , 0.0 , 0.0 , 

0.0 , 4133.33333333 , 4130.25641026 , 4084.1025641 , 4136.41025641 , 4135.38461538 , 4134.35897436 , 4135.38461538 , 4136.92307692 , 4134.35897436 , 4141.53846154 , 4174.87179487 , 4737.43589744 , 4131.28205128 , 4137.94871795 , 2026.0 , 2033.0 , 7.954 , 0.0 , 0.0 , 0.0 , 0.0 , 

1.0 , 4135.8974359 , 4135.38461538 , 4074.35897436 , 4137.43589744 , 4134.87179487 , 4134.35897436 , 4131.28205128 , 4133.33333333 , 4135.8974359 , 4142.56410256 , 4174.35897436 , 4735.38461538 , 4130.25641026 , 4137.94871795 , 2026.0 , 2035.0 , 7.962 , 0.0 , 0.0 , 0.0 , 0.0 , 

2.0 , 4136.41025641 , 4133.84615385 , 4061.53846154 , 4136.41025641 , 4134.87179487 , 4134.35897436 , 4133.33333333 , 4133.33333333 , 4132.82051282 , 4141.02564103 , 4175.8974359 , 4735.38461538 , 4129.23076923 , 4135.38461538 , 2025.0 , 2037.0 , 7.97 , 0.0 , 0.0 , 0.0 , 0.0 , 

3.0 , 4132.30769231 , 4127.17948718 , 4051.28205128 , 4135.8974359 , 4135.8974359 , 4134.35897436 , 4135.8974359 , 4131.28205128 , 4133.33333333 , 4137.94871795 , 4176.92307692 , 4732.30769231 , 4128.71794872 , 4133.33333333 , 2024.0 , 2039.0 , 7.978 , 0.0 , 0.0 , 0.0 , 0.0 , 

4.0 , 4132.82051282 , 4132.82051282 , 4044.1025641 , 4136.41025641 , 4135.8974359 , 4134.35897436 , 4135.38461538 , 4130.76923077 , 4134.35897436 , 4136.41025641 , 4175.38461538 , 4729.23076923 , 4130.76923077 , 4133.33333333 , 2023.0 , 2039.0 , 7.986 , 0.0 , 0.0 , 0.0 , 0.0 , 

5.0 , 4136.92307692 , 4133.33333333 , 4034.87179487 , 4134.87179487 , 4133.84615385 , 4134.35897436 , 4135.38461538 , 4132.30769231 , 4131.28205128 , 4134.87179487 , 4174.87179487 , 4729.74358974 , 4130.76923077 , 4133.84615385 , 2023.0 , 2041.0 , 7.994 , 0.0 , 0.0 , 0.0 , 0.0 , 

6.0 , 4135.8974359 , 4128.20512821 , 4034.35897436 , 4134.35897436 , 4133.33333333 , 4134.35897436 , 4136.92307692 , 4132.82051282 , 4131.28205128 , 4137.43589744 , 4177.43589744 , 4729.74358974 , 4128.71794872 , 4134.87179487 , 2023.0 , 2040.0 , 8.002 , 0.0 , 0.0 , 0.0 , 0.0 , 

7.0 , 4134.35897436 , 4132.82051282 , 4044.61538462 , 4135.8974359 , 4134.87179487 , 4134.35897436 , 4135.8974359 , 4131.79487179 , 4133.33333333 , 4142.56410256 , 4177.94871795 , 4727.17948718 , 4129.23076923 , 4134.87179487 , 2023.0 , 2039.0 , 8.01 , 0.0 , 0.0 , 0.0 , 0.0 , 

8.0 , 4135.8974359 , 4134.87179487 , 4050.25641026 , 4134.87179487 , 4135.38461538 , 4134.35897436 , 4134.35897436 , 4131.79487179 , 4135.8974359 , 4142.56410256 , 4176.41025641 , 4724.1025641 , 4130.25641026 , 4133.84615385 , 2021.0 , 2038.0 , 8.017 , 0.0 , 0.0 , 0.0 , 0.0 , 

9.0 , 4135.8974359 , 4129.74358974 , 4053.33333333 , 4133.84615385 , 4134.87179487 , 4134.35897436 , 4136.41025641 , 4132.30769231 , 4138.46153846 , 4141.53846154 , 4175.8974359 , 4725.12820513 , 4131.28205128 , 4134.35897436 , 2022.0 , 2039.0 , 8.025 , 0.0 , 0.0 , 0.0 , 0.0 , 

10.0 , 4136.41025641 , 4129.23076923 , 4064.1025641 , 4135.38461538 , 4134.87179487 , 4134.87179487 , 4136.41025641 , 4134.87179487 , 4140.51282051 , 4143.07692308 , 4176.92307692 , 4727.17948718 , 4132.30769231 , 4136.92307692 , 2021.0 , 2039.0 , 8.032 , 0.0 , 0.0 , 0.0 , 0.0 , 

11.0 , 4134.87179487 , 4134.35897436 , 4087.17948718 , 4136.41025641 , 4135.38461538 , 4135.38461538 , 4135.8974359 , 4140.0 , 4142.05128205 , 4145.64102564 , 4177.94871795 , 4724.61538462 , 4133.33333333 , 4140.0 , 2023.0 , 2037.0 , 8.04 , 0.0 , 0.0 , 0.0 , 0.0 , 

12.0 , 4132.30769231 , 4134.87179487 , 4096.41025641 , 4135.8974359 , 4135.38461538 , 4134.87179487 , 4135.8974359 , 4137.43589744 , 4142.56410256 , 4147.69230769 , 4178.46153846 , 4722.05128205 , 4132.82051282 , 4137.94871795 , 2021.0 , 2039.0 , 8.049 , 0.0 , 0.0 , 0.0 , 0.0 , 

13.0 , 4135.38461538 , 4130.25641026 , 4098.97435897 , 4135.38461538 , 4135.38461538 , 4134.87179487 , 4136.41025641 , 4134.35897436 , 4142.05128205 , 4146.66666667 , 4181.02564103 , 4723.58974359 , 4132.82051282 , 4134.35897436 , 2021.0 , 2041.0 , 8.056 , 0.0 , 0.0 , 0.0 , 0.0 , 

14.0 , 4137.43589744 , 4126.15384615 , 4100.51282051 , 4135.8974359 , 4134.87179487 , 4135.8974359 , 4136.41025641 , 4135.38461538 , 4141.02564103 , 4144.1025641 , 4180.0 , 4721.02564103 , 4130.76923077 , 4137.43589744 , 2020.0 , 2042.0 , 8.065 , 0.0 , 0.0 , 0.0 , 0.0 , 

15.0 , 4132.82051282 , 4131.28205128 , 4113.33333333 , 4135.8974359 , 4135.38461538 , 4132.30769231 , 4135.38461538 , 4137.43589744 , 4141.53846154 , 4146.15384615 , 4177.94871795 , 4720.0 , 4132.82051282 , 4140.51282051 , 2019.0 , 2042.0 , 8.072 , 0.0 , 0.0 , 0.0 , 0.0 , 

16.0 , 4131.28205128 , 4136.41025641 , 4116.41025641 , 4136.41025641 , 4134.87179487 , 4131.28205128 , 4136.92307692 , 4136.41025641 , 4140.51282051 , 4144.1025641 , 4178.97435897 , 4721.02564103 , 4136.41025641 , 4135.38461538 , 2018.0 , 2041.0 , 8.081 , 0.0 , 0.0 , 0.0 , 0.0 , 

17.0 , 4135.38461538 , 4133.33333333 , 4113.33333333 , 4135.38461538 , 4134.87179487 , 4135.38461538 , 4135.8974359 , 4137.43589744 , 4140.0 , 4143.07692308 , 4180.51282051 , 4718.97435897 , 4133.84615385 , 4134.35897436 , 2019.0 , 2041.0 , 8.089 , 0.0 , 0.0 , 0.0 , 0.0 , 

18.0 , 4136.41025641 , 4133.33333333 , 4116.41025641 , 4134.87179487 , 4134.87179487 , 4136.41025641 , 4129.23076923 , 4137.94871795 , 4142.05128205 , 4147.17948718 , 4178.97435897 , 4718.97435897 , 4131.28205128 , 4141.02564103 , 2020.0 , 2041.0 , 8.097 , 0.0 , 0.0 , 0.0 , 0.0 , 

19.0 , 4135.8974359 , 4131.28205128 , 4131.79487179 , 4135.8974359 , 4134.87179487 , 4134.35897436 , 4126.15384615 , 4135.8974359 , 4143.58974359 , 4147.17948718 , 4177.43589744 , 4722.05128205 , 4134.87179487 , 4142.56410256 , 2019.0 , 2037.0 , 8.104 , 0.0 , 0.0 , 0.0 , 0.0 , 

20.0 , 4135.8974359 , 4127.69230769 , 4136.41025641 , 4136.92307692 , 4134.87179487 , 4133.84615385 , 4128.20512821 , 4134.87179487 , 4143.07692308 , 4144.1025641 , 4177.43589744 , 4717.43589744 , 4134.35897436 , 4136.41025641 , 2019.0 , 2035.0 , 8.113 , 0.0 , 0.0 , 0.0 , 0.0 , 

21.0 , 4136.92307692 , 4130.25641026 , 4138.97435897 , 4135.38461538 , 4134.87179487 , 4134.35897436 , 4130.25641026 , 4137.94871795 , 4143.58974359 , 4146.66666667 , 4178.97435897 , 4713.84615385 , 4131.28205128 , 4136.92307692 , 2020.0 , 2033.0 , 8.12 , 0.0 , 0.0 , 0.0 , 0.0 , 

22.0 , 4136.41025641 , 4131.28205128 , 4145.64102564 , 4135.8974359 , 4134.87179487 , 4133.33333333 , 4127.69230769 , 4140.0 , 4143.07692308 , 4147.69230769 , 4178.97435897 , 4718.97435897 , 4131.28205128 , 4141.53846154 , 2021.0 , 2032.0 , 8.128 , 0.0 , 0.0 , 0.0 , 0.0 , 

23.0 , 4134.87179487 , 4130.25641026 , 4150.25641026 , 4134.87179487 , 4134.87179487 , 4133.84615385 , 4129.23076923 , 4140.0 , 4140.0 , 4144.61538462 , 4177.43589744 , 4721.02564103 , 4132.82051282 , 4140.0 , 2022.0 , 2030.0 , 8.136 , 0.0 , 0.0 , 0.0 , 0.0 , 

24.0 , 4134.35897436 , 4134.35897436 , 4153.84615385 , 4132.82051282 , 4134.87179487 , 4136.41025641 , 4134.87179487 , 4137.94871795 , 4140.0 , 4143.07692308 , 4175.38461538 , 4715.38461538 , 4131.79487179 , 4135.8974359 , 2022.0 , 2030.0 , 8.143 , 0.0 , 0.0 , 0.0 , 0.0 , 

25.0 , 4134.87179487 , 4135.38461538 , 4164.61538462 , 4133.84615385 , 4135.8974359 , 4136.41025641 , 4137.43589744 , 4135.38461538 , 4144.1025641 , 4145.64102564 , 4176.41025641 , 4714.87179487 , 4132.30769231 , 4136.41025641 , 2022.0 , 2031.0 , 8.151 , 0.0 , 0.0 , 0.0 , 0.0 , 

26.0 , 4134.87179487 , 4131.79487179 , 4173.84615385 , 4135.8974359 , 4135.8974359 , 4130.25641026 , 4136.41025641 , 4136.92307692 , 4144.1025641 , 4145.64102564 , 4178.46153846 , 4716.92307692 , 4133.84615385 , 4138.97435897 , 2023.0 , 2034.0 , 8.159 , 0.0 , 0.0 , 0.0 , 0.0 , 

27.0 , 4134.87179487 , 4132.30769231 , 4164.1025641 , 4135.38461538 , 4135.38461538 , 4129.74358974 , 4135.8974359 , 4139.48717949 , 4137.94871795 , 4141.02564103 , 4178.46153846 , 4716.41025641 , 4132.82051282 , 4140.0 , 2024.0 , 2035.0 , 8.167 , 0.0 , 0.0 , 0.0 , 0.0 , 

28.0 , 4135.38461538 , 4133.84615385 , 4150.25641026 , 4135.8974359 , 4135.38461538 , 4135.38461538 , 4135.38461538 , 4136.41025641 , 4136.41025641 , 4137.43589744 , 4174.87179487 , 4712.82051282 , 4131.79487179 , 4136.92307692 , 2025.0 , 2035.0 , 8.175 , 0.0 , 0.0 , 0.0 , 0.0 , 

29.0 , 4134.87179487 , 4133.33333333 , 4136.41025641 , 4136.92307692 , 4135.38461538 , 4135.8974359 , 4134.87179487 , 4131.79487179 , 4139.48717949 , 4138.97435897 , 4174.35897436 , 4711.79487179 , 4132.30769231 , 4135.8974359 , 2025.0 , 2035.0 , 8.182 , 0.0 , 0.0 , 0.0 , 0.0 , 

30.0 , 4135.38461538 , 4133.84615385 , 4133.33333333 , 4135.8974359 , 4136.41025641 , 4133.33333333 , 4136.41025641 , 4133.84615385 , 4140.51282051 , 4140.51282051 , 4176.92307692 , 4715.8974359 , 4130.25641026 , 4141.53846154 , 2026.0 , 2034.0 , 8.191 , 0.0 , 0.0 , 0.0 , 0.0 , 

31.0 , 4135.38461538 , 4132.82051282 , 4134.87179487 , 4133.84615385 , 4135.8974359 , 4133.84615385 , 4136.41025641 , 4135.8974359 , 4139.48717949 , 4140.51282051 , 4177.43589744 , 4715.38461538 , 4127.17948718 , 4142.56410256 , 2027.0 , 2032.0 , 8.198 , 0.0 , 0.0 , 0.0 , 0.0 , 

32.0 , 4135.38461538 , 4135.38461538 , 4137.94871795 , 4134.35897436 , 4135.8974359 , 4133.84615385 , 4135.38461538 , 4135.38461538 , 4139.48717949 , 4145.12820513 , 4177.43589744 , 4713.84615385 , 4131.79487179 , 4137.43589744 , 2027.0 , 2030.0 , 8.206 , 0.0 , 0.0 , 0.0 , 0.0 , 

33.0 , 4135.38461538 , 4136.41025641 , 4143.07692308 , 4135.8974359 , 4136.41025641 , 4132.82051282 , 4136.92307692 , 4133.84615385 , 4136.41025641 , 4144.61538462 , 4177.94871795 , 4716.41025641 , 4133.84615385 , 4135.8974359 , 2029.0 , 2029.0 , 8.299 , 0.0 , 0.0 , 0.0 , 0.0 , 

34.0 , 4135.38461538 , 4132.30769231 , 4165.64102564 , 4135.8974359 , 4135.38461538 , 4132.82051282 , 4134.87179487 , 4136.41025641 , 4136.92307692 , 4144.1025641 , 4178.97435897 , 4718.46153846 , 4130.76923077 , 4136.92307692 , 2031.0 , 2030.0 , 8.303 , 0.0 , 0.0 , 0.0 , 0.0 , 

35.0 , 4135.38461538 , 4131.28205128 , 4176.92307692 , 4134.87179487 , 4135.38461538 , 4133.33333333 , 4130.25641026 , 4137.94871795 , 4141.53846154 , 4144.61538462 , 4177.94871795 , 4716.92307692 , 4130.25641026 , 4136.41025641 , 2031.0 , 2031.0 , 8.303 , 0.0 , 0.0 , 0.0 , 0.0 , 

36.0 , 4135.38461538 , 4133.33333333 , 4174.35897436 , 4135.8974359 , 4136.41025641 , 4135.8974359 , 4128.71794872 , 4136.92307692 , 4142.05128205 , 4147.17948718 , 4177.43589744 , 4716.41025641 , 4132.82051282 , 4136.92307692 , 2032.0 , 2035.0 , 8.303 , 0.0 , 0.0 , 0.0 , 0.0 , 

37.0 , 4135.38461538 , 4133.33333333 , 4171.28205128 , 4135.8974359 , 4135.8974359 , 4136.41025641 , 4131.79487179 , 4136.92307692 , 4140.0 , 4146.66666667 , 4177.94871795 , 4718.46153846 , 4132.82051282 , 4134.87179487 , 2031.0 , 2040.0 , 8.303 , 0.0 , 0.0 , 0.0 , 0.0 , 

38.0 , 4134.87179487 , 4133.33333333 , 4172.82051282 , 4134.35897436 , 4134.87179487 , 4134.87179487 , 4134.35897436 , 4140.51282051 , 4140.0 , 4142.56410256 , 4178.46153846 , 4721.02564103 , 4132.30769231 , 4135.8974359 , 2031.0 , 2042.0 , 8.303 , 0.0 , 0.0 , 0.0 , 0.0 , 

39.0 , 4135.8974359 , 4133.84615385 , 4159.48717949 , 4135.38461538 , 4134.87179487 , 4134.87179487 , 4135.8974359 , 4138.46153846 , 4136.92307692 , 4139.48717949 , 4176.92307692 , 4721.02564103 , 4130.25641026 , 4138.97435897 , 2031.0 , 2043.0 , 8.303 , 0.0 , 0.0 , 0.0 , 0.0 , 

40.0 , 4134.87179487 , 4134.87179487 , 4147.69230769 , 4136.41025641 , 4134.35897436 , 4134.35897436 , 4133.33333333 , 4134.35897436 , 4133.84615385 , 4139.48717949 , 4176.41025641 , 4718.46153846 , 4129.74358974 , 4135.38461538 , 2031.0 , 2045.0 , 8.303 , 0.0 , 0.0 , 0.0 , 0.0 , 

41.0 , 4131.79487179 , 4135.38461538 , 4153.33333333 , 4135.38461538 , 4134.35897436 , 4134.35897436 , 4131.79487179 , 4134.35897436 , 4133.33333333 , 4142.05128205 , 4176.92307692 , 4717.43589744 , 4131.28205128 , 4130.25641026 , 2031.0 , 2045.0 , 8.303 , 0.0 , 0.0 , 0.0 , 0.0 , 

42.0 , 4132.82051282 , 4132.82051282 , 4168.20512821 , 4135.8974359 , 4134.35897436 , 4135.8974359 , 4133.33333333 , 4135.38461538 , 4136.92307692 , 4144.1025641 , 4174.87179487 , 4722.05128205 , 4132.82051282 , 4132.82051282 , 2032.0 , 2042.0 , 8.303 , 0.0 , 0.0 , 0.0 , 0.0 , 

43.0 , 4133.84615385 , 4135.38461538 , 4172.30769231 , 4136.41025641 , 4134.35897436 , 4135.38461538 , 4133.33333333 , 4133.84615385 , 4142.56410256 , 4144.61538462 , 4174.87179487 , 4722.56410256 , 4132.82051282 , 4136.92307692 , 2033.0 , 2040.0 , 8.303 , 0.0 , 0.0 , 0.0 , 0.0 , 

44.0 , 4132.30769231 , 4138.46153846 , 4176.41025641 , 4134.87179487 , 4135.38461538 , 4134.87179487 , 4132.30769231 , 4135.38461538 , 4142.56410256 , 4143.07692308 , 4178.46153846 , 4722.05128205 , 4133.33333333 , 4140.0 , 2034.0 , 2036.0 , 8.303 , 0.0 , 0.0 , 0.0 , 0.0 , 

45.0 , 4133.84615385 , 4131.79487179 , 4186.66666667 , 4134.35897436 , 4135.8974359 , 4135.8974359 , 4135.8974359 , 4136.92307692 , 4137.94871795 , 4143.07692308 , 4178.97435897 , 4721.53846154 , 4133.33333333 , 4141.53846154 , 2034.0 , 2033.0 , 8.309 , 0.0 , 0.0 , 0.0 , 0.0 , 

46.0 , 4137.43589744 , 4128.20512821 , 4202.05128205 , 4135.38461538 , 4133.84615385 , 4136.41025641 , 4136.41025641 , 4140.0 , 4137.94871795 , 4145.64102564 , 4177.43589744 , 4723.07692308 , 4133.84615385 , 4140.51282051 , 2034.0 , 2033.0 , 8.317 , 0.0 , 0.0 , 0.0 , 0.0 , 

47.0 , 4136.41025641 , 4130.25641026 , 4203.07692308 , 4135.8974359 , 4134.35897436 , 4135.38461538 , 4127.17948718 , 4141.02564103 , 4141.02564103 , 4144.61538462 , 4178.46153846 , 4724.1025641 , 4135.38461538 , 4137.43589744 , 2035.0 , 2032.0 , 8.325 , 0.0 , 0.0 , 0.0 , 0.0 , 

48.0 , 4133.84615385 , 4129.74358974 , 4198.97435897 , 4134.35897436 , 4136.41025641 , 4134.87179487 , 4123.58974359 , 4135.38461538 , 4143.58974359 , 4144.1025641 , 4177.94871795 , 4726.15384615 , 4134.35897436 , 4135.8974359 , 2036.0 , 2033.0 , 8.333 , 0.0 , 0.0 , 0.0 , 0.0 , 

49.0 , 4134.87179487 , 4131.79487179 , 4195.38461538 , 4134.35897436 , 4133.84615385 , 4133.84615385 , 4124.61538462 , 4130.76923077 , 4140.0 , 4142.56410256 , 4175.8974359 , 4727.17948718 , 4132.82051282 , 4136.41025641 , 2035.0 , 2035.0 , 8.341 , 0.0 , 0.0 , 0.0 , 0.0 , 

50.0 , 4137.94871795 , 4137.43589744 , 4189.74358974 , 4135.38461538 , 4131.28205128 , 4134.35897436 , 4127.69230769 , 4133.33333333 , 4135.8974359 , 4141.02564103 , 4177.94871795 , 4726.15384615 , 4132.82051282 , 4139.48717949 , 2035.0 , 2038.0 , 8.349 , 0.0 , 0.0 , 0.0 , 0.0 , 

51.0 , 4136.41025641 , 4132.30769231 , 4192.82051282 , 4135.8974359 , 4133.84615385 , 4134.87179487 , 4132.82051282 , 4135.8974359 , 4136.92307692 , 4142.56410256 , 4180.0 , 4727.69230769 , 4133.84615385 , 4137.43589744 , 2032.0 , 2041.0 , 8.356 , 0.0 , 0.0 , 0.0 , 0.0 , 

52.0 , 4132.30769231 , 4126.66666667 , 4188.20512821 , 4135.8974359 , 4135.8974359 , 4131.79487179 , 4133.84615385 , 4135.38461538 , 4138.46153846 , 4141.02564103 , 4177.43589744 , 4729.23076923 , 4132.82051282 , 4135.8974359 , 2032.0 , 2043.0 , 8.364 , 0.0 , 0.0 , 0.0 , 0.0 , 

53.0 , 4133.84615385 , 4128.20512821 , 4185.12820513 , 4135.8974359 , 4136.92307692 , 4130.25641026 , 4132.82051282 , 4135.38461538 , 4137.43589744 , 4138.97435897 , 4176.92307692 , 4729.74358974 , 4133.84615385 , 4138.46153846 , 2032.0 , 2044.0 , 8.372 , 0.0 , 0.0 , 0.0 , 0.0 , 

54.0 , 4136.92307692 , 4131.79487179 , 4177.94871795 , 4135.38461538 , 4135.8974359 , 4135.8974359 , 4135.38461538 , 4134.35897436 , 4137.43589744 , 4140.0 , 4177.43589744 , 4729.74358974 , 4135.38461538 , 4138.97435897 , 2032.0 , 2045.0 , 8.38 , 0.0 , 0.0 , 0.0 , 0.0 , 

55.0 , 4134.87179487 , 4131.28205128 , 4187.69230769 , 4134.87179487 , 4133.84615385 , 4135.38461538 , 4134.35897436 , 4135.8974359 , 4140.0 , 4144.61538462 , 4177.43589744 , 4732.82051282 , 4134.35897436 , 4137.43589744 , 2033.0 , 2044.0 , 8.388 , 0.0 , 0.0 , 0.0 , 0.0 , 

56.0 , 4133.84615385 , 4129.74358974 , 4184.61538462 , 4135.38461538 , 4134.35897436 , 4131.28205128 , 4130.76923077 , 4134.35897436 , 4138.46153846 , 4144.61538462 , 4176.92307692 , 4732.30769231 , 4131.79487179 , 4139.48717949 , 2032.0 , 2043.0 , 8.396 , 0.0 , 0.0 , 0.0 , 0.0 , 

57.0 , 4135.38461538 , 4128.20512821 , 4193.84615385 , 4135.8974359 , 4136.41025641 , 4134.35897436 , 4133.84615385 , 4133.84615385 , 4136.92307692 , 4143.07692308 , 4177.94871795 , 4732.30769231 , 4132.82051282 , 4140.51282051 , 2032.0 , 2040.0 , 8.403 , 0.0 , 0.0 , 0.0 , 0.0 , 

58.0 , 4135.38461538 , 4131.79487179 , 4192.82051282 , 4135.38461538 , 4134.35897436 , 4135.8974359 , 4133.84615385 , 4133.84615385 , 4136.41025641 , 4143.07692308 , 4176.92307692 , 4733.84615385 , 4132.30769231 , 4136.41025641 , 2031.0 , 2039.0 , 8.411 , 0.0 , 0.0 , 0.0 , 0.0 , 

59.0 , 4135.8974359 , 4133.84615385 , 4193.84615385 , 4136.41025641 , 4133.33333333 , 4131.28205128 , 4130.76923077 , 4134.87179487 , 4139.48717949 , 4143.07692308 , 4176.41025641 , 4737.43589744 , 4132.30769231 , 4136.92307692 , 2033.0 , 2037.0 , 8.419 , 0.0 , 0.0 , 0.0 , 0.0 , 

60.0 , 4136.41025641 , 4130.25641026 , 4191.28205128 , 4135.38461538 , 4134.87179487 , 4132.30769231 , 4135.38461538 , 4131.79487179 , 4138.97435897 , 4139.48717949 , 4176.41025641 , 4738.46153846 , 4131.28205128 , 4136.41025641 , 2032.0 , 2033.0 , 8.427 , 0.0 , 0.0 , 0.0 , 0.0 , 

61.0 , 4135.8974359 , 4127.17948718 , 4180.51282051 , 4135.38461538 , 4134.35897436 , 4135.38461538 , 4134.87179487 , 4136.92307692 , 4136.41025641 , 4138.46153846 , 4177.94871795 , 4738.97435897 , 4131.28205128 , 4137.43589744 , 2033.0 , 2031.0 , 8.435 , 0.0 , 0.0 , 0.0 , 0.0 , 

62.0 , 4135.8974359 , 4129.74358974 , 4170.76923077 , 4136.41025641 , 4133.84615385 , 4134.87179487 , 4132.30769231 , 4140.51282051 , 4137.43589744 , 4141.02564103 , 4177.43589744 , 4738.46153846 , 4132.30769231 , 4138.97435897 , 2034.0 , 2030.0 , 8.443 , 0.0 , 0.0 , 0.0 , 0.0 , 

63.0 , 4134.87179487 , 4128.71794872 , 4166.66666667 , 4137.43589744 , 4135.38461538 , 4134.35897436 , 4133.33333333 , 4132.82051282 , 4140.0 , 4143.07692308 , 4176.41025641 , 4738.97435897 , 4132.30769231 , 4134.87179487 , 2034.0 , 2028.0 , 8.451 , 0.0 , 0.0 , 0.0 , 0.0 , 

64.0 , 4134.87179487 , 4125.64102564 , 4171.79487179 , 4136.41025641 , 4135.8974359 , 4135.38461538 , 4129.74358974 , 4131.28205128 , 4141.53846154 , 4143.07692308 , 4176.92307692 , 4740.51282051 , 4131.28205128 , 4131.79487179 , 2036.0 , 2029.0 , 8.459 , 0.0 , 0.0 , 0.0 , 0.0 , 

65.0 , 4135.8974359 , 4128.20512821 , 4167.17948718 , 4134.87179487 , 4134.87179487 , 4134.87179487 , 4125.64102564 , 4134.35897436 , 4137.94871795 , 4143.58974359 , 4176.41025641 , 4739.48717949 , 4130.76923077 , 4137.94871795 , 2037.0 , 2031.0 , 8.467 , 0.0 , 0.0 , 0.0 , 0.0 , 

66.0 , 4135.8974359 , 4132.82051282 , 4166.15384615 , 4134.87179487 , 4133.84615385 , 4134.87179487 , 4129.23076923 , 4133.84615385 , 4134.35897436 , 4143.07692308 , 4175.38461538 , 4739.48717949 , 4131.79487179 , 4141.53846154 , 2038.0 , 2032.0 , 8.474 , 0.0 , 0.0 , 0.0 , 0.0 , 

67.0 , 4134.87179487 , 4134.35897436 , 4170.25641026 , 4135.8974359 , 4134.35897436 , 4133.84615385 , 4133.33333333 , 4132.30769231 , 4136.41025641 , 4141.02564103 , 4174.35897436 , 4740.0 , 4133.33333333 , 4136.92307692 , 2040.0 , 2034.0 , 8.482 , 0.0 , 0.0 , 0.0 , 0.0 , 

68.0 , 4135.38461538 , 4132.30769231 , 4179.48717949 , 4135.8974359 , 4134.35897436 , 4133.84615385 , 4133.33333333 , 4135.38461538 , 4139.48717949 , 4141.53846154 , 4175.8974359 , 4742.05128205 , 4132.82051282 , 4138.46153846 , 2042.0 , 2036.0 , 8.49 , 0.0 , 0.0 , 0.0 , 0.0 , 

69.0 , 4135.38461538 , 4129.23076923 , 4178.46153846 , 4135.38461538 , 4134.35897436 , 4135.8974359 , 4131.79487179 , 4134.35897436 , 4137.94871795 , 4143.07692308 , 4177.43589744 , 4743.07692308 , 4130.76923077 , 4141.02564103 , 2042.0 , 2036.0 , 8.498 , 0.0 , 0.0 , 0.0 , 0.0 , 

70.0 , 4134.35897436 , 4128.20512821 , 4172.30769231 , 4136.41025641 , 4134.35897436 , 4134.35897436 , 4132.30769231 , 4133.84615385 , 4136.41025641 , 4142.05128205 , 4180.0 , 4742.56410256 , 4132.30769231 , 4138.97435897 , 2043.0 , 2034.0 , 8.506 , 0.0 , 0.0 , 0.0 , 0.0 , 

71.0 , 4135.8974359 , 4130.76923077 , 4181.02564103 , 4136.41025641 , 4134.35897436 , 4134.87179487 , 4135.8974359 , 4134.87179487 , 4137.94871795 , 4142.56410256 , 4180.51282051 , 4745.12820513 , 4134.35897436 , 4137.94871795 , 2045.0 , 2035.0 , 8.514 , 0.0 , 0.0 , 0.0 , 0.0 , 

72.0 , 4134.87179487 , 4131.79487179 , 4188.71794872 , 4134.35897436 , 4134.35897436 , 4135.38461538 , 4134.35897436 , 4132.82051282 , 4137.94871795 , 4145.12820513 , 4178.97435897 , 4744.61538462 , 4131.79487179 , 4136.92307692 , 2047.0 , 2035.0 , 8.522 , 0.0 , 0.0 , 0.0 , 0.0 , 

73.0 , 4131.79487179 , 4129.74358974 , 4185.64102564 , 4134.35897436 , 4134.35897436 , 4132.82051282 , 4128.20512821 , 4131.28205128 , 4137.43589744 , 4144.61538462 , 4178.97435897 , 4743.07692308 , 4132.30769231 , 4136.41025641 , 2047.0 , 2035.0 , 8.53 , 0.0 , 0.0 , 0.0 , 0.0 , 

74.0 , 4132.82051282 , 4131.79487179 , 4190.76923077 , 4136.41025641 , 4134.35897436 , 4132.82051282 , 4131.28205128 , 4133.84615385 , 4137.94871795 , 4142.05128205 , 4178.97435897 , 4749.74358974 , 4136.92307692 , 4137.94871795 , 2047.0 , 2037.0 , 8.538 , 0.0 , 0.0 , 0.0 , 0.0 , 

75.0 , 4136.41025641 , 4134.35897436 , 4185.12820513 , 4136.41025641 , 4134.35897436 , 4135.8974359 , 4136.92307692 , 4134.35897436 , 4137.94871795 , 4141.53846154 , 4177.43589744 , 4752.30769231 , 4134.87179487 , 4138.46153846 , 2047.0 , 2038.0 , 8.547 , 0.0 , 0.0 , 0.0 , 0.0 , 

76.0 , 4135.8974359 , 4130.76923077 , 4177.43589744 , 4135.38461538 , 4134.35897436 , 4135.38461538 , 4135.38461538 , 4133.33333333 , 4136.41025641 , 4143.07692308 , 4176.41025641 , 4746.15384615 , 4131.79487179 , 4140.51282051 , 2047.0 , 2036.0 , 8.553 , 0.0 , 0.0 , 0.0 , 0.0 , 

77.0 , 4133.33333333 , 4129.74358974 , 4173.84615385 , 4135.38461538 , 4135.8974359 , 4134.87179487 , 4134.35897436 , 4131.79487179 , 4135.38461538 , 4142.05128205 , 4175.38461538 , 4746.66666667 , 4131.28205128 , 4142.56410256 , 2049.0 , 2034.0 , 8.562 , 0.0 , 0.0 , 0.0 , 0.0 , 

78.0 , 4132.82051282 , 4130.25641026 , 4170.25641026 , 4134.35897436 , 4137.43589744 , 4133.84615385 , 4134.87179487 , 4133.84615385 , 4136.41025641 , 4141.02564103 , 4175.8974359 , 4751.28205128 , 4130.76923077 , 4137.43589744 , 2050.0 , 2035.0 , 8.569 , 0.0 , 0.0 , 0.0 , 0.0 , 

79.0 , 4135.38461538 , 4128.71794872 , 4166.15384615 , 4134.87179487 , 4136.92307692 , 4130.76923077 , 4136.41025641 , 4135.8974359 , 4136.41025641 , 4143.07692308 , 4177.43589744 , 4748.20512821 , 4132.82051282 , 4133.84615385 , 2053.0 , 2033.0 , 8.577 , 0.0 , 0.0 , 0.0 , 0.0 , 

80.0 , 4137.43589744 , 4132.30769231 , 4164.61538462 , 4134.87179487 , 4135.8974359 , 4132.30769231 , 4135.8974359 , 4134.87179487 , 4136.41025641 , 4145.12820513 , 4176.92307692 , 4749.23076923 , 4134.87179487 , 4137.94871795 , 2054.0 , 2034.0 , 8.585 , 0.0 , 0.0 , 0.0 , 0.0 , 

81.0 , 4134.35897436 , 4134.87179487 , 4168.71794872 , 4134.35897436 , 4135.38461538 , 4133.84615385 , 4133.33333333 , 4132.30769231 , 4138.46153846 , 4142.56410256 , 4174.87179487 , 4753.84615385 , 4132.82051282 , 4138.97435897 , 2056.0 , 2037.0 , 8.593 , 0.0 , 0.0 , 0.0 , 0.0 , 

82.0 , 4132.82051282 , 4129.23076923 , 4165.64102564 , 4133.33333333 , 4134.87179487 , 4132.30769231 , 4133.33333333 , 4131.28205128 , 4140.0 , 4141.02564103 , 4176.41025641 , 4751.28205128 , 4130.76923077 , 4136.92307692 , 2057.0 , 2038.0 , 8.6 , 0.0 , 0.0 , 0.0 , 0.0 , 

83.0 , 4133.84615385 , 4131.28205128 , 4170.76923077 , 4133.84615385 , 4134.87179487 , 4134.35897436 , 4133.84615385 , 4133.33333333 , 4137.43589744 , 4141.53846154 , 4177.94871795 , 4753.84615385 , 4134.35897436 , 4138.46153846 , 2058.0 , 2038.0 , 8.607 , 0.0 , 0.0 , 0.0 , 0.0 , 

84.0 , 4134.87179487 , 4138.46153846 , 4161.02564103 , 4134.35897436 , 4135.38461538 , 4137.43589744 , 4131.28205128 , 4133.84615385 , 4134.87179487 , 4138.97435897 , 4175.38461538 , 4755.8974359 , 4133.84615385 , 4140.0 , 2060.0 , 2042.0 , 8.616 , 0.0 , 0.0 , 0.0 , 0.0 , 

85.0 , 4133.33333333 , 4134.35897436 , 4156.92307692 , 4133.33333333 , 4135.38461538 , 4133.84615385 , 4132.82051282 , 4135.38461538 , 4137.43589744 , 4138.46153846 , 4173.84615385 , 4753.33333333 , 4131.79487179 , 4139.48717949 , 2059.0 , 2042.0 , 8.624 , 0.0 , 0.0 , 0.0 , 0.0 , 

86.0 , 4132.82051282 , 4130.25641026 , 4157.94871795 , 4134.35897436 , 4134.87179487 , 4131.28205128 , 4136.41025641 , 4134.35897436 , 4136.92307692 , 4141.53846154 , 4173.84615385 , 4751.79487179 , 4132.82051282 , 4138.97435897 , 2063.0 , 2038.0 , 8.632 , 0.0 , 0.0 , 0.0 , 0.0 , 

87.0 , 4134.35897436 , 4134.35897436 , 4151.28205128 , 4135.38461538 , 4134.35897436 , 4133.84615385 , 4135.8974359 , 4133.84615385 , 4134.87179487 , 4141.53846154 , 4175.8974359 , 4755.38461538 , 4133.33333333 , 4138.46153846 , 2064.0 , 2036.0 , 8.64 , 0.0 , 0.0 , 0.0 , 0.0 , 

88.0 , 4133.84615385 , 4133.84615385 , 4165.64102564 , 4136.92307692 , 4134.35897436 , 4136.41025641 , 4135.38461538 , 4136.92307692 , 4138.46153846 , 4143.07692308 , 4180.0 , 4756.92307692 , 4135.38461538 , 4138.46153846 , 2062.0 , 2035.0 , 8.648 , 0.0 , 0.0 , 0.0 , 0.0 , 

89.0 , 4133.84615385 , 4133.84615385 , 4188.20512821 , 4135.38461538 , 4134.87179487 , 4133.84615385 , 4135.38461538 , 4137.43589744 , 4140.51282051 , 4144.1025641 , 4178.46153846 , 4757.43589744 , 4133.84615385 , 4138.46153846 , 2062.0 , 2035.0 , 8.656 , 0.0 , 0.0 , 0.0 , 0.0 , 

90.0 , 4135.8974359 , 4136.92307692 , 4185.64102564 , 4134.35897436 , 4134.35897436 , 4129.23076923 , 4133.84615385 , 4135.38461538 , 4137.94871795 , 4140.0 , 4176.92307692 , 4757.94871795 , 4133.33333333 , 4138.46153846 , 2063.0 , 2032.0 , 8.664 , 0.0 , 0.0 , 0.0 , 0.0 , 

91.0 , 4136.41025641 , 4135.8974359 , 4176.92307692 , 4134.87179487 , 4134.35897436 , 4131.79487179 , 4132.82051282 , 4133.84615385 , 4137.94871795 , 4139.48717949 , 4180.0 , 4757.43589744 , 4136.92307692 , 4137.94871795 , 2063.0 , 2031.0 , 8.671 , 0.0 , 0.0 , 0.0 , 0.0 , 

92.0 , 4134.35897436 , 4135.38461538 , 4175.38461538 , 4135.8974359 , 4134.35897436 , 4136.41025641 , 4133.33333333 , 4134.35897436 , 4140.0 , 4143.07692308 , 4182.05128205 , 4760.0 , 4137.94871795 , 4137.43589744 , 2061.0 , 2031.0 , 8.679 , 0.0 , 0.0 , 0.0 , 0.0 , 

93.0 , 4136.41025641 , 4132.30769231 , 4178.46153846 , 4134.87179487 , 4135.38461538 , 4134.87179487 , 4133.33333333 , 4136.92307692 , 4139.48717949 , 4142.56410256 , 4181.02564103 , 4763.07692308 , 4135.38461538 , 4138.46153846 , 2060.0 , 2032.0 , 8.687 , 0.0 , 0.0 , 0.0 , 0.0 , 

94.0 , 4137.43589744 , 4129.23076923 , 4167.69230769 , 4134.87179487 , 4135.38461538 , 4133.84615385 , 4132.30769231 , 4137.43589744 , 4137.94871795 , 4141.02564103 , 4177.94871795 , 4761.53846154 , 4133.33333333 , 4140.0 , 2058.0 , 2031.0 , 8.695 , 0.0 , 0.0 , 0.0 , 0.0 , 

95.0 , 4134.87179487 , 4130.76923077 , 4161.02564103 , 4136.92307692 , 4134.87179487 , 4135.38461538 , 4134.35897436 , 4140.51282051 , 4137.94871795 , 4142.05128205 , 4176.41025641 , 4762.05128205 , 4133.33333333 , 4140.0 , 2057.0 , 2032.0 , 8.703 , 0.0 , 0.0 , 0.0 , 0.0 , 

96.0 , 4135.38461538 , 4131.79487179 , 4152.82051282 , 4135.8974359 , 4135.38461538 , 4135.38461538 , 4136.41025641 , 4138.97435897 , 4137.94871795 , 4140.0 , 4176.41025641 , 4762.56410256 , 4131.79487179 , 4137.94871795 , 2057.0 , 2031.0 , 8.711 , 0.0 , 0.0 , 0.0 , 0.0 , 

97.0 , 4137.43589744 , 4130.25641026 , 4146.15384615 , 4136.41025641 , 4136.41025641 , 4134.87179487 , 4133.84615385 , 4133.33333333 , 4136.92307692 , 4140.0 , 4178.46153846 , 4763.58974359 , 4131.79487179 , 4137.94871795 , 2056.0 , 2032.0 , 8.719 , 0.0 , 0.0 , 0.0 , 0.0 , 

98.0 , 4135.38461538 , 4132.30769231 , 4144.1025641 , 4137.94871795 , 4135.8974359 , 4135.38461538 , 4134.87179487 , 4132.30769231 , 4135.38461538 , 4140.51282051 , 4178.46153846 , 4762.56410256 , 4132.30769231 , 4139.48717949 , 2057.0 , 2032.0 , 8.727 , 0.0 , 0.0 , 0.0 , 0.0 , 

99.0 , 4134.35897436 , 4134.35897436 , 4137.94871795 , 4135.8974359 , 4135.8974359 , 4134.87179487 , 4135.38461538 , 4134.35897436 , 4134.87179487 , 4137.94871795 , 4177.43589744 , 4761.02564103 , 4131.79487179 , 4139.48717949 , 2056.0 , 2032.0 , 8.734 , 0.0 , 0.0 , 0.0 , 0.0 , 

100.0 , 4135.8974359 , 4131.28205128 , 4145.12820513 , 4136.41025641 , 4135.8974359 , 4134.87179487 , 4132.82051282 , 4132.82051282 , 4136.41025641 , 4140.51282051 , 4177.94871795 , 4760.0 , 4131.28205128 , 4138.46153846 , 2059.0 , 2031.0 , 8.742 , 0.0 , 0.0 , 0.0 , 0.0 , 

101.0 , 4134.87179487 , 4130.25641026 , 4138.97435897 , 4138.46153846 , 4135.8974359 , 4136.41025641 , 4132.82051282 , 4130.25641026 , 4136.41025641 , 4143.07692308 , 4178.46153846 , 4759.48717949 , 4129.23076923 , 4135.38461538 , 2060.0 , 2033.0 , 8.75 , 0.0 , 0.0 , 0.0 , 0.0 , 

102.0 , 4133.84615385 , 4134.87179487 , 4139.48717949 , 4136.41025641 , 4135.8974359 , 4134.87179487 , 4129.74358974 , 4134.35897436 , 4138.97435897 , 4142.56410256 , 4177.43589744 , 4762.05128205 , 4131.79487179 , 4138.46153846 , 2063.0 , 2033.0 , 8.758 , 0.0 , 0.0 , 0.0 , 0.0 , 

103.0 , 4135.8974359 , 4136.41025641 , 4136.92307692 , 4133.33333333 , 4135.8974359 , 4132.82051282 , 4125.12820513 , 4131.28205128 , 4138.46153846 , 4141.02564103 , 4175.8974359 , 4762.05128205 , 4131.28205128 , 4141.53846154 , 2063.0 , 2032.0 , 8.766 , 0.0 , 0.0 , 0.0 , 0.0 , 

104.0 , 4136.41025641 , 4131.79487179 , 4143.07692308 , 4136.41025641 , 4135.8974359 , 4134.35897436 , 4129.23076923 , 4132.30769231 , 4138.46153846 , 4145.12820513 , 4177.43589744 , 4764.61538462 , 4129.23076923 , 4137.94871795 , 2066.0 , 2034.0 , 8.774 , 0.0 , 0.0 , 0.0 , 0.0 , 

105.0 , 4134.87179487 , 4127.69230769 , 4141.02564103 , 4137.43589744 , 4135.8974359 , 4136.41025641 , 4133.33333333 , 4134.35897436 , 4137.43589744 , 4143.07692308 , 4177.94871795 , 4765.64102564 , 4129.23076923 , 4134.35897436 , 2067.0 , 2033.0 , 8.782 , 0.0 , 0.0 , 0.0 , 0.0 , 

106.0 , 4134.35897436 , 4131.79487179 , 4121.53846154 , 4136.41025641 , 4135.8974359 , 4136.41025641 , 4132.30769231 , 4132.30769231 , 4134.87179487 , 4139.48717949 , 4175.8974359 , 4762.56410256 , 4129.23076923 , 4140.51282051 , 2067.0 , 2033.0 , 8.791 , 0.0 , 0.0 , 0.0 , 0.0 , 

107.0 , 4135.38461538 , 4134.35897436 , 4113.33333333 , 4134.87179487 , 4135.8974359 , 4135.38461538 , 4135.38461538 , 4131.28205128 , 4132.30769231 , 4137.43589744 , 4174.87179487 , 4760.51282051 , 4130.76923077 , 4140.0 , 2068.0 , 2032.0 , 8.798 , 0.0 , 0.0 , 0.0 , 0.0 , 

108.0 , 4135.8974359 , 4130.25641026 , 4094.35897436 , 4133.84615385 , 4135.8974359 , 4135.38461538 , 4135.8974359 , 4130.76923077 , 4131.28205128 , 4134.87179487 , 4175.8974359 , 4761.02564103 , 4128.71794872 , 4133.84615385 , 2070.0 , 2032.0 , 8.806 , 0.0 , 0.0 , 0.0 , 0.0 , 

109.0 , 4135.8974359 , 4127.69230769 , 4077.43589744 , 4135.38461538 , 4135.8974359 , 4135.38461538 , 4130.25641026 , 4128.20512821 , 4130.25641026 , 4136.41025641 , 4177.43589744 , 4761.02564103 , 4125.64102564 , 4132.82051282 , 2071.0 , 2032.0 , 8.813 , 0.0 , 0.0 , 0.0 , 0.0 , 

110.0 , 4133.84615385 , 4126.66666667 , 4082.56410256 , 4135.8974359 , 4135.8974359 , 4134.87179487 , 4132.30769231 , 4127.69230769 , 4131.79487179 , 4139.48717949 , 4176.92307692 , 4760.0 , 4126.15384615 , 4133.84615385 , 2071.0 , 2031.0 , 8.82 , 0.0 , 0.0 , 0.0 , 0.0 , 

111.0 , 4132.82051282 , 4130.76923077 , 4101.53846154 , 4135.8974359 , 4135.8974359 , 4134.35897436 , 4136.92307692 , 4132.30769231 , 4136.41025641 , 4141.02564103 , 4175.38461538 , 4760.0 , 4129.74358974 , 4133.33333333 , 2073.0 , 2028.0 , 8.829 , 0.0 , 0.0 , 0.0 , 0.0 , 

112.0 , 4133.84615385 , 4132.82051282 , 4102.05128205 , 4136.41025641 , 4135.8974359 , 4134.87179487 , 4135.8974359 , 4132.82051282 , 4136.92307692 , 4140.0 , 4175.38461538 , 4759.48717949 , 4130.76923077 , 4135.38461538 , 2071.0 , 2028.0 , 8.836 , 0.0 , 0.0 , 0.0 , 0.0 , 

113.0 , 4134.87179487 , 4130.25641026 , 4115.8974359 , 4136.41025641 , 4135.8974359 , 4135.38461538 , 4132.30769231 , 4133.84615385 , 4139.48717949 , 4143.58974359 , 4177.43589744 , 4762.56410256 , 4132.30769231 , 4137.43589744 , 2071.0 , 2027.0 , 8.844 , 0.0 , 0.0 , 0.0 , 0.0 , 

114.0 , 4133.33333333 , 4130.25641026 , 4145.12820513 , 4135.8974359 , 4135.8974359 , 4132.82051282 , 4130.76923077 , 4137.43589744 , 4142.56410256 , 4146.15384615 , 4178.46153846 , 4766.15384615 , 4136.41025641 , 4138.46153846 , 2070.0 , 2024.0 , 8.853 , 0.0 , 0.0 , 0.0 , 0.0 , 

115.0 , 4137.94871795 , 4131.79487179 , 4167.69230769 , 4135.8974359 , 4135.8974359 , 4132.82051282 , 4134.87179487 , 4138.97435897 , 4141.53846154 , 4147.69230769 , 4179.48717949 , 4766.15384615 , 4138.46153846 , 4141.53846154 , 2069.0 , 2024.0 , 8.861 , 0.0 , 0.0 , 0.0 , 0.0 , 

116.0 , 4137.94871795 , 4131.28205128 , 4175.38461538 , 4134.35897436 , 4135.8974359 , 4135.38461538 , 4134.87179487 , 4137.94871795 , 4141.02564103 , 4147.17948718 , 4180.51282051 , 4765.12820513 , 4135.8974359 , 4142.05128205 , 2069.0 , 2026.0 , 8.868 , 0.0 , 0.0 , 0.0 , 0.0 , 

117.0 , 4130.76923077 , 4129.23076923 , 4167.69230769 , 4134.87179487 , 4135.8974359 , 4136.41025641 , 4131.79487179 , 4135.38461538 , 4141.53846154 , 4143.58974359 , 4178.97435897 , 4765.12820513 , 4130.25641026 , 4136.92307692 , 2068.0 , 2025.0 , 8.876 , 0.0 , 0.0 , 0.0 , 0.0 , 

118.0 , 4129.74358974 , 4128.71794872 , 4165.12820513 , 4135.38461538 , 4135.8974359 , 4134.87179487 , 4133.33333333 , 4133.84615385 , 4139.48717949 , 4143.58974359 , 4178.46153846 , 4765.64102564 , 4131.28205128 , 4133.33333333 , 2069.0 , 2028.0 , 8.884 , 0.0 , 0.0 , 0.0 , 0.0 , 

119.0 , 4131.79487179 , 4127.69230769 , 4176.92307692 , 4134.35897436 , 4136.41025641 , 4135.38461538 , 4131.28205128 , 4134.35897436 , 4138.97435897 , 4144.61538462 , 4178.46153846 , 4764.61538462 , 4134.87179487 , 4134.87179487 , 2068.0 , 2030.0 , 8.892 , 0.0 , 0.0 , 0.0 , 0.0 , 

120.0 , 4131.28205128 , 4129.23076923 , 4185.12820513 , 4135.8974359 , 4135.8974359 , 4135.38461538 , 4127.69230769 , 4135.8974359 , 4141.53846154 , 4145.64102564 , 4180.51282051 , 4765.12820513 , 4134.35897436 , 4137.94871795 , 2067.0 , 2030.0 , 8.9 , 0.0 , 0.0 , 0.0 , 0.0 , 

121.0 , 4129.74358974 , 4130.25641026 , 4184.1025641 , 4136.41025641 , 4135.38461538 , 4133.84615385 , 4128.20512821 , 4133.33333333 , 4140.0 , 4144.61538462 , 4182.05128205 , 4762.56410256 , 4130.76923077 , 4135.8974359 , 2068.0 , 2030.0 , 8.908 , 0.0 , 0.0 , 0.0 , 0.0 , 

122.0 , 4131.28205128 , 4129.23076923 , 4174.87179487 , 4133.33333333 , 4136.92307692 , 4134.35897436 , 4131.28205128 , 4132.82051282 , 4140.0 , 4144.1025641 , 4180.0 , 4763.58974359 , 4130.76923077 , 4135.8974359 , 2067.0 , 2031.0 , 8.916 , 0.0 , 0.0 , 0.0 , 0.0 , 

123.0 , 4130.25641026 , 4130.76923077 , 4189.23076923 , 4131.28205128 , 4135.38461538 , 4135.38461538 , 4132.82051282 , 4137.94871795 , 4137.94871795 , 4143.58974359 , 4176.41025641 , 4768.20512821 , 4132.30769231 , 4138.46153846 , 2068.0 , 2028.0 , 8.924 , 0.0 , 0.0 , 0.0 , 0.0 , 

124.0 , 4129.74358974 , 4132.82051282 , 4177.94871795 , 4136.41025641 , 4131.79487179 , 4134.87179487 , 4133.84615385 , 4136.92307692 , 4135.8974359 , 4140.51282051 , 4178.97435897 , 4766.15384615 , 4129.74358974 , 4138.97435897 , 2068.0 , 2028.0 , 8.932 , 0.0 , 0.0 , 0.0 , 0.0 , 

125.0 , 4133.33333333 , 4132.30769231 , 4153.33333333 , 4136.41025641 , 4133.33333333 , 4132.82051282 , 4132.30769231 , 4132.30769231 , 4137.43589744 , 4141.53846154 , 4181.53846154 , 4759.48717949 , 4127.69230769 , 4137.94871795 , 2066.0 , 2028.0 , 8.939 , 0.0 , 0.0 , 0.0 , 0.0 , 

126.0 , 4136.41025641 , 4130.25641026 , 4144.1025641 , 4130.25641026 , 4136.92307692 , 4135.38461538 , 4133.84615385 , 4133.33333333 , 4135.8974359 , 4144.1025641 , 4177.94871795 , 4762.05128205 , 4128.71794872 , 4138.97435897 , 2066.0 , 2028.0 , 8.947 , 0.0 , 0.0 , 0.0 , 0.0 , 

127.0 , 4132.30769231 , 4130.25641026 , 4180.51282051 , 4131.28205128 , 4135.38461538 , 4135.38461538 , 4132.82051282 , 4135.8974359 , 4136.92307692 , 4145.12820513 , 4177.94871795 , 4769.74358974 , 4132.82051282 , 4138.97435897 , 2065.0 , 2031.0 , 8.955 , 0.0 , 0.0 , 0.0 , 0.0 , 

128.0 , 4128.20512821 , 4130.25641026 , 4174.35897436 , 4136.92307692 , 4133.84615385 , 4131.28205128 , 4127.69230769 , 4130.25641026 , 4138.46153846 , 4143.07692308 , 4181.53846154 , 4768.20512821 , 4131.79487179 , 4136.41025641 , 2066.0 , 2031.0 , 8.963 , 0.0 , 0.0 , 0.0 , 0.0 , 

0.0 , 4133.33333333 , 4131.28205128 , 4148.71794872 , 4138.46153846 , 4135.8974359 , 4131.79487179 , 4128.20512821 , 4129.23076923 , 4136.92307692 , 4142.56410256 , 4182.05128205 , 4770.25641026 , 4130.76923077 , 4136.41025641 , 2066.0 , 2032.0 , 8.971 , 0.0 , 0.0 , 0.0 , 0.0 , 

1.0 , 4134.35897436 , 4132.30769231 , 4148.20512821 , 4135.38461538 , 4136.41025641 , 4136.41025641 , 4129.74358974 , 4132.30769231 , 4133.84615385 , 4140.51282051 , 4177.43589744 , 4771.28205128 , 4132.30769231 , 4137.43589744 , 2067.0 , 2033.0 , 8.979 , 0.0 , 0.0 , 0.0 , 0.0 , 

2.0 , 4132.82051282 , 4130.76923077 , 4147.17948718 , 4134.87179487 , 4135.8974359 , 4136.41025641 , 4131.79487179 , 4132.30769231 , 4139.48717949 , 4141.02564103 , 4177.94871795 , 4768.71794872 , 4132.30769231 , 4138.46153846 , 2068.0 , 2036.0 , 8.988 , 0.0 , 0.0 , 0.0 , 0.0 , 

3.0 , 4135.8974359 , 4129.74358974 , 4134.35897436 , 4136.41025641 , 4135.38461538 , 4134.87179487 , 4134.35897436 , 4129.74358974 , 4143.58974359 , 4143.58974359 , 4181.53846154 , 4770.25641026 , 4131.28205128 , 4137.94871795 , 2068.0 , 2041.0 , 8.995 , 0.0 , 0.0 , 0.0 , 0.0 , 

4.0 , 4134.35897436 , 4130.76923077 , 4120.0 , 4136.41025641 , 4135.8974359 , 4136.41025641 , 4132.82051282 , 4130.25641026 , 4139.48717949 , 4139.48717949 , 4178.46153846 , 4770.25641026 , 4131.28205128 , 4137.43589744 , 2069.0 , 2042.0 , 9.002 , 0.0 , 0.0 , 0.0 , 0.0 , 

5.0 , 4131.79487179 , 4130.76923077 , 4131.28205128 , 4134.35897436 , 4135.8974359 , 4136.92307692 , 4135.8974359 , 4133.33333333 , 4137.94871795 , 4140.0 , 4174.87179487 , 4769.74358974 , 4130.25641026 , 4137.43589744 , 2068.0 , 2044.0 , 9.009 , 0.0 , 0.0 , 0.0 , 0.0 , 

6.0 , 4134.35897436 , 4129.74358974 , 4132.82051282 , 4132.82051282 , 4135.8974359 , 4135.38461538 , 4137.43589744 , 4132.82051282 , 4140.51282051 , 4142.05128205 , 4176.92307692 , 4771.28205128 , 4129.23076923 , 4136.92307692 , 2068.0 , 2045.0 , 9.018 , 0.0 , 0.0 , 0.0 , 0.0 , 

7.0 , 4133.84615385 , 4130.25641026 , 4123.07692308 , 4135.38461538 , 4134.87179487 , 4134.87179487 , 4128.71794872 , 4131.28205128 , 4141.53846154 , 4140.51282051 , 4180.0 , 4772.30769231 , 4131.79487179 , 4135.8974359 , 2066.0 , 2048.0 , 9.026 , 0.0 , 0.0 , 0.0 , 0.0 , 

8.0 , 4129.23076923 , 4129.74358974 , 4123.07692308 , 4136.41025641 , 4133.84615385 , 4134.87179487 , 4124.61538462 , 4132.82051282 , 4135.38461538 , 4138.46153846 , 4176.92307692 , 4767.69230769 , 4130.25641026 , 4134.35897436 , 2068.0 , 2045.0 , 9.034 , 0.0 , 0.0 , 0.0 , 0.0 , 

9.0 , 4132.82051282 , 4129.23076923 , 4135.38461538 , 4136.92307692 , 4134.35897436 , 4136.41025641 , 4129.74358974 , 4134.87179487 , 4137.94871795 , 4143.58974359 , 4175.38461538 , 4768.71794872 , 4128.20512821 , 4135.8974359 , 2067.0 , 2044.0 , 9.042 , 0.0 , 0.0 , 0.0 , 0.0 , 

10.0 , 4136.92307692 , 4129.23076923 , 4133.33333333 , 4137.43589744 , 4135.38461538 , 4135.8974359 , 4128.20512821 , 4133.33333333 , 4142.56410256 , 4143.58974359 , 4177.43589744 , 4771.79487179 , 4131.28205128 , 4136.41025641 , 2065.0 , 2040.0 , 9.049 , 0.0 , 0.0 , 0.0 , 0.0 , 

11.0 , 4131.79487179 , 4129.23076923 , 4117.43589744 , 4134.87179487 , 4134.87179487 , 4135.8974359 , 4129.74358974 , 4132.82051282 , 4137.43589744 , 4139.48717949 , 4177.43589744 , 4768.71794872 , 4133.33333333 , 4135.8974359 , 2065.0 , 2040.0 , 9.058 , 0.0 , 0.0 , 0.0 , 0.0 , 

12.0 , 4128.71794872 , 4129.23076923 , 4138.97435897 , 4133.84615385 , 4134.87179487 , 4135.8974359 , 4136.41025641 , 4134.87179487 , 4135.38461538 , 4142.56410256 , 4175.38461538 , 4768.71794872 , 4130.25641026 , 4136.92307692 , 2063.0 , 2037.0 , 9.066 , 0.0 , 0.0 , 0.0 , 0.0 , 

13.0 , 4134.87179487 , 4131.28205128 , 4161.02564103 , 4134.35897436 , 4136.41025641 , 4135.8974359 , 4130.25641026 , 4135.8974359 , 4136.92307692 , 4144.61538462 , 4176.92307692 , 4772.30769231 , 4130.76923077 , 4136.92307692 , 2061.0 , 2036.0 , 9.073 , 0.0 , 0.0 , 0.0 , 0.0 , 

14.0 , 4138.97435897 , 4130.76923077 , 4162.05128205 , 4132.30769231 , 4136.41025641 , 4135.8974359 , 4126.15384615 , 4137.94871795 , 4137.43589744 , 4142.56410256 , 4180.0 , 4774.35897436 , 4135.8974359 , 4136.92307692 , 2060.0 , 2036.0 , 9.081 , 0.0 , 0.0 , 0.0 , 0.0 , 

15.0 , 4133.84615385 , 4133.84615385 , 4170.76923077 , 4132.82051282 , 4134.87179487 , 4135.8974359 , 4133.84615385 , 4137.43589744 , 4140.0 , 4141.53846154 , 4178.97435897 , 4774.87179487 , 4138.97435897 , 4137.94871795 , 2057.0 , 2036.0 , 9.089 , 0.0 , 0.0 , 0.0 , 0.0 , 

16.0 , 4130.76923077 , 4140.0 , 4172.30769231 , 4136.92307692 , 4135.38461538 , 4135.8974359 , 4135.38461538 , 4135.8974359 , 4140.0 , 4141.53846154 , 4177.94871795 , 4773.33333333 , 4135.38461538 , 4137.43589744 , 2056.0 , 2037.0 , 9.097 , 0.0 , 0.0 , 0.0 , 0.0 , 

17.0 , 4135.8974359 , 4135.8974359 , 4172.30769231 , 4137.43589744 , 4136.41025641 , 4135.8974359 , 4131.79487179 , 4137.43589744 , 4136.41025641 , 4143.07692308 , 4180.0 , 4775.38461538 , 4133.33333333 , 4138.46153846 , 2056.0 , 2042.0 , 9.105 , 0.0 , 0.0 , 0.0 , 0.0 , 

18.0 , 4136.92307692 , 4127.69230769 , 4160.0 , 4135.8974359 , 4134.35897436 , 4135.8974359 , 4131.79487179 , 4134.35897436 , 4135.8974359 , 4142.56410256 , 4178.46153846 , 4775.38461538 , 4131.79487179 , 4138.97435897 , 2056.0 , 2043.0 , 9.114 , 0.0 , 0.0 , 0.0 , 0.0 , 

19.0 , 4130.76923077 , 4129.74358974 , 4161.53846154 , 4135.38461538 , 4134.35897436 , 4135.8974359 , 4135.38461538 , 4132.30769231 , 4137.43589744 , 4144.61538462 , 4177.94871795 , 4773.84615385 , 4131.28205128 , 4136.92307692 , 2055.0 , 2047.0 , 9.121 , 0.0 , 0.0 , 0.0 , 0.0 , 

20.0 , 4130.76923077 , 4131.79487179 , 4147.17948718 , 4134.87179487 , 4136.92307692 , 4135.8974359 , 4134.87179487 , 4133.33333333 , 4132.82051282 , 4143.58974359 , 4177.43589744 , 4771.28205128 , 4129.74358974 , 4133.33333333 , 2056.0 , 2047.0 , 9.128 , 0.0 , 0.0 , 0.0 , 0.0 , 

21.0 , 4134.87179487 , 4128.20512821 , 4148.71794872 , 4135.38461538 , 4136.92307692 , 4135.8974359 , 4133.84615385 , 4136.92307692 , 4136.92307692 , 4143.07692308 , 4176.92307692 , 4774.35897436 , 4131.28205128 , 4136.41025641 , 2055.0 , 2046.0 , 9.136 , 0.0 , 0.0 , 0.0 , 0.0 , 

22.0 , 4131.79487179 , 4127.17948718 , 4146.15384615 , 4136.41025641 , 4134.35897436 , 4135.8974359 , 4134.87179487 , 4135.8974359 , 4140.51282051 , 4141.53846154 , 4177.43589744 , 4775.8974359 , 4128.71794872 , 4138.97435897 , 2056.0 , 2045.0 , 9.144 , 0.0 , 0.0 , 0.0 , 0.0 , 

23.0 , 4130.25641026 , 4129.74358974 , 4140.0 , 4135.8974359 , 4134.87179487 , 4135.8974359 , 4136.92307692 , 4135.8974359 , 4136.92307692 , 4143.58974359 , 4178.97435897 , 4773.84615385 , 4128.71794872 , 4137.94871795 , 2057.0 , 2044.0 , 9.152 , 0.0 , 0.0 , 0.0 , 0.0 , 

24.0 , 4137.43589744 , 4135.8974359 , 4137.94871795 , 4135.38461538 , 4135.8974359 , 4135.8974359 , 4138.46153846 , 4135.8974359 , 4135.38461538 , 4144.1025641 , 4177.94871795 , 4774.87179487 , 4130.25641026 , 4138.46153846 , 2059.0 , 2040.0 , 9.16 , 0.0 , 0.0 , 0.0 , 0.0 , 

25.0 , 4138.97435897 , 4136.92307692 , 4125.64102564 , 4134.35897436 , 4135.38461538 , 4135.8974359 , 4136.92307692 , 4133.33333333 , 4134.87179487 , 4137.94871795 , 4175.8974359 , 4774.87179487 , 4129.74358974 , 4134.87179487 , 2060.0 , 2039.0 , 9.168 , 0.0 , 0.0 , 0.0 , 0.0 , 

26.0 , 4135.8974359 , 4133.84615385 , 4115.38461538 , 4135.8974359 , 4133.33333333 , 4135.8974359 , 4137.43589744 , 4133.84615385 , 4134.35897436 , 4137.43589744 , 4177.43589744 , 4774.35897436 , 4130.25641026 , 4134.87179487 , 2059.0 , 2038.0 , 9.176 , 0.0 , 0.0 , 0.0 , 0.0 , 

27.0 , 4135.38461538 , 4133.33333333 , 4094.87179487 , 4136.41025641 , 4134.35897436 , 4135.8974359 , 4137.43589744 , 4133.84615385 , 4133.33333333 , 4137.43589744 , 4176.92307692 , 4774.35897436 , 4128.20512821 , 4136.41025641 , 2059.0 , 2037.0 , 9.184 , 0.0 , 0.0 , 0.0 , 0.0 , 

28.0 , 4136.92307692 , 4132.82051282 , 4045.12820513 , 4133.84615385 , 4136.41025641 , 4135.8974359 , 4137.43589744 , 4127.69230769 , 4131.28205128 , 4132.82051282 , 4172.82051282 , 4774.35897436 , 4123.58974359 , 4134.35897436 , 2058.0 , 2035.0 , 9.191 , 0.0 , 0.0 , 0.0 , 0.0 , 

29.0 , 4135.38461538 , 4130.76923077 , 3975.38461538 , 4133.84615385 , 4136.41025641 , 4135.8974359 , 4137.43589744 , 4118.97435897 , 4124.61538462 , 4125.64102564 , 4171.28205128 , 4767.17948718 , 4117.94871795 , 4129.23076923 , 2058.0 , 2034.0 , 9.2 , 0.0 , 0.0 , 0.0 , 0.0 , 

30.0 , 4135.38461538 , 4133.84615385 , 3922.56410256 , 4136.92307692 , 4134.87179487 , 4135.8974359 , 4137.43589744 , 4115.8974359 , 4121.02564103 , 4123.07692308 , 4171.79487179 , 4759.48717949 , 4114.87179487 , 4130.25641026 , 2059.0 , 2034.0 , 9.207 , 0.0 , 0.0 , 0.0 , 0.0 , 

31.0 , 4135.8974359 , 4134.87179487 , 3881.53846154 , 4133.84615385 , 4135.38461538 , 4135.8974359 , 4137.43589744 , 4116.41025641 , 4121.53846154 , 4120.0 , 4168.71794872 , 4754.35897436 , 4112.82051282 , 4130.76923077 , 2056.0 , 2035.0 , 9.215 , 0.0 , 0.0 , 0.0 , 0.0 , 

32.0 , 4136.41025641 , 4132.82051282 , 3849.74358974 , 4127.17948718 , 4136.41025641 , 4135.8974359 , 4137.43589744 , 4115.8974359 , 4122.56410256 , 4117.43589744 , 4164.61538462 , 4750.76923077 , 4113.84615385 , 4129.74358974 , 2057.0 , 2036.0 , 9.223 , 0.0 , 0.0 , 0.0 , 0.0 , 

33.0 , 4136.41025641 , 4135.38461538 , 3844.1025641 , 4129.23076923 , 4135.8974359 , 4135.8974359 , 4137.43589744 , 4116.41025641 , 4123.58974359 , 4122.56410256 , 4168.20512821 , 4748.71794872 , 4118.46153846 , 4130.76923077 , 2052.0 , 2037.0 , 9.231 , 0.0 , 0.0 , 0.0 , 0.0 , 

34.0 , 4135.8974359 , 4134.35897436 , 3840.51282051 , 4134.87179487 , 4135.8974359 , 4135.8974359 , 4137.43589744 , 4118.97435897 , 4122.56410256 , 4126.15384615 , 4172.30769231 , 4745.64102564 , 4118.46153846 , 4130.76923077 , 2051.0 , 2040.0 , 9.24 , 0.0 , 0.0 , 0.0 , 0.0 , 

35.0 , 4135.8974359 , 4128.20512821 , 3815.8974359 , 4136.41025641 , 4134.87179487 , 4135.8974359 , 4137.43589744 , 4120.0 , 4122.56410256 , 4126.15384615 , 4169.74358974 , 4740.0 , 4114.87179487 , 4129.23076923 , 2049.0 , 2038.0 , 9.248 , 0.0 , 0.0 , 0.0 , 0.0 , 

36.0 , 4135.8974359 , 4130.76923077 , 3800.51282051 , 4135.38461538 , 4133.84615385 , 4135.8974359 , 4137.94871795 , 4122.05128205 , 4126.66666667 , 4128.20512821 , 4166.15384615 , 4734.87179487 , 4116.92307692 , 4131.28205128 , 2048.0 , 2038.0 , 9.256 , 0.0 , 0.0 , 0.0 , 0.0 , 

37.0 , 4136.92307692 , 4138.97435897 , 3792.82051282 , 4135.38461538 , 4134.87179487 , 4135.8974359 , 4135.8974359 , 4122.56410256 , 4127.17948718 , 4130.25641026 , 4168.71794872 , 4729.23076923 , 4119.48717949 , 4132.30769231 , 2047.0 , 2038.0 , 9.262 , 0.0 , 0.0 , 0.0 , 0.0 , 

38.0 , 4137.43589744 , 4135.38461538 , 3786.66666667 , 4135.38461538 , 4135.8974359 , 4135.8974359 , 4133.33333333 , 4121.02564103 , 4124.1025641 , 4130.25641026 , 4173.84615385 , 4724.1025641 , 4116.92307692 , 4130.76923077 , 2045.0 , 2035.0 , 9.269 , 0.0 , 0.0 , 0.0 , 0.0 , 

39.0 , 4136.41025641 , 4131.28205128 , 3780.51282051 , 4134.87179487 , 4135.8974359 , 4135.8974359 , 4135.38461538 , 4121.02564103 , 4124.61538462 , 4129.74358974 , 4170.25641026 , 4718.46153846 , 4117.94871795 , 4130.76923077 , 2045.0 , 2034.0 , 9.277 , 0.0 , 0.0 , 0.0 , 0.0 , 

40.0 , 4135.8974359 , 4133.84615385 , 3788.20512821 , 4134.87179487 , 4135.8974359 , 4135.8974359 , 4135.8974359 , 4128.20512821 , 4129.74358974 , 4132.30769231 , 4168.20512821 , 4710.76923077 , 4123.58974359 , 4133.84615385 , 2042.0 , 2034.0 , 9.286 , 0.0 , 0.0 , 0.0 , 0.0 , 

41.0 , 4136.41025641 , 4130.25641026 , 3794.87179487 , 4134.87179487 , 4135.8974359 , 4135.8974359 , 4132.30769231 , 4130.76923077 , 4130.25641026 , 4133.33333333 , 4172.82051282 , 4704.1025641 , 4124.1025641 , 4134.35897436 , 2041.0 , 2035.0 , 9.294 , 0.0 , 0.0 , 0.0 , 0.0 , 

42.0 , 4136.41025641 , 4128.71794872 , 3793.84615385 , 4134.87179487 , 4134.35897436 , 4135.8974359 , 4132.30769231 , 4128.20512821 , 4129.74358974 , 4133.84615385 , 4172.82051282 , 4699.48717949 , 4126.15384615 , 4132.30769231 , 2042.0 , 2040.0 , 9.302 , 0.0 , 0.0 , 0.0 , 0.0 , 

43.0 , 4135.38461538 , 4137.94871795 , 3793.84615385 , 4135.38461538 , 4133.84615385 , 4135.8974359 , 4135.8974359 , 4129.23076923 , 4131.28205128 , 4134.87179487 , 4170.25641026 , 4692.30769231 , 4129.74358974 , 4132.30769231 , 2041.0 , 2039.0 , 9.31 , 0.0 , 0.0 , 0.0 , 0.0 , 

44.0 , 4135.8974359 , 4137.94871795 , 3791.28205128 , 4134.87179487 , 4134.35897436 , 4135.8974359 , 4135.38461538 , 4132.30769231 , 4130.76923077 , 4135.38461538 , 4171.79487179 , 4686.15384615 , 4128.71794872 , 4133.33333333 , 2041.0 , 2039.0 , 9.318 , 0.0 , 0.0 , 0.0 , 0.0 , 

45.0 , 4136.41025641 , 4134.87179487 , 3786.66666667 , 4135.38461538 , 4134.87179487 , 4135.8974359 , 4133.84615385 , 4130.76923077 , 4130.25641026 , 4136.41025641 , 4173.84615385 , 4682.56410256 , 4127.17948718 , 4132.30769231 , 2039.0 , 2040.0 , 9.326 , 0.0 , 0.0 , 0.0 , 0.0 , 

46.0 , 4136.92307692 , 4136.92307692 , 3785.12820513 , 4135.38461538 , 4135.38461538 , 4135.8974359 , 4134.87179487 , 4129.23076923 , 4131.79487179 , 4137.43589744 , 4171.79487179 , 4675.38461538 , 4129.74358974 , 4135.8974359 , 2039.0 , 2040.0 , 9.333 , 0.0 , 0.0 , 0.0 , 0.0 , 

47.0 , 4136.41025641 , 4131.79487179 , 3796.41025641 , 4133.84615385 , 4135.8974359 , 4135.8974359 , 4135.38461538 , 4132.30769231 , 4133.84615385 , 4136.41025641 , 4173.33333333 , 4669.23076923 , 4129.23076923 , 4140.51282051 , 2038.0 , 2040.0 , 9.341 , 0.0 , 0.0 , 0.0 , 0.0 , 

48.0 , 4135.38461538 , 4128.71794872 , 3802.05128205 , 4132.82051282 , 4136.41025641 , 4135.8974359 , 4133.84615385 , 4131.79487179 , 4133.33333333 , 4137.94871795 , 4175.38461538 , 4664.1025641 , 4129.23076923 , 4140.0 , 2037.0 , 2041.0 , 9.348 , 0.0 , 0.0 , 0.0 , 0.0 , 

49.0 , 4136.41025641 , 4133.84615385 , 3814.87179487 , 4133.33333333 , 4135.38461538 , 4135.8974359 , 4134.35897436 , 4131.28205128 , 4135.38461538 , 4143.07692308 , 4175.8974359 , 4656.92307692 , 4132.30769231 , 4137.43589744 , 2035.0 , 2040.0 , 9.361 , 0.0 , 0.0 , 0.0 , 0.0 , 

50.0 , 4136.41025641 , 4133.33333333 , 3840.51282051 , 4133.33333333 , 4134.87179487 , 4135.8974359 , 4134.87179487 , 4134.87179487 , 4139.48717949 , 4144.61538462 , 4175.38461538 , 4652.82051282 , 4132.30769231 , 4137.94871795 , 2036.0 , 2042.0 , 9.366 , 0.0 , 0.0 , 0.0 , 0.0 , 

51.0 , 4133.84615385 , 4132.82051282 , 3870.76923077 , 4131.28205128 , 4134.87179487 , 4135.8974359 , 4134.35897436 , 4137.94871795 , 4140.51282051 , 4145.12820513 , 4177.94871795 , 4650.76923077 , 4133.33333333 , 4138.46153846 , 2034.0 , 2040.0 , 9.375 , 0.0 , 0.0 , 0.0 , 0.0 , 

52.0 , 4135.38461538 , 4137.43589744 , 3883.07692308 , 4132.82051282 , 4135.8974359 , 4135.8974359 , 4134.87179487 , 4137.94871795 , 4138.97435897 , 4145.64102564 , 4179.48717949 , 4644.61538462 , 4135.8974359 , 4137.43589744 , 2033.0 , 2041.0 , 9.381 , 0.0 , 0.0 , 0.0 , 0.0 , 

53.0 , 4135.8974359 , 4137.43589744 , 3899.48717949 , 4129.23076923 , 4135.38461538 , 4135.8974359 , 4133.33333333 , 4141.02564103 , 4140.51282051 , 4147.17948718 , 4177.94871795 , 4641.53846154 , 4137.94871795 , 4141.02564103 , 2032.0 , 2039.0 , 9.389 , 0.0 , 0.0 , 0.0 , 0.0 , 

54.0 , 4131.28205128 , 4133.33333333 , 3921.53846154 , 4126.15384615 , 4134.87179487 , 4135.8974359 , 4132.82051282 , 4143.58974359 , 4141.53846154 , 4147.17948718 , 4175.8974359 , 4639.48717949 , 4138.97435897 , 4142.56410256 , 2031.0 , 2037.0 , 9.403 , 0.0 , 0.0 , 0.0 , 0.0 , 

55.0 , 4131.79487179 , 4131.79487179 , 3943.58974359 , 4128.20512821 , 4135.38461538 , 4135.8974359 , 4132.82051282 , 4142.56410256 , 4142.56410256 , 4148.71794872 , 4177.43589744 , 4634.87179487 , 4141.02564103 , 4141.53846154 , 2031.0 , 2038.0 , 9.404 , 0.0 , 0.0 , 0.0 , 0.0 , 

