['COUNTER', 'AF3', 'F7', 'F3', 'FC5', 'T7', 'P7', 'O1', 'O2', 'P8', 'T8', 'FC6', 'F4', 'F8', 'AF4', 'GYROX', 'GYROY', 'TIMESTAMP', 'FUNC_ID', 'FUNC_VALUE', 'MARKER', 'SYNC_SIGNAL']
51.0 , 4133.84615385 , 4128.20512821 , 4140.0 , 4132.82051282 , 4123.07692308 , 4123.58974359 , 4125.64102564 , 4136.92307692 , 4135.8974359 , 4135.8974359 , 4185.64102564 , 4890.25641026 , 4131.79487179 , 4136.92307692 , 2046.0 , 2031.0 , 6.043 , 0.0 , 0.0 , 0.0 , 0.0 , 

52.0 , 4131.79487179 , 4128.71794872 , 4136.41025641 , 4125.64102564 , 4128.20512821 , 4126.15384615 , 4126.66666667 , 4132.82051282 , 4134.35897436 , 4135.8974359 , 4185.12820513 , 4890.25641026 , 4132.82051282 , 4136.41025641 , 2047.0 , 2030.0 , 6.051 , 0.0 , 0.0 , 0.0 , 0.0 , 

53.0 , 4131.28205128 , 4128.20512821 , 4135.38461538 , 4131.79487179 , 4130.25641026 , 4130.25641026 , 4124.1025641 , 4132.30769231 , 4134.87179487 , 4135.8974359 , 4185.64102564 , 4889.23076923 , 4134.87179487 , 4137.43589744 , 2045.0 , 2027.0 , 6.059 , 0.0 , 0.0 , 0.0 , 0.0 , 

54.0 , 4132.82051282 , 4126.15384615 , 4135.8974359 , 4138.46153846 , 4126.15384615 , 4129.23076923 , 4126.15384615 , 4133.84615385 , 4134.87179487 , 4135.8974359 , 4185.12820513 , 4889.23076923 , 4132.82051282 , 4137.94871795 , 2044.0 , 2025.0 , 6.067 , 0.0 , 0.0 , 0.0 , 0.0 , 

55.0 , 4131.79487179 , 4127.69230769 , 4141.53846154 , 4131.28205128 , 4129.23076923 , 4126.66666667 , 4130.76923077 , 4133.33333333 , 4134.87179487 , 4135.8974359 , 4185.12820513 , 4889.74358974 , 4133.33333333 , 4137.43589744 , 2044.0 , 2023.0 , 6.075 , 0.0 , 0.0 , 0.0 , 0.0 , 

56.0 , 4130.76923077 , 4127.69230769 , 4147.17948718 , 4129.23076923 , 4138.97435897 , 4125.64102564 , 4129.23076923 , 4132.30769231 , 4134.87179487 , 4135.8974359 , 4185.12820513 , 4890.25641026 , 4134.35897436 , 4137.94871795 , 2045.0 , 2022.0 , 6.083 , 0.0 , 0.0 , 0.0 , 0.0 , 

57.0 , 4130.76923077 , 4125.64102564 , 4145.64102564 , 4132.82051282 , 4135.38461538 , 4125.64102564 , 4125.64102564 , 4133.84615385 , 4134.87179487 , 4135.8974359 , 4184.1025641 , 4890.25641026 , 4132.82051282 , 4139.48717949 , 2044.0 , 2021.0 , 6.09 , 0.0 , 0.0 , 0.0 , 0.0 , 

58.0 , 4130.25641026 , 4127.69230769 , 4142.56410256 , 4132.82051282 , 4123.58974359 , 4126.15384615 , 4125.12820513 , 4134.87179487 , 4134.87179487 , 4135.8974359 , 4184.1025641 , 4888.71794872 , 4133.84615385 , 4138.46153846 , 2045.0 , 2021.0 , 6.099 , 0.0 , 0.0 , 0.0 , 0.0 , 

59.0 , 4130.25641026 , 4128.20512821 , 4146.66666667 , 4132.30769231 , 4127.17948718 , 4126.15384615 , 4126.15384615 , 4134.87179487 , 4134.87179487 , 4135.8974359 , 4184.61538462 , 4886.15384615 , 4135.8974359 , 4136.92307692 , 2044.0 , 2022.0 , 6.107 , 0.0 , 0.0 , 0.0 , 0.0 , 

60.0 , 4131.28205128 , 4127.17948718 , 4145.64102564 , 4129.74358974 , 4134.87179487 , 4125.64102564 , 4124.61538462 , 4135.8974359 , 4134.87179487 , 4135.8974359 , 4185.12820513 , 4886.66666667 , 4134.35897436 , 4137.43589744 , 2044.0 , 2022.0 , 6.115 , 0.0 , 0.0 , 0.0 , 0.0 , 

61.0 , 4131.28205128 , 4128.20512821 , 4142.05128205 , 4130.25641026 , 4132.30769231 , 4126.15384615 , 4124.1025641 , 4135.38461538 , 4134.35897436 , 4136.41025641 , 4185.64102564 , 4888.71794872 , 4134.87179487 , 4137.43589744 , 2045.0 , 2023.0 , 6.121 , 0.0 , 0.0 , 0.0 , 0.0 , 

62.0 , 4130.76923077 , 4128.20512821 , 4139.48717949 , 4135.8974359 , 4134.35897436 , 4125.64102564 , 4126.15384615 , 4134.35897436 , 4135.38461538 , 4136.41025641 , 4186.66666667 , 4888.20512821 , 4136.92307692 , 4136.92307692 , 2046.0 , 2025.0 , 6.13 , 0.0 , 0.0 , 0.0 , 0.0 , 

63.0 , 4128.71794872 , 4126.66666667 , 4137.94871795 , 4136.92307692 , 4137.94871795 , 4124.1025641 , 4123.58974359 , 4134.87179487 , 4136.92307692 , 4135.8974359 , 4187.17948718 , 4888.20512821 , 4132.82051282 , 4137.43589744 , 2046.0 , 2025.0 , 6.138 , 0.0 , 0.0 , 0.0 , 0.0 , 

64.0 , 4129.74358974 , 4127.69230769 , 4138.97435897 , 4134.87179487 , 4127.69230769 , 4125.64102564 , 4121.02564103 , 4135.8974359 , 4137.43589744 , 4137.43589744 , 4185.12820513 , 4889.74358974 , 4131.79487179 , 4137.43589744 , 2045.0 , 2026.0 , 6.145 , 0.0 , 0.0 , 0.0 , 0.0 , 

65.0 , 4133.84615385 , 4128.71794872 , 4141.53846154 , 4135.38461538 , 4122.05128205 , 4128.71794872 , 4126.15384615 , 4135.38461538 , 4135.8974359 , 4139.48717949 , 4184.1025641 , 4890.25641026 , 4136.41025641 , 4136.41025641 , 2046.0 , 2025.0 , 6.155 , 0.0 , 0.0 , 0.0 , 0.0 , 

66.0 , 4133.33333333 , 4128.71794872 , 4138.46153846 , 4136.92307692 , 4133.84615385 , 4128.71794872 , 4129.23076923 , 4133.84615385 , 4135.8974359 , 4138.97435897 , 4184.61538462 , 4890.25641026 , 4135.8974359 , 4135.38461538 , 2045.0 , 2027.0 , 6.162 , 0.0 , 0.0 , 0.0 , 0.0 , 

67.0 , 4128.71794872 , 4129.23076923 , 4137.43589744 , 4134.87179487 , 4138.46153846 , 4128.20512821 , 4126.15384615 , 4134.35897436 , 4135.8974359 , 4136.41025641 , 4185.12820513 , 4889.74358974 , 4134.35897436 , 4135.8974359 , 2045.0 , 2028.0 , 6.169 , 0.0 , 0.0 , 0.0 , 0.0 , 

68.0 , 4130.76923077 , 4127.69230769 , 4141.02564103 , 4134.35897436 , 4134.35897436 , 4128.20512821 , 4125.64102564 , 4134.87179487 , 4134.87179487 , 4136.41025641 , 4184.61538462 , 4888.20512821 , 4135.38461538 , 4136.92307692 , 2047.0 , 2028.0 , 6.178 , 0.0 , 0.0 , 0.0 , 0.0 , 

69.0 , 4132.82051282 , 4126.66666667 , 4142.05128205 , 4133.84615385 , 4134.35897436 , 4126.66666667 , 4124.61538462 , 4134.87179487 , 4134.35897436 , 4136.92307692 , 4185.64102564 , 4889.74358974 , 4135.38461538 , 4137.94871795 , 2045.0 , 2029.0 , 6.186 , 0.0 , 0.0 , 0.0 , 0.0 , 

70.0 , 4128.71794872 , 4127.69230769 , 4137.94871795 , 4134.35897436 , 4137.43589744 , 4124.61538462 , 4123.07692308 , 4135.8974359 , 4134.87179487 , 4136.92307692 , 4185.12820513 , 4890.76923077 , 4134.35897436 , 4138.97435897 , 2046.0 , 2028.0 , 6.193 , 0.0 , 0.0 , 0.0 , 0.0 , 

71.0 , 4128.71794872 , 4128.20512821 , 4132.82051282 , 4135.38461538 , 4135.8974359 , 4126.66666667 , 4128.20512821 , 4135.38461538 , 4136.92307692 , 4135.8974359 , 4185.12820513 , 4889.74358974 , 4135.38461538 , 4140.0 , 2047.0 , 2029.0 , 6.201 , 0.0 , 0.0 , 0.0 , 0.0 , 

72.0 , 4131.79487179 , 4128.20512821 , 4134.87179487 , 4135.8974359 , 4135.8974359 , 4127.69230769 , 4128.20512821 , 4133.84615385 , 4137.94871795 , 4137.94871795 , 4185.64102564 , 4889.74358974 , 4135.38461538 , 4138.97435897 , 2048.0 , 2030.0 , 6.209 , 0.0 , 0.0 , 0.0 , 0.0 , 

73.0 , 4132.82051282 , 4129.23076923 , 4137.43589744 , 4134.87179487 , 4136.92307692 , 4126.15384615 , 4124.1025641 , 4134.35897436 , 4135.38461538 , 4139.48717949 , 4185.64102564 , 4890.25641026 , 4135.38461538 , 4136.92307692 , 2048.0 , 2032.0 , 6.217 , 0.0 , 0.0 , 0.0 , 0.0 , 

74.0 , 4131.79487179 , 4129.74358974 , 4135.8974359 , 4130.76923077 , 4135.38461538 , 4124.1025641 , 4128.20512821 , 4135.38461538 , 4136.41025641 , 4137.43589744 , 4185.12820513 , 4890.25641026 , 4134.87179487 , 4136.92307692 , 2049.0 , 2033.0 , 6.225 , 0.0 , 0.0 , 0.0 , 0.0 , 

75.0 , 4132.82051282 , 4128.71794872 , 4134.35897436 , 4132.82051282 , 4132.30769231 , 4125.12820513 , 4130.25641026 , 4134.35897436 , 4135.8974359 , 4135.8974359 , 4186.15384615 , 4889.74358974 , 4133.84615385 , 4137.43589744 , 2048.0 , 2033.0 , 6.233 , 0.0 , 0.0 , 0.0 , 0.0 , 

76.0 , 4133.33333333 , 4126.66666667 , 4136.41025641 , 4134.87179487 , 4126.66666667 , 4126.66666667 , 4125.12820513 , 4133.84615385 , 4131.79487179 , 4137.43589744 , 4185.12820513 , 4890.25641026 , 4135.38461538 , 4137.94871795 , 2047.0 , 2034.0 , 6.241 , 0.0 , 0.0 , 0.0 , 0.0 , 

77.0 , 4132.82051282 , 4127.17948718 , 4134.87179487 , 4129.74358974 , 4122.56410256 , 4127.69230769 , 4126.66666667 , 4134.35897436 , 4132.82051282 , 4138.46153846 , 4184.1025641 , 4891.28205128 , 4133.33333333 , 4136.92307692 , 2047.0 , 2033.0 , 6.249 , 0.0 , 0.0 , 0.0 , 0.0 , 

78.0 , 4130.76923077 , 4128.20512821 , 4135.38461538 , 4130.25641026 , 4127.17948718 , 4127.69230769 , 4130.25641026 , 4135.8974359 , 4137.43589744 , 4136.41025641 , 4185.12820513 , 4891.28205128 , 4131.28205128 , 4136.92307692 , 2045.0 , 2031.0 , 6.256 , 0.0 , 0.0 , 0.0 , 0.0 , 

79.0 , 4130.76923077 , 4128.71794872 , 4135.38461538 , 4139.48717949 , 4136.41025641 , 4126.15384615 , 4125.64102564 , 4134.87179487 , 4135.38461538 , 4135.8974359 , 4185.12820513 , 4890.76923077 , 4133.84615385 , 4138.46153846 , 2045.0 , 2031.0 , 6.264 , 0.0 , 0.0 , 0.0 , 0.0 , 

80.0 , 4131.79487179 , 4127.69230769 , 4135.8974359 , 4137.94871795 , 4137.43589744 , 4123.07692308 , 4123.07692308 , 4132.30769231 , 4134.35897436 , 4136.41025641 , 4184.61538462 , 4889.23076923 , 4135.8974359 , 4138.97435897 , 2045.0 , 2033.0 , 6.272 , 0.0 , 0.0 , 0.0 , 0.0 , 

81.0 , 4130.76923077 , 4128.20512821 , 4137.94871795 , 4130.25641026 , 4134.87179487 , 4125.12820513 , 4126.15384615 , 4132.30769231 , 4137.94871795 , 4136.41025641 , 4185.64102564 , 4889.74358974 , 4134.35897436 , 4136.92307692 , 2045.0 , 2033.0 , 6.28 , 0.0 , 0.0 , 0.0 , 0.0 , 

82.0 , 4129.74358974 , 4130.25641026 , 4138.97435897 , 4132.82051282 , 4135.38461538 , 4127.69230769 , 4126.66666667 , 4134.87179487 , 4137.94871795 , 4135.8974359 , 4186.15384615 , 4890.25641026 , 4136.41025641 , 4136.92307692 , 2045.0 , 2032.0 , 6.288 , 0.0 , 0.0 , 0.0 , 0.0 , 

83.0 , 4130.76923077 , 4129.23076923 , 4134.87179487 , 4135.8974359 , 4135.8974359 , 4127.17948718 , 4126.15384615 , 4135.38461538 , 4136.92307692 , 4135.8974359 , 4185.64102564 , 4889.74358974 , 4138.46153846 , 4137.43589744 , 2044.0 , 2032.0 , 6.296 , 0.0 , 0.0 , 0.0 , 0.0 , 

84.0 , 4130.76923077 , 4128.20512821 , 4137.94871795 , 4132.82051282 , 4135.8974359 , 4127.17948718 , 4128.71794872 , 4134.87179487 , 4137.43589744 , 4135.8974359 , 4185.64102564 , 4889.74358974 , 4136.41025641 , 4136.92307692 , 2044.0 , 2030.0 , 6.304 , 0.0 , 0.0 , 0.0 , 0.0 , 

85.0 , 4132.30769231 , 4128.71794872 , 4140.51282051 , 4134.87179487 , 4135.38461538 , 4127.17948718 , 4130.25641026 , 4135.38461538 , 4137.43589744 , 4135.8974359 , 4185.64102564 , 4890.76923077 , 4135.38461538 , 4137.43589744 , 2043.0 , 2031.0 , 6.312 , 0.0 , 0.0 , 0.0 , 0.0 , 

86.0 , 4132.30769231 , 4128.71794872 , 4135.8974359 , 4137.94871795 , 4132.82051282 , 4125.64102564 , 4124.1025641 , 4134.87179487 , 4137.43589744 , 4135.8974359 , 4185.64102564 , 4891.28205128 , 4135.38461538 , 4136.92307692 , 2042.0 , 2029.0 , 6.32 , 0.0 , 0.0 , 0.0 , 0.0 , 

87.0 , 4131.79487179 , 4127.17948718 , 4133.84615385 , 4132.30769231 , 4132.30769231 , 4126.15384615 , 4121.02564103 , 4135.38461538 , 4137.43589744 , 4135.8974359 , 4185.12820513 , 4890.76923077 , 4133.33333333 , 4136.41025641 , 2041.0 , 2029.0 , 6.326 , 0.0 , 0.0 , 0.0 , 0.0 , 

88.0 , 4131.28205128 , 4126.66666667 , 4139.48717949 , 4128.20512821 , 4132.82051282 , 4129.23076923 , 4128.20512821 , 4135.8974359 , 4137.43589744 , 4135.8974359 , 4184.1025641 , 4892.30769231 , 4133.33333333 , 4137.43589744 , 2040.0 , 2030.0 , 6.335 , 0.0 , 0.0 , 0.0 , 0.0 , 

89.0 , 4131.28205128 , 4126.66666667 , 4142.56410256 , 4128.71794872 , 4129.74358974 , 4129.23076923 , 4130.25641026 , 4133.33333333 , 4137.43589744 , 4135.8974359 , 4185.12820513 , 4891.79487179 , 4134.35897436 , 4136.92307692 , 2041.0 , 2029.0 , 6.342 , 0.0 , 0.0 , 0.0 , 0.0 , 

90.0 , 4130.25641026 , 4127.17948718 , 4139.48717949 , 4127.69230769 , 4128.20512821 , 4127.17948718 , 4124.61538462 , 4132.30769231 , 4137.43589744 , 4135.8974359 , 4187.17948718 , 4889.74358974 , 4134.87179487 , 4136.41025641 , 2040.0 , 2027.0 , 6.352 , 0.0 , 0.0 , 0.0 , 0.0 , 

91.0 , 4130.25641026 , 4129.23076923 , 4136.92307692 , 4131.79487179 , 4126.66666667 , 4127.17948718 , 4126.66666667 , 4134.87179487 , 4137.43589744 , 4135.8974359 , 4185.64102564 , 4890.25641026 , 4135.38461538 , 4138.46153846 , 2040.0 , 2026.0 , 6.359 , 0.0 , 0.0 , 0.0 , 0.0 , 

92.0 , 4130.25641026 , 4129.74358974 , 4135.38461538 , 4140.51282051 , 4128.20512821 , 4130.25641026 , 4129.23076923 , 4136.41025641 , 4137.43589744 , 4135.8974359 , 4183.58974359 , 4891.79487179 , 4134.35897436 , 4139.48717949 , 2040.0 , 2026.0 , 6.368 , 0.0 , 0.0 , 0.0 , 0.0 , 

93.0 , 4130.76923077 , 4127.69230769 , 4139.48717949 , 4133.84615385 , 4129.74358974 , 4128.71794872 , 4123.07692308 , 4134.35897436 , 4137.43589744 , 4135.8974359 , 4185.12820513 , 4891.28205128 , 4131.28205128 , 4137.94871795 , 2040.0 , 2028.0 , 6.375 , 0.0 , 0.0 , 0.0 , 0.0 , 

94.0 , 4130.76923077 , 4128.20512821 , 4141.53846154 , 4126.15384615 , 4129.74358974 , 4126.15384615 , 4124.1025641 , 4132.82051282 , 4137.43589744 , 4135.8974359 , 4186.66666667 , 4889.74358974 , 4133.33333333 , 4136.92307692 , 2040.0 , 2027.0 , 6.382 , 0.0 , 0.0 , 0.0 , 0.0 , 

95.0 , 4129.23076923 , 4129.23076923 , 4141.02564103 , 4131.28205128 , 4131.28205128 , 4127.17948718 , 4130.25641026 , 4133.33333333 , 4137.43589744 , 4135.8974359 , 4186.15384615 , 4889.23076923 , 4136.92307692 , 4137.43589744 , 2040.0 , 2027.0 , 6.389 , 0.0 , 0.0 , 0.0 , 0.0 , 

96.0 , 4130.25641026 , 4128.20512821 , 4137.94871795 , 4131.28205128 , 4135.38461538 , 4127.17948718 , 4127.69230769 , 4133.84615385 , 4137.43589744 , 4135.8974359 , 4185.64102564 , 4891.28205128 , 4134.87179487 , 4136.92307692 , 2041.0 , 2028.0 , 6.398 , 0.0 , 0.0 , 0.0 , 0.0 , 

97.0 , 4130.76923077 , 4128.20512821 , 4137.94871795 , 4127.17948718 , 4131.28205128 , 4125.64102564 , 4123.07692308 , 4134.87179487 , 4137.43589744 , 4136.41025641 , 4184.61538462 , 4892.82051282 , 4134.35897436 , 4135.8974359 , 2041.0 , 2026.0 , 6.406 , 0.0 , 0.0 , 0.0 , 0.0 , 

98.0 , 4129.74358974 , 4129.23076923 , 4142.05128205 , 4135.8974359 , 4124.61538462 , 4128.71794872 , 4125.64102564 , 4135.8974359 , 4137.43589744 , 4135.8974359 , 4184.1025641 , 4892.30769231 , 4136.92307692 , 4136.41025641 , 2041.0 , 2026.0 , 6.414 , 0.0 , 0.0 , 0.0 , 0.0 , 

99.0 , 4130.25641026 , 4127.17948718 , 4146.15384615 , 4138.97435897 , 4126.66666667 , 4129.74358974 , 4129.23076923 , 4136.41025641 , 4137.43589744 , 4135.8974359 , 4185.64102564 , 4891.28205128 , 4133.84615385 , 4138.46153846 , 2041.0 , 2025.0 , 6.422 , 0.0 , 0.0 , 0.0 , 0.0 , 

100.0 , 4131.79487179 , 4127.69230769 , 4141.02564103 , 4129.74358974 , 4128.20512821 , 4127.17948718 , 4127.17948718 , 4134.87179487 , 4137.43589744 , 4137.43589744 , 4186.66666667 , 4891.28205128 , 4130.76923077 , 4137.94871795 , 2042.0 , 2026.0 , 6.43 , 0.0 , 0.0 , 0.0 , 0.0 , 

101.0 , 4131.28205128 , 4129.23076923 , 4135.38461538 , 4130.25641026 , 4125.64102564 , 4126.15384615 , 4125.12820513 , 4134.87179487 , 4137.43589744 , 4139.48717949 , 4185.12820513 , 4892.30769231 , 4132.82051282 , 4137.43589744 , 2041.0 , 2025.0 , 6.437 , 0.0 , 0.0 , 0.0 , 0.0 , 

102.0 , 4130.25641026 , 4130.25641026 , 4140.0 , 4135.38461538 , 4129.23076923 , 4126.66666667 , 4124.61538462 , 4134.87179487 , 4137.43589744 , 4138.46153846 , 4184.61538462 , 4891.79487179 , 4135.38461538 , 4137.43589744 , 2041.0 , 2025.0 , 6.445 , 0.0 , 0.0 , 0.0 , 0.0 , 

103.0 , 4129.74358974 , 4130.25641026 , 4145.12820513 , 4131.79487179 , 4133.33333333 , 4124.1025641 , 4123.07692308 , 4132.82051282 , 4137.43589744 , 4136.92307692 , 4185.64102564 , 4890.76923077 , 4134.87179487 , 4137.94871795 , 2042.0 , 2025.0 , 6.454 , 0.0 , 0.0 , 0.0 , 0.0 , 

104.0 , 4128.71794872 , 4128.71794872 , 4142.05128205 , 4129.23076923 , 4133.33333333 , 4124.61538462 , 4121.53846154 , 4132.30769231 , 4137.43589744 , 4137.43589744 , 4186.15384615 , 4891.79487179 , 4133.33333333 , 4137.94871795 , 2041.0 , 2025.0 , 6.46 , 0.0 , 0.0 , 0.0 , 0.0 , 

105.0 , 4129.74358974 , 4128.20512821 , 4137.43589744 , 4130.76923077 , 4133.84615385 , 4126.15384615 , 4123.07692308 , 4134.87179487 , 4137.43589744 , 4137.43589744 , 4184.1025641 , 4891.79487179 , 4133.84615385 , 4137.43589744 , 2041.0 , 2025.0 , 6.469 , 0.0 , 0.0 , 0.0 , 0.0 , 

106.0 , 4129.74358974 , 4129.23076923 , 4137.43589744 , 4130.25641026 , 4129.74358974 , 4127.69230769 , 4124.61538462 , 4134.87179487 , 4136.92307692 , 4137.43589744 , 4183.07692308 , 4891.28205128 , 4134.87179487 , 4136.92307692 , 2042.0 , 2025.0 , 6.477 , 0.0 , 0.0 , 0.0 , 0.0 , 

107.0 , 4130.25641026 , 4129.23076923 , 4138.46153846 , 4130.76923077 , 4125.12820513 , 4126.66666667 , 4124.1025641 , 4134.35897436 , 4137.94871795 , 4137.43589744 , 4183.58974359 , 4890.76923077 , 4135.8974359 , 4137.94871795 , 2042.0 , 2026.0 , 6.485 , 0.0 , 0.0 , 0.0 , 0.0 , 

108.0 , 4132.30769231 , 4127.69230769 , 4141.02564103 , 4130.76923077 , 4131.28205128 , 4124.1025641 , 4124.61538462 , 4135.8974359 , 4137.94871795 , 4137.43589744 , 4184.61538462 , 4891.79487179 , 4133.84615385 , 4137.94871795 , 2041.0 , 2025.0 , 6.492 , 0.0 , 0.0 , 0.0 , 0.0 , 

109.0 , 4130.25641026 , 4127.69230769 , 4141.02564103 , 4130.25641026 , 4135.8974359 , 4125.64102564 , 4125.64102564 , 4135.8974359 , 4134.87179487 , 4137.43589744 , 4185.64102564 , 4891.28205128 , 4133.84615385 , 4137.43589744 , 2040.0 , 2026.0 , 6.5 , 0.0 , 0.0 , 0.0 , 0.0 , 

110.0 , 4128.20512821 , 4126.66666667 , 4134.87179487 , 4131.28205128 , 4132.30769231 , 4128.20512821 , 4125.64102564 , 4135.38461538 , 4133.84615385 , 4137.43589744 , 4186.66666667 , 4891.79487179 , 4135.38461538 , 4136.92307692 , 2042.0 , 2028.0 , 6.508 , 0.0 , 0.0 , 0.0 , 0.0 , 

111.0 , 4129.74358974 , 4127.69230769 , 4134.35897436 , 4130.76923077 , 4131.28205128 , 4125.64102564 , 4127.17948718 , 4134.35897436 , 4135.8974359 , 4137.43589744 , 4185.64102564 , 4892.30769231 , 4132.82051282 , 4137.43589744 , 2042.0 , 2029.0 , 6.517 , 0.0 , 0.0 , 0.0 , 0.0 , 

112.0 , 4129.74358974 , 4128.71794872 , 4139.48717949 , 4133.33333333 , 4135.8974359 , 4128.20512821 , 4127.69230769 , 4133.33333333 , 4135.8974359 , 4137.43589744 , 4185.12820513 , 4891.28205128 , 4131.28205128 , 4137.43589744 , 2044.0 , 2030.0 , 6.524 , 0.0 , 0.0 , 0.0 , 0.0 , 

113.0 , 4128.71794872 , 4128.71794872 , 4137.94871795 , 4137.43589744 , 4133.33333333 , 4137.94871795 , 4127.17948718 , 4131.79487179 , 4134.87179487 , 4137.43589744 , 4185.12820513 , 4891.28205128 , 4134.35897436 , 4136.92307692 , 2044.0 , 2028.0 , 6.533 , 0.0 , 0.0 , 0.0 , 0.0 , 

114.0 , 4129.23076923 , 4128.20512821 , 4135.38461538 , 4134.87179487 , 4127.69230769 , 4132.82051282 , 4127.17948718 , 4128.20512821 , 4135.38461538 , 4137.43589744 , 4186.15384615 , 4891.28205128 , 4135.38461538 , 4138.46153846 , 2046.0 , 2028.0 , 6.54 , 0.0 , 0.0 , 0.0 , 0.0 , 

115.0 , 4130.76923077 , 4128.71794872 , 4137.43589744 , 4130.25641026 , 4129.74358974 , 4122.56410256 , 4127.69230769 , 4129.23076923 , 4134.87179487 , 4137.43589744 , 4185.64102564 , 4890.76923077 , 4133.84615385 , 4138.46153846 , 2045.0 , 2024.0 , 6.548 , 0.0 , 0.0 , 0.0 , 0.0 , 

116.0 , 4129.23076923 , 4128.71794872 , 4137.94871795 , 4133.33333333 , 4130.25641026 , 4127.69230769 , 4125.64102564 , 4136.41025641 , 4133.84615385 , 4137.43589744 , 4185.12820513 , 4892.30769231 , 4135.8974359 , 4137.43589744 , 2045.0 , 2024.0 , 6.556 , 0.0 , 0.0 , 0.0 , 0.0 , 

117.0 , 4127.69230769 , 4130.76923077 , 4135.8974359 , 4133.84615385 , 4125.12820513 , 4135.38461538 , 4123.07692308 , 4134.87179487 , 4135.38461538 , 4137.43589744 , 4185.64102564 , 4892.30769231 , 4135.8974359 , 4136.92307692 , 2044.0 , 2027.0 , 6.564 , 0.0 , 0.0 , 0.0 , 0.0 , 

118.0 , 4128.71794872 , 4130.25641026 , 4141.53846154 , 4129.74358974 , 4127.17948718 , 4129.23076923 , 4124.61538462 , 4129.74358974 , 4135.38461538 , 4137.43589744 , 4186.15384615 , 4891.28205128 , 4134.35897436 , 4136.92307692 , 2043.0 , 2030.0 , 6.573 , 0.0 , 0.0 , 0.0 , 0.0 , 

119.0 , 4131.79487179 , 4128.20512821 , 4142.56410256 , 4134.35897436 , 4134.87179487 , 4123.07692308 , 4126.66666667 , 4132.82051282 , 4134.35897436 , 4137.43589744 , 4186.15384615 , 4892.82051282 , 4135.8974359 , 4136.92307692 , 2043.0 , 2032.0 , 6.58 , 0.0 , 0.0 , 0.0 , 0.0 , 

120.0 , 4130.76923077 , 4128.71794872 , 4138.97435897 , 4137.43589744 , 4131.28205128 , 4126.66666667 , 4124.61538462 , 4134.35897436 , 4134.35897436 , 4137.43589744 , 4185.64102564 , 4893.33333333 , 4135.38461538 , 4136.92307692 , 2042.0 , 2034.0 , 6.587 , 0.0 , 0.0 , 0.0 , 0.0 , 

121.0 , 4129.74358974 , 4130.25641026 , 4135.38461538 , 4130.25641026 , 4129.23076923 , 4130.25641026 , 4126.15384615 , 4132.30769231 , 4135.8974359 , 4137.43589744 , 4185.12820513 , 4890.25641026 , 4134.35897436 , 4136.41025641 , 2043.0 , 2036.0 , 6.595 , 0.0 , 0.0 , 0.0 , 0.0 , 

122.0 , 4130.76923077 , 4128.71794872 , 4132.82051282 , 4129.74358974 , 4135.38461538 , 4127.17948718 , 4129.74358974 , 4134.35897436 , 4137.94871795 , 4137.43589744 , 4185.64102564 , 4891.79487179 , 4135.38461538 , 4136.92307692 , 2041.0 , 2037.0 , 6.604 , 0.0 , 0.0 , 0.0 , 0.0 , 

123.0 , 4130.76923077 , 4128.20512821 , 4131.28205128 , 4135.38461538 , 4131.28205128 , 4127.17948718 , 4128.71794872 , 4136.92307692 , 4136.92307692 , 4137.43589744 , 4186.66666667 , 4893.84615385 , 4135.8974359 , 4137.94871795 , 2042.0 , 2036.0 , 6.612 , 0.0 , 0.0 , 0.0 , 0.0 , 

124.0 , 4129.74358974 , 4128.20512821 , 4131.79487179 , 4131.79487179 , 4124.61538462 , 4130.25641026 , 4126.66666667 , 4136.41025641 , 4135.38461538 , 4137.43589744 , 4185.64102564 , 4890.76923077 , 4134.87179487 , 4137.43589744 , 2041.0 , 2032.0 , 6.619 , 0.0 , 0.0 , 0.0 , 0.0 , 

125.0 , 4130.76923077 , 4125.64102564 , 4132.30769231 , 4131.79487179 , 4130.25641026 , 4129.23076923 , 4129.74358974 , 4133.84615385 , 4134.87179487 , 4137.43589744 , 4183.58974359 , 4891.79487179 , 4135.38461538 , 4136.41025641 , 2041.0 , 2032.0 , 6.627 , 0.0 , 0.0 , 0.0 , 0.0 , 

126.0 , 4131.28205128 , 4125.64102564 , 4130.76923077 , 4137.94871795 , 4136.92307692 , 4127.17948718 , 4127.69230769 , 4133.84615385 , 4134.87179487 , 4137.43589744 , 4184.1025641 , 4895.8974359 , 4134.87179487 , 4137.94871795 , 2042.0 , 2034.0 , 6.635 , 0.0 , 0.0 , 0.0 , 0.0 , 

127.0 , 4130.76923077 , 4129.23076923 , 4133.33333333 , 4132.82051282 , 4134.87179487 , 4127.17948718 , 4121.53846154 , 4134.87179487 , 4135.38461538 , 4136.92307692 , 4185.64102564 , 4894.87179487 , 4134.87179487 , 4138.97435897 , 2041.0 , 2032.0 , 6.643 , 0.0 , 0.0 , 0.0 , 0.0 , 

128.0 , 4131.28205128 , 4130.25641026 , 4135.8974359 , 4127.17948718 , 4129.74358974 , 4129.23076923 , 4124.61538462 , 4133.84615385 , 4134.87179487 , 4136.92307692 , 4187.17948718 , 4891.28205128 , 4135.38461538 , 4137.43589744 , 2041.0 , 2032.0 , 6.65 , 0.0 , 0.0 , 0.0 , 0.0 , 

0.0 , 4130.25641026 , 4129.23076923 , 4137.43589744 , 4131.79487179 , 4130.25641026 , 4129.23076923 , 4128.71794872 , 4132.30769231 , 4134.87179487 , 4137.94871795 , 4185.12820513 , 4891.79487179 , 4134.35897436 , 4136.92307692 , 2042.0 , 2032.0 , 6.658 , 0.0 , 0.0 , 0.0 , 0.0 , 

1.0 , 4130.25641026 , 4129.23076923 , 4137.94871795 , 4132.82051282 , 4131.28205128 , 4126.66666667 , 4127.69230769 , 4135.38461538 , 4135.38461538 , 4136.92307692 , 4183.07692308 , 4892.30769231 , 4132.82051282 , 4137.43589744 , 2041.0 , 2032.0 , 6.665 , 0.0 , 0.0 , 0.0 , 0.0 , 

2.0 , 4129.23076923 , 4128.71794872 , 4136.41025641 , 4131.79487179 , 4129.23076923 , 4126.15384615 , 4128.20512821 , 4136.41025641 , 4135.8974359 , 4136.41025641 , 4185.12820513 , 4891.28205128 , 4133.33333333 , 4137.43589744 , 2039.0 , 2031.0 , 6.673 , 0.0 , 0.0 , 0.0 , 0.0 , 

3.0 , 4129.23076923 , 4130.25641026 , 4135.38461538 , 4135.8974359 , 4129.74358974 , 4130.76923077 , 4128.71794872 , 4133.33333333 , 4134.87179487 , 4142.56410256 , 4187.17948718 , 4893.33333333 , 4134.87179487 , 4137.43589744 , 2040.0 , 2032.0 , 6.682 , 0.0 , 0.0 , 0.0 , 0.0 , 

4.0 , 4130.76923077 , 4130.76923077 , 4139.48717949 , 4134.87179487 , 4133.33333333 , 4130.76923077 , 4124.61538462 , 4131.79487179 , 4134.87179487 , 4144.61538462 , 4186.66666667 , 4894.35897436 , 4136.41025641 , 4138.46153846 , 2039.0 , 2033.0 , 6.69 , 0.0 , 0.0 , 0.0 , 0.0 , 

5.0 , 4131.28205128 , 4127.17948718 , 4137.94871795 , 4129.23076923 , 4134.35897436 , 4126.15384615 , 4124.1025641 , 4133.33333333 , 4135.38461538 , 4137.94871795 , 4185.12820513 , 4892.82051282 , 4135.38461538 , 4136.41025641 , 2042.0 , 2032.0 , 6.698 , 0.0 , 0.0 , 0.0 , 0.0 , 

6.0 , 4129.23076923 , 4126.66666667 , 4137.43589744 , 4129.23076923 , 4130.25641026 , 4126.66666667 , 4128.71794872 , 4135.8974359 , 4135.38461538 , 4134.87179487 , 4185.64102564 , 4892.82051282 , 4134.35897436 , 4134.87179487 , 2042.0 , 2030.0 , 6.706 , 0.0 , 0.0 , 0.0 , 0.0 , 

7.0 , 4129.74358974 , 4128.20512821 , 4142.05128205 , 4135.38461538 , 4131.28205128 , 4127.17948718 , 4127.69230769 , 4134.87179487 , 4134.87179487 , 4137.43589744 , 4186.15384615 , 4893.33333333 , 4133.84615385 , 4135.8974359 , 2042.0 , 2031.0 , 6.714 , 0.0 , 0.0 , 0.0 , 0.0 , 

8.0 , 4130.76923077 , 4127.69230769 , 4144.1025641 , 4135.8974359 , 4133.33333333 , 4124.1025641 , 4126.15384615 , 4132.30769231 , 4134.87179487 , 4136.41025641 , 4185.64102564 , 4892.30769231 , 4133.33333333 , 4136.92307692 , 2042.0 , 2031.0 , 6.721 , 0.0 , 0.0 , 0.0 , 0.0 , 

9.0 , 4128.20512821 , 4129.74358974 , 4140.51282051 , 4132.30769231 , 4129.74358974 , 4124.61538462 , 4127.17948718 , 4133.33333333 , 4134.87179487 , 4135.38461538 , 4184.61538462 , 4891.79487179 , 4132.82051282 , 4136.41025641 , 2040.0 , 2031.0 , 6.729 , 0.0 , 0.0 , 0.0 , 0.0 , 

10.0 , 4126.66666667 , 4131.79487179 , 4138.46153846 , 4131.28205128 , 4130.76923077 , 4126.15384615 , 4124.61538462 , 4136.41025641 , 4134.87179487 , 4136.41025641 , 4185.64102564 , 4892.30769231 , 4132.82051282 , 4137.43589744 , 2041.0 , 2032.0 , 6.737 , 0.0 , 0.0 , 0.0 , 0.0 , 

11.0 , 4130.76923077 , 4130.25641026 , 4137.43589744 , 4130.76923077 , 4133.84615385 , 4127.17948718 , 4124.1025641 , 4135.38461538 , 4134.87179487 , 4135.8974359 , 4186.15384615 , 4892.82051282 , 4132.30769231 , 4138.46153846 , 2043.0 , 2034.0 , 6.745 , 0.0 , 0.0 , 0.0 , 0.0 , 

12.0 , 4133.84615385 , 4128.71794872 , 4135.8974359 , 4131.79487179 , 4129.74358974 , 4125.12820513 , 4126.15384615 , 4135.38461538 , 4134.87179487 , 4135.8974359 , 4185.12820513 , 4891.79487179 , 4132.82051282 , 4137.94871795 , 2042.0 , 2034.0 , 6.753 , 0.0 , 0.0 , 0.0 , 0.0 , 

13.0 , 4129.23076923 , 4128.71794872 , 4135.8974359 , 4132.30769231 , 4130.76923077 , 4123.07692308 , 4124.61538462 , 4137.43589744 , 4134.87179487 , 4135.8974359 , 4185.64102564 , 4892.82051282 , 4134.87179487 , 4137.43589744 , 2042.0 , 2033.0 , 6.76 , 0.0 , 0.0 , 0.0 , 0.0 , 

14.0 , 4126.15384615 , 4127.69230769 , 4136.41025641 , 4128.71794872 , 4137.94871795 , 4125.12820513 , 4124.61538462 , 4136.92307692 , 4135.38461538 , 4135.8974359 , 4186.15384615 , 4895.38461538 , 4134.87179487 , 4136.92307692 , 2041.0 , 2032.0 , 6.769 , 0.0 , 0.0 , 0.0 , 0.0 , 

15.0 , 4129.74358974 , 4128.71794872 , 4136.92307692 , 4131.28205128 , 4131.28205128 , 4129.74358974 , 4129.23076923 , 4133.84615385 , 4134.87179487 , 4135.8974359 , 4185.64102564 , 4894.35897436 , 4133.84615385 , 4137.94871795 , 2041.0 , 2030.0 , 6.776 , 0.0 , 0.0 , 0.0 , 0.0 , 

16.0 , 4129.74358974 , 4130.25641026 , 4136.92307692 , 4139.48717949 , 4124.1025641 , 4127.17948718 , 4129.23076923 , 4131.79487179 , 4133.84615385 , 4135.8974359 , 4185.64102564 , 4891.28205128 , 4133.84615385 , 4138.46153846 , 2042.0 , 2029.0 , 6.784 , 0.0 , 0.0 , 0.0 , 0.0 , 

17.0 , 4127.17948718 , 4128.71794872 , 4138.46153846 , 4134.35897436 , 4129.74358974 , 4121.53846154 , 4126.15384615 , 4133.33333333 , 4134.35897436 , 4135.8974359 , 4186.15384615 , 4891.79487179 , 4132.82051282 , 4138.46153846 , 2042.0 , 2029.0 , 6.791 , 0.0 , 0.0 , 0.0 , 0.0 , 

18.0 , 4128.71794872 , 4127.69230769 , 4141.02564103 , 4125.12820513 , 4130.76923077 , 4124.61538462 , 4125.12820513 , 4133.84615385 , 4135.8974359 , 4136.41025641 , 4185.12820513 , 4892.82051282 , 4132.82051282 , 4137.43589744 , 2042.0 , 2026.0 , 6.8 , 0.0 , 0.0 , 0.0 , 0.0 , 

19.0 , 4129.74358974 , 4129.23076923 , 4144.61538462 , 4132.30769231 , 4125.64102564 , 4129.74358974 , 4124.1025641 , 4132.30769231 , 4134.87179487 , 4136.41025641 , 4184.1025641 , 4891.79487179 , 4132.82051282 , 4137.43589744 , 2042.0 , 2028.0 , 6.809 , 0.0 , 0.0 , 0.0 , 0.0 , 

20.0 , 4128.71794872 , 4130.25641026 , 4144.61538462 , 4139.48717949 , 4128.20512821 , 4128.71794872 , 4127.17948718 , 4132.82051282 , 4134.35897436 , 4135.38461538 , 4186.15384615 , 4893.33333333 , 4132.82051282 , 4137.94871795 , 2041.0 , 2029.0 , 6.817 , 0.0 , 0.0 , 0.0 , 0.0 , 

21.0 , 4129.74358974 , 4126.66666667 , 4142.56410256 , 4136.92307692 , 4132.30769231 , 4124.1025641 , 4129.23076923 , 4136.41025641 , 4134.35897436 , 4137.94871795 , 4188.20512821 , 4894.35897436 , 4132.82051282 , 4137.43589744 , 2043.0 , 2030.0 , 6.824 , 0.0 , 0.0 , 0.0 , 0.0 , 

22.0 , 4131.28205128 , 4125.64102564 , 4138.46153846 , 4134.87179487 , 4133.84615385 , 4124.1025641 , 4126.15384615 , 4136.92307692 , 4134.35897436 , 4140.51282051 , 4187.69230769 , 4892.82051282 , 4132.30769231 , 4135.8974359 , 2042.0 , 2031.0 , 6.832 , 0.0 , 0.0 , 0.0 , 0.0 , 

23.0 , 4129.23076923 , 4127.17948718 , 4138.46153846 , 4136.41025641 , 4129.74358974 , 4126.66666667 , 4125.12820513 , 4133.84615385 , 4134.35897436 , 4138.97435897 , 4184.61538462 , 4892.30769231 , 4133.33333333 , 4135.8974359 , 2042.0 , 2035.0 , 6.84 , 0.0 , 0.0 , 0.0 , 0.0 , 

24.0 , 4128.20512821 , 4128.20512821 , 4138.46153846 , 4136.92307692 , 4123.58974359 , 4127.17948718 , 4130.25641026 , 4133.33333333 , 4134.35897436 , 4136.41025641 , 4184.61538462 , 4892.30769231 , 4132.82051282 , 4136.92307692 , 2042.0 , 2036.0 , 6.847 , 0.0 , 0.0 , 0.0 , 0.0 , 

25.0 , 4129.74358974 , 4128.71794872 , 4136.92307692 , 4135.38461538 , 4127.17948718 , 4125.64102564 , 4129.23076923 , 4132.82051282 , 4134.35897436 , 4136.92307692 , 4186.15384615 , 4892.30769231 , 4131.28205128 , 4136.92307692 , 2041.0 , 2036.0 , 6.855 , 0.0 , 0.0 , 0.0 , 0.0 , 

26.0 , 4130.25641026 , 4129.23076923 , 4133.84615385 , 4137.43589744 , 4133.84615385 , 4126.15384615 , 4125.64102564 , 4133.33333333 , 4134.35897436 , 4138.46153846 , 4184.1025641 , 4893.33333333 , 4131.79487179 , 4136.41025641 , 2042.0 , 2036.0 , 6.863 , 0.0 , 0.0 , 0.0 , 0.0 , 

27.0 , 4130.25641026 , 4128.71794872 , 4135.38461538 , 4137.43589744 , 4133.33333333 , 4127.17948718 , 4126.66666667 , 4134.35897436 , 4133.84615385 , 4138.97435897 , 4183.58974359 , 4894.87179487 , 4134.87179487 , 4136.92307692 , 2043.0 , 2034.0 , 6.871 , 0.0 , 0.0 , 0.0 , 0.0 , 

28.0 , 4132.30769231 , 4129.23076923 , 4138.97435897 , 4134.35897436 , 4135.38461538 , 4125.64102564 , 4127.69230769 , 4134.35897436 , 4133.84615385 , 4138.46153846 , 4185.64102564 , 4893.33333333 , 4135.8974359 , 4137.43589744 , 2043.0 , 2035.0 , 6.879 , 0.0 , 0.0 , 0.0 , 0.0 , 

29.0 , 4130.25641026 , 4130.25641026 , 4138.97435897 , 4132.82051282 , 4135.38461538 , 4125.12820513 , 4127.17948718 , 4133.84615385 , 4133.84615385 , 4137.43589744 , 4185.64102564 , 4893.33333333 , 4136.41025641 , 4136.41025641 , 2042.0 , 2035.0 , 6.886 , 0.0 , 0.0 , 0.0 , 0.0 , 

30.0 , 4127.69230769 , 4129.23076923 , 4137.43589744 , 4135.38461538 , 4133.33333333 , 4125.64102564 , 4126.66666667 , 4133.84615385 , 4134.35897436 , 4137.94871795 , 4186.15384615 , 4894.35897436 , 4134.87179487 , 4136.41025641 , 2042.0 , 2034.0 , 6.895 , 0.0 , 0.0 , 0.0 , 0.0 , 

31.0 , 4129.23076923 , 4128.20512821 , 4137.43589744 , 4136.92307692 , 4134.35897436 , 4126.15384615 , 4124.1025641 , 4136.41025641 , 4133.33333333 , 4137.94871795 , 4187.69230769 , 4895.38461538 , 4131.28205128 , 4138.97435897 , 2042.0 , 2033.0 , 6.903 , 0.0 , 0.0 , 0.0 , 0.0 , 

32.0 , 4129.23076923 , 4129.74358974 , 4138.46153846 , 4135.38461538 , 4129.74358974 , 4126.66666667 , 4124.61538462 , 4134.35897436 , 4133.84615385 , 4137.94871795 , 4187.17948718 , 4896.92307692 , 4131.79487179 , 4139.48717949 , 2040.0 , 2032.0 , 6.91 , 0.0 , 0.0 , 0.0 , 0.0 , 

33.0 , 4128.71794872 , 4130.25641026 , 4137.94871795 , 4134.87179487 , 4123.07692308 , 4128.71794872 , 4126.15384615 , 4129.23076923 , 4136.41025641 , 4137.94871795 , 4186.15384615 , 4894.87179487 , 4135.8974359 , 4136.41025641 , 2042.0 , 2034.0 , 6.917 , 0.0 , 0.0 , 0.0 , 0.0 , 

34.0 , 4131.28205128 , 4127.69230769 , 4137.94871795 , 4135.8974359 , 4131.79487179 , 4129.23076923 , 4124.1025641 , 4131.28205128 , 4137.43589744 , 4137.94871795 , 4185.12820513 , 4892.30769231 , 4135.8974359 , 4136.41025641 , 2043.0 , 2035.0 , 6.926 , 0.0 , 0.0 , 0.0 , 0.0 , 

35.0 , 4131.28205128 , 4126.66666667 , 4137.43589744 , 4136.41025641 , 4138.97435897 , 4128.71794872 , 4122.56410256 , 4136.92307692 , 4136.41025641 , 4137.94871795 , 4183.58974359 , 4893.84615385 , 4131.28205128 , 4138.97435897 , 2043.0 , 2035.0 , 6.934 , 0.0 , 0.0 , 0.0 , 0.0 , 

36.0 , 4128.71794872 , 4129.74358974 , 4135.8974359 , 4134.87179487 , 4127.17948718 , 4127.69230769 , 4125.12820513 , 4136.41025641 , 4136.41025641 , 4137.94871795 , 4185.12820513 , 4895.38461538 , 4130.76923077 , 4139.48717949 , 2043.0 , 2036.0 , 6.942 , 0.0 , 0.0 , 0.0 , 0.0 , 

37.0 , 4129.23076923 , 4130.76923077 , 4134.35897436 , 4135.8974359 , 4125.12820513 , 4128.71794872 , 4127.17948718 , 4134.35897436 , 4136.92307692 , 4137.94871795 , 4186.66666667 , 4892.82051282 , 4135.38461538 , 4137.43589744 , 2043.0 , 2036.0 , 6.949 , 0.0 , 0.0 , 0.0 , 0.0 , 

38.0 , 4128.71794872 , 4128.20512821 , 4137.43589744 , 4137.94871795 , 4132.30769231 , 4129.23076923 , 4127.17948718 , 4135.38461538 , 4137.43589744 , 4137.43589744 , 4185.12820513 , 4892.30769231 , 4136.41025641 , 4137.94871795 , 2042.0 , 2037.0 , 6.958 , 0.0 , 0.0 , 0.0 , 0.0 , 

39.0 , 4127.69230769 , 4128.71794872 , 4138.46153846 , 4136.41025641 , 4129.74358974 , 4126.15384615 , 4127.69230769 , 4135.38461538 , 4136.92307692 , 4136.41025641 , 4184.1025641 , 4893.33333333 , 4134.35897436 , 4138.97435897 , 2044.0 , 2035.0 , 6.965 , 0.0 , 0.0 , 0.0 , 0.0 , 

40.0 , 4129.23076923 , 4129.23076923 , 4135.8974359 , 4134.35897436 , 4128.20512821 , 4125.64102564 , 4126.66666667 , 4134.87179487 , 4133.84615385 , 4135.8974359 , 4184.61538462 , 4892.82051282 , 4133.84615385 , 4138.46153846 , 2043.0 , 2035.0 , 6.973 , 0.0 , 0.0 , 0.0 , 0.0 , 

41.0 , 4129.74358974 , 4128.71794872 , 4135.38461538 , 4136.41025641 , 4132.82051282 , 4128.71794872 , 4125.12820513 , 4134.87179487 , 4132.82051282 , 4135.8974359 , 4184.61538462 , 4893.84615385 , 4134.35897436 , 4136.92307692 , 2042.0 , 2034.0 , 6.981 , 0.0 , 0.0 , 0.0 , 0.0 , 

42.0 , 4128.71794872 , 4128.71794872 , 4139.48717949 , 4135.8974359 , 4133.84615385 , 4128.71794872 , 4124.61538462 , 4134.87179487 , 4135.38461538 , 4135.8974359 , 4185.12820513 , 4896.92307692 , 4134.35897436 , 4137.94871795 , 2043.0 , 2033.0 , 6.989 , 0.0 , 0.0 , 0.0 , 0.0 , 

43.0 , 4128.71794872 , 4129.74358974 , 4139.48717949 , 4137.94871795 , 4134.35897436 , 4130.25641026 , 4125.64102564 , 4134.87179487 , 4135.38461538 , 4135.8974359 , 4186.66666667 , 4897.43589744 , 4135.38461538 , 4138.97435897 , 2042.0 , 2031.0 , 6.997 , 0.0 , 0.0 , 0.0 , 0.0 , 

44.0 , 4128.71794872 , 4128.20512821 , 4140.51282051 , 4138.46153846 , 4134.35897436 , 4131.28205128 , 4127.69230769 , 4134.87179487 , 4134.35897436 , 4135.8974359 , 4186.66666667 , 4895.38461538 , 4134.87179487 , 4137.94871795 , 2042.0 , 2031.0 , 7.005 , 0.0 , 0.0 , 0.0 , 0.0 , 

45.0 , 4130.25641026 , 4128.20512821 , 4140.51282051 , 4130.25641026 , 4129.74358974 , 4127.69230769 , 4127.69230769 , 4134.87179487 , 4134.35897436 , 4135.8974359 , 4185.64102564 , 4894.87179487 , 4134.87179487 , 4135.8974359 , 2041.0 , 2031.0 , 7.012 , 0.0 , 0.0 , 0.0 , 0.0 , 

46.0 , 4128.71794872 , 4129.74358974 , 4140.0 , 4126.15384615 , 4126.15384615 , 4124.1025641 , 4125.64102564 , 4134.87179487 , 4133.84615385 , 4135.8974359 , 4185.64102564 , 4896.92307692 , 4135.8974359 , 4136.92307692 , 2041.0 , 2032.0 , 7.021 , 0.0 , 0.0 , 0.0 , 0.0 , 

47.0 , 4127.17948718 , 4129.74358974 , 4138.46153846 , 4135.38461538 , 4126.15384615 , 4126.15384615 , 4124.61538462 , 4134.87179487 , 4133.84615385 , 4135.8974359 , 4185.12820513 , 4896.92307692 , 4134.87179487 , 4137.94871795 , 2041.0 , 2033.0 , 7.028 , 0.0 , 0.0 , 0.0 , 0.0 , 

48.0 , 4129.23076923 , 4129.23076923 , 4137.94871795 , 4140.0 , 4126.66666667 , 4125.64102564 , 4127.17948718 , 4134.87179487 , 4136.41025641 , 4135.8974359 , 4184.1025641 , 4895.8974359 , 4135.8974359 , 4136.41025641 , 2041.0 , 2032.0 , 7.037 , 0.0 , 0.0 , 0.0 , 0.0 , 

49.0 , 4132.30769231 , 4129.23076923 , 4137.43589744 , 4130.76923077 , 4125.64102564 , 4123.58974359 , 4129.23076923 , 4134.87179487 , 4137.43589744 , 4135.8974359 , 4183.58974359 , 4896.41025641 , 4135.38461538 , 4135.8974359 , 2041.0 , 2033.0 , 7.044 , 0.0 , 0.0 , 0.0 , 0.0 , 

50.0 , 4130.76923077 , 4129.74358974 , 4136.92307692 , 4130.25641026 , 4125.64102564 , 4126.15384615 , 4125.64102564 , 4134.87179487 , 4135.38461538 , 4135.8974359 , 4185.64102564 , 4896.41025641 , 4131.79487179 , 4136.92307692 , 2040.0 , 2035.0 , 7.052 , 0.0 , 0.0 , 0.0 , 0.0 , 

51.0 , 4128.71794872 , 4129.74358974 , 4135.38461538 , 4134.35897436 , 4133.33333333 , 4128.71794872 , 4123.07692308 , 4134.87179487 , 4134.35897436 , 4135.8974359 , 4186.15384615 , 4897.43589744 , 4133.33333333 , 4137.94871795 , 2041.0 , 2039.0 , 7.06 , 0.0 , 0.0 , 0.0 , 0.0 , 

52.0 , 4129.23076923 , 4127.69230769 , 4132.30769231 , 4132.30769231 , 4137.94871795 , 4126.66666667 , 4125.64102564 , 4134.87179487 , 4134.35897436 , 4135.8974359 , 4184.61538462 , 4898.46153846 , 4134.87179487 , 4137.43589744 , 2041.0 , 2037.0 , 7.069 , 0.0 , 0.0 , 0.0 , 0.0 , 

53.0 , 4130.25641026 , 4128.20512821 , 4133.33333333 , 4129.74358974 , 4133.33333333 , 4122.56410256 , 4128.71794872 , 4134.87179487 , 4134.35897436 , 4135.8974359 , 4186.15384615 , 4900.0 , 4129.74358974 , 4137.43589744 , 2042.0 , 2037.0 , 7.076 , 0.0 , 0.0 , 0.0 , 0.0 , 

54.0 , 4130.76923077 , 4130.25641026 , 4137.94871795 , 4132.82051282 , 4131.79487179 , 4125.64102564 , 4127.69230769 , 4134.87179487 , 4134.35897436 , 4135.8974359 , 4187.17948718 , 4900.0 , 4131.28205128 , 4138.97435897 , 2041.0 , 2037.0 , 7.084 , 0.0 , 0.0 , 0.0 , 0.0 , 

55.0 , 4129.74358974 , 4128.20512821 , 4138.97435897 , 4132.30769231 , 4134.35897436 , 4129.74358974 , 4125.64102564 , 4134.87179487 , 4135.38461538 , 4135.8974359 , 4185.12820513 , 4898.46153846 , 4136.92307692 , 4138.97435897 , 2041.0 , 2037.0 , 7.092 , 0.0 , 0.0 , 0.0 , 0.0 , 

56.0 , 4130.25641026 , 4126.15384615 , 4134.35897436 , 4130.25641026 , 4132.82051282 , 4127.69230769 , 4126.15384615 , 4134.87179487 , 4135.8974359 , 4135.8974359 , 4185.12820513 , 4897.43589744 , 4133.84615385 , 4138.46153846 , 2041.0 , 2036.0 , 7.1 , 0.0 , 0.0 , 0.0 , 0.0 , 

57.0 , 4131.79487179 , 4128.71794872 , 4137.43589744 , 4132.82051282 , 4132.82051282 , 4126.66666667 , 4128.20512821 , 4134.87179487 , 4136.41025641 , 4135.8974359 , 4187.69230769 , 4896.92307692 , 4131.28205128 , 4137.43589744 , 2042.0 , 2036.0 , 7.108 , 0.0 , 0.0 , 0.0 , 0.0 , 

58.0 , 4131.79487179 , 4130.25641026 , 4138.97435897 , 4131.79487179 , 4137.94871795 , 4127.17948718 , 4127.17948718 , 4134.87179487 , 4134.87179487 , 4135.8974359 , 4186.66666667 , 4893.84615385 , 4135.38461538 , 4136.41025641 , 2041.0 , 2036.0 , 7.115 , 0.0 , 0.0 , 0.0 , 0.0 , 

59.0 , 4130.25641026 , 4127.17948718 , 4137.94871795 , 4128.71794872 , 4134.87179487 , 4126.15384615 , 4121.53846154 , 4134.87179487 , 4134.35897436 , 4135.8974359 , 4185.64102564 , 4895.38461538 , 4136.92307692 , 4136.41025641 , 2042.0 , 2036.0 , 7.123 , 0.0 , 0.0 , 0.0 , 0.0 , 

60.0 , 4132.30769231 , 4128.20512821 , 4136.41025641 , 4131.79487179 , 4130.25641026 , 4126.66666667 , 4123.58974359 , 4134.87179487 , 4135.8974359 , 4135.8974359 , 4186.15384615 , 4900.51282051 , 4134.35897436 , 4136.92307692 , 2043.0 , 2035.0 , 7.131 , 0.0 , 0.0 , 0.0 , 0.0 , 

61.0 , 4132.30769231 , 4130.25641026 , 4135.8974359 , 4133.33333333 , 4130.76923077 , 4125.64102564 , 4129.23076923 , 4134.87179487 , 4137.43589744 , 4135.8974359 , 4186.15384615 , 4898.97435897 , 4131.79487179 , 4137.43589744 , 2043.0 , 2035.0 , 7.139 , 0.0 , 0.0 , 0.0 , 0.0 , 

62.0 , 4130.76923077 , 4129.23076923 , 4134.87179487 , 4130.25641026 , 4132.30769231 , 4122.56410256 , 4128.20512821 , 4134.87179487 , 4136.41025641 , 4135.8974359 , 4186.66666667 , 4893.84615385 , 4133.84615385 , 4136.92307692 , 2043.0 , 2034.0 , 7.147 , 0.0 , 0.0 , 0.0 , 0.0 , 

63.0 , 4129.74358974 , 4127.69230769 , 4134.87179487 , 4131.28205128 , 4132.82051282 , 4126.15384615 , 4126.15384615 , 4134.87179487 , 4135.8974359 , 4135.8974359 , 4186.15384615 , 4895.38461538 , 4136.92307692 , 4136.92307692 , 2042.0 , 2032.0 , 7.155 , 0.0 , 0.0 , 0.0 , 0.0 , 

64.0 , 4131.28205128 , 4129.74358974 , 4135.38461538 , 4134.87179487 , 4128.20512821 , 4128.71794872 , 4128.20512821 , 4134.87179487 , 4136.41025641 , 4135.8974359 , 4185.12820513 , 4899.48717949 , 4135.38461538 , 4137.43589744 , 2041.0 , 2031.0 , 7.162 , 0.0 , 0.0 , 0.0 , 0.0 , 

65.0 , 4130.76923077 , 4130.25641026 , 4137.43589744 , 4133.84615385 , 4125.12820513 , 4124.61538462 , 4126.15384615 , 4134.87179487 , 4135.38461538 , 4135.8974359 , 4185.64102564 , 4899.48717949 , 4133.33333333 , 4137.43589744 , 2040.0 , 2032.0 , 7.171 , 0.0 , 0.0 , 0.0 , 0.0 , 

66.0 , 4127.69230769 , 4129.74358974 , 4137.94871795 , 4134.35897436 , 4133.33333333 , 4126.15384615 , 4121.02564103 , 4134.87179487 , 4133.84615385 , 4135.8974359 , 4186.15384615 , 4894.87179487 , 4135.8974359 , 4137.43589744 , 2041.0 , 2031.0 , 7.178 , 0.0 , 0.0 , 0.0 , 0.0 , 

67.0 , 4128.20512821 , 4129.23076923 , 4137.94871795 , 4134.87179487 , 4136.92307692 , 4127.69230769 , 4120.51282051 , 4134.87179487 , 4133.84615385 , 4135.8974359 , 4185.64102564 , 4895.8974359 , 4134.87179487 , 4136.41025641 , 2040.0 , 2032.0 , 7.186 , 0.0 , 0.0 , 0.0 , 0.0 , 

68.0 , 4131.79487179 , 4130.25641026 , 4140.0 , 4134.87179487 , 4133.84615385 , 4125.12820513 , 4123.07692308 , 4134.87179487 , 4134.87179487 , 4135.8974359 , 4187.17948718 , 4899.48717949 , 4131.28205128 , 4137.43589744 , 2039.0 , 2032.0 , 7.194 , 0.0 , 0.0 , 0.0 , 0.0 , 

69.0 , 4131.28205128 , 4131.79487179 , 4137.43589744 , 4131.79487179 , 4135.38461538 , 4127.17948718 , 4123.58974359 , 4134.87179487 , 4134.87179487 , 4135.8974359 , 4187.17948718 , 4897.94871795 , 4134.35897436 , 4138.97435897 , 2041.0 , 2033.0 , 7.201 , 0.0 , 0.0 , 0.0 , 0.0 , 

70.0 , 4128.71794872 , 4130.76923077 , 4132.82051282 , 4128.71794872 , 4130.25641026 , 4128.71794872 , 4123.07692308 , 4134.87179487 , 4134.87179487 , 4135.8974359 , 4185.12820513 , 4896.92307692 , 4135.8974359 , 4138.46153846 , 2040.0 , 2036.0 , 7.209 , 0.0 , 0.0 , 0.0 , 0.0 , 

71.0 , 4130.25641026 , 4127.69230769 , 4132.30769231 , 4131.28205128 , 4122.05128205 , 4126.66666667 , 4124.1025641 , 4134.87179487 , 4135.38461538 , 4135.8974359 , 4186.15384615 , 4898.46153846 , 4134.35897436 , 4136.92307692 , 2040.0 , 2036.0 , 7.217 , 0.0 , 0.0 , 0.0 , 0.0 , 

72.0 , 4131.28205128 , 4127.69230769 , 4130.25641026 , 4132.30769231 , 4123.58974359 , 4128.20512821 , 4125.64102564 , 4135.38461538 , 4135.38461538 , 4135.8974359 , 4187.17948718 , 4896.92307692 , 4134.87179487 , 4137.43589744 , 2042.0 , 2036.0 , 7.226 , 0.0 , 0.0 , 0.0 , 0.0 , 

73.0 , 4130.25641026 , 4128.71794872 , 4128.20512821 , 4131.28205128 , 4128.20512821 , 4127.69230769 , 4125.12820513 , 4134.87179487 , 4134.35897436 , 4135.8974359 , 4185.64102564 , 4895.8974359 , 4136.92307692 , 4140.0 , 2043.0 , 2037.0 , 7.234 , 0.0 , 0.0 , 0.0 , 0.0 , 

74.0 , 4129.74358974 , 4127.69230769 , 4134.35897436 , 4130.25641026 , 4128.71794872 , 4121.02564103 , 4123.07692308 , 4134.87179487 , 4134.35897436 , 4135.8974359 , 4185.64102564 , 4896.92307692 , 4135.8974359 , 4139.48717949 , 2044.0 , 2037.0 , 7.241 , 0.0 , 0.0 , 0.0 , 0.0 , 

75.0 , 4129.74358974 , 4128.20512821 , 4136.41025641 , 4130.25641026 , 4130.25641026 , 4123.07692308 , 4124.61538462 , 4136.41025641 , 4135.38461538 , 4135.8974359 , 4186.66666667 , 4895.38461538 , 4135.8974359 , 4136.92307692 , 2043.0 , 2038.0 , 7.248 , 0.0 , 0.0 , 0.0 , 0.0 , 

76.0 , 4128.71794872 , 4129.74358974 , 4134.87179487 , 4128.71794872 , 4126.15384615 , 4129.23076923 , 4125.64102564 , 4137.94871795 , 4134.87179487 , 4135.8974359 , 4185.64102564 , 4897.94871795 , 4135.8974359 , 4137.43589744 , 2043.0 , 2036.0 , 7.258 , 0.0 , 0.0 , 0.0 , 0.0 , 

77.0 , 4131.28205128 , 4129.74358974 , 4136.92307692 , 4131.28205128 , 4124.61538462 , 4128.71794872 , 4125.12820513 , 4135.8974359 , 4134.87179487 , 4135.8974359 , 4185.12820513 , 4900.51282051 , 4134.87179487 , 4137.43589744 , 2043.0 , 2036.0 , 7.265 , 0.0 , 0.0 , 0.0 , 0.0 , 

78.0 , 4132.82051282 , 4128.71794872 , 4138.46153846 , 4132.30769231 , 4130.25641026 , 4126.15384615 , 4124.61538462 , 4134.35897436 , 4135.8974359 , 4135.8974359 , 4185.64102564 , 4897.94871795 , 4134.35897436 , 4136.92307692 , 2042.0 , 2036.0 , 7.273 , 0.0 , 0.0 , 0.0 , 0.0 , 

79.0 , 4129.74358974 , 4129.74358974 , 4135.8974359 , 4130.76923077 , 4129.74358974 , 4126.15384615 , 4124.1025641 , 4134.87179487 , 4135.38461538 , 4135.8974359 , 4184.1025641 , 4897.94871795 , 4134.35897436 , 4136.92307692 , 2041.0 , 2036.0 , 7.281 , 0.0 , 0.0 , 0.0 , 0.0 , 

80.0 , 4128.20512821 , 4129.23076923 , 4136.92307692 , 4131.28205128 , 4128.71794872 , 4127.17948718 , 4124.61538462 , 4135.38461538 , 4134.87179487 , 4135.8974359 , 4185.64102564 , 4898.97435897 , 4134.35897436 , 4137.94871795 , 2041.0 , 2036.0 , 7.289 , 0.0 , 0.0 , 0.0 , 0.0 , 

81.0 , 4129.74358974 , 4128.71794872 , 4138.97435897 , 4129.74358974 , 4135.8974359 , 4128.20512821 , 4125.12820513 , 4134.87179487 , 4134.87179487 , 4135.8974359 , 4187.17948718 , 4897.43589744 , 4134.87179487 , 4136.41025641 , 2040.0 , 2034.0 , 7.296 , 0.0 , 0.0 , 0.0 , 0.0 , 

82.0 , 4128.71794872 , 4126.66666667 , 4140.51282051 , 4128.71794872 , 4134.35897436 , 4127.17948718 , 4123.07692308 , 4135.38461538 , 4135.38461538 , 4135.8974359 , 4186.15384615 , 4897.94871795 , 4135.38461538 , 4136.41025641 , 2041.0 , 2033.0 , 7.303 , 0.0 , 0.0 , 0.0 , 0.0 , 

83.0 , 4126.66666667 , 4127.17948718 , 4140.0 , 4132.30769231 , 4123.58974359 , 4124.1025641 , 4122.05128205 , 4135.38461538 , 4134.87179487 , 4135.8974359 , 4185.64102564 , 4898.46153846 , 4134.35897436 , 4138.46153846 , 2041.0 , 2032.0 , 7.312 , 0.0 , 0.0 , 0.0 , 0.0 , 

84.0 , 4128.20512821 , 4129.23076923 , 4141.02564103 , 4130.76923077 , 4125.64102564 , 4124.1025641 , 4124.61538462 , 4134.87179487 , 4134.87179487 , 4135.8974359 , 4187.17948718 , 4896.41025641 , 4132.82051282 , 4138.97435897 , 2041.0 , 2032.0 , 7.32 , 0.0 , 0.0 , 0.0 , 0.0 , 

85.0 , 4131.28205128 , 4130.25641026 , 4142.56410256 , 4128.20512821 , 4135.8974359 , 4128.71794872 , 4125.12820513 , 4135.38461538 , 4134.87179487 , 4135.8974359 , 4186.66666667 , 4897.43589744 , 4132.82051282 , 4137.43589744 , 2041.0 , 2031.0 , 7.328 , 0.0 , 0.0 , 0.0 , 0.0 , 

86.0 , 4131.28205128 , 4128.71794872 , 4142.56410256 , 4132.82051282 , 4134.35897436 , 4127.17948718 , 4123.07692308 , 4135.8974359 , 4134.87179487 , 4135.8974359 , 4185.64102564 , 4896.92307692 , 4133.84615385 , 4137.94871795 , 2040.0 , 2032.0 , 7.336 , 0.0 , 0.0 , 0.0 , 0.0 , 

87.0 , 4130.25641026 , 4128.20512821 , 4142.05128205 , 4131.79487179 , 4128.20512821 , 4123.58974359 , 4124.1025641 , 4135.8974359 , 4134.87179487 , 4135.8974359 , 4185.64102564 , 4894.35897436 , 4132.82051282 , 4138.97435897 , 2041.0 , 2031.0 , 7.344 , 0.0 , 0.0 , 0.0 , 0.0 , 

88.0 , 4130.25641026 , 4129.74358974 , 4140.51282051 , 4126.15384615 , 4130.25641026 , 4124.61538462 , 4124.1025641 , 4134.87179487 , 4135.38461538 , 4136.41025641 , 4185.64102564 , 4896.41025641 , 4131.79487179 , 4136.92307692 , 2040.0 , 2033.0 , 7.352 , 0.0 , 0.0 , 0.0 , 0.0 , 

89.0 , 4132.30769231 , 4130.76923077 , 4138.46153846 , 4132.30769231 , 4130.25641026 , 4127.69230769 , 4122.05128205 , 4134.35897436 , 4134.87179487 , 4135.8974359 , 4186.15384615 , 4897.43589744 , 4135.38461538 , 4135.38461538 , 2040.0 , 2033.0 , 7.36 , 0.0 , 0.0 , 0.0 , 0.0 , 

90.0 , 4131.28205128 , 4130.25641026 , 4135.38461538 , 4136.92307692 , 4126.66666667 , 4125.64102564 , 4125.12820513 , 4134.87179487 , 4134.87179487 , 4135.8974359 , 4186.15384615 , 4895.8974359 , 4135.8974359 , 4136.92307692 , 2041.0 , 2033.0 , 7.368 , 0.0 , 0.0 , 0.0 , 0.0 , 

91.0 , 4128.71794872 , 4129.23076923 , 4135.38461538 , 4132.30769231 , 4130.25641026 , 4124.1025641 , 4127.17948718 , 4135.38461538 , 4135.38461538 , 4137.43589744 , 4185.64102564 , 4897.94871795 , 4131.28205128 , 4136.92307692 , 2041.0 , 2034.0 , 7.375 , 0.0 , 0.0 , 0.0 , 0.0 , 

92.0 , 4129.23076923 , 4127.17948718 , 4135.38461538 , 4132.82051282 , 4133.84615385 , 4126.66666667 , 4124.1025641 , 4134.87179487 , 4135.8974359 , 4138.97435897 , 4187.17948718 , 4901.02564103 , 4131.79487179 , 4136.92307692 , 2043.0 , 2031.0 , 7.382 , 0.0 , 0.0 , 0.0 , 0.0 , 

93.0 , 4130.76923077 , 4127.17948718 , 4137.43589744 , 4135.38461538 , 4126.15384615 , 4127.69230769 , 4124.1025641 , 4135.8974359 , 4134.87179487 , 4137.43589744 , 4187.69230769 , 4902.05128205 , 4134.87179487 , 4136.92307692 , 2043.0 , 2031.0 , 7.391 , 0.0 , 0.0 , 0.0 , 0.0 , 

94.0 , 4132.30769231 , 4128.71794872 , 4135.8974359 , 4130.25641026 , 4123.07692308 , 4127.17948718 , 4127.17948718 , 4136.41025641 , 4134.35897436 , 4136.41025641 , 4186.15384615 , 4901.02564103 , 4134.87179487 , 4136.41025641 , 2044.0 , 2033.0 , 7.398 , 0.0 , 0.0 , 0.0 , 0.0 , 

95.0 , 4130.25641026 , 4128.20512821 , 4133.33333333 , 4125.64102564 , 4133.33333333 , 4126.15384615 , 4125.64102564 , 4132.82051282 , 4134.35897436 , 4136.92307692 , 4186.15384615 , 4898.46153846 , 4135.38461538 , 4136.92307692 , 2043.0 , 2030.0 , 7.406 , 0.0 , 0.0 , 0.0 , 0.0 , 

96.0 , 4128.20512821 , 4128.20512821 , 4134.87179487 , 4128.20512821 , 4136.41025641 , 4126.15384615 , 4125.64102564 , 4130.76923077 , 4134.35897436 , 4136.41025641 , 4186.66666667 , 4895.8974359 , 4138.46153846 , 4137.94871795 , 2042.0 , 2028.0 , 7.415 , 0.0 , 0.0 , 0.0 , 0.0 , 

97.0 , 4129.23076923 , 4130.76923077 , 4141.02564103 , 4131.28205128 , 4130.76923077 , 4126.15384615 , 4126.66666667 , 4134.35897436 , 4134.35897436 , 4135.8974359 , 4185.64102564 , 4900.0 , 4137.94871795 , 4137.43589744 , 2042.0 , 2028.0 , 7.423 , 0.0 , 0.0 , 0.0 , 0.0 , 

98.0 , 4131.28205128 , 4130.76923077 , 4140.0 , 4130.76923077 , 4132.82051282 , 4126.66666667 , 4125.64102564 , 4136.92307692 , 4133.84615385 , 4136.41025641 , 4184.61538462 , 4902.05128205 , 4136.92307692 , 4137.43589744 , 2043.0 , 2029.0 , 7.43 , 0.0 , 0.0 , 0.0 , 0.0 , 

99.0 , 4128.20512821 , 4127.17948718 , 4136.41025641 , 4130.25641026 , 4134.87179487 , 4124.1025641 , 4126.66666667 , 4135.8974359 , 4134.87179487 , 4135.8974359 , 4184.61538462 , 4897.94871795 , 4137.94871795 , 4138.46153846 , 2044.0 , 2029.0 , 7.438 , 0.0 , 0.0 , 0.0 , 0.0 , 

100.0 , 4127.69230769 , 4127.69230769 , 4136.41025641 , 4133.84615385 , 4133.33333333 , 4122.56410256 , 4127.17948718 , 4133.84615385 , 4135.8974359 , 4135.8974359 , 4186.15384615 , 4897.94871795 , 4137.94871795 , 4136.41025641 , 2044.0 , 2029.0 , 7.446 , 0.0 , 0.0 , 0.0 , 0.0 , 

101.0 , 4128.71794872 , 4130.25641026 , 4137.43589744 , 4134.87179487 , 4132.82051282 , 4126.15384615 , 4126.15384615 , 4132.82051282 , 4134.87179487 , 4135.8974359 , 4187.17948718 , 4900.51282051 , 4135.8974359 , 4135.8974359 , 2043.0 , 2031.0 , 7.454 , 0.0 , 0.0 , 0.0 , 0.0 , 

102.0 , 4127.69230769 , 4130.25641026 , 4135.8974359 , 4129.23076923 , 4127.69230769 , 4128.20512821 , 4126.66666667 , 4132.30769231 , 4134.35897436 , 4135.8974359 , 4185.12820513 , 4898.97435897 , 4133.33333333 , 4137.43589744 , 2043.0 , 2033.0 , 7.462 , 0.0 , 0.0 , 0.0 , 0.0 , 

103.0 , 4129.74358974 , 4127.69230769 , 4136.41025641 , 4127.69230769 , 4124.61538462 , 4123.07692308 , 4124.61538462 , 4133.33333333 , 4134.87179487 , 4135.8974359 , 4184.61538462 , 4897.43589744 , 4134.87179487 , 4138.46153846 , 2044.0 , 2034.0 , 7.47 , 0.0 , 0.0 , 0.0 , 0.0 , 

104.0 , 4132.30769231 , 4127.17948718 , 4135.38461538 , 4134.87179487 , 4125.64102564 , 4121.02564103 , 4123.07692308 , 4132.82051282 , 4136.41025641 , 4135.8974359 , 4186.66666667 , 4898.97435897 , 4136.92307692 , 4137.94871795 , 2045.0 , 2034.0 , 7.478 , 0.0 , 0.0 , 0.0 , 0.0 , 

105.0 , 4129.23076923 , 4128.71794872 , 4133.33333333 , 4138.46153846 , 4126.15384615 , 4127.69230769 , 4128.20512821 , 4132.30769231 , 4135.38461538 , 4135.8974359 , 4186.66666667 , 4898.97435897 , 4133.33333333 , 4136.92307692 , 2044.0 , 2035.0 , 7.486 , 0.0 , 0.0 , 0.0 , 0.0 , 

106.0 , 4129.23076923 , 4129.23076923 , 4133.84615385 , 4131.79487179 , 4130.76923077 , 4130.25641026 , 4129.23076923 , 4133.84615385 , 4134.35897436 , 4135.8974359 , 4185.12820513 , 4895.8974359 , 4131.79487179 , 4136.92307692 , 2044.0 , 2035.0 , 7.494 , 0.0 , 0.0 , 0.0 , 0.0 , 

107.0 , 4131.28205128 , 4127.69230769 , 4133.33333333 , 4128.20512821 , 4132.30769231 , 4127.69230769 , 4126.66666667 , 4136.41025641 , 4135.8974359 , 4135.8974359 , 4185.64102564 , 4895.38461538 , 4134.87179487 , 4138.97435897 , 2044.0 , 2036.0 , 7.502 , 0.0 , 0.0 , 0.0 , 0.0 , 

108.0 , 4130.76923077 , 4127.17948718 , 4133.84615385 , 4134.35897436 , 4127.69230769 , 4128.71794872 , 4129.74358974 , 4135.38461538 , 4136.92307692 , 4135.8974359 , 4187.17948718 , 4895.8974359 , 4135.8974359 , 4138.46153846 , 2043.0 , 2034.0 , 7.509 , 0.0 , 0.0 , 0.0 , 0.0 , 

109.0 , 4129.74358974 , 4128.71794872 , 4135.8974359 , 4135.38461538 , 4129.74358974 , 4132.30769231 , 4130.76923077 , 4133.33333333 , 4135.38461538 , 4135.8974359 , 4184.61538462 , 4896.41025641 , 4134.35897436 , 4135.8974359 , 2045.0 , 2035.0 , 7.517 , 0.0 , 0.0 , 0.0 , 0.0 , 

110.0 , 4128.71794872 , 4128.20512821 , 4137.43589744 , 4127.17948718 , 4136.41025641 , 4130.25641026 , 4126.15384615 , 4135.38461538 , 4135.38461538 , 4135.8974359 , 4187.69230769 , 4898.97435897 , 4134.87179487 , 4136.41025641 , 2043.0 , 2034.0 , 7.524 , 0.0 , 0.0 , 0.0 , 0.0 , 

111.0 , 4128.71794872 , 4127.69230769 , 4136.92307692 , 4124.61538462 , 4133.33333333 , 4127.17948718 , 4124.61538462 , 4136.41025641 , 4136.92307692 , 4135.8974359 , 4194.35897436 , 4901.02564103 , 4136.92307692 , 4138.97435897 , 2042.0 , 2035.0 , 7.533 , 0.0 , 0.0 , 0.0 , 0.0 , 

112.0 , 4131.28205128 , 4129.23076923 , 4138.97435897 , 4131.79487179 , 4132.82051282 , 4126.66666667 , 4126.15384615 , 4134.35897436 , 4135.8974359 , 4135.8974359 , 4190.25641026 , 4900.0 , 4136.41025641 , 4139.48717949 , 2042.0 , 2035.0 , 7.54 , 0.0 , 0.0 , 0.0 , 0.0 , 

113.0 , 4130.76923077 , 4129.74358974 , 4138.97435897 , 4138.46153846 , 4136.92307692 , 4128.20512821 , 4125.64102564 , 4133.84615385 , 4134.87179487 , 4135.8974359 , 4182.56410256 , 4900.0 , 4135.8974359 , 4137.94871795 , 2040.0 , 2035.0 , 7.548 , 0.0 , 0.0 , 0.0 , 0.0 , 

114.0 , 4127.17948718 , 4128.71794872 , 4139.48717949 , 4133.33333333 , 4134.87179487 , 4128.71794872 , 4125.64102564 , 4135.38461538 , 4135.8974359 , 4135.8974359 , 4184.61538462 , 4900.51282051 , 4135.38461538 , 4137.43589744 , 2041.0 , 2035.0 , 7.556 , 0.0 , 0.0 , 0.0 , 0.0 , 

115.0 , 4129.23076923 , 4128.71794872 , 4139.48717949 , 4127.69230769 , 4134.35897436 , 4126.66666667 , 4125.64102564 , 4136.41025641 , 4134.87179487 , 4135.8974359 , 4187.69230769 , 4898.46153846 , 4134.35897436 , 4136.41025641 , 2040.0 , 2035.0 , 7.564 , 0.0 , 0.0 , 0.0 , 0.0 , 

116.0 , 4129.74358974 , 4127.69230769 , 4139.48717949 , 4129.74358974 , 4135.38461538 , 4124.1025641 , 4125.12820513 , 4135.8974359 , 4134.87179487 , 4135.8974359 , 4184.1025641 , 4900.51282051 , 4134.35897436 , 4136.41025641 , 2041.0 , 2034.0 , 7.572 , 0.0 , 0.0 , 0.0 , 0.0 , 

117.0 , 4127.69230769 , 4126.66666667 , 4138.97435897 , 4132.82051282 , 4131.28205128 , 4125.12820513 , 4124.61538462 , 4135.8974359 , 4134.35897436 , 4135.8974359 , 4183.58974359 , 4903.07692308 , 4135.38461538 , 4137.43589744 , 2041.0 , 2034.0 , 7.58 , 0.0 , 0.0 , 0.0 , 0.0 , 

118.0 , 4128.71794872 , 4126.66666667 , 4136.92307692 , 4132.30769231 , 4129.74358974 , 4129.74358974 , 4125.12820513 , 4135.8974359 , 4134.35897436 , 4135.8974359 , 4186.15384615 , 4901.02564103 , 4134.35897436 , 4137.94871795 , 2041.0 , 2032.0 , 7.588 , 0.0 , 0.0 , 0.0 , 0.0 , 

119.0 , 4131.28205128 , 4129.23076923 , 4134.87179487 , 4132.82051282 , 4134.35897436 , 4129.23076923 , 4125.64102564 , 4134.35897436 , 4135.38461538 , 4135.8974359 , 4185.64102564 , 4898.97435897 , 4133.84615385 , 4136.92307692 , 2041.0 , 2033.0 , 7.596 , 0.0 , 0.0 , 0.0 , 0.0 , 

120.0 , 4130.25641026 , 4129.23076923 , 4136.41025641 , 4132.82051282 , 4135.38461538 , 4124.61538462 , 4123.07692308 , 4135.38461538 , 4132.82051282 , 4135.8974359 , 4186.15384615 , 4898.46153846 , 4136.41025641 , 4137.43589744 , 2041.0 , 2034.0 , 7.603 , 0.0 , 0.0 , 0.0 , 0.0 , 

121.0 , 4129.74358974 , 4128.71794872 , 4137.94871795 , 4134.87179487 , 4133.84615385 , 4127.17948718 , 4122.56410256 , 4135.8974359 , 4130.76923077 , 4135.8974359 , 4186.15384615 , 4898.46153846 , 4137.43589744 , 4137.94871795 , 2041.0 , 2031.0 , 7.612 , 0.0 , 0.0 , 0.0 , 0.0 , 

122.0 , 4129.74358974 , 4129.23076923 , 4136.92307692 , 4135.8974359 , 4134.35897436 , 4131.28205128 , 4124.61538462 , 4132.30769231 , 4133.84615385 , 4135.8974359 , 4186.66666667 , 4897.94871795 , 4135.8974359 , 4137.43589744 , 2040.0 , 2032.0 , 7.619 , 0.0 , 0.0 , 0.0 , 0.0 , 

123.0 , 4127.69230769 , 4129.23076923 , 4137.43589744 , 4131.28205128 , 4134.35897436 , 4129.74358974 , 4125.64102564 , 4132.30769231 , 4135.38461538 , 4135.8974359 , 4188.20512821 , 4897.43589744 , 4134.87179487 , 4137.94871795 , 2041.0 , 2033.0 , 7.628 , 0.0 , 0.0 , 0.0 , 0.0 , 

124.0 , 4128.71794872 , 4129.74358974 , 4137.94871795 , 4129.23076923 , 4134.87179487 , 4123.58974359 , 4125.64102564 , 4135.8974359 , 4132.82051282 , 4135.8974359 , 4187.69230769 , 4899.48717949 , 4135.38461538 , 4138.46153846 , 2040.0 , 2033.0 , 7.636 , 0.0 , 0.0 , 0.0 , 0.0 , 

125.0 , 4130.76923077 , 4130.25641026 , 4137.94871795 , 4131.79487179 , 4136.41025641 , 4122.56410256 , 4124.61538462 , 4135.38461538 , 4133.84615385 , 4135.8974359 , 4185.64102564 , 4900.0 , 4134.87179487 , 4136.41025641 , 2039.0 , 2033.0 , 7.642 , 0.0 , 0.0 , 0.0 , 0.0 , 

126.0 , 4129.23076923 , 4129.23076923 , 4137.43589744 , 4131.28205128 , 4135.8974359 , 4123.07692308 , 4125.64102564 , 4133.84615385 , 4135.8974359 , 4135.8974359 , 4185.12820513 , 4896.92307692 , 4134.35897436 , 4135.38461538 , 2039.0 , 2034.0 , 7.65 , 0.0 , 0.0 , 0.0 , 0.0 , 

127.0 , 4127.69230769 , 4127.17948718 , 4136.92307692 , 4130.76923077 , 4135.38461538 , 4122.05128205 , 4126.66666667 , 4134.87179487 , 4134.35897436 , 4135.8974359 , 4186.15384615 , 4897.43589744 , 4135.8974359 , 4135.38461538 , 2040.0 , 2035.0 , 7.658 , 0.0 , 0.0 , 0.0 , 0.0 , 

128.0 , 4128.71794872 , 4128.20512821 , 4137.43589744 , 4134.87179487 , 4136.92307692 , 4123.07692308 , 4127.69230769 , 4135.8974359 , 4134.35897436 , 4135.8974359 , 4184.1025641 , 4899.48717949 , 4136.92307692 , 4136.41025641 , 2040.0 , 2036.0 , 7.667 , 0.0 , 0.0 , 0.0 , 0.0 , 

0.0 , 4128.71794872 , 4129.23076923 , 4139.48717949 , 4133.84615385 , 4135.38461538 , 4126.15384615 , 4127.69230769 , 4134.35897436 , 4135.38461538 , 4135.8974359 , 4184.61538462 , 4898.97435897 , 4135.38461538 , 4136.92307692 , 2038.0 , 2040.0 , 7.675 , 0.0 , 0.0 , 0.0 , 0.0 , 

1.0 , 4127.17948718 , 4128.71794872 , 4137.94871795 , 4128.20512821 , 4132.30769231 , 4126.15384615 , 4126.66666667 , 4134.35897436 , 4134.87179487 , 4135.8974359 , 4186.15384615 , 4900.51282051 , 4134.87179487 , 4136.92307692 , 2039.0 , 2040.0 , 7.682 , 0.0 , 0.0 , 0.0 , 0.0 , 

2.0 , 4127.17948718 , 4129.23076923 , 4138.97435897 , 4126.66666667 , 4132.82051282 , 4126.15384615 , 4124.1025641 , 4135.8974359 , 4135.38461538 , 4135.8974359 , 4185.64102564 , 4900.51282051 , 4135.38461538 , 4136.92307692 , 2038.0 , 2041.0 , 7.69 , 0.0 , 0.0 , 0.0 , 0.0 , 

3.0 , 4128.71794872 , 4130.25641026 , 4142.05128205 , 4130.76923077 , 4135.8974359 , 4127.69230769 , 4125.64102564 , 4134.35897436 , 4136.41025641 , 4135.8974359 , 4186.15384615 , 4895.38461538 , 4134.35897436 , 4138.46153846 , 2038.0 , 2043.0 , 7.699 , 0.0 , 0.0 , 0.0 , 0.0 , 

4.0 , 4128.20512821 , 4129.23076923 , 4140.0 , 4134.35897436 , 4136.41025641 , 4126.66666667 , 4129.74358974 , 4131.79487179 , 4134.87179487 , 4135.8974359 , 4186.15384615 , 4894.35897436 , 4135.8974359 , 4138.46153846 , 2038.0 , 2042.0 , 7.706 , 0.0 , 0.0 , 0.0 , 0.0 , 

5.0 , 4127.17948718 , 4127.69230769 , 4136.41025641 , 4130.25641026 , 4132.82051282 , 4126.66666667 , 4127.17948718 , 4133.84615385 , 4134.87179487 , 4135.8974359 , 4185.64102564 , 4896.41025641 , 4135.8974359 , 4135.38461538 , 2040.0 , 2044.0 , 7.715 , 0.0 , 0.0 , 0.0 , 0.0 , 

6.0 , 4130.25641026 , 4128.20512821 , 4140.51282051 , 4127.17948718 , 4130.25641026 , 4126.15384615 , 4124.1025641 , 4135.8974359 , 4135.8974359 , 4135.8974359 , 4185.64102564 , 4898.46153846 , 4131.79487179 , 4135.8974359 , 2040.0 , 2046.0 , 7.723 , 0.0 , 0.0 , 0.0 , 0.0 , 

7.0 , 4131.79487179 , 4128.71794872 , 4141.53846154 , 4129.74358974 , 4133.84615385 , 4125.64102564 , 4126.15384615 , 4134.35897436 , 4136.41025641 , 4135.8974359 , 4185.64102564 , 4902.05128205 , 4131.79487179 , 4137.43589744 , 2042.0 , 2047.0 , 7.73 , 0.0 , 0.0 , 0.0 , 0.0 , 

8.0 , 4128.20512821 , 4125.64102564 , 4136.41025641 , 4132.82051282 , 4135.8974359 , 4124.61538462 , 4126.66666667 , 4134.35897436 , 4135.8974359 , 4135.8974359 , 4186.15384615 , 4902.05128205 , 4135.38461538 , 4136.92307692 , 2044.0 , 2049.0 , 7.737 , 0.0 , 0.0 , 0.0 , 0.0 , 

9.0 , 4127.17948718 , 4125.64102564 , 4134.35897436 , 4136.41025641 , 4132.30769231 , 4125.12820513 , 4123.58974359 , 4136.41025641 , 4135.8974359 , 4135.8974359 , 4186.15384615 , 4900.0 , 4136.41025641 , 4135.8974359 , 2044.0 , 2050.0 , 7.746 , 0.0 , 0.0 , 0.0 , 0.0 , 

10.0 , 4128.20512821 , 4129.74358974 , 4138.46153846 , 4137.43589744 , 4131.28205128 , 4127.69230769 , 4123.58974359 , 4133.33333333 , 4136.41025641 , 4135.8974359 , 4185.64102564 , 4902.56410256 , 4134.87179487 , 4136.41025641 , 2045.0 , 2051.0 , 7.753 , 0.0 , 0.0 , 0.0 , 0.0 , 

11.0 , 4128.20512821 , 4131.28205128 , 4138.97435897 , 4135.8974359 , 4135.38461538 , 4128.71794872 , 4125.64102564 , 4129.23076923 , 4136.41025641 , 4135.8974359 , 4185.64102564 , 4902.05128205 , 4135.38461538 , 4135.8974359 , 2046.0 , 2050.0 , 7.761 , 0.0 , 0.0 , 0.0 , 0.0 , 

12.0 , 4128.20512821 , 4128.71794872 , 4137.43589744 , 4134.87179487 , 4135.8974359 , 4127.17948718 , 4125.12820513 , 4129.23076923 , 4135.38461538 , 4135.8974359 , 4186.15384615 , 4897.94871795 , 4135.8974359 , 4135.8974359 , 2045.0 , 2046.0 , 7.77 , 0.0 , 0.0 , 0.0 , 0.0 , 

13.0 , 4128.20512821 , 4127.69230769 , 4140.51282051 , 4135.38461538 , 4132.82051282 , 4127.17948718 , 4124.61538462 , 4133.33333333 , 4134.35897436 , 4135.8974359 , 4185.64102564 , 4900.51282051 , 4134.87179487 , 4139.48717949 , 2045.0 , 2044.0 , 7.777 , 0.0 , 0.0 , 0.0 , 0.0 , 

14.0 , 4127.69230769 , 4129.23076923 , 4143.07692308 , 4133.33333333 , 4132.82051282 , 4127.69230769 , 4124.1025641 , 4135.38461538 , 4134.35897436 , 4135.8974359 , 4186.15384615 , 4903.58974359 , 4134.87179487 , 4141.02564103 , 2042.0 , 2040.0 , 7.785 , 0.0 , 0.0 , 0.0 , 0.0 , 

15.0 , 4129.23076923 , 4128.71794872 , 4143.07692308 , 4133.33333333 , 4134.87179487 , 4126.66666667 , 4123.58974359 , 4135.38461538 , 4134.35897436 , 4135.8974359 , 4186.15384615 , 4900.0 , 4134.87179487 , 4137.43589744 , 2041.0 , 2040.0 , 7.793 , 0.0 , 0.0 , 0.0 , 0.0 , 

16.0 , 4130.76923077 , 4127.69230769 , 4141.53846154 , 4134.35897436 , 4131.79487179 , 4127.69230769 , 4125.12820513 , 4134.35897436 , 4134.35897436 , 4135.8974359 , 4185.64102564 , 4895.38461538 , 4134.87179487 , 4135.8974359 , 2040.0 , 2040.0 , 7.801 , 0.0 , 0.0 , 0.0 , 0.0 , 

17.0 , 4128.20512821 , 4128.20512821 , 4140.51282051 , 4134.87179487 , 4130.25641026 , 4126.66666667 , 4125.12820513 , 4135.38461538 , 4134.35897436 , 4135.8974359 , 4185.12820513 , 4897.43589744 , 4135.38461538 , 4137.43589744 , 2038.0 , 2038.0 , 7.808 , 0.0 , 0.0 , 0.0 , 0.0 , 

18.0 , 4127.17948718 , 4129.23076923 , 4137.43589744 , 4137.94871795 , 4137.94871795 , 4127.69230769 , 4125.12820513 , 4135.38461538 , 4134.35897436 , 4135.8974359 , 4187.17948718 , 4902.05128205 , 4133.84615385 , 4138.46153846 , 2036.0 , 2038.0 , 7.817 , 0.0 , 0.0 , 0.0 , 0.0 , 

19.0 , 4129.74358974 , 4129.74358974 , 4134.35897436 , 4134.87179487 , 4134.35897436 , 4129.74358974 , 4124.1025641 , 4132.30769231 , 4134.35897436 , 4135.8974359 , 4187.69230769 , 4900.51282051 , 4129.74358974 , 4137.94871795 , 2034.0 , 2037.0 , 7.824 , 0.0 , 0.0 , 0.0 , 0.0 , 

20.0 , 4131.28205128 , 4130.76923077 , 4132.30769231 , 4130.76923077 , 4121.53846154 , 4127.17948718 , 4124.61538462 , 4131.79487179 , 4134.35897436 , 4135.8974359 , 4183.07692308 , 4898.97435897 , 4130.76923077 , 4137.94871795 , 2035.0 , 2039.0 , 7.832 , 0.0 , 0.0 , 0.0 , 0.0 , 

21.0 , 4129.74358974 , 4130.76923077 , 4135.8974359 , 4134.35897436 , 4127.69230769 , 4126.66666667 , 4126.15384615 , 4134.35897436 , 4134.35897436 , 4135.8974359 , 4181.53846154 , 4902.05128205 , 4136.41025641 , 4136.92307692 , 2036.0 , 2038.0 , 7.84 , 0.0 , 0.0 , 0.0 , 0.0 , 

22.0 , 4128.71794872 , 4129.74358974 , 4136.41025641 , 4136.41025641 , 4138.97435897 , 4128.71794872 , 4125.64102564 , 4134.35897436 , 4134.35897436 , 4135.8974359 , 4186.66666667 , 4904.1025641 , 4136.41025641 , 4136.92307692 , 2036.0 , 2037.0 , 7.847 , 0.0 , 0.0 , 0.0 , 0.0 , 

23.0 , 4129.23076923 , 4129.23076923 , 4133.84615385 , 4133.84615385 , 4134.87179487 , 4124.1025641 , 4123.58974359 , 4134.35897436 , 4134.35897436 , 4135.8974359 , 4188.71794872 , 4903.58974359 , 4131.79487179 , 4138.46153846 , 2038.0 , 2039.0 , 7.856 , 0.0 , 0.0 , 0.0 , 0.0 , 

24.0 , 4130.76923077 , 4129.74358974 , 4131.79487179 , 4133.33333333 , 4132.82051282 , 4121.53846154 , 4127.17948718 , 4135.8974359 , 4134.35897436 , 4135.8974359 , 4184.61538462 , 4902.56410256 , 4131.28205128 , 4137.43589744 , 2036.0 , 2038.0 , 7.863 , 0.0 , 0.0 , 0.0 , 0.0 , 

25.0 , 4130.25641026 , 4129.23076923 , 4131.79487179 , 4134.87179487 , 4136.92307692 , 4127.17948718 , 4129.74358974 , 4134.87179487 , 4134.35897436 , 4135.8974359 , 4183.07692308 , 4902.05128205 , 4133.84615385 , 4136.41025641 , 2040.0 , 2037.0 , 7.872 , 0.0 , 0.0 , 0.0 , 0.0 , 

26.0 , 4129.23076923 , 4128.20512821 , 4129.23076923 , 4135.8974359 , 4132.30769231 , 4128.71794872 , 4126.66666667 , 4133.84615385 , 4133.84615385 , 4135.8974359 , 4187.17948718 , 4901.02564103 , 4136.41025641 , 4136.92307692 , 2041.0 , 2035.0 , 7.88 , 0.0 , 0.0 , 0.0 , 0.0 , 

27.0 , 4129.74358974 , 4127.17948718 , 4132.82051282 , 4135.8974359 , 4128.71794872 , 4124.61538462 , 4125.12820513 , 4135.38461538 , 4134.35897436 , 4135.8974359 , 4187.69230769 , 4898.46153846 , 4136.41025641 , 4136.92307692 , 2040.0 , 2034.0 , 7.888 , 0.0 , 0.0 , 0.0 , 0.0 , 

28.0 , 4130.76923077 , 4128.20512821 , 4136.92307692 , 4135.8974359 , 4134.87179487 , 4124.1025641 , 4125.12820513 , 4135.8974359 , 4135.38461538 , 4135.8974359 , 4185.12820513 , 4897.94871795 , 4134.35897436 , 4136.92307692 , 2039.0 , 2032.0 , 7.896 , 0.0 , 0.0 , 0.0 , 0.0 , 

29.0 , 4129.74358974 , 4128.71794872 , 4137.43589744 , 4136.41025641 , 4135.8974359 , 4126.66666667 , 4125.12820513 , 4135.8974359 , 4135.38461538 , 4135.8974359 , 4185.64102564 , 4898.97435897 , 4133.33333333 , 4136.92307692 , 2039.0 , 2032.0 , 7.903 , 0.0 , 0.0 , 0.0 , 0.0 , 

30.0 , 4128.20512821 , 4128.20512821 , 4141.53846154 , 4135.8974359 , 4133.33333333 , 4126.66666667 , 4127.17948718 , 4134.35897436 , 4134.87179487 , 4135.8974359 , 4187.17948718 , 4896.41025641 , 4132.30769231 , 4136.41025641 , 2040.0 , 2031.0 , 7.91 , 0.0 , 0.0 , 0.0 , 0.0 , 

31.0 , 4128.71794872 , 4127.69230769 , 4144.1025641 , 4132.82051282 , 4134.87179487 , 4127.17948718 , 4126.66666667 , 4134.35897436 , 4135.38461538 , 4135.8974359 , 4186.15384615 , 4897.43589744 , 4133.33333333 , 4136.92307692 , 2041.0 , 2030.0 , 7.918 , 0.0 , 0.0 , 0.0 , 0.0 , 

32.0 , 4129.23076923 , 4130.76923077 , 4144.61538462 , 4134.87179487 , 4135.8974359 , 4128.71794872 , 4124.61538462 , 4135.38461538 , 4136.41025641 , 4135.8974359 , 4186.66666667 , 4903.07692308 , 4132.30769231 , 4138.97435897 , 2040.0 , 2029.0 , 7.927 , 0.0 , 0.0 , 0.0 , 0.0 , 

33.0 , 4128.71794872 , 4130.76923077 , 4145.12820513 , 4140.0 , 4134.35897436 , 4126.66666667 , 4123.58974359 , 4135.38461538 , 4136.41025641 , 4135.8974359 , 4187.69230769 , 4903.07692308 , 4132.82051282 , 4140.0 , 2042.0 , 2030.0 , 7.99 , 0.0 , 0.0 , 0.0 , 0.0 , 

34.0 , 4128.20512821 , 4128.20512821 , 4144.61538462 , 4133.84615385 , 4134.87179487 , 4123.58974359 , 4123.07692308 , 4136.41025641 , 4135.38461538 , 4135.8974359 , 4185.64102564 , 4898.97435897 , 4133.33333333 , 4138.46153846 , 2042.0 , 2030.0 , 7.991 , 0.0 , 0.0 , 0.0 , 0.0 , 

35.0 , 4129.23076923 , 4126.66666667 , 4142.56410256 , 4126.15384615 , 4136.41025641 , 4127.17948718 , 4126.66666667 , 4133.33333333 , 4135.38461538 , 4135.8974359 , 4185.12820513 , 4898.46153846 , 4131.79487179 , 4137.43589744 , 2042.0 , 2030.0 , 7.991 , 0.0 , 0.0 , 0.0 , 0.0 , 

36.0 , 4127.69230769 , 4128.20512821 , 4143.58974359 , 4130.76923077 , 4133.84615385 , 4130.25641026 , 4128.71794872 , 4129.74358974 , 4135.8974359 , 4135.8974359 , 4185.64102564 , 4898.46153846 , 4131.79487179 , 4138.46153846 , 2043.0 , 2032.0 , 7.991 , 0.0 , 0.0 , 0.0 , 0.0 , 

37.0 , 4125.64102564 , 4130.25641026 , 4144.61538462 , 4137.43589744 , 4132.30769231 , 4126.66666667 , 4125.12820513 , 4133.33333333 , 4133.84615385 , 4136.41025641 , 4185.64102564 , 4898.97435897 , 4134.35897436 , 4137.43589744 , 2043.0 , 2033.0 , 7.991 , 0.0 , 0.0 , 0.0 , 0.0 , 

38.0 , 4128.20512821 , 4129.74358974 , 4142.05128205 , 4133.84615385 , 4134.35897436 , 4126.15384615 , 4124.61538462 , 4136.41025641 , 4131.28205128 , 4136.41025641 , 4186.15384615 , 4897.94871795 , 4135.38461538 , 4136.41025641 , 2043.0 , 2033.0 , 7.991 , 0.0 , 0.0 , 0.0 , 0.0 , 

39.0 , 4129.23076923 , 4129.23076923 , 4139.48717949 , 4132.30769231 , 4133.33333333 , 4129.23076923 , 4127.17948718 , 4133.33333333 , 4133.84615385 , 4135.38461538 , 4186.66666667 , 4896.41025641 , 4134.35897436 , 4137.94871795 , 2042.0 , 2033.0 , 7.991 , 0.0 , 0.0 , 0.0 , 0.0 , 

40.0 , 4126.15384615 , 4129.23076923 , 4140.51282051 , 4135.38461538 , 4131.28205128 , 4125.64102564 , 4124.61538462 , 4133.84615385 , 4135.8974359 , 4136.92307692 , 4185.64102564 , 4901.02564103 , 4132.82051282 , 4139.48717949 , 2040.0 , 2033.0 , 7.991 , 0.0 , 0.0 , 0.0 , 0.0 , 

41.0 , 4129.23076923 , 4127.69230769 , 4137.94871795 , 4132.82051282 , 4134.87179487 , 4122.56410256 , 4123.07692308 , 4136.92307692 , 4134.35897436 , 4138.97435897 , 4185.12820513 , 4904.1025641 , 4131.28205128 , 4138.46153846 , 2042.0 , 2032.0 , 7.998 , 0.0 , 0.0 , 0.0 , 0.0 , 

42.0 , 4130.76923077 , 4126.66666667 , 4137.94871795 , 4132.30769231 , 4133.84615385 , 4127.17948718 , 4125.12820513 , 4134.87179487 , 4134.35897436 , 4136.92307692 , 4187.17948718 , 4902.56410256 , 4133.84615385 , 4138.97435897 , 2044.0 , 2031.0 , 8.006 , 0.0 , 0.0 , 0.0 , 0.0 , 

43.0 , 4128.20512821 , 4128.71794872 , 4138.97435897 , 4136.92307692 , 4128.20512821 , 4129.23076923 , 4124.61538462 , 4134.35897436 , 4135.38461538 , 4134.87179487 , 4186.66666667 , 4901.53846154 , 4136.92307692 , 4140.0 , 2045.0 , 2031.0 , 8.014 , 0.0 , 0.0 , 0.0 , 0.0 , 

44.0 , 4127.69230769 , 4128.71794872 , 4142.56410256 , 4136.92307692 , 4131.28205128 , 4125.12820513 , 4122.05128205 , 4135.38461538 , 4134.35897436 , 4136.92307692 , 4185.64102564 , 4901.53846154 , 4135.38461538 , 4137.43589744 , 2044.0 , 2034.0 , 8.021 , 0.0 , 0.0 , 0.0 , 0.0 , 

45.0 , 4130.76923077 , 4126.66666667 , 4142.05128205 , 4134.35897436 , 4133.84615385 , 4125.12820513 , 4122.56410256 , 4134.87179487 , 4134.35897436 , 4137.43589744 , 4185.12820513 , 4899.48717949 , 4134.35897436 , 4137.43589744 , 2043.0 , 2034.0 , 8.029 , 0.0 , 0.0 , 0.0 , 0.0 , 

46.0 , 4130.76923077 , 4127.17948718 , 4141.02564103 , 4131.79487179 , 4131.28205128 , 4126.66666667 , 4124.61538462 , 4135.38461538 , 4134.87179487 , 4135.8974359 , 4186.15384615 , 4903.58974359 , 4135.8974359 , 4138.97435897 , 2043.0 , 2036.0 , 8.036 , 0.0 , 0.0 , 0.0 , 0.0 , 

47.0 , 4130.25641026 , 4129.23076923 , 4140.0 , 4133.33333333 , 4134.35897436 , 4124.1025641 , 4126.66666667 , 4136.41025641 , 4134.87179487 , 4136.41025641 , 4186.66666667 , 4905.64102564 , 4135.8974359 , 4137.94871795 , 2043.0 , 2035.0 , 8.044 , 0.0 , 0.0 , 0.0 , 0.0 , 

48.0 , 4130.25641026 , 4127.69230769 , 4137.43589744 , 4136.41025641 , 4136.41025641 , 4123.58974359 , 4125.12820513 , 4133.84615385 , 4134.87179487 , 4137.43589744 , 4185.64102564 , 4900.51282051 , 4135.38461538 , 4137.43589744 , 2044.0 , 2035.0 , 8.053 , 0.0 , 0.0 , 0.0 , 0.0 , 

49.0 , 4129.74358974 , 4128.20512821 , 4134.35897436 , 4133.33333333 , 4132.82051282 , 4126.15384615 , 4124.1025641 , 4131.28205128 , 4135.8974359 , 4136.41025641 , 4184.61538462 , 4898.97435897 , 4135.38461538 , 4138.46153846 , 2043.0 , 2035.0 , 8.06 , 0.0 , 0.0 , 0.0 , 0.0 , 

50.0 , 4129.74358974 , 4128.71794872 , 4137.43589744 , 4128.20512821 , 4134.87179487 , 4125.64102564 , 4126.66666667 , 4133.33333333 , 4136.41025641 , 4136.92307692 , 4187.17948718 , 4903.58974359 , 4136.41025641 , 4137.94871795 , 2043.0 , 2037.0 , 8.068 , 0.0 , 0.0 , 0.0 , 0.0 , 

51.0 , 4129.23076923 , 4127.69230769 , 4141.53846154 , 4131.79487179 , 4131.79487179 , 4123.07692308 , 4127.17948718 , 4135.8974359 , 4135.38461538 , 4137.94871795 , 4186.66666667 , 4904.1025641 , 4135.8974359 , 4137.43589744 , 2043.0 , 2037.0 , 8.076 , 0.0 , 0.0 , 0.0 , 0.0 , 

52.0 , 4129.23076923 , 4128.20512821 , 4137.43589744 , 4137.94871795 , 4126.15384615 , 4126.66666667 , 4125.12820513 , 4133.84615385 , 4134.87179487 , 4137.43589744 , 4183.58974359 , 4902.05128205 , 4134.87179487 , 4138.46153846 , 2043.0 , 2038.0 , 8.084 , 0.0 , 0.0 , 0.0 , 0.0 , 

53.0 , 4130.25641026 , 4129.74358974 , 4135.8974359 , 4134.35897436 , 4132.30769231 , 4129.23076923 , 4123.07692308 , 4131.79487179 , 4134.87179487 , 4137.43589744 , 4185.12820513 , 4903.58974359 , 4135.38461538 , 4138.46153846 , 2044.0 , 2039.0 , 8.091 , 0.0 , 0.0 , 0.0 , 0.0 , 

54.0 , 4129.74358974 , 4128.71794872 , 4138.46153846 , 4130.25641026 , 4136.41025641 , 4126.66666667 , 4126.66666667 , 4134.35897436 , 4134.35897436 , 4137.94871795 , 4188.71794872 , 4902.05128205 , 4136.41025641 , 4137.43589744 , 2042.0 , 2038.0 , 8.1 , 0.0 , 0.0 , 0.0 , 0.0 , 

55.0 , 4130.25641026 , 4128.20512821 , 4138.46153846 , 4131.28205128 , 4126.66666667 , 4126.15384615 , 4127.17948718 , 4135.38461538 , 4134.35897436 , 4137.94871795 , 4186.15384615 , 4900.51282051 , 4135.8974359 , 4136.92307692 , 2042.0 , 2038.0 , 8.108 , 0.0 , 0.0 , 0.0 , 0.0 , 

56.0 , 4130.25641026 , 4129.74358974 , 4134.87179487 , 4133.84615385 , 4123.58974359 , 4128.20512821 , 4124.61538462 , 4134.87179487 , 4134.35897436 , 4137.43589744 , 4184.1025641 , 4900.51282051 , 4135.8974359 , 4137.43589744 , 2041.0 , 2040.0 , 8.116 , 0.0 , 0.0 , 0.0 , 0.0 , 

57.0 , 4128.20512821 , 4129.74358974 , 4134.35897436 , 4133.84615385 , 4130.25641026 , 4127.17948718 , 4127.69230769 , 4136.41025641 , 4134.35897436 , 4137.43589744 , 4185.12820513 , 4901.02564103 , 4135.8974359 , 4137.94871795 , 2040.0 , 2040.0 , 8.124 , 0.0 , 0.0 , 0.0 , 0.0 , 

58.0 , 4127.69230769 , 4129.23076923 , 4133.84615385 , 4129.23076923 , 4129.74358974 , 4124.61538462 , 4129.74358974 , 4137.94871795 , 4134.35897436 , 4137.94871795 , 4185.64102564 , 4902.56410256 , 4135.8974359 , 4137.43589744 , 2041.0 , 2041.0 , 8.132 , 0.0 , 0.0 , 0.0 , 0.0 , 

59.0 , 4128.20512821 , 4127.17948718 , 4134.35897436 , 4127.69230769 , 4125.12820513 , 4125.64102564 , 4125.12820513 , 4136.92307692 , 4134.35897436 , 4137.43589744 , 4185.64102564 , 4904.61538462 , 4135.8974359 , 4137.43589744 , 2040.0 , 2040.0 , 8.139 , 0.0 , 0.0 , 0.0 , 0.0 , 

60.0 , 4127.17948718 , 4127.17948718 , 4133.33333333 , 4134.87179487 , 4123.58974359 , 4129.23076923 , 4121.53846154 , 4133.84615385 , 4134.35897436 , 4136.41025641 , 4184.61538462 , 4903.58974359 , 4135.8974359 , 4138.46153846 , 2040.0 , 2038.0 , 8.148 , 0.0 , 0.0 , 0.0 , 0.0 , 

61.0 , 4129.23076923 , 4129.23076923 , 4136.41025641 , 4137.43589744 , 4128.20512821 , 4129.74358974 , 4124.61538462 , 4131.79487179 , 4134.35897436 , 4136.92307692 , 4184.61538462 , 4900.51282051 , 4135.8974359 , 4139.48717949 , 2042.0 , 2037.0 , 8.155 , 0.0 , 0.0 , 0.0 , 0.0 , 

62.0 , 4130.76923077 , 4128.71794872 , 4140.0 , 4132.82051282 , 4128.20512821 , 4125.12820513 , 4127.17948718 , 4133.84615385 , 4134.35897436 , 4138.97435897 , 4186.66666667 , 4900.0 , 4135.8974359 , 4140.0 , 2041.0 , 2038.0 , 8.164 , 0.0 , 0.0 , 0.0 , 0.0 , 

63.0 , 4128.71794872 , 4126.15384615 , 4137.94871795 , 4132.30769231 , 4125.64102564 , 4124.61538462 , 4125.64102564 , 4136.92307692 , 4134.35897436 , 4140.0 , 4187.17948718 , 4902.56410256 , 4135.8974359 , 4138.46153846 , 2042.0 , 2037.0 , 8.171 , 0.0 , 0.0 , 0.0 , 0.0 , 

64.0 , 4128.20512821 , 4126.66666667 , 4134.35897436 , 4133.33333333 , 4132.30769231 , 4128.71794872 , 4125.12820513 , 4134.87179487 , 4134.35897436 , 4138.46153846 , 4185.64102564 , 4903.07692308 , 4135.8974359 , 4137.43589744 , 2043.0 , 2036.0 , 8.181 , 0.0 , 0.0 , 0.0 , 0.0 , 

65.0 , 4127.69230769 , 4129.23076923 , 4135.38461538 , 4130.76923077 , 4137.94871795 , 4128.20512821 , 4125.64102564 , 4133.33333333 , 4134.35897436 , 4136.41025641 , 4185.64102564 , 4903.58974359 , 4135.8974359 , 4137.94871795 , 2042.0 , 2037.0 , 8.187 , 0.0 , 0.0 , 0.0 , 0.0 , 

66.0 , 4127.17948718 , 4131.28205128 , 4139.48717949 , 4135.38461538 , 4135.38461538 , 4125.12820513 , 4126.15384615 , 4135.8974359 , 4134.35897436 , 4136.92307692 , 4186.15384615 , 4903.07692308 , 4135.8974359 , 4138.97435897 , 2042.0 , 2035.0 , 8.194 , 0.0 , 0.0 , 0.0 , 0.0 , 

67.0 , 4128.71794872 , 4129.74358974 , 4141.02564103 , 4138.97435897 , 4133.33333333 , 4125.12820513 , 4123.07692308 , 4136.41025641 , 4134.35897436 , 4137.43589744 , 4186.15384615 , 4902.56410256 , 4136.41025641 , 4137.94871795 , 2043.0 , 2036.0 , 8.203 , 0.0 , 0.0 , 0.0 , 0.0 , 

68.0 , 4129.23076923 , 4127.17948718 , 4138.97435897 , 4131.79487179 , 4136.92307692 , 4125.64102564 , 4122.05128205 , 4134.35897436 , 4134.35897436 , 4135.8974359 , 4185.64102564 , 4903.58974359 , 4135.8974359 , 4135.8974359 , 2043.0 , 2037.0 , 8.21 , 0.0 , 0.0 , 0.0 , 0.0 , 

69.0 , 4128.71794872 , 4128.20512821 , 4137.43589744 , 4128.71794872 , 4134.35897436 , 4126.15384615 , 4123.07692308 , 4134.87179487 , 4134.35897436 , 4135.8974359 , 4185.12820513 , 4903.58974359 , 4135.38461538 , 4136.41025641 , 2045.0 , 2036.0 , 8.219 , 0.0 , 0.0 , 0.0 , 0.0 , 

70.0 , 4130.25641026 , 4129.23076923 , 4138.46153846 , 4132.30769231 , 4134.35897436 , 4127.69230769 , 4122.56410256 , 4137.94871795 , 4134.87179487 , 4136.41025641 , 4185.64102564 , 4900.0 , 4137.43589744 , 4137.94871795 , 2045.0 , 2035.0 , 8.227 , 0.0 , 0.0 , 0.0 , 0.0 , 

71.0 , 4130.25641026 , 4127.17948718 , 4140.0 , 4131.28205128 , 4135.8974359 , 4127.17948718 , 4124.61538462 , 4133.84615385 , 4135.8974359 , 4135.8974359 , 4185.64102564 , 4902.05128205 , 4134.35897436 , 4138.46153846 , 2045.0 , 2033.0 , 8.235 , 0.0 , 0.0 , 0.0 , 0.0 , 

72.0 , 4127.69230769 , 4127.69230769 , 4143.58974359 , 4132.82051282 , 4135.38461538 , 4126.66666667 , 4126.15384615 , 4129.74358974 , 4136.41025641 , 4135.8974359 , 4186.15384615 , 4907.17948718 , 4127.69230769 , 4137.94871795 , 2045.0 , 2033.0 , 8.242 , 0.0 , 0.0 , 0.0 , 0.0 , 

73.0 , 4129.23076923 , 4128.71794872 , 4145.64102564 , 4137.94871795 , 4135.38461538 , 4124.61538462 , 4124.61538462 , 4132.30769231 , 4135.38461538 , 4135.8974359 , 4187.17948718 , 4903.58974359 , 4128.20512821 , 4138.46153846 , 2045.0 , 2032.0 , 8.25 , 0.0 , 0.0 , 0.0 , 0.0 , 

74.0 , 4129.74358974 , 4127.17948718 , 4147.17948718 , 4134.35897436 , 4134.87179487 , 4122.56410256 , 4124.61538462 , 4132.30769231 , 4134.35897436 , 4136.41025641 , 4185.64102564 , 4897.94871795 , 4134.35897436 , 4137.94871795 , 2044.0 , 2032.0 , 8.258 , 0.0 , 0.0 , 0.0 , 0.0 , 

75.0 , 4127.69230769 , 4126.15384615 , 4145.64102564 , 4130.25641026 , 4135.38461538 , 4123.58974359 , 4126.66666667 , 4128.71794872 , 4134.35897436 , 4135.8974359 , 4184.1025641 , 4900.0 , 4134.35897436 , 4138.97435897 , 2044.0 , 2032.0 , 8.266 , 0.0 , 0.0 , 0.0 , 0.0 , 

76.0 , 4127.17948718 , 4126.66666667 , 4146.66666667 , 4133.33333333 , 4134.87179487 , 4126.15384615 , 4125.64102564 , 4129.23076923 , 4134.87179487 , 4135.38461538 , 4185.12820513 , 4905.12820513 , 4132.82051282 , 4139.48717949 , 2045.0 , 2031.0 , 8.274 , 0.0 , 0.0 , 0.0 , 0.0 , 

77.0 , 4128.20512821 , 4127.17948718 , 4146.66666667 , 4135.8974359 , 4134.87179487 , 4126.15384615 , 4123.58974359 , 4129.74358974 , 4134.87179487 , 4137.43589744 , 4185.64102564 , 4903.58974359 , 4135.38461538 , 4137.43589744 , 2045.0 , 2031.0 , 8.282 , 0.0 , 0.0 , 0.0 , 0.0 , 

78.0 , 4128.20512821 , 4128.71794872 , 4147.17948718 , 4130.76923077 , 4134.87179487 , 4124.61538462 , 4123.58974359 , 4129.74358974 , 4134.35897436 , 4138.97435897 , 4185.12820513 , 4899.48717949 , 4135.8974359 , 4136.41025641 , 2045.0 , 2032.0 , 8.289 , 0.0 , 0.0 , 0.0 , 0.0 , 

79.0 , 4128.71794872 , 4129.74358974 , 4145.64102564 , 4127.17948718 , 4134.87179487 , 4125.12820513 , 4123.58974359 , 4133.33333333 , 4134.35897436 , 4137.43589744 , 4186.15384615 , 4900.51282051 , 4134.35897436 , 4138.97435897 , 2045.0 , 2032.0 , 8.296 , 0.0 , 0.0 , 0.0 , 0.0 , 

80.0 , 4129.74358974 , 4126.15384615 , 4146.66666667 , 4128.20512821 , 4134.87179487 , 4123.58974359 , 4123.07692308 , 4132.82051282 , 4134.87179487 , 4136.41025641 , 4186.15384615 , 4902.56410256 , 4134.87179487 , 4138.46153846 , 2044.0 , 2032.0 , 8.305 , 0.0 , 0.0 , 0.0 , 0.0 , 

81.0 , 4130.25641026 , 4125.64102564 , 4148.71794872 , 4128.71794872 , 4134.87179487 , 4124.1025641 , 4122.56410256 , 4130.25641026 , 4133.33333333 , 4137.43589744 , 4186.66666667 , 4901.02564103 , 4133.84615385 , 4137.43589744 , 2044.0 , 2033.0 , 8.312 , 0.0 , 0.0 , 0.0 , 0.0 , 

82.0 , 4127.17948718 , 4127.69230769 , 4147.17948718 , 4129.23076923 , 4134.87179487 , 4126.15384615 , 4124.61538462 , 4135.38461538 , 4130.76923077 , 4136.41025641 , 4187.17948718 , 4900.0 , 4134.87179487 , 4138.97435897 , 2043.0 , 2034.0 , 8.32 , 0.0 , 0.0 , 0.0 , 0.0 , 

83.0 , 4124.61538462 , 4127.69230769 , 4144.61538462 , 4130.76923077 , 4134.87179487 , 4127.17948718 , 4126.66666667 , 4135.8974359 , 4129.74358974 , 4135.8974359 , 4185.64102564 , 4901.02564103 , 4135.38461538 , 4137.94871795 , 2044.0 , 2034.0 , 8.329 , 0.0 , 0.0 , 0.0 , 0.0 , 

84.0 , 4125.64102564 , 4127.69230769 , 4147.17948718 , 4131.28205128 , 4134.87179487 , 4126.15384615 , 4124.61538462 , 4130.76923077 , 4130.25641026 , 4136.41025641 , 4184.61538462 , 4903.58974359 , 4132.30769231 , 4136.92307692 , 2045.0 , 2036.0 , 8.336 , 0.0 , 0.0 , 0.0 , 0.0 , 

85.0 , 4128.20512821 , 4127.17948718 , 4148.71794872 , 4130.25641026 , 4134.87179487 , 4125.64102564 , 4123.07692308 , 4132.30769231 , 4132.82051282 , 4136.41025641 , 4186.66666667 , 4905.12820513 , 4132.30769231 , 4137.94871795 , 2046.0 , 2037.0 , 8.345 , 0.0 , 0.0 , 0.0 , 0.0 , 

86.0 , 4129.23076923 , 4126.66666667 , 4145.64102564 , 4132.30769231 , 4134.87179487 , 4124.1025641 , 4123.58974359 , 4135.8974359 , 4135.8974359 , 4135.8974359 , 4187.17948718 , 4902.56410256 , 4133.84615385 , 4137.94871795 , 2046.0 , 2038.0 , 8.353 , 0.0 , 0.0 , 0.0 , 0.0 , 

87.0 , 4128.20512821 , 4127.69230769 , 4146.15384615 , 4130.76923077 , 4134.87179487 , 4123.07692308 , 4124.1025641 , 4134.35897436 , 4136.41025641 , 4135.8974359 , 4183.58974359 , 4901.02564103 , 4133.33333333 , 4136.92307692 , 2047.0 , 2038.0 , 8.361 , 0.0 , 0.0 , 0.0 , 0.0 , 

88.0 , 4128.71794872 , 4129.23076923 , 4146.66666667 , 4126.15384615 , 4134.87179487 , 4124.61538462 , 4123.07692308 , 4133.84615385 , 4134.87179487 , 4135.8974359 , 4184.1025641 , 4902.05128205 , 4133.33333333 , 4136.92307692 , 2045.0 , 2032.0 , 8.368 , 0.0 , 0.0 , 0.0 , 0.0 , 

89.0 , 4129.74358974 , 4129.23076923 , 4144.1025641 , 4132.30769231 , 4134.87179487 , 4126.15384615 , 4123.07692308 , 4134.35897436 , 4135.38461538 , 4135.8974359 , 4187.17948718 , 4900.0 , 4133.84615385 , 4137.43589744 , 2046.0 , 2030.0 , 8.376 , 0.0 , 0.0 , 0.0 , 0.0 , 

90.0 , 4128.20512821 , 4128.20512821 , 4146.15384615 , 4140.51282051 , 4134.87179487 , 4126.15384615 , 4124.1025641 , 4133.33333333 , 4135.38461538 , 4135.8974359 , 4188.20512821 , 4900.51282051 , 4134.35897436 , 4136.92307692 , 2045.0 , 2029.0 , 8.384 , 0.0 , 0.0 , 0.0 , 0.0 , 

91.0 , 4126.66666667 , 4127.17948718 , 4151.28205128 , 4134.35897436 , 4134.87179487 , 4125.12820513 , 4124.61538462 , 4133.84615385 , 4133.84615385 , 4135.8974359 , 4187.17948718 , 4904.1025641 , 4136.92307692 , 4136.92307692 , 2044.0 , 2029.0 , 8.392 , 0.0 , 0.0 , 0.0 , 0.0 , 

92.0 , 4127.69230769 , 4128.20512821 , 4152.82051282 , 4126.66666667 , 4134.87179487 , 4124.1025641 , 4123.07692308 , 4134.87179487 , 4134.35897436 , 4135.8974359 , 4187.17948718 , 4905.12820513 , 4131.28205128 , 4137.43589744 , 2044.0 , 2030.0 , 8.4 , 0.0 , 0.0 , 0.0 , 0.0 , 

93.0 , 4127.17948718 , 4129.74358974 , 4157.43589744 , 4129.74358974 , 4134.87179487 , 4124.1025641 , 4122.05128205 , 4131.28205128 , 4134.35897436 , 4135.8974359 , 4187.69230769 , 4903.07692308 , 4124.61538462 , 4137.94871795 , 2045.0 , 2033.0 , 8.408 , 0.0 , 0.0 , 0.0 , 0.0 , 

94.0 , 4125.64102564 , 4129.23076923 , 4155.8974359 , 4132.82051282 , 4134.87179487 , 4125.12820513 , 4123.58974359 , 4128.20512821 , 4134.35897436 , 4135.8974359 , 4187.17948718 , 4902.05128205 , 4131.79487179 , 4136.92307692 , 2043.0 , 2034.0 , 8.416 , 0.0 , 0.0 , 0.0 , 0.0 , 

95.0 , 4127.17948718 , 4126.66666667 , 4150.25641026 , 4131.28205128 , 4134.87179487 , 4125.12820513 , 4124.1025641 , 4131.79487179 , 4134.35897436 , 4135.8974359 , 4187.17948718 , 4903.07692308 , 4135.38461538 , 4137.43589744 , 2042.0 , 2038.0 , 8.424 , 0.0 , 0.0 , 0.0 , 0.0 , 

96.0 , 4128.71794872 , 4127.17948718 , 4147.17948718 , 4131.28205128 , 4134.87179487 , 4124.61538462 , 4123.07692308 , 4135.38461538 , 4134.35897436 , 4135.8974359 , 4187.17948718 , 4904.61538462 , 4129.74358974 , 4136.92307692 , 2043.0 , 2042.0 , 8.431 , 0.0 , 0.0 , 0.0 , 0.0 , 

97.0 , 4128.20512821 , 4128.71794872 , 4146.66666667 , 4129.74358974 , 4134.87179487 , 4124.1025641 , 4124.61538462 , 4134.35897436 , 4134.35897436 , 4135.8974359 , 4187.17948718 , 4905.12820513 , 4128.20512821 , 4136.41025641 , 2043.0 , 2039.0 , 8.439 , 0.0 , 0.0 , 0.0 , 0.0 , 

98.0 , 4130.25641026 , 4129.23076923 , 4144.61538462 , 4129.23076923 , 4134.87179487 , 4124.61538462 , 4126.66666667 , 4134.35897436 , 4134.35897436 , 4136.41025641 , 4187.17948718 , 4902.05128205 , 4130.76923077 , 4136.92307692 , 2043.0 , 2040.0 , 8.447 , 0.0 , 0.0 , 0.0 , 0.0 , 

99.0 , 4130.25641026 , 4129.23076923 , 4145.12820513 , 4129.23076923 , 4134.87179487 , 4126.15384615 , 4125.64102564 , 4135.8974359 , 4134.35897436 , 4138.46153846 , 4187.17948718 , 4902.05128205 , 4129.74358974 , 4136.92307692 , 2045.0 , 2038.0 , 8.455 , 0.0 , 0.0 , 0.0 , 0.0 , 

100.0 , 4128.71794872 , 4129.23076923 , 4147.69230769 , 4126.15384615 , 4134.87179487 , 4126.66666667 , 4123.58974359 , 4135.8974359 , 4134.35897436 , 4139.48717949 , 4187.17948718 , 4905.64102564 , 4129.23076923 , 4135.8974359 , 2045.0 , 2036.0 , 8.462 , 0.0 , 0.0 , 0.0 , 0.0 , 

101.0 , 4128.71794872 , 4127.17948718 , 4148.20512821 , 4129.23076923 , 4134.87179487 , 4125.12820513 , 4121.53846154 , 4135.38461538 , 4134.35897436 , 4138.46153846 , 4187.17948718 , 4902.56410256 , 4129.23076923 , 4136.41025641 , 2046.0 , 2035.0 , 8.471 , 0.0 , 0.0 , 0.0 , 0.0 , 

102.0 , 4128.20512821 , 4128.20512821 , 4147.69230769 , 4132.30769231 , 4134.87179487 , 4124.61538462 , 4122.05128205 , 4134.87179487 , 4134.35897436 , 4136.92307692 , 4187.17948718 , 4898.46153846 , 4129.23076923 , 4137.94871795 , 2045.0 , 2036.0 , 8.478 , 0.0 , 0.0 , 0.0 , 0.0 , 

103.0 , 4127.69230769 , 4130.25641026 , 4144.1025641 , 4127.69230769 , 4134.87179487 , 4126.66666667 , 4123.58974359 , 4134.35897436 , 4134.35897436 , 4136.41025641 , 4187.17948718 , 4903.07692308 , 4130.25641026 , 4137.43589744 , 2045.0 , 2036.0 , 8.487 , 0.0 , 0.0 , 0.0 , 0.0 , 

104.0 , 4130.25641026 , 4129.23076923 , 4138.46153846 , 4131.79487179 , 4134.87179487 , 4127.69230769 , 4124.1025641 , 4133.84615385 , 4134.35897436 , 4136.92307692 , 4187.17948718 , 4905.64102564 , 4130.25641026 , 4136.92307692 , 2046.0 , 2036.0 , 8.493 , 0.0 , 0.0 , 0.0 , 0.0 , 

105.0 , 4130.25641026 , 4128.20512821 , 4137.43589744 , 4137.94871795 , 4135.38461538 , 4125.12820513 , 4123.07692308 , 4134.35897436 , 4134.35897436 , 4136.92307692 , 4187.17948718 , 4902.05128205 , 4129.74358974 , 4136.92307692 , 2047.0 , 2035.0 , 8.502 , 0.0 , 0.0 , 0.0 , 0.0 , 

106.0 , 4128.71794872 , 4128.71794872 , 4138.97435897 , 4134.35897436 , 4135.8974359 , 4124.1025641 , 4124.1025641 , 4134.35897436 , 4133.84615385 , 4136.92307692 , 4187.17948718 , 4902.56410256 , 4130.25641026 , 4136.41025641 , 2047.0 , 2037.0 , 8.51 , 0.0 , 0.0 , 0.0 , 0.0 , 

107.0 , 4130.25641026 , 4129.23076923 , 4134.87179487 , 4129.74358974 , 4134.87179487 , 4124.1025641 , 4124.1025641 , 4134.35897436 , 4133.84615385 , 4136.92307692 , 4187.17948718 , 4904.61538462 , 4130.25641026 , 4135.38461538 , 2046.0 , 2038.0 , 8.517 , 0.0 , 0.0 , 0.0 , 0.0 , 

108.0 , 4131.28205128 , 4129.74358974 , 4132.82051282 , 4132.82051282 , 4133.84615385 , 4124.1025641 , 4122.05128205 , 4134.35897436 , 4135.38461538 , 4136.92307692 , 4187.17948718 , 4903.58974359 , 4130.25641026 , 4137.94871795 , 2047.0 , 2037.0 , 8.526 , 0.0 , 0.0 , 0.0 , 0.0 , 

109.0 , 4129.23076923 , 4128.71794872 , 4137.43589744 , 4134.35897436 , 4137.43589744 , 4125.64102564 , 4125.64102564 , 4133.84615385 , 4132.82051282 , 4136.92307692 , 4187.17948718 , 4903.58974359 , 4130.25641026 , 4139.48717949 , 2049.0 , 2037.0 , 8.533 , 0.0 , 0.0 , 0.0 , 0.0 , 

110.0 , 4128.71794872 , 4128.20512821 , 4142.05128205 , 4132.30769231 , 4133.33333333 , 4128.20512821 , 4129.23076923 , 4133.84615385 , 4131.28205128 , 4136.92307692 , 4187.17948718 , 4904.61538462 , 4130.25641026 , 4136.41025641 , 2048.0 , 2036.0 , 8.541 , 0.0 , 0.0 , 0.0 , 0.0 , 

111.0 , 4129.74358974 , 4130.76923077 , 4141.02564103 , 4132.30769231 , 4125.64102564 , 4127.17948718 , 4126.66666667 , 4134.87179487 , 4134.35897436 , 4136.92307692 , 4187.17948718 , 4903.58974359 , 4130.25641026 , 4136.41025641 , 2047.0 , 2035.0 , 8.55 , 0.0 , 0.0 , 0.0 , 0.0 , 

112.0 , 4128.71794872 , 4129.74358974 , 4145.12820513 , 4134.35897436 , 4129.74358974 , 4123.58974359 , 4122.05128205 , 4134.35897436 , 4135.8974359 , 4136.92307692 , 4187.17948718 , 4902.56410256 , 4130.25641026 , 4139.48717949 , 2046.0 , 2035.0 , 8.556 , 0.0 , 0.0 , 0.0 , 0.0 , 

113.0 , 4130.25641026 , 4128.20512821 , 4148.71794872 , 4133.33333333 , 4136.92307692 , 4126.15384615 , 4124.61538462 , 4133.33333333 , 4134.35897436 , 4136.92307692 , 4187.17948718 , 4903.07692308 , 4130.25641026 , 4137.43589744 , 2046.0 , 2034.0 , 8.564 , 0.0 , 0.0 , 0.0 , 0.0 , 

114.0 , 4131.28205128 , 4130.76923077 , 4150.76923077 , 4133.33333333 , 4130.25641026 , 4128.20512821 , 4127.17948718 , 4136.41025641 , 4134.87179487 , 4136.92307692 , 4187.17948718 , 4903.07692308 , 4129.74358974 , 4136.41025641 , 2048.0 , 2033.0 , 8.573 , 0.0 , 0.0 , 0.0 , 0.0 , 

115.0 , 4128.20512821 , 4129.23076923 , 4150.25641026 , 4136.92307692 , 4121.53846154 , 4126.15384615 , 4124.1025641 , 4134.87179487 , 4135.38461538 , 4136.92307692 , 4187.17948718 , 4903.58974359 , 4129.74358974 , 4137.43589744 , 2046.0 , 2034.0 , 8.58 , 0.0 , 0.0 , 0.0 , 0.0 , 

116.0 , 4126.66666667 , 4125.12820513 , 4151.28205128 , 4136.41025641 , 4128.20512821 , 4124.61538462 , 4123.58974359 , 4131.79487179 , 4134.35897436 , 4136.92307692 , 4187.17948718 , 4903.58974359 , 4130.25641026 , 4136.41025641 , 2047.0 , 2031.0 , 8.588 , 0.0 , 0.0 , 0.0 , 0.0 , 

117.0 , 4129.74358974 , 4126.66666667 , 4152.30769231 , 4135.8974359 , 4138.97435897 , 4124.1025641 , 4125.64102564 , 4133.84615385 , 4134.35897436 , 4136.92307692 , 4187.17948718 , 4903.07692308 , 4130.25641026 , 4137.43589744 , 2047.0 , 2032.0 , 8.597 , 0.0 , 0.0 , 0.0 , 0.0 , 

118.0 , 4129.74358974 , 4128.71794872 , 4149.23076923 , 4137.94871795 , 4136.41025641 , 4126.15384615 , 4125.64102564 , 4133.84615385 , 4134.35897436 , 4136.92307692 , 4187.17948718 , 4904.61538462 , 4129.23076923 , 4137.43589744 , 2047.0 , 2035.0 , 8.605 , 0.0 , 0.0 , 0.0 , 0.0 , 

119.0 , 4129.23076923 , 4128.71794872 , 4146.15384615 , 4130.76923077 , 4127.17948718 , 4128.20512821 , 4124.61538462 , 4131.28205128 , 4134.35897436 , 4136.92307692 , 4187.17948718 , 4905.64102564 , 4131.79487179 , 4136.41025641 , 2048.0 , 2037.0 , 8.613 , 0.0 , 0.0 , 0.0 , 0.0 , 

120.0 , 4130.25641026 , 4127.69230769 , 4146.15384615 , 4126.15384615 , 4126.15384615 , 4125.64102564 , 4124.61538462 , 4133.33333333 , 4134.35897436 , 4136.92307692 , 4187.17948718 , 4904.61538462 , 4136.41025641 , 4136.92307692 , 2048.0 , 2038.0 , 8.621 , 0.0 , 0.0 , 0.0 , 0.0 , 

121.0 , 4129.23076923 , 4126.66666667 , 4142.05128205 , 4133.33333333 , 4128.20512821 , 4123.07692308 , 4124.1025641 , 4135.38461538 , 4134.35897436 , 4136.92307692 , 4187.17948718 , 4904.61538462 , 4136.41025641 , 4137.94871795 , 2047.0 , 2037.0 , 8.629 , 0.0 , 0.0 , 0.0 , 0.0 , 

122.0 , 4128.71794872 , 4129.23076923 , 4136.41025641 , 4136.41025641 , 4128.71794872 , 4124.1025641 , 4125.12820513 , 4134.87179487 , 4134.35897436 , 4136.92307692 , 4187.17948718 , 4905.12820513 , 4134.87179487 , 4137.94871795 , 2047.0 , 2038.0 , 8.635 , 0.0 , 0.0 , 0.0 , 0.0 , 

123.0 , 4130.25641026 , 4131.28205128 , 4135.8974359 , 4133.84615385 , 4129.23076923 , 4125.12820513 , 4126.66666667 , 4135.8974359 , 4134.35897436 , 4136.92307692 , 4187.17948718 , 4904.1025641 , 4135.8974359 , 4137.94871795 , 2047.0 , 2039.0 , 8.644 , 0.0 , 0.0 , 0.0 , 0.0 , 

124.0 , 4130.76923077 , 4129.74358974 , 4133.33333333 , 4134.35897436 , 4128.20512821 , 4126.15384615 , 4125.64102564 , 4137.43589744 , 4134.35897436 , 4136.92307692 , 4187.17948718 , 4903.58974359 , 4134.87179487 , 4137.43589744 , 2049.0 , 2041.0 , 8.652 , 0.0 , 0.0 , 0.0 , 0.0 , 

125.0 , 4131.28205128 , 4128.71794872 , 4130.25641026 , 4132.82051282 , 4130.76923077 , 4128.71794872 , 4124.61538462 , 4135.38461538 , 4134.35897436 , 4136.92307692 , 4187.17948718 , 4903.07692308 , 4130.25641026 , 4136.92307692 , 2051.0 , 2043.0 , 8.66 , 0.0 , 0.0 , 0.0 , 0.0 , 

126.0 , 4132.82051282 , 4129.23076923 , 4130.25641026 , 4132.82051282 , 4135.8974359 , 4125.64102564 , 4124.61538462 , 4134.87179487 , 4134.35897436 , 4136.92307692 , 4187.17948718 , 4903.58974359 , 4128.20512821 , 4137.94871795 , 2053.0 , 2044.0 , 8.667 , 0.0 , 0.0 , 0.0 , 0.0 , 

127.0 , 4133.84615385 , 4128.20512821 , 4132.30769231 , 4133.84615385 , 4131.28205128 , 4122.56410256 , 4124.1025641 , 4136.41025641 , 4134.35897436 , 4136.92307692 , 4187.17948718 , 4904.61538462 , 4131.28205128 , 4137.43589744 , 2053.0 , 2044.0 , 8.675 , 0.0 , 0.0 , 0.0 , 0.0 , 

128.0 , 4131.79487179 , 4128.20512821 , 4128.71794872 , 4132.30769231 , 4127.17948718 , 4126.15384615 , 4124.61538462 , 4133.84615385 , 4134.35897436 , 4136.92307692 , 4187.17948718 , 4904.1025641 , 4134.87179487 , 4135.8974359 , 2055.0 , 2046.0 , 8.684 , 0.0 , 0.0 , 0.0 , 0.0 , 

0.0 , 4128.71794872 , 4129.74358974 , 4129.23076923 , 4130.76923077 , 4131.28205128 , 4126.66666667 , 4125.12820513 , 4130.25641026 , 4134.35897436 , 4136.92307692 , 4187.17948718 , 4904.61538462 , 4135.38461538 , 4136.92307692 , 2054.0 , 2047.0 , 8.69 , 0.0 , 0.0 , 0.0 , 0.0 , 

1.0 , 4130.25641026 , 4130.25641026 , 4130.76923077 , 4130.25641026 , 4130.76923077 , 4123.07692308 , 4124.1025641 , 4132.30769231 , 4134.35897436 , 4136.92307692 , 4187.17948718 , 4906.15384615 , 4133.84615385 , 4137.94871795 , 2053.0 , 2046.0 , 8.698 , 0.0 , 0.0 , 0.0 , 0.0 , 

2.0 , 4132.82051282 , 4129.74358974 , 4128.20512821 , 4131.79487179 , 4129.23076923 , 4126.15384615 , 4124.61538462 , 4136.92307692 , 4134.35897436 , 4136.92307692 , 4187.17948718 , 4904.61538462 , 4135.38461538 , 4137.43589744 , 2054.0 , 2044.0 , 8.706 , 0.0 , 0.0 , 0.0 , 0.0 , 

3.0 , 4131.28205128 , 4128.71794872 , 4127.17948718 , 4136.92307692 , 4128.71794872 , 4129.23076923 , 4125.12820513 , 4134.87179487 , 4134.35897436 , 4136.92307692 , 4187.17948718 , 4903.07692308 , 4136.41025641 , 4137.43589744 , 2053.0 , 2044.0 , 8.714 , 0.0 , 0.0 , 0.0 , 0.0 , 

4.0 , 4129.74358974 , 4126.15384615 , 4130.25641026 , 4135.38461538 , 4124.61538462 , 4124.1025641 , 4123.58974359 , 4131.79487179 , 4134.35897436 , 4136.92307692 , 4187.17948718 , 4903.58974359 , 4135.8974359 , 4138.97435897 , 2054.0 , 2044.0 , 8.722 , 0.0 , 0.0 , 0.0 , 0.0 , 

5.0 , 4130.25641026 , 4127.17948718 , 4130.25641026 , 4131.79487179 , 4123.58974359 , 4122.05128205 , 4122.56410256 , 4133.84615385 , 4134.35897436 , 4136.92307692 , 4187.17948718 , 4904.1025641 , 4134.87179487 , 4137.94871795 , 2053.0 , 2046.0 , 8.73 , 0.0 , 0.0 , 0.0 , 0.0 , 

6.0 , 4130.25641026 , 4127.69230769 , 4131.28205128 , 4132.30769231 , 4128.20512821 , 4124.1025641 , 4123.07692308 , 4135.8974359 , 4134.35897436 , 4136.92307692 , 4187.17948718 , 4904.1025641 , 4131.79487179 , 4136.41025641 , 2051.0 , 2045.0 , 8.738 , 0.0 , 0.0 , 0.0 , 0.0 , 

7.0 , 4129.74358974 , 4127.69230769 , 4133.33333333 , 4131.28205128 , 4129.23076923 , 4125.12820513 , 4125.12820513 , 4136.41025641 , 4134.35897436 , 4136.92307692 , 4187.17948718 , 4906.15384615 , 4131.28205128 , 4138.46153846 , 2049.0 , 2042.0 , 8.747 , 0.0 , 0.0 , 0.0 , 0.0 , 

8.0 , 4130.76923077 , 4127.17948718 , 4133.84615385 , 4127.17948718 , 4126.15384615 , 4127.17948718 , 4123.58974359 , 4135.8974359 , 4134.35897436 , 4136.92307692 , 4187.17948718 , 4908.71794872 , 4134.35897436 , 4139.48717949 , 2048.0 , 2043.0 , 8.753 , 0.0 , 0.0 , 0.0 , 0.0 , 

9.0 , 4132.82051282 , 4129.23076923 , 4132.30769231 , 4128.71794872 , 4124.1025641 , 4128.20512821 , 4122.56410256 , 4135.38461538 , 4134.87179487 , 4136.92307692 , 4187.17948718 , 4905.12820513 , 4134.87179487 , 4137.43589744 , 2048.0 , 2040.0 , 8.762 , 0.0 , 0.0 , 0.0 , 0.0 , 

10.0 , 4133.33333333 , 4130.25641026 , 4133.33333333 , 4130.76923077 , 4126.15384615 , 4123.07692308 , 4123.58974359 , 4134.87179487 , 4135.38461538 , 4136.92307692 , 4187.17948718 , 4902.05128205 , 4132.30769231 , 4136.92307692 , 2048.0 , 2038.0 , 8.77 , 0.0 , 0.0 , 0.0 , 0.0 , 

11.0 , 4130.25641026 , 4128.71794872 , 4132.82051282 , 4133.84615385 , 4134.35897436 , 4121.53846154 , 4125.64102564 , 4134.87179487 , 4135.38461538 , 4136.92307692 , 4187.17948718 , 4904.61538462 , 4133.84615385 , 4138.46153846 , 2047.0 , 2039.0 , 8.777 , 0.0 , 0.0 , 0.0 , 0.0 , 

12.0 , 4129.23076923 , 4129.74358974 , 4132.82051282 , 4135.8974359 , 4133.84615385 , 4125.12820513 , 4124.1025641 , 4135.38461538 , 4134.87179487 , 4136.92307692 , 4187.17948718 , 4904.1025641 , 4135.8974359 , 4138.97435897 , 2045.0 , 2038.0 , 8.785 , 0.0 , 0.0 , 0.0 , 0.0 , 

13.0 , 4130.76923077 , 4129.74358974 , 4134.87179487 , 4131.79487179 , 4130.76923077 , 4126.15384615 , 4123.07692308 , 4135.38461538 , 4134.87179487 , 4136.92307692 , 4187.17948718 , 4901.53846154 , 4135.38461538 , 4137.43589744 , 2046.0 , 2036.0 , 8.793 , 0.0 , 0.0 , 0.0 , 0.0 , 

14.0 , 4130.25641026 , 4127.17948718 , 4135.38461538 , 4130.25641026 , 4135.8974359 , 4127.17948718 , 4124.61538462 , 4136.41025641 , 4136.41025641 , 4136.92307692 , 4187.17948718 , 4903.58974359 , 4136.41025641 , 4137.43589744 , 2046.0 , 2036.0 , 8.801 , 0.0 , 0.0 , 0.0 , 0.0 , 

15.0 , 4129.23076923 , 4127.69230769 , 4133.84615385 , 4131.28205128 , 4133.84615385 , 4125.12820513 , 4124.61538462 , 4135.8974359 , 4137.94871795 , 4136.92307692 , 4187.17948718 , 4904.61538462 , 4134.87179487 , 4138.46153846 , 2045.0 , 2034.0 , 8.81 , 0.0 , 0.0 , 0.0 , 0.0 , 

16.0 , 4130.25641026 , 4131.28205128 , 4129.74358974 , 4129.23076923 , 4124.61538462 , 4123.07692308 , 4125.12820513 , 4135.8974359 , 4135.8974359 , 4136.92307692 , 4187.17948718 , 4902.05128205 , 4132.82051282 , 4136.92307692 , 2044.0 , 2036.0 , 8.818 , 0.0 , 0.0 , 0.0 , 0.0 , 

17.0 , 4131.28205128 , 4130.25641026 , 4130.76923077 , 4133.33333333 , 4129.74358974 , 4127.69230769 , 4125.12820513 , 4135.8974359 , 4134.87179487 , 4136.92307692 , 4187.69230769 , 4902.56410256 , 4135.8974359 , 4136.41025641 , 2044.0 , 2036.0 , 8.824 , 0.0 , 0.0 , 0.0 , 0.0 , 

18.0 , 4131.28205128 , 4125.64102564 , 4130.76923077 , 4136.92307692 , 4136.92307692 , 4129.74358974 , 4125.12820513 , 4135.8974359 , 4135.38461538 , 4136.92307692 , 4187.17948718 , 4905.64102564 , 4135.8974359 , 4137.43589744 , 2043.0 , 2037.0 , 8.832 , 0.0 , 0.0 , 0.0 , 0.0 , 

19.0 , 4130.25641026 , 4124.1025641 , 4129.74358974 , 4133.84615385 , 4131.79487179 , 4125.12820513 , 4127.69230769 , 4135.8974359 , 4134.87179487 , 4136.92307692 , 4187.17948718 , 4906.66666667 , 4130.76923077 , 4137.94871795 , 2041.0 , 2033.0 , 8.84 , 0.0 , 0.0 , 0.0 , 0.0 , 

20.0 , 4130.25641026 , 4126.66666667 , 4127.69230769 , 4134.87179487 , 4128.71794872 , 4123.58974359 , 4127.17948718 , 4135.8974359 , 4135.38461538 , 4136.92307692 , 4187.69230769 , 4904.1025641 , 4132.30769231 , 4136.92307692 , 2041.0 , 2033.0 , 8.849 , 0.0 , 0.0 , 0.0 , 0.0 , 

21.0 , 4130.76923077 , 4128.71794872 , 4130.76923077 , 4138.97435897 , 4132.82051282 , 4125.12820513 , 4123.58974359 , 4136.41025641 , 4137.43589744 , 4136.92307692 , 4187.17948718 , 4904.1025641 , 4135.38461538 , 4137.94871795 , 2042.0 , 2034.0 , 8.857 , 0.0 , 0.0 , 0.0 , 0.0 , 

22.0 , 4132.82051282 , 4127.69230769 , 4133.33333333 , 4136.41025641 , 4133.33333333 , 4125.64102564 , 4123.58974359 , 4135.38461538 , 4136.92307692 , 4136.92307692 , 4185.64102564 , 4904.1025641 , 4134.35897436 , 4139.48717949 , 2042.0 , 2034.0 , 8.865 , 0.0 , 0.0 , 0.0 , 0.0 , 

23.0 , 4131.79487179 , 4127.69230769 , 4133.84615385 , 4132.30769231 , 4127.69230769 , 4125.12820513 , 4125.12820513 , 4135.8974359 , 4134.87179487 , 4136.92307692 , 4184.61538462 , 4901.02564103 , 4134.35897436 , 4138.46153846 , 2041.0 , 2034.0 , 8.874 , 0.0 , 0.0 , 0.0 , 0.0 , 

24.0 , 4130.25641026 , 4130.25641026 , 4132.82051282 , 4135.38461538 , 4129.23076923 , 4124.61538462 , 4123.58974359 , 4136.92307692 , 4135.38461538 , 4136.92307692 , 4186.66666667 , 4902.05128205 , 4134.87179487 , 4137.43589744 , 2042.0 , 2035.0 , 8.88 , 0.0 , 0.0 , 0.0 , 0.0 , 

25.0 , 4131.28205128 , 4128.20512821 , 4132.82051282 , 4135.38461538 , 4134.35897436 , 4126.15384615 , 4122.56410256 , 4133.84615385 , 4135.38461538 , 4136.92307692 , 4188.20512821 , 4904.61538462 , 4134.87179487 , 4138.97435897 , 2042.0 , 2035.0 , 8.888 , 0.0 , 0.0 , 0.0 , 0.0 , 

26.0 , 4131.28205128 , 4127.69230769 , 4128.71794872 , 4130.25641026 , 4128.20512821 , 4127.69230769 , 4124.61538462 , 4131.79487179 , 4133.33333333 , 4136.92307692 , 4186.66666667 , 4902.56410256 , 4135.38461538 , 4140.0 , 2042.0 , 2035.0 , 8.895 , 0.0 , 0.0 , 0.0 , 0.0 , 

27.0 , 4128.71794872 , 4130.25641026 , 4127.17948718 , 4129.74358974 , 4124.61538462 , 4128.71794872 , 4125.12820513 , 4134.87179487 , 4134.35897436 , 4136.92307692 , 4185.64102564 , 4901.53846154 , 4132.30769231 , 4137.43589744 , 2042.0 , 2034.0 , 8.904 , 0.0 , 0.0 , 0.0 , 0.0 , 

28.0 , 4128.20512821 , 4130.25641026 , 4134.35897436 , 4132.82051282 , 4137.43589744 , 4127.69230769 , 4125.64102564 , 4135.8974359 , 4135.38461538 , 4136.92307692 , 4187.17948718 , 4904.1025641 , 4130.76923077 , 4135.8974359 , 2043.0 , 2035.0 , 8.912 , 0.0 , 0.0 , 0.0 , 0.0 , 

29.0 , 4131.28205128 , 4129.23076923 , 4134.35897436 , 4131.79487179 , 4137.94871795 , 4126.66666667 , 4126.15384615 , 4134.87179487 , 4134.35897436 , 4136.92307692 , 4186.15384615 , 4904.61538462 , 4134.87179487 , 4137.43589744 , 2041.0 , 2032.0 , 8.92 , 0.0 , 0.0 , 0.0 , 0.0 , 

30.0 , 4130.25641026 , 4130.76923077 , 4130.25641026 , 4129.23076923 , 4124.61538462 , 4127.17948718 , 4124.61538462 , 4135.38461538 , 4134.35897436 , 4137.43589744 , 4184.61538462 , 4904.61538462 , 4136.92307692 , 4137.94871795 , 2042.0 , 2031.0 , 8.927 , 0.0 , 0.0 , 0.0 , 0.0 , 

31.0 , 4126.66666667 , 4129.74358974 , 4134.35897436 , 4131.79487179 , 4123.07692308 , 4127.69230769 , 4124.1025641 , 4132.82051282 , 4135.8974359 , 4137.94871795 , 4185.12820513 , 4904.61538462 , 4133.33333333 , 4137.43589744 , 2041.0 , 2032.0 , 8.935 , 0.0 , 0.0 , 0.0 , 0.0 , 

32.0 , 4129.23076923 , 4126.66666667 , 4136.41025641 , 4131.28205128 , 4126.66666667 , 4125.12820513 , 4124.61538462 , 4131.79487179 , 4135.8974359 , 4136.41025641 , 4186.66666667 , 4904.1025641 , 4131.28205128 , 4137.43589744 , 2040.0 , 2031.0 , 8.944 , 0.0 , 0.0 , 0.0 , 0.0 , 

33.0 , 4130.76923077 , 4127.17948718 , 4133.84615385 , 4129.23076923 , 4128.20512821 , 4122.05128205 , 4124.61538462 , 4133.33333333 , 4135.8974359 , 4136.41025641 , 4186.66666667 , 4903.07692308 , 4134.35897436 , 4137.94871795 , 2040.0 , 2034.0 , 8.952 , 0.0 , 0.0 , 0.0 , 0.0 , 

34.0 , 4126.66666667 , 4128.20512821 , 4137.43589744 , 4133.33333333 , 4129.23076923 , 4123.58974359 , 4122.56410256 , 4132.30769231 , 4136.41025641 , 4137.94871795 , 4186.66666667 , 4902.56410256 , 4135.8974359 , 4137.94871795 , 2041.0 , 2033.0 , 8.959 , 0.0 , 0.0 , 0.0 , 0.0 , 

35.0 , 4127.69230769 , 4128.71794872 , 4137.43589744 , 4135.8974359 , 4127.17948718 , 4126.15384615 , 4124.61538462 , 4131.28205128 , 4135.8974359 , 4137.43589744 , 4186.15384615 , 4904.61538462 , 4134.87179487 , 4137.94871795 , 2041.0 , 2035.0 , 8.967 , 0.0 , 0.0 , 0.0 , 0.0 , 

36.0 , 4131.79487179 , 4128.20512821 , 4131.28205128 , 4134.87179487 , 4131.79487179 , 4126.66666667 , 4128.20512821 , 4134.35897436 , 4134.35897436 , 4136.41025641 , 4184.61538462 , 4905.64102564 , 4134.35897436 , 4137.94871795 , 2041.0 , 2033.0 , 8.974 , 0.0 , 0.0 , 0.0 , 0.0 , 

37.0 , 4131.79487179 , 4128.71794872 , 4131.28205128 , 4137.43589744 , 4137.43589744 , 4126.66666667 , 4126.66666667 , 4135.8974359 , 4134.87179487 , 4137.43589744 , 4183.58974359 , 4905.64102564 , 4135.38461538 , 4137.43589744 , 2042.0 , 2032.0 , 8.982 , 0.0 , 0.0 , 0.0 , 0.0 , 

38.0 , 4129.74358974 , 4129.74358974 , 4136.41025641 , 4136.41025641 , 4127.69230769 , 4126.66666667 , 4122.05128205 , 4134.35897436 , 4135.38461538 , 4137.94871795 , 4186.15384615 , 4906.15384615 , 4134.35897436 , 4136.92307692 , 2043.0 , 2030.0 , 8.99 , 0.0 , 0.0 , 0.0 , 0.0 , 

39.0 , 4130.76923077 , 4129.74358974 , 4134.87179487 , 4132.82051282 , 4124.1025641 , 4125.12820513 , 4123.58974359 , 4134.35897436 , 4134.35897436 , 4136.92307692 , 4188.71794872 , 4904.1025641 , 4133.84615385 , 4136.41025641 , 2042.0 , 2029.0 , 8.999 , 0.0 , 0.0 , 0.0 , 0.0 , 

40.0 , 4131.28205128 , 4128.71794872 , 4135.8974359 , 4130.76923077 , 4133.84615385 , 4123.58974359 , 4128.71794872 , 4138.46153846 , 4134.35897436 , 4136.41025641 , 4187.17948718 , 4902.05128205 , 4134.87179487 , 4137.43589744 , 2043.0 , 2030.0 , 9.007 , 0.0 , 0.0 , 0.0 , 0.0 , 

41.0 , 4130.76923077 , 4128.71794872 , 4136.92307692 , 4130.76923077 , 4128.20512821 , 4127.17948718 , 4128.20512821 , 4134.87179487 , 4135.38461538 , 4136.41025641 , 4185.64102564 , 4903.58974359 , 4133.84615385 , 4138.97435897 , 2042.0 , 2031.0 , 9.015 , 0.0 , 0.0 , 0.0 , 0.0 , 

42.0 , 4130.25641026 , 4127.17948718 , 4136.41025641 , 4130.76923077 , 4120.51282051 , 4129.23076923 , 4126.15384615 , 4123.58974359 , 4135.38461538 , 4136.92307692 , 4186.66666667 , 4907.17948718 , 4133.84615385 , 4137.94871795 , 2041.0 , 2034.0 , 9.022 , 0.0 , 0.0 , 0.0 , 0.0 , 

43.0 , 4130.76923077 , 4126.66666667 , 4133.33333333 , 4134.87179487 , 4133.84615385 , 4127.17948718 , 4126.15384615 , 4126.15384615 , 4133.84615385 , 4136.92307692 , 4187.17948718 , 4908.20512821 , 4135.8974359 , 4137.43589744 , 2040.0 , 2035.0 , 9.03 , 0.0 , 0.0 , 0.0 , 0.0 , 

44.0 , 4130.76923077 , 4127.17948718 , 4133.84615385 , 4135.8974359 , 4139.48717949 , 4124.61538462 , 4126.66666667 , 4138.97435897 , 4133.84615385 , 4136.41025641 , 4186.15384615 , 4906.15384615 , 4134.87179487 , 4138.97435897 , 2039.0 , 2036.0 , 9.038 , 0.0 , 0.0 , 0.0 , 0.0 , 

45.0 , 4131.79487179 , 4127.69230769 , 4133.33333333 , 4132.30769231 , 4128.20512821 , 4125.64102564 , 4126.66666667 , 4138.46153846 , 4135.8974359 , 4138.97435897 , 4186.15384615 , 4904.61538462 , 4131.79487179 , 4139.48717949 , 2038.0 , 2037.0 , 9.045 , 0.0 , 0.0 , 0.0 , 0.0 , 

46.0 , 4131.79487179 , 4127.69230769 , 4131.28205128 , 4131.28205128 , 4124.1025641 , 4129.23076923 , 4125.12820513 , 4132.82051282 , 4137.43589744 , 4141.02564103 , 4186.15384615 , 4904.61538462 , 4133.84615385 , 4137.43589744 , 2037.0 , 2037.0 , 9.054 , 0.0 , 0.0 , 0.0 , 0.0 , 

47.0 , 4128.71794872 , 4127.69230769 , 4130.76923077 , 4131.79487179 , 4129.74358974 , 4130.76923077 , 4124.61538462 , 4135.38461538 , 4136.92307692 , 4138.97435897 , 4185.12820513 , 4905.12820513 , 4137.43589744 , 4137.94871795 , 2041.0 , 2040.0 , 9.061 , 0.0 , 0.0 , 0.0 , 0.0 , 

48.0 , 4127.69230769 , 4127.69230769 , 4132.82051282 , 4131.79487179 , 4129.74358974 , 4127.17948718 , 4126.66666667 , 4136.41025641 , 4135.8974359 , 4137.43589744 , 4184.61538462 , 4905.12820513 , 4136.41025641 , 4138.97435897 , 2044.0 , 2040.0 , 9.071 , 0.0 , 0.0 , 0.0 , 0.0 , 

49.0 , 4130.76923077 , 4128.20512821 , 4133.33333333 , 4133.84615385 , 4124.61538462 , 4123.58974359 , 4126.66666667 , 4135.38461538 , 4136.41025641 , 4137.43589744 , 4185.64102564 , 4904.1025641 , 4134.87179487 , 4138.46153846 , 2042.0 , 2039.0 , 9.079 , 0.0 , 0.0 , 0.0 , 0.0 , 

50.0 , 4131.79487179 , 4128.71794872 , 4133.33333333 , 4134.35897436 , 4125.12820513 , 4126.15384615 , 4124.1025641 , 4136.92307692 , 4136.41025641 , 4137.43589744 , 4186.15384615 , 4905.12820513 , 4135.8974359 , 4138.97435897 , 2042.0 , 2039.0 , 9.085 , 0.0 , 0.0 , 0.0 , 0.0 , 

51.0 , 4131.28205128 , 4129.74358974 , 4134.87179487 , 4129.23076923 , 4132.30769231 , 4126.66666667 , 4124.61538462 , 4135.8974359 , 4136.41025641 , 4136.92307692 , 4186.15384615 , 4904.61538462 , 4135.38461538 , 4137.94871795 , 2044.0 , 2038.0 , 9.093 , 0.0 , 0.0 , 0.0 , 0.0 , 

52.0 , 4131.28205128 , 4130.76923077 , 4135.8974359 , 4127.17948718 , 4136.92307692 , 4123.58974359 , 4125.12820513 , 4135.38461538 , 4135.8974359 , 4137.94871795 , 4185.64102564 , 4903.58974359 , 4134.35897436 , 4136.41025641 , 2041.0 , 2036.0 , 9.101 , 0.0 , 0.0 , 0.0 , 0.0 , 

53.0 , 4130.25641026 , 4128.71794872 , 4134.87179487 , 4131.79487179 , 4129.74358974 , 4123.58974359 , 4124.1025641 , 4135.8974359 , 4135.38461538 , 4137.43589744 , 4186.15384615 , 4905.12820513 , 4134.35897436 , 4136.92307692 , 2040.0 , 2036.0 , 9.109 , 0.0 , 0.0 , 0.0 , 0.0 , 

54.0 , 4131.79487179 , 4126.15384615 , 4135.38461538 , 4131.28205128 , 4125.64102564 , 4126.66666667 , 4126.66666667 , 4136.41025641 , 4134.87179487 , 4136.41025641 , 4186.15384615 , 4905.12820513 , 4135.38461538 , 4137.94871795 , 2040.0 , 2036.0 , 9.117 , 0.0 , 0.0 , 0.0 , 0.0 , 

55.0 , 4132.30769231 , 4125.64102564 , 4140.51282051 , 4130.25641026 , 4129.23076923 , 4124.61538462 , 4127.17948718 , 4135.8974359 , 4134.87179487 , 4135.8974359 , 4185.64102564 , 4904.61538462 , 4134.87179487 , 4136.92307692 , 2040.0 , 2035.0 , 9.125 , 0.0 , 0.0 , 0.0 , 0.0 , 

56.0 , 4129.23076923 , 4127.17948718 , 4140.0 , 4134.35897436 , 4127.69230769 , 4124.61538462 , 4125.12820513 , 4134.87179487 , 4134.35897436 , 4136.41025641 , 4184.1025641 , 4905.12820513 , 4133.84615385 , 4136.41025641 , 2041.0 , 2036.0 , 9.133 , 0.0 , 0.0 , 0.0 , 0.0 , 

57.0 , 4129.23076923 , 4129.23076923 , 4138.46153846 , 4132.82051282 , 4129.74358974 , 4128.71794872 , 4122.56410256 , 4134.87179487 , 4134.35897436 , 4135.8974359 , 4185.64102564 , 4905.12820513 , 4134.35897436 , 4137.43589744 , 2042.0 , 2037.0 , 9.14 , 0.0 , 0.0 , 0.0 , 0.0 , 

58.0 , 4131.79487179 , 4129.23076923 , 4141.02564103 , 4127.17948718 , 4135.8974359 , 4129.23076923 , 4125.64102564 , 4136.41025641 , 4135.38461538 , 4135.8974359 , 4186.66666667 , 4903.58974359 , 4134.35897436 , 4138.97435897 , 2043.0 , 2035.0 , 9.148 , 0.0 , 0.0 , 0.0 , 0.0 , 

59.0 , 4130.25641026 , 4126.66666667 , 4143.58974359 , 4129.23076923 , 4133.84615385 , 4125.64102564 , 4128.20512821 , 4135.8974359 , 4135.38461538 , 4135.8974359 , 4186.66666667 , 4902.56410256 , 4134.35897436 , 4138.46153846 , 2042.0 , 2038.0 , 9.156 , 0.0 , 0.0 , 0.0 , 0.0 , 

60.0 , 4129.23076923 , 4128.20512821 , 4138.46153846 , 4131.79487179 , 4132.82051282 , 4126.66666667 , 4126.66666667 , 4135.8974359 , 4134.87179487 , 4135.8974359 , 4187.17948718 , 4903.07692308 , 4134.35897436 , 4137.43589744 , 2043.0 , 2038.0 , 9.164 , 0.0 , 0.0 , 0.0 , 0.0 , 

61.0 , 4130.76923077 , 4128.71794872 , 4136.41025641 , 4130.76923077 , 4133.84615385 , 4129.23076923 , 4125.12820513 , 4135.8974359 , 4135.8974359 , 4135.8974359 , 4186.66666667 , 4905.12820513 , 4134.87179487 , 4137.94871795 , 2043.0 , 2036.0 , 9.172 , 0.0 , 0.0 , 0.0 , 0.0 , 

62.0 , 4131.28205128 , 4125.64102564 , 4141.53846154 , 4130.76923077 , 4128.71794872 , 4127.69230769 , 4128.71794872 , 4135.8974359 , 4136.92307692 , 4135.8974359 , 4183.58974359 , 4906.15384615 , 4134.35897436 , 4137.94871795 , 2043.0 , 2036.0 , 9.18 , 0.0 , 0.0 , 0.0 , 0.0 , 

63.0 , 4129.23076923 , 4125.12820513 , 4144.1025641 , 4128.71794872 , 4127.17948718 , 4126.15384615 , 4130.76923077 , 4135.8974359 , 4136.41025641 , 4135.8974359 , 4184.61538462 , 4905.12820513 , 4134.35897436 , 4136.41025641 , 2042.0 , 2033.0 , 9.187 , 0.0 , 0.0 , 0.0 , 0.0 , 

64.0 , 4129.23076923 , 4127.69230769 , 4137.94871795 , 4126.66666667 , 4133.33333333 , 4125.64102564 , 4126.15384615 , 4135.8974359 , 4135.8974359 , 4136.41025641 , 4185.64102564 , 4904.61538462 , 4134.87179487 , 4136.92307692 , 2043.0 , 2032.0 , 9.195 , 0.0 , 0.0 , 0.0 , 0.0 , 

65.0 , 4131.28205128 , 4129.23076923 , 4132.30769231 , 4128.71794872 , 4134.35897436 , 4125.12820513 , 4124.1025641 , 4135.8974359 , 4135.8974359 , 4135.8974359 , 4184.1025641 , 4905.12820513 , 4134.87179487 , 4137.43589744 , 2044.0 , 2031.0 , 9.203 , 0.0 , 0.0 , 0.0 , 0.0 , 

66.0 , 4131.28205128 , 4130.76923077 , 4137.94871795 , 4134.35897436 , 4132.30769231 , 4125.12820513 , 4125.64102564 , 4135.8974359 , 4135.8974359 , 4135.38461538 , 4185.12820513 , 4903.58974359 , 4133.84615385 , 4136.92307692 , 2042.0 , 2029.0 , 9.212 , 0.0 , 0.0 , 0.0 , 0.0 , 

67.0 , 4129.23076923 , 4130.76923077 , 4142.56410256 , 4135.38461538 , 4132.30769231 , 4126.15384615 , 4124.61538462 , 4135.8974359 , 4134.87179487 , 4137.94871795 , 4187.69230769 , 4904.1025641 , 4134.35897436 , 4136.41025641 , 2042.0 , 2029.0 , 9.218 , 0.0 , 0.0 , 0.0 , 0.0 , 

68.0 , 4129.74358974 , 4128.71794872 , 4136.92307692 , 4131.28205128 , 4132.82051282 , 4126.15384615 , 4124.1025641 , 4135.8974359 , 4134.35897436 , 4140.0 , 4187.17948718 , 4905.12820513 , 4134.35897436 , 4136.92307692 , 2043.0 , 2031.0 , 9.226 , 0.0 , 0.0 , 0.0 , 0.0 , 

69.0 , 4130.76923077 , 4128.71794872 , 4134.35897436 , 4127.69230769 , 4131.28205128 , 4127.17948718 , 4124.61538462 , 4135.8974359 , 4135.8974359 , 4137.43589744 , 4186.66666667 , 4903.58974359 , 4132.82051282 , 4136.92307692 , 2042.0 , 2032.0 , 9.234 , 0.0 , 0.0 , 0.0 , 0.0 , 

70.0 , 4130.25641026 , 4128.71794872 , 4136.41025641 , 4128.20512821 , 4131.28205128 , 4129.23076923 , 4125.64102564 , 4135.8974359 , 4137.43589744 , 4135.38461538 , 4187.17948718 , 4904.1025641 , 4132.82051282 , 4136.92307692 , 2042.0 , 2035.0 , 9.242 , 0.0 , 0.0 , 0.0 , 0.0 , 

71.0 , 4130.25641026 , 4128.71794872 , 4135.8974359 , 4129.74358974 , 4133.33333333 , 4127.17948718 , 4126.66666667 , 4135.8974359 , 4136.41025641 , 4136.92307692 , 4187.69230769 , 4906.66666667 , 4133.33333333 , 4136.41025641 , 2042.0 , 2035.0 , 9.25 , 0.0 , 0.0 , 0.0 , 0.0 , 

72.0 , 4128.71794872 , 4127.69230769 , 4135.38461538 , 4131.28205128 , 4131.79487179 , 4127.17948718 , 4126.66666667 , 4135.8974359 , 4134.35897436 , 4137.43589744 , 4185.12820513 , 4906.66666667 , 4132.82051282 , 4137.94871795 , 2042.0 , 2035.0 , 9.258 , 0.0 , 0.0 , 0.0 , 0.0 , 

73.0 , 4128.71794872 , 4126.66666667 , 4135.38461538 , 4131.79487179 , 4130.76923077 , 4131.28205128 , 4125.12820513 , 4135.8974359 , 4134.35897436 , 4136.92307692 , 4184.1025641 , 4905.12820513 , 4132.82051282 , 4138.46153846 , 2041.0 , 2034.0 , 9.267 , 0.0 , 0.0 , 0.0 , 0.0 , 

74.0 , 4130.25641026 , 4128.20512821 , 4134.87179487 , 4129.23076923 , 4133.33333333 , 4129.74358974 , 4125.12820513 , 4135.8974359 , 4135.38461538 , 4136.41025641 , 4186.66666667 , 4905.64102564 , 4133.33333333 , 4136.41025641 , 2040.0 , 2035.0 , 9.274 , 0.0 , 0.0 , 0.0 , 0.0 , 

75.0 , 4129.23076923 , 4129.23076923 , 4134.35897436 , 4126.66666667 , 4132.82051282 , 4124.1025641 , 4126.15384615 , 4135.8974359 , 4135.38461538 , 4136.92307692 , 4187.69230769 , 4905.12820513 , 4132.82051282 , 4135.8974359 , 2040.0 , 2036.0 , 9.282 , 0.0 , 0.0 , 0.0 , 0.0 , 

76.0 , 4128.20512821 , 4126.66666667 , 4137.94871795 , 4130.25641026 , 4130.25641026 , 4125.12820513 , 4123.58974359 , 4136.41025641 , 4135.38461538 , 4137.94871795 , 4185.12820513 , 4904.61538462 , 4132.82051282 , 4137.43589744 , 2039.0 , 2035.0 , 9.29 , 0.0 , 0.0 , 0.0 , 0.0 , 

77.0 , 4130.76923077 , 4127.17948718 , 4137.43589744 , 4136.41025641 , 4134.35897436 , 4127.69230769 , 4124.61538462 , 4135.38461538 , 4134.87179487 , 4134.35897436 , 4183.58974359 , 4905.12820513 , 4135.8974359 , 4137.43589744 , 2041.0 , 2037.0 , 9.297 , 0.0 , 0.0 , 0.0 , 0.0 , 

78.0 , 4129.74358974 , 4129.74358974 , 4140.51282051 , 4134.87179487 , 4131.79487179 , 4126.66666667 , 4128.20512821 , 4135.8974359 , 4135.8974359 , 4139.48717949 , 4186.66666667 , 4906.15384615 , 4136.92307692 , 4136.92307692 , 2040.0 , 2036.0 , 9.305 , 0.0 , 0.0 , 0.0 , 0.0 , 

79.0 , 4129.23076923 , 4130.25641026 , 4141.53846154 , 4129.23076923 , 4124.61538462 , 4127.17948718 , 4127.17948718 , 4137.43589744 , 4137.43589744 , 4149.23076923 , 4188.71794872 , 4905.64102564 , 4134.87179487 , 4136.92307692 , 2041.0 , 2035.0 , 9.313 , 0.0 , 0.0 , 0.0 , 0.0 , 

80.0 , 4130.76923077 , 4128.20512821 , 4135.38461538 , 4130.76923077 , 4128.71794872 , 4127.17948718 , 4125.12820513 , 4132.30769231 , 4135.8974359 , 4144.1025641 , 4187.17948718 , 4905.12820513 , 4134.35897436 , 4136.92307692 , 2043.0 , 2035.0 , 9.322 , 0.0 , 0.0 , 0.0 , 0.0 , 

81.0 , 4130.76923077 , 4128.71794872 , 4131.28205128 , 4133.33333333 , 4131.79487179 , 4124.61538462 , 4127.17948718 , 4130.25641026 , 4135.38461538 , 4133.84615385 , 4186.15384615 , 4904.61538462 , 4135.38461538 , 4136.92307692 , 2043.0 , 2035.0 , 9.33 , 0.0 , 0.0 , 0.0 , 0.0 , 

82.0 , 4129.23076923 , 4129.23076923 , 4135.38461538 , 4131.28205128 , 4126.15384615 , 4124.1025641 , 4129.74358974 , 4135.38461538 , 4137.43589744 , 4136.41025641 , 4186.66666667 , 4905.64102564 , 4135.38461538 , 4137.43589744 , 2045.0 , 2034.0 , 9.338 , 0.0 , 0.0 , 0.0 , 0.0 , 

83.0 , 4128.71794872 , 4129.74358974 , 4134.87179487 , 4129.74358974 , 4124.1025641 , 4127.69230769 , 4129.23076923 , 4135.8974359 , 4137.43589744 , 4138.97435897 , 4185.64102564 , 4906.66666667 , 4134.87179487 , 4137.43589744 , 2045.0 , 2034.0 , 9.345 , 0.0 , 0.0 , 0.0 , 0.0 , 

84.0 , 4128.71794872 , 4129.74358974 , 4134.35897436 , 4129.23076923 , 4130.25641026 , 4129.74358974 , 4126.15384615 , 4133.33333333 , 4135.38461538 , 4135.38461538 , 4186.66666667 , 4904.61538462 , 4134.35897436 , 4137.43589744 , 2045.0 , 2034.0 , 9.353 , 0.0 , 0.0 , 0.0 , 0.0 , 

85.0 , 4129.74358974 , 4129.23076923 , 4136.41025641 , 4132.30769231 , 4130.25641026 , 4127.69230769 , 4123.07692308 , 4135.8974359 , 4134.87179487 , 4135.8974359 , 4185.64102564 , 4903.58974359 , 4135.38461538 , 4138.46153846 , 2044.0 , 2033.0 , 9.361 , 0.0 , 0.0 , 0.0 , 0.0 , 

86.0 , 4130.76923077 , 4129.74358974 , 4134.87179487 , 4136.41025641 , 4125.12820513 , 4123.58974359 , 4125.12820513 , 4136.41025641 , 4135.38461538 , 4137.94871795 , 4182.56410256 , 4905.12820513 , 4134.35897436 , 4138.46153846 , 2046.0 , 2031.0 , 9.369 , 0.0 , 0.0 , 0.0 , 0.0 , 

87.0 , 4130.25641026 , 4130.25641026 , 4134.35897436 , 4134.87179487 , 4125.12820513 , 4123.07692308 , 4128.20512821 , 4134.35897436 , 4135.38461538 , 4137.43589744 , 4182.05128205 , 4906.15384615 , 4130.76923077 , 4137.94871795 , 2044.0 , 2030.0 , 9.377 , 0.0 , 0.0 , 0.0 , 0.0 , 

88.0 , 4129.74358974 , 4128.20512821 , 4136.92307692 , 4131.79487179 , 4126.66666667 , 4124.1025641 , 4128.71794872 , 4134.87179487 , 4135.38461538 , 4136.92307692 , 4183.07692308 , 4907.17948718 , 4132.30769231 , 4138.46153846 , 2043.0 , 2031.0 , 9.385 , 0.0 , 0.0 , 0.0 , 0.0 , 

89.0 , 4128.71794872 , 4127.69230769 , 4136.41025641 , 4133.33333333 , 4131.79487179 , 4124.61538462 , 4128.71794872 , 4134.87179487 , 4135.38461538 , 4136.41025641 , 4182.56410256 , 4906.66666667 , 4135.38461538 , 4137.43589744 , 2043.0 , 2029.0 , 9.393 , 0.0 , 0.0 , 0.0 , 0.0 , 

