['COUNTER', 'AF3', 'F7', 'F3', 'FC5', 'T7', 'P7', 'O1', 'O2', 'P8', 'T8', 'FC6', 'F4', 'F8', 'AF4', 'GYROX', 'GYROY', 'TIMESTAMP', 'FUNC_ID', 'FUNC_VALUE', 'MARKER', 'SYNC_SIGNAL']
28.0 , 4127.69230769 , 4129.74358974 , 4126.66666667 , 4127.17948718 , 4128.20512821 , 4127.17948718 , 4120.0 , 4128.71794872 , 4129.23076923 , 4138.46153846 , 4187.17948718 , 4912.30769231 , 4129.23076923 , 4136.92307692 , 2046.0 , 2037.0 , 192.312 , 0.0 , 0.0 , 0.0 , 0.0 , 

29.0 , 4128.20512821 , 4128.71794872 , 4126.66666667 , 4129.23076923 , 4126.15384615 , 4130.76923077 , 4125.12820513 , 4132.82051282 , 4138.46153846 , 4138.97435897 , 4187.17948718 , 4909.23076923 , 4132.82051282 , 4137.43589744 , 2046.0 , 2040.0 , 192.323 , 0.0 , 0.0 , 0.0 , 0.0 , 

30.0 , 4130.76923077 , 4124.1025641 , 4131.79487179 , 4129.74358974 , 4124.61538462 , 4123.07692308 , 4122.56410256 , 4117.94871795 , 4128.71794872 , 4134.35897436 , 4186.66666667 , 4909.23076923 , 4124.61538462 , 4138.46153846 , 2044.0 , 2041.0 , 192.328 , 0.0 , 0.0 , 0.0 , 0.0 , 

31.0 , 4129.74358974 , 4129.23076923 , 4129.74358974 , 4133.84615385 , 4129.74358974 , 4125.64102564 , 4126.66666667 , 4130.25641026 , 4129.74358974 , 4134.35897436 , 4190.25641026 , 4907.69230769 , 4129.23076923 , 4137.43589744 , 2044.0 , 2042.0 , 192.335 , 0.0 , 0.0 , 0.0 , 0.0 , 

32.0 , 4130.76923077 , 4128.71794872 , 4133.33333333 , 4126.15384615 , 4130.76923077 , 4123.58974359 , 4121.53846154 , 4128.20512821 , 4128.71794872 , 4137.94871795 , 4184.61538462 , 4910.25641026 , 4124.1025641 , 4136.92307692 , 2044.0 , 2040.0 , 192.343 , 0.0 , 0.0 , 0.0 , 0.0 , 

33.0 , 4127.69230769 , 4130.76923077 , 4126.66666667 , 4130.76923077 , 4125.12820513 , 4126.66666667 , 4128.20512821 , 4132.82051282 , 4137.43589744 , 4137.94871795 , 4184.61538462 , 4908.20512821 , 4131.79487179 , 4136.41025641 , 2043.0 , 2036.0 , 192.354 , 0.0 , 0.0 , 0.0 , 0.0 , 

34.0 , 4126.66666667 , 4124.61538462 , 4128.20512821 , 4129.23076923 , 4124.61538462 , 4124.1025641 , 4123.07692308 , 4125.64102564 , 4128.71794872 , 4132.30769231 , 4184.61538462 , 4911.28205128 , 4126.66666667 , 4136.92307692 , 2042.0 , 2035.0 , 192.359 , 0.0 , 0.0 , 0.0 , 0.0 , 

35.0 , 4130.25641026 , 4129.23076923 , 4127.17948718 , 4132.30769231 , 4128.71794872 , 4129.74358974 , 4127.17948718 , 4134.35897436 , 4129.74358974 , 4133.33333333 , 4189.74358974 , 4909.74358974 , 4132.82051282 , 4136.41025641 , 2042.0 , 2034.0 , 192.367 , 0.0 , 0.0 , 0.0 , 0.0 , 

36.0 , 4132.82051282 , 4127.17948718 , 4131.79487179 , 4127.17948718 , 4128.20512821 , 4129.23076923 , 4124.1025641 , 4126.15384615 , 4128.71794872 , 4134.35897436 , 4186.66666667 , 4910.76923077 , 4129.23076923 , 4135.8974359 , 2044.0 , 2037.0 , 192.374 , 0.0 , 0.0 , 0.0 , 0.0 , 

37.0 , 4130.76923077 , 4128.20512821 , 4128.71794872 , 4132.30769231 , 4127.69230769 , 4131.79487179 , 4126.15384615 , 4133.33333333 , 4133.84615385 , 4134.87179487 , 4187.69230769 , 4906.66666667 , 4130.25641026 , 4137.43589744 , 2045.0 , 2036.0 , 192.387 , 0.0 , 0.0 , 0.0 , 0.0 , 

38.0 , 4129.74358974 , 4128.71794872 , 4129.74358974 , 4131.79487179 , 4129.74358974 , 4127.69230769 , 4120.51282051 , 4131.28205128 , 4128.71794872 , 4134.87179487 , 4187.17948718 , 4907.69230769 , 4125.64102564 , 4138.97435897 , 2043.0 , 2035.0 , 192.39 , 0.0 , 0.0 , 0.0 , 0.0 , 

39.0 , 4130.76923077 , 4131.28205128 , 4129.23076923 , 4130.76923077 , 4130.76923077 , 4128.20512821 , 4122.05128205 , 4129.74358974 , 4128.71794872 , 4137.94871795 , 4188.20512821 , 4908.71794872 , 4130.76923077 , 4137.43589744 , 2046.0 , 2035.0 , 192.398 , 0.0 , 0.0 , 0.0 , 0.0 , 

40.0 , 4131.79487179 , 4122.05128205 , 4132.82051282 , 4128.20512821 , 4127.69230769 , 4125.12820513 , 4118.97435897 , 4126.66666667 , 4131.28205128 , 4135.38461538 , 4185.64102564 , 4910.76923077 , 4130.25641026 , 4137.43589744 , 2044.0 , 2034.0 , 192.406 , 0.0 , 0.0 , 0.0 , 0.0 , 

41.0 , 4133.33333333 , 4124.1025641 , 4131.28205128 , 4129.23076923 , 4126.15384615 , 4124.61538462 , 4119.48717949 , 4129.23076923 , 4131.28205128 , 4132.82051282 , 4186.15384615 , 4909.74358974 , 4127.17948718 , 4137.94871795 , 2045.0 , 2033.0 , 192.417 , 0.0 , 0.0 , 0.0 , 0.0 , 

42.0 , 4130.25641026 , 4128.20512821 , 4127.69230769 , 4127.69230769 , 4125.64102564 , 4129.23076923 , 4120.51282051 , 4130.25641026 , 4133.33333333 , 4137.43589744 , 4188.20512821 , 4909.23076923 , 4129.23076923 , 4134.87179487 , 2046.0 , 2032.0 , 192.423 , 0.0 , 0.0 , 0.0 , 0.0 , 

43.0 , 4130.76923077 , 4127.17948718 , 4128.20512821 , 4128.20512821 , 4128.71794872 , 4130.76923077 , 4119.48717949 , 4127.17948718 , 4132.30769231 , 4140.0 , 4188.71794872 , 4910.76923077 , 4129.74358974 , 4136.41025641 , 2045.0 , 2030.0 , 192.43 , 0.0 , 0.0 , 0.0 , 0.0 , 

44.0 , 4129.74358974 , 4129.74358974 , 4128.20512821 , 4131.28205128 , 4130.76923077 , 4126.15384615 , 4124.1025641 , 4131.79487179 , 4133.33333333 , 4135.38461538 , 4189.74358974 , 4907.69230769 , 4129.74358974 , 4138.97435897 , 2044.0 , 2029.0 , 192.438 , 0.0 , 0.0 , 0.0 , 0.0 , 

45.0 , 4128.71794872 , 4131.79487179 , 4129.23076923 , 4128.20512821 , 4132.30769231 , 4124.1025641 , 4123.58974359 , 4124.61538462 , 4126.15384615 , 4133.33333333 , 4186.15384615 , 4905.64102564 , 4125.64102564 , 4135.38461538 , 2040.0 , 2025.0 , 192.448 , 0.0 , 0.0 , 0.0 , 0.0 , 

46.0 , 4126.15384615 , 4131.28205128 , 4128.71794872 , 4131.79487179 , 4130.25641026 , 4130.76923077 , 4124.1025641 , 4130.25641026 , 4131.28205128 , 4138.46153846 , 4187.17948718 , 4906.15384615 , 4133.33333333 , 4133.33333333 , 2040.0 , 2025.0 , 192.454 , 0.0 , 0.0 , 0.0 , 0.0 , 

47.0 , 4132.30769231 , 4126.66666667 , 4133.33333333 , 4131.28205128 , 4128.71794872 , 4126.15384615 , 4120.51282051 , 4125.12820513 , 4125.12820513 , 4137.43589744 , 4186.66666667 , 4910.25641026 , 4128.71794872 , 4137.43589744 , 2036.0 , 2028.0 , 192.461 , 0.0 , 0.0 , 0.0 , 0.0 , 

48.0 , 4131.28205128 , 4128.20512821 , 4128.20512821 , 4130.76923077 , 4129.74358974 , 4126.66666667 , 4127.69230769 , 4130.76923077 , 4130.25641026 , 4135.38461538 , 4189.23076923 , 4907.69230769 , 4132.82051282 , 4136.92307692 , 2038.0 , 2029.0 , 192.469 , 0.0 , 0.0 , 0.0 , 0.0 , 

49.0 , 4129.74358974 , 4124.1025641 , 4131.79487179 , 4126.15384615 , 4131.28205128 , 4124.1025641 , 4123.07692308 , 4121.53846154 , 4126.66666667 , 4135.8974359 , 4187.69230769 , 4909.74358974 , 4124.1025641 , 4136.41025641 , 2041.0 , 2033.0 , 192.483 , 0.0 , 0.0 , 0.0 , 0.0 , 

50.0 , 4129.23076923 , 4127.69230769 , 4129.23076923 , 4133.84615385 , 4130.25641026 , 4125.12820513 , 4124.1025641 , 4133.84615385 , 4132.82051282 , 4137.43589744 , 4189.74358974 , 4908.71794872 , 4127.69230769 , 4136.92307692 , 2041.0 , 2032.0 , 192.486 , 0.0 , 0.0 , 0.0 , 0.0 , 

51.0 , 4130.25641026 , 4125.12820513 , 4131.28205128 , 4128.71794872 , 4128.20512821 , 4122.05128205 , 4120.51282051 , 4129.23076923 , 4127.69230769 , 4134.35897436 , 4186.66666667 , 4910.76923077 , 4122.05128205 , 4136.92307692 , 2041.0 , 2033.0 , 192.494 , 0.0 , 0.0 , 0.0 , 0.0 , 

52.0 , 4128.20512821 , 4128.71794872 , 4128.20512821 , 4130.76923077 , 4126.66666667 , 4127.69230769 , 4129.23076923 , 4140.0 , 4135.8974359 , 4136.92307692 , 4190.25641026 , 4908.20512821 , 4131.79487179 , 4136.41025641 , 2040.0 , 2029.0 , 192.501 , 0.0 , 0.0 , 0.0 , 0.0 , 

53.0 , 4130.25641026 , 4128.20512821 , 4133.84615385 , 4128.71794872 , 4126.66666667 , 4124.1025641 , 4125.64102564 , 4134.87179487 , 4131.28205128 , 4138.97435897 , 4187.17948718 , 4908.20512821 , 4127.17948718 , 4136.92307692 , 2039.0 , 2029.0 , 192.513 , 0.0 , 0.0 , 0.0 , 0.0 , 

54.0 , 4130.76923077 , 4131.28205128 , 4128.20512821 , 4133.33333333 , 4125.64102564 , 4125.12820513 , 4126.66666667 , 4137.43589744 , 4133.84615385 , 4138.97435897 , 4188.20512821 , 4904.1025641 , 4130.76923077 , 4136.92307692 , 2039.0 , 2028.0 , 192.517 , 0.0 , 0.0 , 0.0 , 0.0 , 

55.0 , 4130.25641026 , 4127.17948718 , 4129.23076923 , 4129.74358974 , 4126.66666667 , 4125.64102564 , 4120.51282051 , 4127.69230769 , 4131.79487179 , 4136.41025641 , 4186.15384615 , 4907.17948718 , 4128.71794872 , 4136.92307692 , 2038.0 , 2029.0 , 192.524 , 0.0 , 0.0 , 0.0 , 0.0 , 

56.0 , 4132.30769231 , 4132.30769231 , 4131.28205128 , 4131.79487179 , 4130.25641026 , 4133.33333333 , 4127.69230769 , 4133.84615385 , 4134.87179487 , 4137.43589744 , 4187.69230769 , 4908.71794872 , 4133.84615385 , 4135.38461538 , 2040.0 , 2031.0 , 192.534 , 0.0 , 0.0 , 0.0 , 0.0 , 

57.0 , 4131.28205128 , 4130.25641026 , 4134.35897436 , 4128.71794872 , 4129.23076923 , 4130.25641026 , 4127.69230769 , 4127.17948718 , 4130.25641026 , 4136.92307692 , 4186.15384615 , 4909.23076923 , 4126.66666667 , 4136.41025641 , 2041.0 , 2034.0 , 192.543 , 0.0 , 0.0 , 0.0 , 0.0 , 

58.0 , 4129.23076923 , 4129.74358974 , 4129.23076923 , 4131.79487179 , 4128.71794872 , 4126.15384615 , 4125.12820513 , 4122.56410256 , 4126.15384615 , 4137.43589744 , 4187.69230769 , 4905.12820513 , 4125.64102564 , 4137.94871795 , 2040.0 , 2035.0 , 192.549 , 0.0 , 0.0 , 0.0 , 0.0 , 

59.0 , 4130.25641026 , 4125.12820513 , 4129.23076923 , 4132.82051282 , 4129.74358974 , 4125.12820513 , 4118.46153846 , 4125.12820513 , 4126.15384615 , 4135.38461538 , 4185.64102564 , 4907.17948718 , 4127.69230769 , 4136.92307692 , 2040.0 , 2033.0 , 192.555 , 0.0 , 0.0 , 0.0 , 0.0 , 

60.0 , 4131.28205128 , 4124.1025641 , 4129.74358974 , 4132.82051282 , 4128.20512821 , 4127.17948718 , 4122.05128205 , 4129.74358974 , 4127.69230769 , 4134.87179487 , 4187.17948718 , 4909.23076923 , 4129.23076923 , 4136.92307692 , 2041.0 , 2034.0 , 192.564 , 0.0 , 0.0 , 0.0 , 0.0 , 

61.0 , 4129.23076923 , 4125.64102564 , 4127.69230769 , 4132.82051282 , 4124.1025641 , 4124.61538462 , 4124.61538462 , 4129.23076923 , 4130.76923077 , 4133.84615385 , 4188.71794872 , 4908.20512821 , 4132.30769231 , 4137.94871795 , 2042.0 , 2034.0 , 192.575 , 0.0 , 0.0 , 0.0 , 0.0 , 

62.0 , 4131.79487179 , 4126.15384615 , 4128.20512821 , 4130.76923077 , 4126.66666667 , 4123.58974359 , 4120.0 , 4124.61538462 , 4127.17948718 , 4133.84615385 , 4185.64102564 , 4907.69230769 , 4132.30769231 , 4137.43589744 , 2044.0 , 2036.0 , 192.58 , 0.0 , 0.0 , 0.0 , 0.0 , 

63.0 , 4130.76923077 , 4126.15384615 , 4127.69230769 , 4130.25641026 , 4126.66666667 , 4128.71794872 , 4123.07692308 , 4131.79487179 , 4131.79487179 , 4138.46153846 , 4187.17948718 , 4905.64102564 , 4133.84615385 , 4136.41025641 , 2046.0 , 2039.0 , 192.587 , 0.0 , 0.0 , 0.0 , 0.0 , 

64.0 , 4131.28205128 , 4126.15384615 , 4130.25641026 , 4129.23076923 , 4125.64102564 , 4126.66666667 , 4123.58974359 , 4126.66666667 , 4129.74358974 , 4140.51282051 , 4188.20512821 , 4906.66666667 , 4125.64102564 , 4137.43589744 , 2046.0 , 2038.0 , 192.595 , 0.0 , 0.0 , 0.0 , 0.0 , 

65.0 , 4130.25641026 , 4132.30769231 , 4127.17948718 , 4133.84615385 , 4126.15384615 , 4125.12820513 , 4125.12820513 , 4130.76923077 , 4135.38461538 , 4136.41025641 , 4189.74358974 , 4908.20512821 , 4129.74358974 , 4135.8974359 , 2046.0 , 2040.0 , 192.606 , 0.0 , 0.0 , 0.0 , 0.0 , 

66.0 , 4132.30769231 , 4130.25641026 , 4131.79487179 , 4127.17948718 , 4126.66666667 , 4122.05128205 , 4122.56410256 , 4122.05128205 , 4126.66666667 , 4131.79487179 , 4186.66666667 , 4908.71794872 , 4123.07692308 , 4136.92307692 , 2046.0 , 2039.0 , 192.611 , 0.0 , 0.0 , 0.0 , 0.0 , 

67.0 , 4130.25641026 , 4128.20512821 , 4129.23076923 , 4128.20512821 , 4125.12820513 , 4126.66666667 , 4130.25641026 , 4130.25641026 , 4133.33333333 , 4136.41025641 , 4189.74358974 , 4904.61538462 , 4131.79487179 , 4138.46153846 , 2045.0 , 2037.0 , 192.62 , 0.0 , 0.0 , 0.0 , 0.0 , 

68.0 , 4131.28205128 , 4125.12820513 , 4133.84615385 , 4128.71794872 , 4124.1025641 , 4125.64102564 , 4123.58974359 , 4122.56410256 , 4131.79487179 , 4135.8974359 , 4186.15384615 , 4909.23076923 , 4127.69230769 , 4136.92307692 , 2045.0 , 2036.0 , 192.628 , 0.0 , 0.0 , 0.0 , 0.0 , 

69.0 , 4130.25641026 , 4131.79487179 , 4132.30769231 , 4134.35897436 , 4125.64102564 , 4128.20512821 , 4125.12820513 , 4130.76923077 , 4135.8974359 , 4136.41025641 , 4189.23076923 , 4909.23076923 , 4128.71794872 , 4134.87179487 , 2045.0 , 2035.0 , 192.639 , 0.0 , 0.0 , 0.0 , 0.0 , 

70.0 , 4130.76923077 , 4127.69230769 , 4135.38461538 , 4127.17948718 , 4127.69230769 , 4123.58974359 , 4122.56410256 , 4121.02564103 , 4125.12820513 , 4135.8974359 , 4184.61538462 , 4908.71794872 , 4120.0 , 4137.43589744 , 2045.0 , 2036.0 , 192.643 , 0.0 , 0.0 , 0.0 , 0.0 , 

71.0 , 4129.23076923 , 4129.23076923 , 4129.23076923 , 4129.74358974 , 4126.66666667 , 4128.71794872 , 4128.71794872 , 4130.25641026 , 4132.82051282 , 4138.46153846 , 4185.64102564 , 4904.61538462 , 4131.79487179 , 4135.8974359 , 2044.0 , 2035.0 , 192.651 , 0.0 , 0.0 , 0.0 , 0.0 , 

72.0 , 4129.23076923 , 4129.23076923 , 4130.76923077 , 4126.66666667 , 4124.61538462 , 4127.17948718 , 4122.56410256 , 4127.17948718 , 4130.76923077 , 4137.43589744 , 4185.12820513 , 4908.71794872 , 4129.74358974 , 4134.87179487 , 2043.0 , 2036.0 , 192.659 , 0.0 , 0.0 , 0.0 , 0.0 , 

73.0 , 4129.74358974 , 4133.33333333 , 4128.71794872 , 4131.28205128 , 4126.66666667 , 4128.20512821 , 4128.20512821 , 4131.79487179 , 4131.28205128 , 4138.46153846 , 4186.66666667 , 4907.69230769 , 4130.76923077 , 4135.8974359 , 2043.0 , 2036.0 , 192.67 , 0.0 , 0.0 , 0.0 , 0.0 , 

74.0 , 4130.25641026 , 4125.64102564 , 4131.79487179 , 4129.23076923 , 4127.69230769 , 4124.1025641 , 4125.64102564 , 4124.61538462 , 4130.76923077 , 4137.43589744 , 4183.58974359 , 4909.23076923 , 4126.15384615 , 4136.41025641 , 2043.0 , 2036.0 , 192.675 , 0.0 , 0.0 , 0.0 , 0.0 , 

75.0 , 4131.28205128 , 4127.69230769 , 4130.25641026 , 4129.74358974 , 4128.20512821 , 4126.66666667 , 4125.64102564 , 4130.25641026 , 4135.38461538 , 4135.38461538 , 4187.17948718 , 4906.15384615 , 4129.23076923 , 4134.87179487 , 2041.0 , 2035.0 , 192.682 , 0.0 , 0.0 , 0.0 , 0.0 , 

76.0 , 4130.76923077 , 4129.74358974 , 4131.28205128 , 4126.66666667 , 4130.76923077 , 4127.17948718 , 4122.56410256 , 4126.66666667 , 4131.79487179 , 4132.30769231 , 4185.64102564 , 4905.12820513 , 4126.15384615 , 4135.8974359 , 2042.0 , 2034.0 , 192.691 , 0.0 , 0.0 , 0.0 , 0.0 , 

77.0 , 4130.25641026 , 4130.25641026 , 4130.76923077 , 4130.25641026 , 4131.79487179 , 4128.71794872 , 4125.12820513 , 4125.12820513 , 4129.74358974 , 4136.92307692 , 4185.12820513 , 4905.12820513 , 4126.66666667 , 4136.41025641 , 2041.0 , 2035.0 , 192.702 , 0.0 , 0.0 , 0.0 , 0.0 , 

78.0 , 4129.23076923 , 4125.12820513 , 4132.30769231 , 4131.79487179 , 4124.61538462 , 4123.58974359 , 4120.0 , 4127.17948718 , 4132.82051282 , 4139.48717949 , 4188.71794872 , 4907.17948718 , 4126.15384615 , 4135.38461538 , 2042.0 , 2034.0 , 192.708 , 0.0 , 0.0 , 0.0 , 0.0 , 

79.0 , 4129.23076923 , 4126.15384615 , 4131.79487179 , 4130.25641026 , 4122.56410256 , 4122.56410256 , 4120.0 , 4126.15384615 , 4131.28205128 , 4134.87179487 , 4191.79487179 , 4906.66666667 , 4127.17948718 , 4136.92307692 , 2042.0 , 2035.0 , 192.714 , 0.0 , 0.0 , 0.0 , 0.0 , 

80.0 , 4127.69230769 , 4127.17948718 , 4130.25641026 , 4128.20512821 , 4127.17948718 , 4127.17948718 , 4126.15384615 , 4130.25641026 , 4135.38461538 , 4133.33333333 , 4188.71794872 , 4906.66666667 , 4133.84615385 , 4137.43589744 , 2042.0 , 2034.0 , 192.721 , 0.0 , 0.0 , 0.0 , 0.0 , 

81.0 , 4130.25641026 , 4125.12820513 , 4134.35897436 , 4128.71794872 , 4129.74358974 , 4128.20512821 , 4126.66666667 , 4131.28205128 , 4134.35897436 , 4136.92307692 , 4186.66666667 , 4909.23076923 , 4128.71794872 , 4136.92307692 , 2039.0 , 2034.0 , 192.735 , 0.0 , 0.0 , 0.0 , 0.0 , 

82.0 , 4127.69230769 , 4127.69230769 , 4131.28205128 , 4134.35897436 , 4127.17948718 , 4129.23076923 , 4129.74358974 , 4135.38461538 , 4132.82051282 , 4135.8974359 , 4189.74358974 , 4909.23076923 , 4130.25641026 , 4134.87179487 , 2043.0 , 2033.0 , 192.739 , 0.0 , 0.0 , 0.0 , 0.0 , 

83.0 , 4128.71794872 , 4129.23076923 , 4131.28205128 , 4131.28205128 , 4127.69230769 , 4126.66666667 , 4127.17948718 , 4120.51282051 , 4123.07692308 , 4131.28205128 , 4186.66666667 , 4911.28205128 , 4129.23076923 , 4136.92307692 , 2042.0 , 2034.0 , 192.745 , 0.0 , 0.0 , 0.0 , 0.0 , 

84.0 , 4129.23076923 , 4130.25641026 , 4130.76923077 , 4130.76923077 , 4129.74358974 , 4126.15384615 , 4128.71794872 , 4129.74358974 , 4134.35897436 , 4135.8974359 , 4187.17948718 , 4909.23076923 , 4133.33333333 , 4138.46153846 , 2042.0 , 2032.0 , 192.754 , 0.0 , 0.0 , 0.0 , 0.0 , 

85.0 , 4130.25641026 , 4126.66666667 , 4135.38461538 , 4127.17948718 , 4130.25641026 , 4122.56410256 , 4122.56410256 , 4128.20512821 , 4131.79487179 , 4136.92307692 , 4184.1025641 , 4906.66666667 , 4122.56410256 , 4137.94871795 , 2042.0 , 2034.0 , 192.764 , 0.0 , 0.0 , 0.0 , 0.0 , 

86.0 , 4126.15384615 , 4128.71794872 , 4131.28205128 , 4130.76923077 , 4128.20512821 , 4125.12820513 , 4127.17948718 , 4133.84615385 , 4133.33333333 , 4136.41025641 , 4188.71794872 , 4903.58974359 , 4128.71794872 , 4134.87179487 , 2042.0 , 2036.0 , 192.77 , 0.0 , 0.0 , 0.0 , 0.0 , 

87.0 , 4127.17948718 , 4122.05128205 , 4135.8974359 , 4123.07692308 , 4127.17948718 , 4122.05128205 , 4121.02564103 , 4121.53846154 , 4128.20512821 , 4136.41025641 , 4187.69230769 , 4910.25641026 , 4125.64102564 , 4135.8974359 , 2042.0 , 2034.0 , 192.778 , 0.0 , 0.0 , 0.0 , 0.0 , 

88.0 , 4128.71794872 , 4126.15384615 , 4131.28205128 , 4127.69230769 , 4128.71794872 , 4130.25641026 , 4128.20512821 , 4131.28205128 , 4134.35897436 , 4136.92307692 , 4188.20512821 , 4908.20512821 , 4132.30769231 , 4136.41025641 , 2043.0 , 2033.0 , 192.785 , 0.0 , 0.0 , 0.0 , 0.0 , 

89.0 , 4131.28205128 , 4127.17948718 , 4132.30769231 , 4129.74358974 , 4127.69230769 , 4130.76923077 , 4126.66666667 , 4124.1025641 , 4126.66666667 , 4133.33333333 , 4184.61538462 , 4909.74358974 , 4126.15384615 , 4135.38461538 , 2045.0 , 2033.0 , 192.796 , 0.0 , 0.0 , 0.0 , 0.0 , 

90.0 , 4131.28205128 , 4128.71794872 , 4129.23076923 , 4134.87179487 , 4126.66666667 , 4129.74358974 , 4125.64102564 , 4130.76923077 , 4131.79487179 , 4133.84615385 , 4189.74358974 , 4909.23076923 , 4130.25641026 , 4135.38461538 , 2046.0 , 2034.0 , 192.8 , 0.0 , 0.0 , 0.0 , 0.0 , 

91.0 , 4131.28205128 , 4125.12820513 , 4131.79487179 , 4127.17948718 , 4129.23076923 , 4123.58974359 , 4117.94871795 , 4128.20512821 , 4129.23076923 , 4133.33333333 , 4186.66666667 , 4910.76923077 , 4125.12820513 , 4137.43589744 , 2044.0 , 2036.0 , 192.808 , 0.0 , 0.0 , 0.0 , 0.0 , 

92.0 , 4132.30769231 , 4130.25641026 , 4128.71794872 , 4131.79487179 , 4129.74358974 , 4127.69230769 , 4126.15384615 , 4134.35897436 , 4131.79487179 , 4133.33333333 , 4187.17948718 , 4905.12820513 , 4130.25641026 , 4135.38461538 , 2045.0 , 2035.0 , 192.816 , 0.0 , 0.0 , 0.0 , 0.0 , 

93.0 , 4133.84615385 , 4126.15384615 , 4130.76923077 , 4131.28205128 , 4128.20512821 , 4126.66666667 , 4124.1025641 , 4125.64102564 , 4130.25641026 , 4135.38461538 , 4187.69230769 , 4907.69230769 , 4126.66666667 , 4132.30769231 , 2045.0 , 2035.0 , 192.829 , 0.0 , 0.0 , 0.0 , 0.0 , 

94.0 , 4132.82051282 , 4127.17948718 , 4130.76923077 , 4131.79487179 , 4129.74358974 , 4128.71794872 , 4127.17948718 , 4128.20512821 , 4133.33333333 , 4141.02564103 , 4187.17948718 , 4909.74358974 , 4125.12820513 , 4133.33333333 , 2046.0 , 2035.0 , 192.832 , 0.0 , 0.0 , 0.0 , 0.0 , 

95.0 , 4127.69230769 , 4126.15384615 , 4133.84615385 , 4129.23076923 , 4128.71794872 , 4128.71794872 , 4128.71794872 , 4127.17948718 , 4129.23076923 , 4138.97435897 , 4182.56410256 , 4909.23076923 , 4122.56410256 , 4137.43589744 , 2046.0 , 2035.0 , 192.841 , 0.0 , 0.0 , 0.0 , 0.0 , 

96.0 , 4128.20512821 , 4125.64102564 , 4134.87179487 , 4128.71794872 , 4128.20512821 , 4128.20512821 , 4127.17948718 , 4127.69230769 , 4125.64102564 , 4135.8974359 , 4183.58974359 , 4907.69230769 , 4126.66666667 , 4138.46153846 , 2045.0 , 2036.0 , 192.848 , 0.0 , 0.0 , 0.0 , 0.0 , 

97.0 , 4130.76923077 , 4124.1025641 , 4132.82051282 , 4125.64102564 , 4127.17948718 , 4126.66666667 , 4123.07692308 , 4134.87179487 , 4130.76923077 , 4135.38461538 , 4186.66666667 , 4908.71794872 , 4128.71794872 , 4136.92307692 , 2045.0 , 2036.0 , 192.86 , 0.0 , 0.0 , 0.0 , 0.0 , 

98.0 , 4132.30769231 , 4127.69230769 , 4130.25641026 , 4126.15384615 , 4128.20512821 , 4126.15384615 , 4125.64102564 , 4131.79487179 , 4132.30769231 , 4135.38461538 , 4188.20512821 , 4908.20512821 , 4125.64102564 , 4136.41025641 , 2044.0 , 2036.0 , 192.863 , 0.0 , 0.0 , 0.0 , 0.0 , 

99.0 , 4130.25641026 , 4129.23076923 , 4127.17948718 , 4132.30769231 , 4129.74358974 , 4126.66666667 , 4127.69230769 , 4126.66666667 , 4132.30769231 , 4136.41025641 , 4189.23076923 , 4905.64102564 , 4129.74358974 , 4137.43589744 , 2044.0 , 2036.0 , 192.871 , 0.0 , 0.0 , 0.0 , 0.0 , 

100.0 , 4131.28205128 , 4126.66666667 , 4129.74358974 , 4130.76923077 , 4130.25641026 , 4126.15384615 , 4122.56410256 , 4122.05128205 , 4126.15384615 , 4136.41025641 , 4186.66666667 , 4905.12820513 , 4128.71794872 , 4140.0 , 2042.0 , 2038.0 , 192.879 , 0.0 , 0.0 , 0.0 , 0.0 , 

101.0 , 4128.20512821 , 4125.64102564 , 4128.71794872 , 4131.28205128 , 4126.66666667 , 4125.64102564 , 4126.66666667 , 4134.35897436 , 4132.30769231 , 4137.43589744 , 4188.20512821 , 4905.12820513 , 4134.87179487 , 4139.48717949 , 2043.0 , 2036.0 , 192.89 , 0.0 , 0.0 , 0.0 , 0.0 , 

102.0 , 4129.23076923 , 4124.1025641 , 4132.30769231 , 4127.17948718 , 4126.66666667 , 4122.05128205 , 4123.58974359 , 4126.66666667 , 4128.20512821 , 4137.43589744 , 4184.61538462 , 4909.74358974 , 4129.23076923 , 4137.43589744 , 2041.0 , 2036.0 , 192.896 , 0.0 , 0.0 , 0.0 , 0.0 , 

103.0 , 4129.23076923 , 4130.76923077 , 4130.25641026 , 4131.79487179 , 4128.20512821 , 4128.20512821 , 4124.61538462 , 4129.74358974 , 4134.35897436 , 4138.46153846 , 4184.1025641 , 4909.23076923 , 4131.28205128 , 4136.92307692 , 2040.0 , 2037.0 , 192.903 , 0.0 , 0.0 , 0.0 , 0.0 , 

104.0 , 4127.69230769 , 4130.25641026 , 4133.84615385 , 4128.20512821 , 4127.17948718 , 4125.64102564 , 4122.56410256 , 4120.0 , 4126.15384615 , 4134.87179487 , 4183.07692308 , 4909.23076923 , 4122.05128205 , 4137.94871795 , 2040.0 , 2038.0 , 192.912 , 0.0 , 0.0 , 0.0 , 0.0 , 

105.0 , 4125.12820513 , 4129.23076923 , 4130.76923077 , 4129.23076923 , 4127.17948718 , 4127.17948718 , 4127.17948718 , 4127.17948718 , 4129.23076923 , 4137.43589744 , 4187.17948718 , 4908.20512821 , 4130.76923077 , 4137.94871795 , 2041.0 , 2039.0 , 192.921 , 0.0 , 0.0 , 0.0 , 0.0 , 

106.0 , 4130.76923077 , 4124.61538462 , 4135.38461538 , 4124.1025641 , 4126.15384615 , 4125.64102564 , 4121.02564103 , 4119.48717949 , 4127.17948718 , 4138.46153846 , 4183.58974359 , 4912.30769231 , 4125.64102564 , 4139.48717949 , 2042.0 , 2040.0 , 192.927 , 0.0 , 0.0 , 0.0 , 0.0 , 

107.0 , 4129.23076923 , 4130.76923077 , 4130.25641026 , 4130.76923077 , 4127.17948718 , 4129.23076923 , 4127.69230769 , 4130.25641026 , 4133.84615385 , 4136.41025641 , 4189.23076923 , 4907.69230769 , 4130.25641026 , 4136.41025641 , 2041.0 , 2039.0 , 192.935 , 0.0 , 0.0 , 0.0 , 0.0 , 

108.0 , 4125.64102564 , 4128.20512821 , 4130.76923077 , 4130.25641026 , 4130.25641026 , 4124.1025641 , 4123.07692308 , 4124.1025641 , 4127.69230769 , 4135.38461538 , 4189.23076923 , 4906.66666667 , 4127.17948718 , 4134.87179487 , 2041.0 , 2040.0 , 192.943 , 0.0 , 0.0 , 0.0 , 0.0 , 

109.0 , 4126.15384615 , 4129.74358974 , 4128.20512821 , 4133.33333333 , 4128.71794872 , 4126.15384615 , 4126.15384615 , 4132.30769231 , 4134.87179487 , 4138.46153846 , 4190.25641026 , 4905.12820513 , 4133.84615385 , 4135.8974359 , 2041.0 , 2037.0 , 192.955 , 0.0 , 0.0 , 0.0 , 0.0 , 

110.0 , 4128.71794872 , 4127.69230769 , 4131.79487179 , 4129.23076923 , 4126.15384615 , 4122.05128205 , 4122.05128205 , 4128.20512821 , 4130.76923077 , 4136.92307692 , 4188.20512821 , 4908.71794872 , 4129.23076923 , 4138.46153846 , 2042.0 , 2035.0 , 192.959 , 0.0 , 0.0 , 0.0 , 0.0 , 

111.0 , 4130.76923077 , 4131.28205128 , 4128.20512821 , 4132.30769231 , 4129.23076923 , 4125.64102564 , 4128.20512821 , 4129.74358974 , 4130.25641026 , 4140.51282051 , 4190.76923077 , 4907.69230769 , 4134.35897436 , 4139.48717949 , 2043.0 , 2034.0 , 192.967 , 0.0 , 0.0 , 0.0 , 0.0 , 

112.0 , 4129.74358974 , 4125.12820513 , 4130.25641026 , 4129.23076923 , 4128.71794872 , 4127.69230769 , 4124.1025641 , 4122.05128205 , 4128.71794872 , 4142.56410256 , 4187.17948718 , 4909.23076923 , 4130.76923077 , 4138.46153846 , 2044.0 , 2034.0 , 192.973 , 0.0 , 0.0 , 0.0 , 0.0 , 

113.0 , 4128.71794872 , 4124.1025641 , 4130.25641026 , 4129.74358974 , 4127.69230769 , 4127.69230769 , 4122.56410256 , 4124.1025641 , 4130.25641026 , 4140.0 , 4186.66666667 , 4908.71794872 , 4128.20512821 , 4137.94871795 , 2044.0 , 2034.0 , 192.987 , 0.0 , 0.0 , 0.0 , 0.0 , 

114.0 , 4128.20512821 , 4125.12820513 , 4130.25641026 , 4128.20512821 , 4128.20512821 , 4124.1025641 , 4120.0 , 4123.58974359 , 4129.23076923 , 4136.92307692 , 4184.61538462 , 4909.74358974 , 4128.71794872 , 4141.02564103 , 2046.0 , 2032.0 , 192.99 , 0.0 , 0.0 , 0.0 , 0.0 , 

115.0 , 4129.74358974 , 4127.69230769 , 4130.76923077 , 4128.71794872 , 4131.28205128 , 4124.61538462 , 4121.02564103 , 4124.61538462 , 4130.25641026 , 4137.94871795 , 4186.15384615 , 4909.23076923 , 4131.79487179 , 4142.05128205 , 2047.0 , 2032.0 , 192.997 , 0.0 , 0.0 , 0.0 , 0.0 , 

116.0 , 4128.20512821 , 4128.71794872 , 4131.28205128 , 4130.76923077 , 4131.79487179 , 4122.56410256 , 4122.05128205 , 4132.30769231 , 4132.82051282 , 4138.97435897 , 4187.69230769 , 4908.20512821 , 4130.25641026 , 4137.43589744 , 2048.0 , 2032.0 , 193.005 , 0.0 , 0.0 , 0.0 , 0.0 , 

117.0 , 4130.25641026 , 4126.66666667 , 4129.74358974 , 4131.28205128 , 4132.82051282 , 4122.05128205 , 4123.07692308 , 4128.20512821 , 4127.69230769 , 4138.46153846 , 4186.15384615 , 4907.69230769 , 4126.15384615 , 4137.43589744 , 2048.0 , 2032.0 , 193.018 , 0.0 , 0.0 , 0.0 , 0.0 , 

118.0 , 4131.28205128 , 4125.64102564 , 4127.69230769 , 4130.25641026 , 4127.17948718 , 4126.15384615 , 4127.17948718 , 4127.69230769 , 4130.25641026 , 4137.94871795 , 4187.69230769 , 4906.66666667 , 4131.79487179 , 4138.46153846 , 2048.0 , 2033.0 , 193.022 , 0.0 , 0.0 , 0.0 , 0.0 , 

119.0 , 4131.79487179 , 4128.71794872 , 4132.82051282 , 4126.15384615 , 4125.64102564 , 4126.15384615 , 4121.53846154 , 4126.15384615 , 4127.17948718 , 4137.43589744 , 4188.20512821 , 4907.17948718 , 4127.69230769 , 4136.41025641 , 2048.0 , 2035.0 , 193.029 , 0.0 , 0.0 , 0.0 , 0.0 , 

120.0 , 4126.66666667 , 4132.82051282 , 4129.74358974 , 4130.25641026 , 4129.23076923 , 4129.23076923 , 4125.12820513 , 4135.8974359 , 4133.33333333 , 4138.97435897 , 4190.25641026 , 4906.15384615 , 4131.28205128 , 4134.87179487 , 2048.0 , 2036.0 , 193.037 , 0.0 , 0.0 , 0.0 , 0.0 , 

121.0 , 4128.71794872 , 4127.69230769 , 4130.76923077 , 4128.71794872 , 4127.69230769 , 4126.15384615 , 4125.12820513 , 4121.02564103 , 4126.66666667 , 4135.8974359 , 4186.66666667 , 4909.23076923 , 4125.64102564 , 4138.46153846 , 2045.0 , 2037.0 , 193.048 , 0.0 , 0.0 , 0.0 , 0.0 , 

122.0 , 4130.76923077 , 4128.71794872 , 4131.28205128 , 4129.74358974 , 4126.66666667 , 4125.64102564 , 4128.71794872 , 4126.15384615 , 4128.71794872 , 4134.35897436 , 4187.69230769 , 4907.69230769 , 4128.71794872 , 4138.46153846 , 2047.0 , 2038.0 , 193.054 , 0.0 , 0.0 , 0.0 , 0.0 , 

123.0 , 4131.28205128 , 4126.15384615 , 4135.8974359 , 4125.12820513 , 4130.25641026 , 4122.56410256 , 4121.02564103 , 4122.05128205 , 4123.58974359 , 4134.35897436 , 4183.07692308 , 4909.23076923 , 4125.12820513 , 4136.92307692 , 2046.0 , 2037.0 , 193.06 , 0.0 , 0.0 , 0.0 , 0.0 , 

124.0 , 4127.17948718 , 4127.17948718 , 4127.69230769 , 4130.76923077 , 4126.66666667 , 4128.20512821 , 4126.15384615 , 4130.25641026 , 4133.84615385 , 4138.46153846 , 4185.64102564 , 4908.20512821 , 4133.33333333 , 4136.92307692 , 2047.0 , 2040.0 , 193.068 , 0.0 , 0.0 , 0.0 , 0.0 , 

125.0 , 4129.23076923 , 4124.61538462 , 4131.79487179 , 4126.66666667 , 4122.56410256 , 4123.07692308 , 4122.05128205 , 4121.02564103 , 4130.25641026 , 4136.92307692 , 4183.58974359 , 4910.25641026 , 4125.64102564 , 4138.97435897 , 2045.0 , 2039.0 , 193.079 , 0.0 , 0.0 , 0.0 , 0.0 , 

126.0 , 4129.74358974 , 4128.20512821 , 4132.82051282 , 4129.74358974 , 4127.69230769 , 4126.66666667 , 4126.15384615 , 4134.87179487 , 4133.84615385 , 4135.8974359 , 4185.64102564 , 4908.20512821 , 4133.84615385 , 4136.92307692 , 2045.0 , 2037.0 , 193.085 , 0.0 , 0.0 , 0.0 , 0.0 , 

127.0 , 4128.20512821 , 4123.07692308 , 4133.84615385 , 4127.69230769 , 4127.69230769 , 4128.71794872 , 4120.0 , 4132.30769231 , 4129.23076923 , 4133.84615385 , 4187.69230769 , 4909.23076923 , 4132.30769231 , 4137.43589744 , 2045.0 , 2036.0 , 193.092 , 0.0 , 0.0 , 0.0 , 0.0 , 

128.0 , 4126.66666667 , 4128.71794872 , 4129.23076923 , 4132.30769231 , 4122.56410256 , 4130.76923077 , 4123.58974359 , 4138.97435897 , 4134.35897436 , 4135.38461538 , 4192.30769231 , 4906.15384615 , 4133.33333333 , 4136.92307692 , 2044.0 , 2036.0 , 193.1 , 0.0 , 0.0 , 0.0 , 0.0 , 

0.0 , 4128.71794872 , 4128.71794872 , 4132.30769231 , 4124.61538462 , 4125.64102564 , 4125.64102564 , 4122.56410256 , 4132.82051282 , 4130.76923077 , 4135.38461538 , 4188.71794872 , 4908.20512821 , 4123.58974359 , 4134.87179487 , 2042.0 , 2036.0 , 193.11 , 0.0 , 0.0 , 0.0 , 0.0 , 

1.0 , 4128.71794872 , 4129.74358974 , 4128.20512821 , 4122.56410256 , 4129.74358974 , 4126.15384615 , 4127.17948718 , 4136.41025641 , 4131.79487179 , 4138.46153846 , 4188.71794872 , 4906.15384615 , 4128.20512821 , 4136.41025641 , 2043.0 , 2035.0 , 193.116 , 0.0 , 0.0 , 0.0 , 0.0 , 

2.0 , 4126.15384615 , 4124.61538462 , 4131.79487179 , 4125.64102564 , 4125.64102564 , 4121.53846154 , 4122.05128205 , 4131.28205128 , 4129.74358974 , 4140.0 , 4187.17948718 , 4907.17948718 , 4126.15384615 , 4137.43589744 , 2042.0 , 2036.0 , 193.124 , 0.0 , 0.0 , 0.0 , 0.0 , 

3.0 , 4126.66666667 , 4127.69230769 , 4133.33333333 , 4130.25641026 , 4126.66666667 , 4125.12820513 , 4123.58974359 , 4128.71794872 , 4130.76923077 , 4139.48717949 , 4187.69230769 , 4906.15384615 , 4125.12820513 , 4133.84615385 , 2043.0 , 2036.0 , 193.131 , 0.0 , 0.0 , 0.0 , 0.0 , 

4.0 , 4130.76923077 , 4127.69230769 , 4129.23076923 , 4125.64102564 , 4129.23076923 , 4128.20512821 , 4123.58974359 , 4122.56410256 , 4130.25641026 , 4136.41025641 , 4187.69230769 , 4906.15384615 , 4126.66666667 , 4132.82051282 , 2042.0 , 2036.0 , 193.145 , 0.0 , 0.0 , 0.0 , 0.0 , 

5.0 , 4133.33333333 , 4127.69230769 , 4129.23076923 , 4126.15384615 , 4130.76923077 , 4128.71794872 , 4124.61538462 , 4120.51282051 , 4128.20512821 , 4135.8974359 , 4187.17948718 , 4907.69230769 , 4129.74358974 , 4136.41025641 , 2044.0 , 2035.0 , 193.148 , 0.0 , 0.0 , 0.0 , 0.0 , 

6.0 , 4129.23076923 , 4127.69230769 , 4131.28205128 , 4130.76923077 , 4127.69230769 , 4129.23076923 , 4125.64102564 , 4130.25641026 , 4132.30769231 , 4138.46153846 , 4187.69230769 , 4907.69230769 , 4131.79487179 , 4138.97435897 , 2043.0 , 2036.0 , 193.155 , 0.0 , 0.0 , 0.0 , 0.0 , 

7.0 , 4128.71794872 , 4126.15384615 , 4130.25641026 , 4129.74358974 , 4127.17948718 , 4129.23076923 , 4123.58974359 , 4131.28205128 , 4130.25641026 , 4138.46153846 , 4187.17948718 , 4904.61538462 , 4128.20512821 , 4137.94871795 , 2044.0 , 2034.0 , 193.163 , 0.0 , 0.0 , 0.0 , 0.0 , 

8.0 , 4128.20512821 , 4125.64102564 , 4128.71794872 , 4132.82051282 , 4128.71794872 , 4128.20512821 , 4123.58974359 , 4134.87179487 , 4133.33333333 , 4137.43589744 , 4187.17948718 , 4905.64102564 , 4134.35897436 , 4136.41025641 , 2044.0 , 2035.0 , 193.174 , 0.0 , 0.0 , 0.0 , 0.0 , 

9.0 , 4129.23076923 , 4128.20512821 , 4131.79487179 , 4131.79487179 , 4128.71794872 , 4124.61538462 , 4122.05128205 , 4126.15384615 , 4130.25641026 , 4134.87179487 , 4184.1025641 , 4910.76923077 , 4127.69230769 , 4137.94871795 , 2045.0 , 2035.0 , 193.179 , 0.0 , 0.0 , 0.0 , 0.0 , 

10.0 , 4126.15384615 , 4130.76923077 , 4125.64102564 , 4131.28205128 , 4125.64102564 , 4128.71794872 , 4129.23076923 , 4130.25641026 , 4134.87179487 , 4135.8974359 , 4190.25641026 , 4907.17948718 , 4128.71794872 , 4137.43589744 , 2046.0 , 2034.0 , 193.186 , 0.0 , 0.0 , 0.0 , 0.0 , 

11.0 , 4128.20512821 , 4124.1025641 , 4129.23076923 , 4126.15384615 , 4126.15384615 , 4124.61538462 , 4121.53846154 , 4120.51282051 , 4124.61538462 , 4134.87179487 , 4191.79487179 , 4905.12820513 , 4125.64102564 , 4136.92307692 , 2044.0 , 2036.0 , 193.195 , 0.0 , 0.0 , 0.0 , 0.0 , 

12.0 , 4127.69230769 , 4128.71794872 , 4128.20512821 , 4131.28205128 , 4127.17948718 , 4124.61538462 , 4121.53846154 , 4129.74358974 , 4130.25641026 , 4135.38461538 , 4188.71794872 , 4905.64102564 , 4133.33333333 , 4137.94871795 , 2045.0 , 2034.0 , 193.204 , 0.0 , 0.0 , 0.0 , 0.0 , 

13.0 , 4129.23076923 , 4129.23076923 , 4129.74358974 , 4130.25641026 , 4127.17948718 , 4121.02564103 , 4118.97435897 , 4124.61538462 , 4127.17948718 , 4135.8974359 , 4182.56410256 , 4910.76923077 , 4125.12820513 , 4140.0 , 2046.0 , 2037.0 , 193.21 , 0.0 , 0.0 , 0.0 , 0.0 , 

14.0 , 4129.23076923 , 4127.69230769 , 4126.15384615 , 4133.84615385 , 4127.69230769 , 4127.17948718 , 4124.61538462 , 4134.35897436 , 4133.84615385 , 4138.46153846 , 4190.25641026 , 4907.69230769 , 4131.79487179 , 4138.97435897 , 2047.0 , 2036.0 , 193.219 , 0.0 , 0.0 , 0.0 , 0.0 , 

15.0 , 4129.23076923 , 4124.61538462 , 4131.79487179 , 4125.64102564 , 4129.23076923 , 4124.61538462 , 4121.02564103 , 4126.66666667 , 4128.71794872 , 4134.87179487 , 4187.69230769 , 4906.66666667 , 4127.69230769 , 4138.46153846 , 2046.0 , 2037.0 , 193.227 , 0.0 , 0.0 , 0.0 , 0.0 , 

16.0 , 4127.69230769 , 4131.28205128 , 4128.71794872 , 4128.71794872 , 4128.20512821 , 4126.66666667 , 4127.17948718 , 4132.30769231 , 4133.84615385 , 4135.38461538 , 4187.17948718 , 4905.64102564 , 4133.84615385 , 4138.46153846 , 2047.0 , 2036.0 , 193.237 , 0.0 , 0.0 , 0.0 , 0.0 , 

17.0 , 4129.23076923 , 4125.64102564 , 4131.79487179 , 4128.71794872 , 4125.12820513 , 4124.61538462 , 4122.05128205 , 4124.1025641 , 4132.30769231 , 4135.8974359 , 4188.20512821 , 4909.74358974 , 4129.74358974 , 4137.94871795 , 2047.0 , 2035.0 , 193.241 , 0.0 , 0.0 , 0.0 , 0.0 , 

18.0 , 4128.20512821 , 4127.17948718 , 4129.23076923 , 4130.76923077 , 4127.69230769 , 4129.23076923 , 4127.17948718 , 4133.33333333 , 4135.8974359 , 4136.92307692 , 4190.76923077 , 4906.66666667 , 4132.30769231 , 4135.8974359 , 2048.0 , 2034.0 , 193.25 , 0.0 , 0.0 , 0.0 , 0.0 , 

19.0 , 4127.17948718 , 4129.23076923 , 4128.20512821 , 4127.17948718 , 4130.25641026 , 4127.17948718 , 4126.66666667 , 4127.17948718 , 4130.25641026 , 4134.35897436 , 4186.15384615 , 4906.15384615 , 4125.64102564 , 4135.38461538 , 2048.0 , 2035.0 , 193.257 , 0.0 , 0.0 , 0.0 , 0.0 , 

20.0 , 4130.25641026 , 4133.84615385 , 4127.69230769 , 4131.28205128 , 4129.23076923 , 4128.20512821 , 4127.69230769 , 4123.07692308 , 4133.33333333 , 4134.35897436 , 4187.69230769 , 4907.17948718 , 4128.71794872 , 4135.8974359 , 2048.0 , 2034.0 , 193.27 , 0.0 , 0.0 , 0.0 , 0.0 , 

21.0 , 4130.76923077 , 4126.15384615 , 4134.87179487 , 4128.20512821 , 4125.64102564 , 4126.66666667 , 4121.02564103 , 4122.05128205 , 4134.87179487 , 4135.38461538 , 4186.15384615 , 4910.76923077 , 4129.23076923 , 4135.8974359 , 2047.0 , 2034.0 , 193.274 , 0.0 , 0.0 , 0.0 , 0.0 , 

22.0 , 4130.25641026 , 4123.07692308 , 4130.25641026 , 4126.66666667 , 4128.20512821 , 4126.66666667 , 4120.0 , 4129.23076923 , 4130.25641026 , 4136.41025641 , 4187.17948718 , 4908.71794872 , 4129.23076923 , 4136.41025641 , 2045.0 , 2031.0 , 193.281 , 0.0 , 0.0 , 0.0 , 0.0 , 

23.0 , 4128.71794872 , 4123.58974359 , 4124.61538462 , 4126.66666667 , 4129.23076923 , 4124.61538462 , 4120.0 , 4127.69230769 , 4128.20512821 , 4135.8974359 , 4187.17948718 , 4908.20512821 , 4128.20512821 , 4139.48717949 , 2046.0 , 2032.0 , 193.29 , 0.0 , 0.0 , 0.0 , 0.0 , 

24.0 , 4126.15384615 , 4125.64102564 , 4128.71794872 , 4127.69230769 , 4126.15384615 , 4125.64102564 , 4124.1025641 , 4124.1025641 , 4129.23076923 , 4137.94871795 , 4186.66666667 , 4909.74358974 , 4127.69230769 , 4140.0 , 2044.0 , 2033.0 , 193.302 , 0.0 , 0.0 , 0.0 , 0.0 , 

25.0 , 4124.1025641 , 4125.64102564 , 4129.23076923 , 4130.25641026 , 4125.64102564 , 4128.20512821 , 4126.15384615 , 4132.82051282 , 4132.82051282 , 4136.41025641 , 4189.23076923 , 4907.69230769 , 4131.79487179 , 4136.92307692 , 2044.0 , 2034.0 , 193.305 , 0.0 , 0.0 , 0.0 , 0.0 , 

26.0 , 4128.71794872 , 4125.64102564 , 4128.20512821 , 4130.25641026 , 4129.23076923 , 4128.71794872 , 4122.05128205 , 4127.69230769 , 4127.69230769 , 4133.33333333 , 4189.23076923 , 4908.71794872 , 4130.25641026 , 4137.43589744 , 2043.0 , 2034.0 , 193.312 , 0.0 , 0.0 , 0.0 , 0.0 , 

27.0 , 4127.17948718 , 4129.23076923 , 4127.69230769 , 4130.76923077 , 4130.25641026 , 4129.23076923 , 4124.61538462 , 4130.76923077 , 4134.87179487 , 4138.97435897 , 4189.23076923 , 4911.28205128 , 4132.82051282 , 4139.48717949 , 2043.0 , 2034.0 , 193.321 , 0.0 , 0.0 , 0.0 , 0.0 , 

28.0 , 4129.74358974 , 4128.20512821 , 4133.84615385 , 4127.17948718 , 4128.20512821 , 4125.64102564 , 4122.56410256 , 4126.66666667 , 4129.74358974 , 4138.97435897 , 4187.69230769 , 4910.76923077 , 4127.17948718 , 4137.94871795 , 2043.0 , 2035.0 , 193.332 , 0.0 , 0.0 , 0.0 , 0.0 , 

29.0 , 4129.74358974 , 4128.20512821 , 4131.79487179 , 4130.25641026 , 4126.66666667 , 4130.25641026 , 4127.69230769 , 4132.82051282 , 4130.25641026 , 4136.41025641 , 4189.74358974 , 4907.17948718 , 4133.33333333 , 4133.33333333 , 2043.0 , 2035.0 , 193.336 , 0.0 , 0.0 , 0.0 , 0.0 , 

30.0 , 4129.74358974 , 4125.12820513 , 4135.38461538 , 4125.64102564 , 4128.20512821 , 4129.23076923 , 4125.64102564 , 4119.48717949 , 4124.61538462 , 4140.0 , 4185.64102564 , 4912.82051282 , 4125.12820513 , 4134.87179487 , 2043.0 , 2036.0 , 193.344 , 0.0 , 0.0 , 0.0 , 0.0 , 

31.0 , 4130.25641026 , 4129.23076923 , 4129.23076923 , 4129.23076923 , 4127.69230769 , 4126.15384615 , 4128.20512821 , 4129.23076923 , 4132.82051282 , 4142.56410256 , 4188.20512821 , 4910.25641026 , 4127.17948718 , 4137.94871795 , 2044.0 , 2035.0 , 193.353 , 0.0 , 0.0 , 0.0 , 0.0 , 

32.0 , 4133.84615385 , 4127.69230769 , 4131.28205128 , 4126.15384615 , 4125.12820513 , 4117.94871795 , 4120.51282051 , 4123.07692308 , 4124.61538462 , 4133.33333333 , 4185.12820513 , 4907.17948718 , 4123.07692308 , 4138.97435897 , 2043.0 , 2033.0 , 193.364 , 0.0 , 0.0 , 0.0 , 0.0 , 

33.0 , 4129.23076923 , 4128.71794872 , 4129.23076923 , 4128.71794872 , 4126.66666667 , 4124.61538462 , 4127.17948718 , 4130.76923077 , 4132.82051282 , 4134.87179487 , 4188.20512821 , 4906.15384615 , 4133.33333333 , 4136.92307692 , 2044.0 , 2033.0 , 193.369 , 0.0 , 0.0 , 0.0 , 0.0 , 

34.0 , 4127.17948718 , 4122.56410256 , 4132.30769231 , 4125.12820513 , 4129.74358974 , 4123.58974359 , 4121.02564103 , 4125.64102564 , 4134.35897436 , 4139.48717949 , 4188.20512821 , 4910.25641026 , 4130.25641026 , 4137.94871795 , 2043.0 , 2031.0 , 193.375 , 0.0 , 0.0 , 0.0 , 0.0 , 

35.0 , 4127.69230769 , 4126.15384615 , 4129.74358974 , 4131.28205128 , 4129.23076923 , 4127.17948718 , 4124.1025641 , 4134.35897436 , 4135.8974359 , 4139.48717949 , 4191.79487179 , 4905.64102564 , 4135.8974359 , 4136.92307692 , 2043.0 , 2032.0 , 193.383 , 0.0 , 0.0 , 0.0 , 0.0 , 

36.0 , 4126.66666667 , 4124.61538462 , 4132.82051282 , 4128.20512821 , 4126.66666667 , 4127.17948718 , 4123.58974359 , 4126.66666667 , 4129.23076923 , 4137.94871795 , 4189.23076923 , 4906.66666667 , 4130.25641026 , 4134.35897436 , 2044.0 , 2031.0 , 193.394 , 0.0 , 0.0 , 0.0 , 0.0 , 

37.0 , 4128.71794872 , 4129.23076923 , 4128.20512821 , 4130.76923077 , 4126.66666667 , 4131.28205128 , 4126.66666667 , 4132.82051282 , 4132.82051282 , 4140.0 , 4192.82051282 , 4905.64102564 , 4134.35897436 , 4137.43589744 , 2044.0 , 2032.0 , 193.399 , 0.0 , 0.0 , 0.0 , 0.0 , 

38.0 , 4131.28205128 , 4128.20512821 , 4128.71794872 , 4128.71794872 , 4127.17948718 , 4127.17948718 , 4121.53846154 , 4128.71794872 , 4128.20512821 , 4139.48717949 , 4189.74358974 , 4907.69230769 , 4132.82051282 , 4140.51282051 , 2042.0 , 2032.0 , 193.407 , 0.0 , 0.0 , 0.0 , 0.0 , 

39.0 , 4129.74358974 , 4128.71794872 , 4128.20512821 , 4130.76923077 , 4129.23076923 , 4124.1025641 , 4124.61538462 , 4126.15384615 , 4129.23076923 , 4139.48717949 , 4187.69230769 , 4908.71794872 , 4131.79487179 , 4136.92307692 , 2044.0 , 2033.0 , 193.415 , 0.0 , 0.0 , 0.0 , 0.0 , 

40.0 , 4127.69230769 , 4124.61538462 , 4130.25641026 , 4126.66666667 , 4130.76923077 , 4120.51282051 , 4120.0 , 4124.61538462 , 4131.28205128 , 4136.41025641 , 4186.66666667 , 4910.76923077 , 4127.69230769 , 4134.35897436 , 2043.0 , 2035.0 , 193.428 , 0.0 , 0.0 , 0.0 , 0.0 , 

41.0 , 4128.71794872 , 4127.17948718 , 4132.82051282 , 4125.64102564 , 4130.76923077 , 4123.58974359 , 4117.43589744 , 4130.25641026 , 4129.74358974 , 4133.33333333 , 4188.20512821 , 4909.23076923 , 4127.69230769 , 4137.43589744 , 2044.0 , 2034.0 , 193.432 , 0.0 , 0.0 , 0.0 , 0.0 , 

42.0 , 4126.15384615 , 4127.69230769 , 4134.35897436 , 4127.69230769 , 4128.71794872 , 4125.64102564 , 4123.58974359 , 4130.76923077 , 4133.33333333 , 4133.33333333 , 4187.17948718 , 4907.69230769 , 4128.20512821 , 4136.92307692 , 2044.0 , 2035.0 , 193.438 , 0.0 , 0.0 , 0.0 , 0.0 , 

43.0 , 4127.69230769 , 4126.66666667 , 4132.82051282 , 4128.71794872 , 4128.71794872 , 4125.12820513 , 4125.64102564 , 4125.64102564 , 4132.30769231 , 4136.41025641 , 4187.17948718 , 4908.20512821 , 4127.69230769 , 4135.8974359 , 2044.0 , 2037.0 , 193.446 , 0.0 , 0.0 , 0.0 , 0.0 , 

44.0 , 4126.66666667 , 4126.15384615 , 4129.23076923 , 4130.25641026 , 4128.71794872 , 4127.17948718 , 4121.53846154 , 4131.79487179 , 4131.28205128 , 4137.94871795 , 4188.71794872 , 4906.15384615 , 4134.87179487 , 4137.43589744 , 2044.0 , 2036.0 , 193.457 , 0.0 , 0.0 , 0.0 , 0.0 , 

45.0 , 4126.66666667 , 4124.1025641 , 4130.76923077 , 4126.66666667 , 4128.71794872 , 4126.15384615 , 4118.46153846 , 4128.20512821 , 4127.17948718 , 4136.92307692 , 4188.71794872 , 4905.64102564 , 4130.25641026 , 4137.94871795 , 2045.0 , 2036.0 , 193.462 , 0.0 , 0.0 , 0.0 , 0.0 , 

46.0 , 4126.15384615 , 4127.69230769 , 4126.66666667 , 4129.74358974 , 4126.66666667 , 4128.20512821 , 4122.05128205 , 4134.35897436 , 4134.35897436 , 4137.94871795 , 4191.79487179 , 4905.12820513 , 4132.82051282 , 4137.43589744 , 2045.0 , 2036.0 , 193.471 , 0.0 , 0.0 , 0.0 , 0.0 , 

47.0 , 4129.23076923 , 4130.25641026 , 4131.28205128 , 4131.28205128 , 4126.15384615 , 4124.1025641 , 4118.97435897 , 4124.61538462 , 4126.15384615 , 4137.43589744 , 4187.69230769 , 4908.71794872 , 4129.74358974 , 4138.97435897 , 2045.0 , 2036.0 , 193.478 , 0.0 , 0.0 , 0.0 , 0.0 , 

48.0 , 4126.66666667 , 4129.74358974 , 4129.74358974 , 4130.76923077 , 4125.12820513 , 4123.58974359 , 4124.61538462 , 4127.69230769 , 4128.71794872 , 4140.51282051 , 4187.69230769 , 4906.66666667 , 4136.92307692 , 4137.43589744 , 2046.0 , 2039.0 , 193.491 , 0.0 , 0.0 , 0.0 , 0.0 , 

49.0 , 4127.17948718 , 4120.0 , 4133.84615385 , 4120.51282051 , 4125.64102564 , 4122.56410256 , 4117.43589744 , 4121.02564103 , 4124.61538462 , 4140.51282051 , 4186.66666667 , 4908.71794872 , 4126.66666667 , 4137.43589744 , 2046.0 , 2038.0 , 193.494 , 0.0 , 0.0 , 0.0 , 0.0 , 

50.0 , 4127.69230769 , 4125.12820513 , 4129.74358974 , 4128.71794872 , 4128.71794872 , 4128.20512821 , 4118.46153846 , 4132.82051282 , 4131.28205128 , 4138.46153846 , 4188.71794872 , 4907.17948718 , 4129.74358974 , 4136.41025641 , 2047.0 , 2036.0 , 193.502 , 0.0 , 0.0 , 0.0 , 0.0 , 

51.0 , 4130.25641026 , 4126.15384615 , 4132.30769231 , 4132.30769231 , 4129.23076923 , 4123.07692308 , 4116.92307692 , 4124.1025641 , 4125.64102564 , 4136.41025641 , 4185.12820513 , 4910.25641026 , 4124.1025641 , 4136.41025641 , 2046.0 , 2037.0 , 193.509 , 0.0 , 0.0 , 0.0 , 0.0 , 

52.0 , 4130.25641026 , 4130.76923077 , 4128.71794872 , 4135.38461538 , 4127.17948718 , 4128.20512821 , 4125.64102564 , 4130.76923077 , 4130.25641026 , 4139.48717949 , 4189.74358974 , 4909.23076923 , 4132.30769231 , 4135.38461538 , 2046.0 , 2036.0 , 193.522 , 0.0 , 0.0 , 0.0 , 0.0 , 

53.0 , 4131.79487179 , 4129.74358974 , 4132.30769231 , 4128.71794872 , 4127.69230769 , 4127.69230769 , 4119.48717949 , 4123.07692308 , 4127.69230769 , 4136.92307692 , 4186.66666667 , 4912.30769231 , 4127.17948718 , 4136.92307692 , 2045.0 , 2037.0 , 193.525 , 0.0 , 0.0 , 0.0 , 0.0 , 

54.0 , 4132.30769231 , 4132.82051282 , 4126.15384615 , 4131.28205128 , 4128.20512821 , 4128.20512821 , 4122.05128205 , 4128.71794872 , 4132.82051282 , 4137.43589744 , 4187.69230769 , 4908.71794872 , 4134.35897436 , 4136.41025641 , 2044.0 , 2037.0 , 193.533 , 0.0 , 0.0 , 0.0 , 0.0 , 

55.0 , 4131.28205128 , 4127.69230769 , 4126.66666667 , 4129.23076923 , 4125.64102564 , 4124.61538462 , 4119.48717949 , 4126.15384615 , 4125.12820513 , 4138.46153846 , 4186.15384615 , 4909.23076923 , 4133.84615385 , 4137.43589744 , 2045.0 , 2034.0 , 193.541 , 0.0 , 0.0 , 0.0 , 0.0 , 

56.0 , 4130.76923077 , 4129.74358974 , 4127.69230769 , 4133.84615385 , 4126.15384615 , 4128.71794872 , 4126.15384615 , 4133.33333333 , 4127.17948718 , 4135.8974359 , 4189.74358974 , 4907.17948718 , 4132.30769231 , 4138.46153846 , 2043.0 , 2034.0 , 193.554 , 0.0 , 0.0 , 0.0 , 0.0 , 

57.0 , 4131.28205128 , 4127.69230769 , 4130.76923077 , 4130.76923077 , 4126.66666667 , 4126.66666667 , 4126.66666667 , 4125.64102564 , 4128.71794872 , 4133.84615385 , 4189.74358974 , 4909.23076923 , 4126.66666667 , 4137.94871795 , 2045.0 , 2034.0 , 193.557 , 0.0 , 0.0 , 0.0 , 0.0 , 

58.0 , 4131.79487179 , 4129.74358974 , 4130.25641026 , 4129.23076923 , 4128.71794872 , 4128.71794872 , 4128.71794872 , 4123.58974359 , 4131.28205128 , 4138.46153846 , 4190.76923077 , 4908.71794872 , 4131.28205128 , 4136.92307692 , 2043.0 , 2035.0 , 193.565 , 0.0 , 0.0 , 0.0 , 0.0 , 

59.0 , 4130.76923077 , 4126.15384615 , 4132.82051282 , 4126.66666667 , 4130.25641026 , 4127.69230769 , 4125.12820513 , 4126.66666667 , 4130.76923077 , 4136.41025641 , 4185.12820513 , 4910.25641026 , 4126.66666667 , 4136.41025641 , 2043.0 , 2035.0 , 193.572 , 0.0 , 0.0 , 0.0 , 0.0 , 

60.0 , 4130.76923077 , 4124.1025641 , 4130.25641026 , 4127.17948718 , 4130.76923077 , 4125.12820513 , 4123.07692308 , 4128.71794872 , 4126.15384615 , 4133.84615385 , 4183.58974359 , 4909.74358974 , 4122.56410256 , 4136.92307692 , 2042.0 , 2033.0 , 193.586 , 0.0 , 0.0 , 0.0 , 0.0 , 

61.0 , 4127.17948718 , 4126.66666667 , 4127.69230769 , 4131.79487179 , 4128.71794872 , 4127.69230769 , 4123.07692308 , 4127.69230769 , 4129.23076923 , 4139.48717949 , 4188.71794872 , 4909.74358974 , 4130.76923077 , 4135.8974359 , 2043.0 , 2031.0 , 193.589 , 0.0 , 0.0 , 0.0 , 0.0 , 

62.0 , 4127.17948718 , 4128.71794872 , 4130.76923077 , 4132.82051282 , 4128.71794872 , 4129.74358974 , 4120.51282051 , 4123.07692308 , 4130.25641026 , 4140.51282051 , 4190.76923077 , 4909.74358974 , 4131.28205128 , 4135.8974359 , 2043.0 , 2030.0 , 193.596 , 0.0 , 0.0 , 0.0 , 0.0 , 

63.0 , 4127.69230769 , 4127.69230769 , 4128.71794872 , 4128.20512821 , 4128.71794872 , 4128.20512821 , 4120.0 , 4132.82051282 , 4134.35897436 , 4134.87179487 , 4189.23076923 , 4908.20512821 , 4131.28205128 , 4136.92307692 , 2043.0 , 2030.0 , 193.604 , 0.0 , 0.0 , 0.0 , 0.0 , 

64.0 , 4129.74358974 , 4127.17948718 , 4129.74358974 , 4123.07692308 , 4129.74358974 , 4125.12820513 , 4117.94871795 , 4128.71794872 , 4128.71794872 , 4134.87179487 , 4188.20512821 , 4908.20512821 , 4129.23076923 , 4137.94871795 , 2045.0 , 2033.0 , 193.618 , 0.0 , 0.0 , 0.0 , 0.0 , 

65.0 , 4126.66666667 , 4129.74358974 , 4129.23076923 , 4131.79487179 , 4129.74358974 , 4128.71794872 , 4123.58974359 , 4131.79487179 , 4134.35897436 , 4137.94871795 , 4193.33333333 , 4907.69230769 , 4134.35897436 , 4137.43589744 , 2044.0 , 2034.0 , 193.621 , 0.0 , 0.0 , 0.0 , 0.0 , 

66.0 , 4129.74358974 , 4125.12820513 , 4133.84615385 , 4130.25641026 , 4129.74358974 , 4125.64102564 , 4121.02564103 , 4123.07692308 , 4127.17948718 , 4133.84615385 , 4186.66666667 , 4911.79487179 , 4124.61538462 , 4138.46153846 , 2042.0 , 2034.0 , 193.628 , 0.0 , 0.0 , 0.0 , 0.0 , 

67.0 , 4130.76923077 , 4127.69230769 , 4130.76923077 , 4128.71794872 , 4129.74358974 , 4128.20512821 , 4124.61538462 , 4131.79487179 , 4132.82051282 , 4135.8974359 , 4186.66666667 , 4909.23076923 , 4130.25641026 , 4137.94871795 , 2042.0 , 2035.0 , 193.636 , 0.0 , 0.0 , 0.0 , 0.0 , 

68.0 , 4130.25641026 , 4126.66666667 , 4133.84615385 , 4127.69230769 , 4129.74358974 , 4127.17948718 , 4118.46153846 , 4123.58974359 , 4129.23076923 , 4140.0 , 4187.17948718 , 4907.69230769 , 4125.12820513 , 4137.94871795 , 2042.0 , 2035.0 , 193.646 , 0.0 , 0.0 , 0.0 , 0.0 , 

69.0 , 4127.69230769 , 4129.23076923 , 4128.20512821 , 4134.35897436 , 4129.23076923 , 4131.28205128 , 4122.05128205 , 4133.33333333 , 4132.82051282 , 4140.51282051 , 4190.76923077 , 4906.66666667 , 4130.25641026 , 4136.92307692 , 2042.0 , 2036.0 , 193.653 , 0.0 , 0.0 , 0.0 , 0.0 , 

70.0 , 4130.25641026 , 4126.66666667 , 4130.25641026 , 4127.17948718 , 4129.74358974 , 4126.66666667 , 4118.97435897 , 4126.66666667 , 4125.12820513 , 4139.48717949 , 4186.15384615 , 4911.28205128 , 4125.12820513 , 4136.92307692 , 2043.0 , 2037.0 , 193.659 , 0.0 , 0.0 , 0.0 , 0.0 , 

71.0 , 4130.25641026 , 4129.23076923 , 4130.25641026 , 4132.30769231 , 4130.25641026 , 4127.17948718 , 4123.58974359 , 4136.92307692 , 4132.82051282 , 4142.56410256 , 4188.71794872 , 4907.69230769 , 4131.79487179 , 4137.43589744 , 2044.0 , 2036.0 , 193.668 , 0.0 , 0.0 , 0.0 , 0.0 , 

72.0 , 4128.20512821 , 4123.07692308 , 4132.30769231 , 4132.30769231 , 4126.66666667 , 4123.07692308 , 4117.94871795 , 4130.76923077 , 4131.28205128 , 4138.46153846 , 4187.17948718 , 4909.23076923 , 4125.12820513 , 4137.43589744 , 2043.0 , 2034.0 , 193.677 , 0.0 , 0.0 , 0.0 , 0.0 , 

73.0 , 4127.69230769 , 4126.66666667 , 4124.1025641 , 4132.30769231 , 4127.17948718 , 4128.71794872 , 4125.64102564 , 4134.35897436 , 4134.35897436 , 4139.48717949 , 4187.69230769 , 4909.23076923 , 4131.28205128 , 4135.38461538 , 2043.0 , 2034.0 , 193.685 , 0.0 , 0.0 , 0.0 , 0.0 , 

74.0 , 4128.71794872 , 4124.1025641 , 4127.17948718 , 4126.15384615 , 4130.25641026 , 4128.20512821 , 4123.07692308 , 4128.20512821 , 4130.25641026 , 4141.53846154 , 4185.64102564 , 4910.25641026 , 4131.28205128 , 4135.8974359 , 2042.0 , 2033.0 , 193.691 , 0.0 , 0.0 , 0.0 , 0.0 , 

75.0 , 4128.71794872 , 4127.17948718 , 4129.23076923 , 4130.25641026 , 4131.28205128 , 4127.69230769 , 4123.07692308 , 4131.28205128 , 4132.82051282 , 4138.46153846 , 4187.69230769 , 4908.71794872 , 4134.35897436 , 4137.43589744 , 2042.0 , 2031.0 , 193.699 , 0.0 , 0.0 , 0.0 , 0.0 , 

76.0 , 4128.20512821 , 4128.20512821 , 4131.79487179 , 4128.20512821 , 4129.74358974 , 4126.66666667 , 4123.07692308 , 4124.61538462 , 4129.74358974 , 4135.8974359 , 4184.61538462 , 4910.25641026 , 4127.17948718 , 4135.38461538 , 2042.0 , 2030.0 , 193.711 , 0.0 , 0.0 , 0.0 , 0.0 , 

77.0 , 4129.23076923 , 4129.23076923 , 4130.25641026 , 4128.20512821 , 4128.71794872 , 4128.71794872 , 4124.61538462 , 4125.64102564 , 4128.20512821 , 4138.46153846 , 4185.64102564 , 4908.71794872 , 4124.61538462 , 4135.8974359 , 2041.0 , 2029.0 , 193.715 , 0.0 , 0.0 , 0.0 , 0.0 , 

78.0 , 4127.17948718 , 4126.15384615 , 4130.76923077 , 4129.23076923 , 4125.12820513 , 4123.58974359 , 4116.92307692 , 4130.76923077 , 4130.25641026 , 4136.41025641 , 4188.71794872 , 4910.25641026 , 4129.23076923 , 4138.46153846 , 2042.0 , 2028.0 , 193.722 , 0.0 , 0.0 , 0.0 , 0.0 , 

79.0 , 4127.69230769 , 4127.69230769 , 4131.28205128 , 4128.20512821 , 4126.66666667 , 4123.07692308 , 4116.41025641 , 4128.71794872 , 4128.71794872 , 4136.92307692 , 4188.71794872 , 4908.71794872 , 4129.23076923 , 4138.97435897 , 2042.0 , 2028.0 , 193.73 , 0.0 , 0.0 , 0.0 , 0.0 , 

80.0 , 4127.69230769 , 4128.20512821 , 4132.30769231 , 4128.20512821 , 4131.28205128 , 4126.66666667 , 4123.58974359 , 4129.74358974 , 4131.28205128 , 4141.53846154 , 4187.17948718 , 4905.64102564 , 4129.74358974 , 4137.94871795 , 2042.0 , 2030.0 , 193.741 , 0.0 , 0.0 , 0.0 , 0.0 , 

81.0 , 4129.23076923 , 4128.20512821 , 4133.84615385 , 4128.71794872 , 4132.82051282 , 4126.15384615 , 4123.58974359 , 4127.17948718 , 4128.71794872 , 4137.43589744 , 4187.17948718 , 4906.66666667 , 4126.15384615 , 4137.43589744 , 2042.0 , 2028.0 , 193.746 , 0.0 , 0.0 , 0.0 , 0.0 , 

82.0 , 4127.69230769 , 4129.74358974 , 4128.71794872 , 4131.28205128 , 4131.28205128 , 4128.20512821 , 4123.58974359 , 4133.84615385 , 4132.30769231 , 4133.33333333 , 4189.74358974 , 4907.69230769 , 4131.79487179 , 4135.8974359 , 2042.0 , 2032.0 , 193.755 , 0.0 , 0.0 , 0.0 , 0.0 , 

83.0 , 4131.28205128 , 4127.17948718 , 4129.74358974 , 4129.23076923 , 4130.25641026 , 4125.64102564 , 4120.51282051 , 4125.12820513 , 4129.23076923 , 4136.41025641 , 4187.69230769 , 4909.74358974 , 4127.69230769 , 4138.46153846 , 2043.0 , 2031.0 , 193.762 , 0.0 , 0.0 , 0.0 , 0.0 , 

84.0 , 4130.25641026 , 4127.69230769 , 4130.76923077 , 4132.82051282 , 4127.17948718 , 4125.64102564 , 4124.1025641 , 4129.23076923 , 4136.92307692 , 4138.97435897 , 4189.74358974 , 4908.71794872 , 4131.28205128 , 4138.46153846 , 2044.0 , 2032.0 , 193.773 , 0.0 , 0.0 , 0.0 , 0.0 , 

85.0 , 4129.74358974 , 4126.66666667 , 4133.84615385 , 4126.15384615 , 4128.71794872 , 4121.02564103 , 4119.48717949 , 4118.97435897 , 4129.74358974 , 4134.87179487 , 4185.12820513 , 4908.20512821 , 4125.12820513 , 4136.41025641 , 2044.0 , 2036.0 , 193.778 , 0.0 , 0.0 , 0.0 , 0.0 , 

86.0 , 4129.23076923 , 4129.23076923 , 4125.64102564 , 4129.74358974 , 4126.66666667 , 4123.07692308 , 4124.61538462 , 4129.74358974 , 4132.30769231 , 4137.94871795 , 4185.64102564 , 4905.12820513 , 4132.30769231 , 4136.41025641 , 2045.0 , 2036.0 , 193.785 , 0.0 , 0.0 , 0.0 , 0.0 , 

87.0 , 4130.25641026 , 4123.07692308 , 4129.74358974 , 4130.25641026 , 4123.58974359 , 4121.53846154 , 4118.97435897 , 4126.15384615 , 4124.1025641 , 4138.97435897 , 4185.64102564 , 4909.74358974 , 4129.23076923 , 4140.0 , 2045.0 , 2037.0 , 193.794 , 0.0 , 0.0 , 0.0 , 0.0 , 

88.0 , 4128.20512821 , 4127.17948718 , 4129.74358974 , 4133.84615385 , 4128.71794872 , 4127.69230769 , 4123.58974359 , 4130.76923077 , 4128.20512821 , 4138.97435897 , 4191.28205128 , 4908.20512821 , 4134.35897436 , 4140.51282051 , 2045.0 , 2036.0 , 193.809 , 0.0 , 0.0 , 0.0 , 0.0 , 

89.0 , 4129.74358974 , 4126.15384615 , 4132.30769231 , 4127.69230769 , 4132.30769231 , 4125.64102564 , 4118.97435897 , 4120.0 , 4126.15384615 , 4138.46153846 , 4186.66666667 , 4909.74358974 , 4127.69230769 , 4140.0 , 2045.0 , 2035.0 , 193.812 , 0.0 , 0.0 , 0.0 , 0.0 , 

90.0 , 4129.23076923 , 4129.74358974 , 4128.20512821 , 4133.84615385 , 4126.66666667 , 4129.74358974 , 4124.1025641 , 4132.82051282 , 4132.30769231 , 4140.0 , 4187.69230769 , 4906.15384615 , 4134.87179487 , 4137.94871795 , 2046.0 , 2034.0 , 193.818 , 0.0 , 0.0 , 0.0 , 0.0 , 

91.0 , 4129.23076923 , 4126.66666667 , 4132.82051282 , 4130.76923077 , 4125.12820513 , 4126.66666667 , 4121.53846154 , 4130.76923077 , 4128.20512821 , 4137.94871795 , 4186.66666667 , 4906.15384615 , 4129.23076923 , 4136.41025641 , 2046.0 , 2033.0 , 193.825 , 0.0 , 0.0 , 0.0 , 0.0 , 

92.0 , 4131.79487179 , 4130.76923077 , 4130.25641026 , 4132.82051282 , 4130.76923077 , 4127.17948718 , 4125.12820513 , 4132.82051282 , 4133.84615385 , 4141.02564103 , 4189.74358974 , 4905.12820513 , 4133.84615385 , 4135.8974359 , 2045.0 , 2033.0 , 193.837 , 0.0 , 0.0 , 0.0 , 0.0 , 

93.0 , 4131.79487179 , 4129.23076923 , 4130.25641026 , 4130.25641026 , 4129.74358974 , 4125.64102564 , 4118.97435897 , 4128.71794872 , 4130.76923077 , 4140.51282051 , 4188.71794872 , 4909.23076923 , 4132.30769231 , 4136.41025641 , 2044.0 , 2033.0 , 193.841 , 0.0 , 0.0 , 0.0 , 0.0 , 

94.0 , 4128.20512821 , 4128.20512821 , 4128.71794872 , 4129.74358974 , 4128.20512821 , 4127.17948718 , 4123.58974359 , 4134.87179487 , 4128.71794872 , 4138.46153846 , 4189.23076923 , 4907.69230769 , 4131.28205128 , 4136.41025641 , 2045.0 , 2033.0 , 193.848 , 0.0 , 0.0 , 0.0 , 0.0 , 

95.0 , 4126.66666667 , 4125.12820513 , 4131.28205128 , 4127.17948718 , 4128.20512821 , 4125.64102564 , 4126.66666667 , 4126.66666667 , 4129.23076923 , 4134.87179487 , 4186.15384615 , 4909.74358974 , 4128.20512821 , 4136.41025641 , 2045.0 , 2034.0 , 193.856 , 0.0 , 0.0 , 0.0 , 0.0 , 

96.0 , 4130.25641026 , 4130.25641026 , 4131.79487179 , 4129.74358974 , 4130.76923077 , 4127.69230769 , 4125.12820513 , 4121.53846154 , 4131.28205128 , 4138.46153846 , 4185.64102564 , 4909.23076923 , 4129.23076923 , 4135.8974359 , 2043.0 , 2032.0 , 193.869 , 0.0 , 0.0 , 0.0 , 0.0 , 

97.0 , 4130.25641026 , 4129.74358974 , 4131.28205128 , 4129.74358974 , 4128.20512821 , 4126.15384615 , 4118.46153846 , 4127.69230769 , 4130.25641026 , 4141.02564103 , 4186.15384615 , 4907.17948718 , 4129.23076923 , 4136.92307692 , 2044.0 , 2032.0 , 193.872 , 0.0 , 0.0 , 0.0 , 0.0 , 

98.0 , 4129.74358974 , 4127.69230769 , 4131.79487179 , 4130.76923077 , 4127.69230769 , 4122.56410256 , 4118.97435897 , 4126.15384615 , 4125.12820513 , 4139.48717949 , 4185.64102564 , 4907.69230769 , 4127.17948718 , 4136.92307692 , 2043.0 , 2033.0 , 193.88 , 0.0 , 0.0 , 0.0 , 0.0 , 

99.0 , 4129.23076923 , 4127.17948718 , 4131.28205128 , 4133.33333333 , 4128.71794872 , 4124.61538462 , 4125.64102564 , 4127.69230769 , 4132.30769231 , 4138.97435897 , 4186.15384615 , 4909.74358974 , 4130.76923077 , 4135.38461538 , 2041.0 , 2033.0 , 193.888 , 0.0 , 0.0 , 0.0 , 0.0 , 

100.0 , 4132.30769231 , 4124.1025641 , 4133.33333333 , 4128.71794872 , 4130.76923077 , 4125.64102564 , 4127.69230769 , 4129.23076923 , 4130.76923077 , 4141.53846154 , 4185.64102564 , 4909.23076923 , 4128.71794872 , 4136.92307692 , 2041.0 , 2032.0 , 193.9 , 0.0 , 0.0 , 0.0 , 0.0 , 

101.0 , 4128.20512821 , 4124.61538462 , 4129.23076923 , 4130.25641026 , 4128.71794872 , 4126.15384615 , 4129.23076923 , 4135.38461538 , 4130.76923077 , 4143.58974359 , 4188.71794872 , 4905.64102564 , 4135.8974359 , 4138.97435897 , 2041.0 , 2032.0 , 193.905 , 0.0 , 0.0 , 0.0 , 0.0 , 

102.0 , 4128.71794872 , 4128.71794872 , 4130.25641026 , 4131.28205128 , 4127.69230769 , 4123.58974359 , 4121.02564103 , 4120.0 , 4124.1025641 , 4139.48717949 , 4185.12820513 , 4909.74358974 , 4132.30769231 , 4139.48717949 , 2042.0 , 2032.0 , 193.911 , 0.0 , 0.0 , 0.0 , 0.0 , 

103.0 , 4130.76923077 , 4131.28205128 , 4127.69230769 , 4135.38461538 , 4128.71794872 , 4126.15384615 , 4124.1025641 , 4131.28205128 , 4132.82051282 , 4139.48717949 , 4184.61538462 , 4908.71794872 , 4133.84615385 , 4138.46153846 , 2040.0 , 2032.0 , 193.92 , 0.0 , 0.0 , 0.0 , 0.0 , 

104.0 , 4131.28205128 , 4121.02564103 , 4134.35897436 , 4128.71794872 , 4131.28205128 , 4122.05128205 , 4122.05128205 , 4129.74358974 , 4127.69230769 , 4140.0 , 4184.61538462 , 4907.17948718 , 4124.1025641 , 4138.97435897 , 2042.0 , 2032.0 , 193.931 , 0.0 , 0.0 , 0.0 , 0.0 , 

105.0 , 4127.17948718 , 4123.07692308 , 4132.82051282 , 4129.74358974 , 4132.82051282 , 4123.07692308 , 4126.66666667 , 4132.82051282 , 4134.35897436 , 4138.97435897 , 4189.23076923 , 4906.66666667 , 4129.74358974 , 4137.94871795 , 2042.0 , 2032.0 , 193.936 , 0.0 , 0.0 , 0.0 , 0.0 , 

106.0 , 4130.25641026 , 4122.05128205 , 4131.79487179 , 4125.12820513 , 4131.28205128 , 4118.46153846 , 4118.97435897 , 4122.05128205 , 4133.33333333 , 4137.43589744 , 4184.1025641 , 4912.30769231 , 4124.61538462 , 4138.97435897 , 2041.0 , 2032.0 , 193.943 , 0.0 , 0.0 , 0.0 , 0.0 , 

107.0 , 4131.28205128 , 4125.64102564 , 4124.1025641 , 4131.28205128 , 4127.69230769 , 4122.56410256 , 4123.07692308 , 4134.87179487 , 4135.38461538 , 4141.02564103 , 4187.69230769 , 4907.17948718 , 4135.38461538 , 4138.97435897 , 2041.0 , 2031.0 , 193.952 , 0.0 , 0.0 , 0.0 , 0.0 , 

108.0 , 4129.23076923 , 4125.64102564 , 4129.74358974 , 4129.23076923 , 4125.64102564 , 4123.07692308 , 4118.97435897 , 4124.61538462 , 4123.58974359 , 4140.0 , 4189.23076923 , 4905.12820513 , 4132.30769231 , 4137.43589744 , 2042.0 , 2032.0 , 193.963 , 0.0 , 0.0 , 0.0 , 0.0 , 

109.0 , 4127.17948718 , 4132.30769231 , 4132.30769231 , 4131.28205128 , 4128.20512821 , 4128.71794872 , 4123.58974359 , 4129.74358974 , 4131.28205128 , 4139.48717949 , 4191.28205128 , 4904.61538462 , 4132.30769231 , 4136.41025641 , 2043.0 , 2031.0 , 193.968 , 0.0 , 0.0 , 0.0 , 0.0 , 

110.0 , 4129.74358974 , 4128.20512821 , 4132.82051282 , 4128.71794872 , 4130.25641026 , 4123.58974359 , 4117.94871795 , 4126.15384615 , 4130.76923077 , 4137.43589744 , 4186.66666667 , 4907.69230769 , 4127.17948718 , 4137.94871795 , 2042.0 , 2032.0 , 193.974 , 0.0 , 0.0 , 0.0 , 0.0 , 

111.0 , 4130.25641026 , 4127.17948718 , 4127.17948718 , 4133.33333333 , 4129.23076923 , 4125.12820513 , 4122.56410256 , 4129.74358974 , 4131.28205128 , 4136.92307692 , 4188.71794872 , 4904.61538462 , 4134.35897436 , 4138.46153846 , 2043.0 , 2032.0 , 193.983 , 0.0 , 0.0 , 0.0 , 0.0 , 

112.0 , 4127.69230769 , 4123.07692308 , 4131.28205128 , 4126.15384615 , 4126.66666667 , 4127.17948718 , 4120.51282051 , 4126.66666667 , 4129.74358974 , 4138.46153846 , 4187.17948718 , 4907.69230769 , 4130.76923077 , 4137.94871795 , 2043.0 , 2031.0 , 193.995 , 0.0 , 0.0 , 0.0 , 0.0 , 

113.0 , 4126.66666667 , 4125.12820513 , 4130.76923077 , 4126.15384615 , 4129.74358974 , 4128.20512821 , 4120.0 , 4127.69230769 , 4130.76923077 , 4140.0 , 4186.15384615 , 4910.76923077 , 4130.25641026 , 4138.46153846 , 2044.0 , 2031.0 , 193.998 , 0.0 , 0.0 , 0.0 , 0.0 , 

114.0 , 4129.23076923 , 4123.07692308 , 4129.74358974 , 4130.25641026 , 4131.28205128 , 4123.58974359 , 4118.46153846 , 4124.61538462 , 4128.20512821 , 4136.41025641 , 4182.56410256 , 4910.76923077 , 4129.23076923 , 4138.46153846 , 2042.0 , 2030.0 , 194.006 , 0.0 , 0.0 , 0.0 , 0.0 , 

115.0 , 4132.82051282 , 4123.58974359 , 4129.74358974 , 4132.30769231 , 4127.69230769 , 4123.07692308 , 4120.51282051 , 4127.69230769 , 4126.66666667 , 4136.41025641 , 4183.07692308 , 4907.69230769 , 4127.69230769 , 4137.94871795 , 2043.0 , 2032.0 , 194.015 , 0.0 , 0.0 , 0.0 , 0.0 , 

116.0 , 4129.74358974 , 4125.12820513 , 4130.76923077 , 4129.74358974 , 4127.69230769 , 4122.56410256 , 4122.05128205 , 4131.79487179 , 4130.25641026 , 4140.51282051 , 4187.69230769 , 4908.71794872 , 4130.25641026 , 4137.43589744 , 2044.0 , 2033.0 , 194.025 , 0.0 , 0.0 , 0.0 , 0.0 , 

117.0 , 4128.71794872 , 4127.69230769 , 4130.76923077 , 4130.76923077 , 4133.33333333 , 4124.1025641 , 4123.07692308 , 4123.07692308 , 4130.25641026 , 4138.97435897 , 4189.74358974 , 4911.28205128 , 4130.25641026 , 4138.97435897 , 2043.0 , 2033.0 , 194.03 , 0.0 , 0.0 , 0.0 , 0.0 , 

118.0 , 4129.23076923 , 4128.71794872 , 4127.17948718 , 4134.87179487 , 4129.74358974 , 4128.20512821 , 4124.61538462 , 4130.25641026 , 4137.43589744 , 4135.8974359 , 4190.25641026 , 4909.23076923 , 4132.30769231 , 4136.92307692 , 2044.0 , 2032.0 , 194.037 , 0.0 , 0.0 , 0.0 , 0.0 , 

119.0 , 4130.76923077 , 4127.17948718 , 4129.74358974 , 4131.79487179 , 4125.64102564 , 4126.66666667 , 4120.51282051 , 4131.79487179 , 4130.76923077 , 4137.94871795 , 4188.71794872 , 4908.71794872 , 4126.15384615 , 4136.41025641 , 2044.0 , 2032.0 , 194.045 , 0.0 , 0.0 , 0.0 , 0.0 , 

120.0 , 4128.20512821 , 4128.20512821 , 4129.23076923 , 4132.82051282 , 4126.15384615 , 4126.66666667 , 4124.1025641 , 4133.84615385 , 4131.79487179 , 4141.53846154 , 4188.20512821 , 4907.69230769 , 4132.30769231 , 4139.48717949 , 2044.0 , 2033.0 , 194.057 , 0.0 , 0.0 , 0.0 , 0.0 , 

121.0 , 4131.79487179 , 4125.64102564 , 4132.82051282 , 4131.28205128 , 4128.20512821 , 4125.12820513 , 4121.53846154 , 4121.02564103 , 4125.64102564 , 4137.94871795 , 4183.58974359 , 4911.79487179 , 4128.20512821 , 4140.0 , 2042.0 , 2034.0 , 194.061 , 0.0 , 0.0 , 0.0 , 0.0 , 

122.0 , 4132.30769231 , 4130.25641026 , 4130.25641026 , 4133.33333333 , 4129.23076923 , 4128.20512821 , 4127.17948718 , 4128.71794872 , 4130.25641026 , 4136.92307692 , 4188.20512821 , 4911.79487179 , 4132.30769231 , 4136.92307692 , 2044.0 , 2034.0 , 194.07 , 0.0 , 0.0 , 0.0 , 0.0 , 

123.0 , 4132.30769231 , 4127.17948718 , 4133.33333333 , 4124.1025641 , 4131.79487179 , 4124.1025641 , 4123.58974359 , 4118.97435897 , 4122.05128205 , 4136.41025641 , 4184.61538462 , 4911.79487179 , 4125.64102564 , 4138.97435897 , 2043.0 , 2034.0 , 194.077 , 0.0 , 0.0 , 0.0 , 0.0 , 

124.0 , 4130.76923077 , 4128.20512821 , 4128.20512821 , 4128.71794872 , 4127.17948718 , 4126.66666667 , 4126.15384615 , 4125.12820513 , 4126.66666667 , 4137.43589744 , 4184.61538462 , 4907.17948718 , 4133.33333333 , 4140.0 , 2043.0 , 2036.0 , 194.088 , 0.0 , 0.0 , 0.0 , 0.0 , 

125.0 , 4132.30769231 , 4125.64102564 , 4132.82051282 , 4130.25641026 , 4123.07692308 , 4124.1025641 , 4120.0 , 4121.53846154 , 4122.56410256 , 4136.41025641 , 4183.07692308 , 4910.25641026 , 4129.23076923 , 4138.46153846 , 2042.0 , 2037.0 , 194.093 , 0.0 , 0.0 , 0.0 , 0.0 , 

126.0 , 4130.25641026 , 4131.28205128 , 4130.76923077 , 4132.30769231 , 4126.66666667 , 4129.74358974 , 4127.17948718 , 4132.30769231 , 4129.74358974 , 4137.43589744 , 4187.17948718 , 4907.69230769 , 4135.38461538 , 4136.92307692 , 2042.0 , 2037.0 , 194.1 , 0.0 , 0.0 , 0.0 , 0.0 , 

127.0 , 4128.20512821 , 4128.20512821 , 4129.74358974 , 4125.64102564 , 4128.20512821 , 4128.71794872 , 4120.0 , 4123.58974359 , 4124.1025641 , 4136.41025641 , 4183.58974359 , 4909.23076923 , 4132.30769231 , 4136.41025641 , 2041.0 , 2037.0 , 194.108 , 0.0 , 0.0 , 0.0 , 0.0 , 

128.0 , 4129.74358974 , 4129.74358974 , 4126.66666667 , 4131.79487179 , 4127.17948718 , 4131.28205128 , 4121.02564103 , 4130.25641026 , 4128.20512821 , 4139.48717949 , 4188.20512821 , 4908.71794872 , 4136.41025641 , 4134.35897436 , 2042.0 , 2038.0 , 194.12 , 0.0 , 0.0 , 0.0 , 0.0 , 

0.0 , 4131.79487179 , 4127.17948718 , 4132.82051282 , 4129.23076923 , 4126.15384615 , 4126.15384615 , 4121.53846154 , 4128.20512821 , 4131.79487179 , 4140.0 , 4188.20512821 , 4910.25641026 , 4126.66666667 , 4135.8974359 , 2042.0 , 2036.0 , 194.125 , 0.0 , 0.0 , 0.0 , 0.0 , 

1.0 , 4130.25641026 , 4129.74358974 , 4129.23076923 , 4130.76923077 , 4125.64102564 , 4127.17948718 , 4127.69230769 , 4131.79487179 , 4135.38461538 , 4138.46153846 , 4190.25641026 , 4907.17948718 , 4128.20512821 , 4136.41025641 , 2043.0 , 2037.0 , 194.133 , 0.0 , 0.0 , 0.0 , 0.0 , 

2.0 , 4129.23076923 , 4128.20512821 , 4127.69230769 , 4129.23076923 , 4127.17948718 , 4128.20512821 , 4121.53846154 , 4124.61538462 , 4128.71794872 , 4136.92307692 , 4188.71794872 , 4911.28205128 , 4130.76923077 , 4137.43589744 , 2043.0 , 2037.0 , 194.14 , 0.0 , 0.0 , 0.0 , 0.0 , 

3.0 , 4130.25641026 , 4129.23076923 , 4130.25641026 , 4129.74358974 , 4129.74358974 , 4129.74358974 , 4123.58974359 , 4125.12820513 , 4128.71794872 , 4137.43589744 , 4188.71794872 , 4912.30769231 , 4131.28205128 , 4138.46153846 , 2044.0 , 2037.0 , 194.151 , 0.0 , 0.0 , 0.0 , 0.0 , 

4.0 , 4128.20512821 , 4126.15384615 , 4133.84615385 , 4127.69230769 , 4127.17948718 , 4127.69230769 , 4125.12820513 , 4128.71794872 , 4130.25641026 , 4136.41025641 , 4187.17948718 , 4910.25641026 , 4127.17948718 , 4138.46153846 , 2046.0 , 2034.0 , 194.157 , 0.0 , 0.0 , 0.0 , 0.0 , 

5.0 , 4130.25641026 , 4128.71794872 , 4131.28205128 , 4129.74358974 , 4127.17948718 , 4129.74358974 , 4124.61538462 , 4129.23076923 , 4127.17948718 , 4140.0 , 4185.64102564 , 4907.69230769 , 4126.15384615 , 4136.92307692 , 2046.0 , 2033.0 , 194.163 , 0.0 , 0.0 , 0.0 , 0.0 , 

6.0 , 4127.17948718 , 4129.23076923 , 4129.74358974 , 4129.23076923 , 4128.71794872 , 4129.23076923 , 4125.12820513 , 4131.28205128 , 4129.23076923 , 4141.02564103 , 4185.12820513 , 4906.66666667 , 4127.17948718 , 4135.38461538 , 2047.0 , 2032.0 , 194.171 , 0.0 , 0.0 , 0.0 , 0.0 , 

7.0 , 4127.17948718 , 4124.1025641 , 4132.30769231 , 4127.69230769 , 4130.25641026 , 4122.56410256 , 4123.07692308 , 4129.74358974 , 4129.74358974 , 4134.35897436 , 4186.66666667 , 4907.69230769 , 4125.64102564 , 4135.8974359 , 2044.0 , 2031.0 , 194.185 , 0.0 , 0.0 , 0.0 , 0.0 , 

8.0 , 4131.79487179 , 4124.61538462 , 4128.71794872 , 4131.79487179 , 4129.74358974 , 4125.64102564 , 4121.02564103 , 4136.92307692 , 4136.92307692 , 4133.33333333 , 4189.74358974 , 4907.17948718 , 4134.35897436 , 4136.41025641 , 2044.0 , 2030.0 , 194.189 , 0.0 , 0.0 , 0.0 , 0.0 , 

9.0 , 4133.33333333 , 4127.69230769 , 4128.71794872 , 4131.28205128 , 4129.74358974 , 4126.66666667 , 4118.97435897 , 4127.17948718 , 4129.74358974 , 4138.97435897 , 4186.15384615 , 4906.66666667 , 4129.74358974 , 4138.97435897 , 2044.0 , 2036.0 , 194.195 , 0.0 , 0.0 , 0.0 , 0.0 , 

10.0 , 4124.61538462 , 4128.71794872 , 4127.69230769 , 4133.33333333 , 4127.17948718 , 4126.66666667 , 4128.20512821 , 4128.71794872 , 4130.25641026 , 4141.02564103 , 4186.15384615 , 4907.69230769 , 4133.84615385 , 4138.97435897 , 2043.0 , 2037.0 , 194.204 , 0.0 , 0.0 , 0.0 , 0.0 , 

11.0 , 4127.17948718 , 4123.58974359 , 4132.30769231 , 4127.69230769 , 4127.69230769 , 4124.1025641 , 4123.58974359 , 4120.51282051 , 4124.1025641 , 4134.87179487 , 4185.64102564 , 4913.84615385 , 4131.28205128 , 4139.48717949 , 2043.0 , 2041.0 , 194.214 , 0.0 , 0.0 , 0.0 , 0.0 , 

12.0 , 4131.79487179 , 4128.20512821 , 4127.69230769 , 4131.28205128 , 4128.71794872 , 4128.71794872 , 4119.48717949 , 4133.33333333 , 4131.28205128 , 4136.92307692 , 4187.69230769 , 4909.74358974 , 4134.87179487 , 4136.41025641 , 2042.0 , 2041.0 , 194.221 , 0.0 , 0.0 , 0.0 , 0.0 , 

13.0 , 4130.76923077 , 4124.61538462 , 4131.79487179 , 4127.69230769 , 4126.66666667 , 4124.61538462 , 4113.84615385 , 4128.20512821 , 4126.15384615 , 4139.48717949 , 4183.58974359 , 4908.20512821 , 4125.12820513 , 4135.8974359 , 2042.0 , 2041.0 , 194.227 , 0.0 , 0.0 , 0.0 , 0.0 , 

14.0 , 4125.64102564 , 4126.15384615 , 4128.71794872 , 4129.23076923 , 4124.1025641 , 4127.69230769 , 4125.12820513 , 4136.92307692 , 4132.82051282 , 4140.51282051 , 4189.23076923 , 4906.66666667 , 4131.28205128 , 4138.46153846 , 2042.0 , 2038.0 , 194.235 , 0.0 , 0.0 , 0.0 , 0.0 , 

15.0 , 4127.69230769 , 4125.12820513 , 4133.84615385 , 4124.1025641 , 4125.12820513 , 4125.64102564 , 4122.05128205 , 4131.28205128 , 4126.66666667 , 4138.46153846 , 4188.71794872 , 4909.74358974 , 4124.61538462 , 4138.46153846 , 2041.0 , 2037.0 , 194.247 , 0.0 , 0.0 , 0.0 , 0.0 , 

16.0 , 4128.20512821 , 4128.71794872 , 4130.25641026 , 4130.76923077 , 4128.20512821 , 4128.20512821 , 4123.07692308 , 4139.48717949 , 4130.76923077 , 4138.97435897 , 4189.23076923 , 4907.17948718 , 4133.33333333 , 4134.87179487 , 2041.0 , 2035.0 , 194.251 , 0.0 , 0.0 , 0.0 , 0.0 , 

17.0 , 4127.17948718 , 4126.66666667 , 4131.28205128 , 4129.23076923 , 4126.66666667 , 4127.17948718 , 4120.51282051 , 4130.76923077 , 4129.23076923 , 4137.94871795 , 4186.15384615 , 4909.74358974 , 4131.28205128 , 4136.92307692 , 2041.0 , 2034.0 , 194.257 , 0.0 , 0.0 , 0.0 , 0.0 , 

18.0 , 4129.23076923 , 4131.28205128 , 4129.23076923 , 4131.28205128 , 4126.66666667 , 4131.79487179 , 4127.69230769 , 4136.92307692 , 4133.84615385 , 4141.02564103 , 4189.74358974 , 4906.66666667 , 4132.30769231 , 4139.48717949 , 2040.0 , 2032.0 , 194.267 , 0.0 , 0.0 , 0.0 , 0.0 , 

19.0 , 4131.28205128 , 4126.15384615 , 4132.82051282 , 4129.23076923 , 4129.23076923 , 4127.17948718 , 4121.02564103 , 4131.28205128 , 4127.17948718 , 4138.46153846 , 4187.17948718 , 4907.17948718 , 4129.23076923 , 4138.46153846 , 2039.0 , 2031.0 , 194.279 , 0.0 , 0.0 , 0.0 , 0.0 , 

20.0 , 4128.71794872 , 4127.69230769 , 4128.20512821 , 4130.76923077 , 4131.28205128 , 4127.17948718 , 4121.02564103 , 4128.20512821 , 4127.69230769 , 4135.38461538 , 4187.69230769 , 4907.17948718 , 4132.82051282 , 4136.92307692 , 2039.0 , 2030.0 , 194.283 , 0.0 , 0.0 , 0.0 , 0.0 , 

21.0 , 4128.20512821 , 4128.20512821 , 4128.20512821 , 4127.69230769 , 4129.74358974 , 4125.64102564 , 4118.46153846 , 4126.66666667 , 4129.23076923 , 4136.92307692 , 4185.64102564 , 4909.23076923 , 4129.23076923 , 4137.94871795 , 2041.0 , 2028.0 , 194.29 , 0.0 , 0.0 , 0.0 , 0.0 , 

22.0 , 4133.33333333 , 4129.74358974 , 4131.79487179 , 4132.30769231 , 4130.25641026 , 4127.17948718 , 4122.05128205 , 4131.79487179 , 4130.25641026 , 4138.46153846 , 4185.12820513 , 4909.74358974 , 4130.25641026 , 4136.92307692 , 2041.0 , 2028.0 , 194.297 , 0.0 , 0.0 , 0.0 , 0.0 , 

23.0 , 4130.76923077 , 4126.66666667 , 4131.79487179 , 4133.33333333 , 4129.74358974 , 4124.61538462 , 4124.61538462 , 4128.71794872 , 4130.25641026 , 4135.8974359 , 4185.64102564 , 4910.25641026 , 4131.28205128 , 4135.8974359 , 2043.0 , 2027.0 , 194.309 , 0.0 , 0.0 , 0.0 , 0.0 , 

24.0 , 4126.66666667 , 4128.20512821 , 4129.74358974 , 4130.25641026 , 4130.25641026 , 4125.12820513 , 4123.07692308 , 4124.61538462 , 4126.66666667 , 4136.92307692 , 4186.66666667 , 4909.74358974 , 4128.20512821 , 4135.8974359 , 2044.0 , 2028.0 , 194.313 , 0.0 , 0.0 , 0.0 , 0.0 , 

25.0 , 4128.71794872 , 4130.76923077 , 4127.17948718 , 4131.28205128 , 4131.28205128 , 4132.30769231 , 4121.02564103 , 4132.30769231 , 4132.82051282 , 4138.97435897 , 4186.66666667 , 4910.25641026 , 4130.25641026 , 4136.41025641 , 2044.0 , 2031.0 , 194.321 , 0.0 , 0.0 , 0.0 , 0.0 , 

26.0 , 4133.33333333 , 4128.71794872 , 4129.74358974 , 4132.82051282 , 4131.79487179 , 4129.23076923 , 4119.48717949 , 4128.71794872 , 4132.82051282 , 4138.46153846 , 4187.69230769 , 4911.79487179 , 4127.17948718 , 4136.92307692 , 2045.0 , 2032.0 , 194.329 , 0.0 , 0.0 , 0.0 , 0.0 , 

27.0 , 4127.17948718 , 4128.71794872 , 4130.76923077 , 4133.33333333 , 4128.71794872 , 4122.56410256 , 4121.53846154 , 4130.76923077 , 4135.38461538 , 4139.48717949 , 4193.33333333 , 4908.20512821 , 4130.76923077 , 4136.41025641 , 2045.0 , 2034.0 , 194.341 , 0.0 , 0.0 , 0.0 , 0.0 , 

28.0 , 4127.69230769 , 4128.71794872 , 4133.33333333 , 4128.71794872 , 4128.71794872 , 4122.05128205 , 4118.97435897 , 4122.56410256 , 4127.69230769 , 4138.46153846 , 4188.20512821 , 4908.71794872 , 4124.61538462 , 4137.43589744 , 2046.0 , 2036.0 , 194.345 , 0.0 , 0.0 , 0.0 , 0.0 , 

29.0 , 4130.76923077 , 4130.76923077 , 4128.71794872 , 4131.79487179 , 4130.76923077 , 4129.74358974 , 4124.61538462 , 4127.17948718 , 4134.87179487 , 4137.94871795 , 4184.1025641 , 4908.20512821 , 4131.79487179 , 4137.43589744 , 2045.0 , 2037.0 , 194.353 , 0.0 , 0.0 , 0.0 , 0.0 , 

30.0 , 4130.76923077 , 4126.66666667 , 4133.84615385 , 4129.23076923 , 4131.79487179 , 4125.64102564 , 4120.51282051 , 4115.8974359 , 4130.76923077 , 4137.43589744 , 4183.58974359 , 4911.28205128 , 4129.74358974 , 4139.48717949 , 2045.0 , 2039.0 , 194.36 , 0.0 , 0.0 , 0.0 , 0.0 , 

31.0 , 4126.15384615 , 4129.23076923 , 4131.79487179 , 4132.30769231 , 4128.71794872 , 4127.17948718 , 4127.17948718 , 4126.66666667 , 4133.84615385 , 4139.48717949 , 4189.74358974 , 4912.30769231 , 4133.33333333 , 4138.97435897 , 2044.0 , 2038.0 , 194.371 , 0.0 , 0.0 , 0.0 , 0.0 , 

32.0 , 4129.23076923 , 4127.69230769 , 4132.82051282 , 4124.1025641 , 4128.20512821 , 4125.64102564 , 4123.07692308 , 4121.53846154 , 4126.15384615 , 4138.97435897 , 4185.12820513 , 4913.84615385 , 4125.64102564 , 4138.46153846 , 2044.0 , 2038.0 , 194.376 , 0.0 , 0.0 , 0.0 , 0.0 , 

33.0 , 4127.69230769 , 4129.74358974 , 4130.25641026 , 4126.66666667 , 4128.20512821 , 4128.20512821 , 4124.61538462 , 4132.30769231 , 4132.30769231 , 4139.48717949 , 4188.20512821 , 4906.15384615 , 4133.84615385 , 4137.43589744 , 2044.0 , 2037.0 , 194.384 , 0.0 , 0.0 , 0.0 , 0.0 , 

34.0 , 4125.64102564 , 4123.58974359 , 4134.35897436 , 4127.69230769 , 4126.15384615 , 4122.56410256 , 4119.48717949 , 4126.15384615 , 4127.69230769 , 4136.92307692 , 4187.69230769 , 4908.71794872 , 4128.71794872 , 4137.43589744 , 2043.0 , 2034.0 , 194.392 , 0.0 , 0.0 , 0.0 , 0.0 , 

35.0 , 4128.71794872 , 4126.15384615 , 4129.23076923 , 4133.33333333 , 4125.64102564 , 4127.17948718 , 4126.66666667 , 4130.76923077 , 4132.30769231 , 4137.94871795 , 4190.25641026 , 4912.30769231 , 4134.35897436 , 4136.92307692 , 2043.0 , 2035.0 , 194.403 , 0.0 , 0.0 , 0.0 , 0.0 , 

36.0 , 4130.76923077 , 4125.12820513 , 4131.28205128 , 4127.17948718 , 4127.69230769 , 4126.15384615 , 4121.02564103 , 4124.1025641 , 4130.25641026 , 4137.94871795 , 4187.69230769 , 4910.76923077 , 4131.28205128 , 4135.8974359 , 2044.0 , 2036.0 , 194.408 , 0.0 , 0.0 , 0.0 , 0.0 , 

37.0 , 4128.71794872 , 4127.69230769 , 4128.71794872 , 4131.28205128 , 4130.25641026 , 4129.23076923 , 4123.07692308 , 4131.79487179 , 4132.30769231 , 4137.94871795 , 4188.71794872 , 4904.61538462 , 4133.33333333 , 4135.8974359 , 2043.0 , 2034.0 , 194.416 , 0.0 , 0.0 , 0.0 , 0.0 , 

38.0 , 4129.23076923 , 4124.1025641 , 4131.28205128 , 4130.76923077 , 4126.66666667 , 4126.66666667 , 4120.0 , 4124.61538462 , 4126.66666667 , 4137.94871795 , 4185.12820513 , 4910.76923077 , 4127.69230769 , 4138.97435897 , 2043.0 , 2035.0 , 194.425 , 0.0 , 0.0 , 0.0 , 0.0 , 

39.0 , 4130.25641026 , 4127.69230769 , 4132.30769231 , 4131.28205128 , 4126.15384615 , 4127.17948718 , 4120.51282051 , 4124.61538462 , 4129.74358974 , 4140.51282051 , 4187.17948718 , 4912.82051282 , 4128.71794872 , 4141.53846154 , 2042.0 , 2036.0 , 194.436 , 0.0 , 0.0 , 0.0 , 0.0 , 

40.0 , 4128.20512821 , 4127.17948718 , 4133.33333333 , 4129.74358974 , 4129.74358974 , 4124.61538462 , 4120.51282051 , 4129.23076923 , 4130.25641026 , 4140.51282051 , 4186.15384615 , 4910.76923077 , 4126.66666667 , 4137.94871795 , 2043.0 , 2036.0 , 194.441 , 0.0 , 0.0 , 0.0 , 0.0 , 

41.0 , 4129.23076923 , 4127.69230769 , 4133.33333333 , 4131.28205128 , 4131.79487179 , 4123.58974359 , 4124.61538462 , 4130.25641026 , 4127.17948718 , 4138.46153846 , 4187.69230769 , 4908.71794872 , 4128.20512821 , 4135.8974359 , 2042.0 , 2037.0 , 194.447 , 0.0 , 0.0 , 0.0 , 0.0 , 

42.0 , 4130.25641026 , 4125.12820513 , 4134.35897436 , 4131.79487179 , 4129.74358974 , 4124.61538462 , 4123.58974359 , 4128.20512821 , 4130.25641026 , 4136.41025641 , 4189.74358974 , 4908.71794872 , 4130.76923077 , 4137.43589744 , 2042.0 , 2036.0 , 194.456 , 0.0 , 0.0 , 0.0 , 0.0 , 

43.0 , 4131.79487179 , 4125.12820513 , 4132.30769231 , 4130.76923077 , 4130.25641026 , 4124.61538462 , 4121.53846154 , 4129.74358974 , 4131.28205128 , 4137.43589744 , 4187.17948718 , 4908.20512821 , 4127.17948718 , 4137.94871795 , 2041.0 , 2036.0 , 194.472 , 0.0 , 0.0 , 0.0 , 0.0 , 

44.0 , 4128.71794872 , 4126.15384615 , 4129.74358974 , 4129.74358974 , 4127.17948718 , 4126.66666667 , 4123.58974359 , 4134.87179487 , 4133.33333333 , 4138.46153846 , 4187.17948718 , 4907.17948718 , 4132.82051282 , 4137.43589744 , 2040.0 , 2039.0 , 194.474 , 0.0 , 0.0 , 0.0 , 0.0 , 

45.0 , 4129.23076923 , 4124.61538462 , 4132.82051282 , 4129.74358974 , 4125.12820513 , 4127.69230769 , 4122.56410256 , 4124.1025641 , 4127.69230769 , 4135.8974359 , 4187.69230769 , 4908.20512821 , 4130.25641026 , 4138.97435897 , 2041.0 , 2040.0 , 194.479 , 0.0 , 0.0 , 0.0 , 0.0 , 

46.0 , 4129.23076923 , 4126.15384615 , 4127.69230769 , 4134.87179487 , 4127.17948718 , 4130.76923077 , 4127.17948718 , 4131.79487179 , 4134.35897436 , 4134.87179487 , 4190.25641026 , 4906.66666667 , 4132.30769231 , 4137.43589744 , 2042.0 , 2038.0 , 194.487 , 0.0 , 0.0 , 0.0 , 0.0 , 

47.0 , 4130.76923077 , 4125.12820513 , 4130.76923077 , 4130.25641026 , 4128.71794872 , 4126.15384615 , 4122.05128205 , 4127.17948718 , 4128.20512821 , 4134.87179487 , 4186.66666667 , 4909.74358974 , 4127.17948718 , 4136.41025641 , 2041.0 , 2037.0 , 194.497 , 0.0 , 0.0 , 0.0 , 0.0 , 

48.0 , 4128.71794872 , 4127.17948718 , 4131.79487179 , 4132.30769231 , 4127.69230769 , 4126.66666667 , 4125.64102564 , 4129.74358974 , 4130.25641026 , 4136.41025641 , 4185.64102564 , 4909.23076923 , 4135.38461538 , 4137.43589744 , 2042.0 , 2036.0 , 194.504 , 0.0 , 0.0 , 0.0 , 0.0 , 

49.0 , 4129.74358974 , 4124.1025641 , 4134.35897436 , 4129.23076923 , 4128.71794872 , 4125.64102564 , 4123.07692308 , 4118.97435897 , 4123.58974359 , 4136.92307692 , 4182.56410256 , 4910.25641026 , 4128.71794872 , 4137.43589744 , 2042.0 , 2036.0 , 194.51 , 0.0 , 0.0 , 0.0 , 0.0 , 

50.0 , 4128.20512821 , 4126.66666667 , 4126.66666667 , 4130.25641026 , 4128.20512821 , 4127.69230769 , 4124.1025641 , 4130.25641026 , 4130.76923077 , 4139.48717949 , 4188.71794872 , 4907.17948718 , 4133.84615385 , 4136.92307692 , 2042.0 , 2036.0 , 194.519 , 0.0 , 0.0 , 0.0 , 0.0 , 

51.0 , 4128.20512821 , 4122.56410256 , 4129.23076923 , 4126.15384615 , 4127.69230769 , 4122.05128205 , 4114.87179487 , 4124.1025641 , 4127.17948718 , 4137.94871795 , 4187.17948718 , 4909.74358974 , 4127.69230769 , 4138.46153846 , 2043.0 , 2036.0 , 194.531 , 0.0 , 0.0 , 0.0 , 0.0 , 

52.0 , 4127.69230769 , 4127.17948718 , 4128.20512821 , 4133.33333333 , 4128.20512821 , 4124.61538462 , 4123.58974359 , 4133.84615385 , 4131.79487179 , 4139.48717949 , 4188.71794872 , 4908.71794872 , 4133.33333333 , 4136.41025641 , 2042.0 , 2036.0 , 194.535 , 0.0 , 0.0 , 0.0 , 0.0 , 

53.0 , 4129.23076923 , 4126.15384615 , 4131.79487179 , 4128.71794872 , 4127.69230769 , 4120.51282051 , 4121.53846154 , 4129.74358974 , 4129.23076923 , 4140.0 , 4188.71794872 , 4911.28205128 , 4126.15384615 , 4136.41025641 , 2041.0 , 2033.0 , 194.542 , 0.0 , 0.0 , 0.0 , 0.0 , 

54.0 , 4129.74358974 , 4129.74358974 , 4129.23076923 , 4130.25641026 , 4127.17948718 , 4123.58974359 , 4122.05128205 , 4135.8974359 , 4136.41025641 , 4138.97435897 , 4191.28205128 , 4908.20512821 , 4132.82051282 , 4136.41025641 , 2041.0 , 2033.0 , 194.551 , 0.0 , 0.0 , 0.0 , 0.0 , 

55.0 , 4131.28205128 , 4128.20512821 , 4132.82051282 , 4129.23076923 , 4128.20512821 , 4124.61538462 , 4121.53846154 , 4127.17948718 , 4133.84615385 , 4134.87179487 , 4186.15384615 , 4908.20512821 , 4131.28205128 , 4136.41025641 , 2042.0 , 2032.0 , 194.561 , 0.0 , 0.0 , 0.0 , 0.0 , 

56.0 , 4132.82051282 , 4129.23076923 , 4129.74358974 , 4132.30769231 , 4130.76923077 , 4129.23076923 , 4129.23076923 , 4129.74358974 , 4134.35897436 , 4136.41025641 , 4189.74358974 , 4906.15384615 , 4134.87179487 , 4137.94871795 , 2043.0 , 2034.0 , 194.568 , 0.0 , 0.0 , 0.0 , 0.0 , 

57.0 , 4132.82051282 , 4127.69230769 , 4129.23076923 , 4128.20512821 , 4128.71794872 , 4124.1025641 , 4121.02564103 , 4123.58974359 , 4127.17948718 , 4136.41025641 , 4190.76923077 , 4908.71794872 , 4131.28205128 , 4138.46153846 , 2044.0 , 2036.0 , 194.574 , 0.0 , 0.0 , 0.0 , 0.0 , 

58.0 , 4130.76923077 , 4132.30769231 , 4129.23076923 , 4130.25641026 , 4128.20512821 , 4125.12820513 , 4121.02564103 , 4124.1025641 , 4126.15384615 , 4136.41025641 , 4189.74358974 , 4907.69230769 , 4130.76923077 , 4136.41025641 , 2044.0 , 2035.0 , 194.581 , 0.0 , 0.0 , 0.0 , 0.0 , 

59.0 , 4128.20512821 , 4126.66666667 , 4130.76923077 , 4129.23076923 , 4131.28205128 , 4124.1025641 , 4124.61538462 , 4127.17948718 , 4129.74358974 , 4136.92307692 , 4188.71794872 , 4905.64102564 , 4128.71794872 , 4137.43589744 , 2043.0 , 2034.0 , 194.592 , 0.0 , 0.0 , 0.0 , 0.0 , 

60.0 , 4130.76923077 , 4124.1025641 , 4128.71794872 , 4129.74358974 , 4134.35897436 , 4123.07692308 , 4125.12820513 , 4127.69230769 , 4128.71794872 , 4138.46153846 , 4191.28205128 , 4903.07692308 , 4130.25641026 , 4138.46153846 , 2044.0 , 2034.0 , 194.596 , 0.0 , 0.0 , 0.0 , 0.0 , 

61.0 , 4129.74358974 , 4128.20512821 , 4128.20512821 , 4132.82051282 , 4128.20512821 , 4123.58974359 , 4123.07692308 , 4128.71794872 , 4130.76923077 , 4137.94871795 , 4189.23076923 , 4907.69230769 , 4132.30769231 , 4137.43589744 , 2044.0 , 2034.0 , 194.605 , 0.0 , 0.0 , 0.0 , 0.0 , 

62.0 , 4130.25641026 , 4128.71794872 , 4131.28205128 , 4131.79487179 , 4125.64102564 , 4125.12820513 , 4119.48717949 , 4126.15384615 , 4129.74358974 , 4136.92307692 , 4186.15384615 , 4911.28205128 , 4127.69230769 , 4138.46153846 , 2042.0 , 2033.0 , 194.613 , 0.0 , 0.0 , 0.0 , 0.0 , 

63.0 , 4129.74358974 , 4126.66666667 , 4128.71794872 , 4129.74358974 , 4128.20512821 , 4127.17948718 , 4120.51282051 , 4131.79487179 , 4131.79487179 , 4137.43589744 , 4192.30769231 , 4908.20512821 , 4133.33333333 , 4139.48717949 , 2043.0 , 2034.0 , 194.626 , 0.0 , 0.0 , 0.0 , 0.0 , 

64.0 , 4130.25641026 , 4128.20512821 , 4130.25641026 , 4129.23076923 , 4129.74358974 , 4126.66666667 , 4120.0 , 4126.66666667 , 4125.64102564 , 4137.94871795 , 4192.30769231 , 4908.71794872 , 4131.28205128 , 4138.97435897 , 2042.0 , 2034.0 , 194.629 , 0.0 , 0.0 , 0.0 , 0.0 , 

65.0 , 4128.20512821 , 4132.30769231 , 4127.17948718 , 4134.35897436 , 4127.17948718 , 4128.20512821 , 4125.12820513 , 4135.38461538 , 4134.35897436 , 4135.8974359 , 4191.28205128 , 4909.74358974 , 4132.82051282 , 4136.92307692 , 2042.0 , 2033.0 , 194.637 , 0.0 , 0.0 , 0.0 , 0.0 , 

66.0 , 4132.82051282 , 4126.66666667 , 4130.76923077 , 4126.15384615 , 4128.20512821 , 4125.64102564 , 4121.53846154 , 4126.15384615 , 4129.74358974 , 4133.33333333 , 4188.20512821 , 4909.23076923 , 4124.61538462 , 4136.41025641 , 2042.0 , 2033.0 , 194.644 , 0.0 , 0.0 , 0.0 , 0.0 , 

67.0 , 4132.30769231 , 4126.66666667 , 4128.71794872 , 4125.64102564 , 4127.69230769 , 4131.28205128 , 4126.15384615 , 4131.28205128 , 4131.79487179 , 4136.41025641 , 4189.23076923 , 4907.17948718 , 4132.30769231 , 4136.92307692 , 2041.0 , 2034.0 , 194.654 , 0.0 , 0.0 , 0.0 , 0.0 , 

68.0 , 4130.25641026 , 4123.58974359 , 4134.87179487 , 4126.15384615 , 4126.66666667 , 4127.17948718 , 4121.02564103 , 4123.58974359 , 4126.15384615 , 4133.33333333 , 4184.1025641 , 4912.30769231 , 4127.69230769 , 4135.8974359 , 2041.0 , 2035.0 , 194.66 , 0.0 , 0.0 , 0.0 , 0.0 , 

69.0 , 4127.69230769 , 4128.71794872 , 4133.33333333 , 4132.30769231 , 4129.74358974 , 4127.69230769 , 4127.17948718 , 4130.76923077 , 4133.33333333 , 4131.79487179 , 4187.69230769 , 4908.71794872 , 4133.84615385 , 4135.38461538 , 2041.0 , 2035.0 , 194.669 , 0.0 , 0.0 , 0.0 , 0.0 , 

70.0 , 4130.25641026 , 4126.15384615 , 4134.35897436 , 4126.15384615 , 4132.82051282 , 4124.1025641 , 4124.1025641 , 4120.0 , 4127.69230769 , 4133.84615385 , 4185.64102564 , 4908.20512821 , 4128.20512821 , 4135.8974359 , 2041.0 , 2035.0 , 194.675 , 0.0 , 0.0 , 0.0 , 0.0 , 

71.0 , 4130.25641026 , 4129.74358974 , 4129.23076923 , 4132.30769231 , 4131.79487179 , 4127.69230769 , 4126.66666667 , 4130.76923077 , 4133.33333333 , 4137.94871795 , 4188.20512821 , 4908.20512821 , 4133.84615385 , 4134.35897436 , 2042.0 , 2036.0 , 194.688 , 0.0 , 0.0 , 0.0 , 0.0 , 

72.0 , 4128.20512821 , 4128.20512821 , 4132.30769231 , 4132.30769231 , 4130.25641026 , 4125.12820513 , 4121.53846154 , 4126.15384615 , 4128.71794872 , 4133.84615385 , 4186.15384615 , 4911.79487179 , 4129.74358974 , 4134.87179487 , 2042.0 , 2036.0 , 194.692 , 0.0 , 0.0 , 0.0 , 0.0 , 

73.0 , 4126.66666667 , 4130.76923077 , 4128.20512821 , 4133.84615385 , 4128.20512821 , 4128.20512821 , 4128.20512821 , 4130.76923077 , 4129.74358974 , 4135.38461538 , 4185.64102564 , 4908.20512821 , 4134.35897436 , 4138.97435897 , 2041.0 , 2037.0 , 194.699 , 0.0 , 0.0 , 0.0 , 0.0 , 

74.0 , 4130.76923077 , 4127.17948718 , 4129.23076923 , 4128.71794872 , 4124.61538462 , 4125.64102564 , 4122.05128205 , 4126.15384615 , 4126.66666667 , 4138.97435897 , 4184.1025641 , 4907.17948718 , 4130.25641026 , 4140.0 , 2042.0 , 2036.0 , 194.707 , 0.0 , 0.0 , 0.0 , 0.0 , 

75.0 , 4133.84615385 , 4130.25641026 , 4128.71794872 , 4131.79487179 , 4127.69230769 , 4126.15384615 , 4125.64102564 , 4130.76923077 , 4130.25641026 , 4136.92307692 , 4189.74358974 , 4903.58974359 , 4131.79487179 , 4136.92307692 , 2043.0 , 2035.0 , 194.717 , 0.0 , 0.0 , 0.0 , 0.0 , 

76.0 , 4130.25641026 , 4126.66666667 , 4131.28205128 , 4127.69230769 , 4132.30769231 , 4124.61538462 , 4128.20512821 , 4125.64102564 , 4129.74358974 , 4132.82051282 , 4187.69230769 , 4907.17948718 , 4127.69230769 , 4136.92307692 , 2046.0 , 2034.0 , 194.723 , 0.0 , 0.0 , 0.0 , 0.0 , 

77.0 , 4129.23076923 , 4125.64102564 , 4131.28205128 , 4124.61538462 , 4128.71794872 , 4128.20512821 , 4124.61538462 , 4125.64102564 , 4128.71794872 , 4137.94871795 , 4187.17948718 , 4910.76923077 , 4127.69230769 , 4137.94871795 , 2047.0 , 2034.0 , 194.73 , 0.0 , 0.0 , 0.0 , 0.0 , 

78.0 , 4130.25641026 , 4127.69230769 , 4131.79487179 , 4128.20512821 , 4125.64102564 , 4127.69230769 , 4118.46153846 , 4128.20512821 , 4128.20512821 , 4137.43589744 , 4186.66666667 , 4909.23076923 , 4128.20512821 , 4136.41025641 , 2048.0 , 2031.0 , 194.739 , 0.0 , 0.0 , 0.0 , 0.0 , 

79.0 , 4130.76923077 , 4128.71794872 , 4128.71794872 , 4133.33333333 , 4128.20512821 , 4125.64102564 , 4124.61538462 , 4127.69230769 , 4129.23076923 , 4131.79487179 , 4187.17948718 , 4906.66666667 , 4128.71794872 , 4136.92307692 , 2046.0 , 2030.0 , 194.752 , 0.0 , 0.0 , 0.0 , 0.0 , 

80.0 , 4127.69230769 , 4125.64102564 , 4127.17948718 , 4131.79487179 , 4125.64102564 , 4126.66666667 , 4128.20512821 , 4131.28205128 , 4134.87179487 , 4134.35897436 , 4188.20512821 , 4909.23076923 , 4133.84615385 , 4136.41025641 , 2045.0 , 2032.0 , 194.756 , 0.0 , 0.0 , 0.0 , 0.0 , 

81.0 , 4129.74358974 , 4128.71794872 , 4131.79487179 , 4126.15384615 , 4125.12820513 , 4128.20512821 , 4121.53846154 , 4128.20512821 , 4129.74358974 , 4139.48717949 , 4188.20512821 , 4910.25641026 , 4129.74358974 , 4136.92307692 , 2045.0 , 2032.0 , 194.761 , 0.0 , 0.0 , 0.0 , 0.0 , 

82.0 , 4129.74358974 , 4132.82051282 , 4130.76923077 , 4129.23076923 , 4124.61538462 , 4128.71794872 , 4124.1025641 , 4134.87179487 , 4134.87179487 , 4139.48717949 , 4191.79487179 , 4904.61538462 , 4133.33333333 , 4136.41025641 , 2045.0 , 2035.0 , 194.77 , 0.0 , 0.0 , 0.0 , 0.0 , 

83.0 , 4130.76923077 , 4125.64102564 , 4131.79487179 , 4130.76923077 , 4124.1025641 , 4125.12820513 , 4124.61538462 , 4129.74358974 , 4132.30769231 , 4135.8974359 , 4190.25641026 , 4904.1025641 , 4129.23076923 , 4136.92307692 , 2045.0 , 2037.0 , 194.783 , 0.0 , 0.0 , 0.0 , 0.0 , 

84.0 , 4129.74358974 , 4127.17948718 , 4128.20512821 , 4133.33333333 , 4125.64102564 , 4127.17948718 , 4128.20512821 , 4134.35897436 , 4133.33333333 , 4134.35897436 , 4189.23076923 , 4907.17948718 , 4132.30769231 , 4136.92307692 , 2043.0 , 2039.0 , 194.786 , 0.0 , 0.0 , 0.0 , 0.0 , 

85.0 , 4132.82051282 , 4130.25641026 , 4131.79487179 , 4127.17948718 , 4128.20512821 , 4122.05128205 , 4122.56410256 , 4122.05128205 , 4122.56410256 , 4134.35897436 , 4185.12820513 , 4910.76923077 , 4125.12820513 , 4138.46153846 , 2044.0 , 2040.0 , 194.794 , 0.0 , 0.0 , 0.0 , 0.0 , 

86.0 , 4131.28205128 , 4130.76923077 , 4129.74358974 , 4131.79487179 , 4126.15384615 , 4125.12820513 , 4125.64102564 , 4130.25641026 , 4130.76923077 , 4138.46153846 , 4189.23076923 , 4908.71794872 , 4131.79487179 , 4138.46153846 , 2044.0 , 2040.0 , 194.802 , 0.0 , 0.0 , 0.0 , 0.0 , 

87.0 , 4128.71794872 , 4122.05128205 , 4135.38461538 , 4129.74358974 , 4127.69230769 , 4123.58974359 , 4118.97435897 , 4126.66666667 , 4130.25641026 , 4136.92307692 , 4186.66666667 , 4911.79487179 , 4125.12820513 , 4138.46153846 , 2043.0 , 2038.0 , 194.815 , 0.0 , 0.0 , 0.0 , 0.0 , 

88.0 , 4127.69230769 , 4125.64102564 , 4132.30769231 , 4130.25641026 , 4129.23076923 , 4127.69230769 , 4123.07692308 , 4135.38461538 , 4135.8974359 , 4137.43589744 , 4189.74358974 , 4908.71794872 , 4133.33333333 , 4136.92307692 , 2043.0 , 2038.0 , 194.819 , 0.0 , 0.0 , 0.0 , 0.0 , 

89.0 , 4129.74358974 , 4124.1025641 , 4134.35897436 , 4126.66666667 , 4125.64102564 , 4126.15384615 , 4118.97435897 , 4124.61538462 , 4127.17948718 , 4136.41025641 , 4187.69230769 , 4908.71794872 , 4132.30769231 , 4136.41025641 , 2040.0 , 2038.0 , 194.826 , 0.0 , 0.0 , 0.0 , 0.0 , 

90.0 , 4128.71794872 , 4129.74358974 , 4129.74358974 , 4134.35897436 , 4125.12820513 , 4130.76923077 , 4124.1025641 , 4134.87179487 , 4130.76923077 , 4136.92307692 , 4189.74358974 , 4907.69230769 , 4135.38461538 , 4137.43589744 , 2040.0 , 2033.0 , 194.833 , 0.0 , 0.0 , 0.0 , 0.0 , 

91.0 , 4128.71794872 , 4129.74358974 , 4134.35897436 , 4130.25641026 , 4125.64102564 , 4124.1025641 , 4120.51282051 , 4133.84615385 , 4130.25641026 , 4136.41025641 , 4187.69230769 , 4909.23076923 , 4126.66666667 , 4138.46153846 , 2040.0 , 2031.0 , 194.845 , 0.0 , 0.0 , 0.0 , 0.0 , 

92.0 , 4128.71794872 , 4131.28205128 , 4133.84615385 , 4130.76923077 , 4127.17948718 , 4123.58974359 , 4124.61538462 , 4136.92307692 , 4135.8974359 , 4138.46153846 , 4190.76923077 , 4904.61538462 , 4133.33333333 , 4136.92307692 , 2040.0 , 2030.0 , 194.849 , 0.0 , 0.0 , 0.0 , 0.0 , 

93.0 , 4129.74358974 , 4125.64102564 , 4133.84615385 , 4128.20512821 , 4128.71794872 , 4125.12820513 , 4123.58974359 , 4128.20512821 , 4132.30769231 , 4137.94871795 , 4188.71794872 , 4906.66666667 , 4130.25641026 , 4137.43589744 , 2039.0 , 2028.0 , 194.857 , 0.0 , 0.0 , 0.0 , 0.0 , 

94.0 , 4130.25641026 , 4129.74358974 , 4131.79487179 , 4129.74358974 , 4129.74358974 , 4130.25641026 , 4126.15384615 , 4130.76923077 , 4133.33333333 , 4138.46153846 , 4188.71794872 , 4910.76923077 , 4127.17948718 , 4140.0 , 2041.0 , 2030.0 , 194.865 , 0.0 , 0.0 , 0.0 , 0.0 , 

95.0 , 4129.23076923 , 4128.71794872 , 4134.87179487 , 4128.20512821 , 4128.71794872 , 4127.17948718 , 4123.07692308 , 4126.15384615 , 4130.25641026 , 4137.43589744 , 4186.66666667 , 4912.82051282 , 4128.20512821 , 4138.46153846 , 2041.0 , 2030.0 , 194.876 , 0.0 , 0.0 , 0.0 , 0.0 , 

96.0 , 4128.20512821 , 4128.20512821 , 4134.35897436 , 4128.71794872 , 4128.20512821 , 4125.64102564 , 4125.64102564 , 4124.61538462 , 4127.69230769 , 4136.92307692 , 4187.69230769 , 4909.23076923 , 4131.79487179 , 4135.8974359 , 2041.0 , 2030.0 , 194.881 , 0.0 , 0.0 , 0.0 , 0.0 , 

97.0 , 4127.17948718 , 4126.66666667 , 4131.28205128 , 4124.61538462 , 4124.61538462 , 4124.61538462 , 4125.64102564 , 4129.23076923 , 4131.79487179 , 4135.38461538 , 4188.20512821 , 4905.64102564 , 4127.17948718 , 4136.41025641 , 2044.0 , 2031.0 , 194.889 , 0.0 , 0.0 , 0.0 , 0.0 , 

98.0 , 4131.79487179 , 4127.17948718 , 4130.25641026 , 4125.64102564 , 4127.17948718 , 4125.64102564 , 4121.53846154 , 4128.20512821 , 4130.76923077 , 4136.41025641 , 4188.20512821 , 4906.15384615 , 4124.1025641 , 4138.46153846 , 2044.0 , 2030.0 , 194.896 , 0.0 , 0.0 , 0.0 , 0.0 , 

99.0 , 4129.74358974 , 4128.20512821 , 4129.74358974 , 4133.33333333 , 4131.28205128 , 4127.17948718 , 4121.53846154 , 4132.30769231 , 4133.84615385 , 4138.97435897 , 4188.71794872 , 4908.71794872 , 4133.33333333 , 4136.41025641 , 2045.0 , 2032.0 , 194.909 , 0.0 , 0.0 , 0.0 , 0.0 , 

100.0 , 4128.71794872 , 4127.69230769 , 4131.79487179 , 4130.76923077 , 4128.20512821 , 4124.1025641 , 4122.56410256 , 4128.20512821 , 4128.20512821 , 4136.92307692 , 4185.64102564 , 4909.74358974 , 4131.28205128 , 4135.8974359 , 2045.0 , 2033.0 , 194.912 , 0.0 , 0.0 , 0.0 , 0.0 , 

101.0 , 4128.71794872 , 4128.71794872 , 4127.69230769 , 4129.74358974 , 4124.1025641 , 4127.69230769 , 4125.12820513 , 4133.33333333 , 4131.79487179 , 4135.38461538 , 4186.66666667 , 4905.64102564 , 4133.84615385 , 4135.38461538 , 2045.0 , 2035.0 , 194.921 , 0.0 , 0.0 , 0.0 , 0.0 , 

102.0 , 4132.30769231 , 4126.15384615 , 4129.74358974 , 4127.69230769 , 4128.71794872 , 4127.17948718 , 4120.51282051 , 4127.17948718 , 4128.20512821 , 4135.8974359 , 4187.17948718 , 4908.20512821 , 4130.76923077 , 4135.8974359 , 2046.0 , 2033.0 , 194.928 , 0.0 , 0.0 , 0.0 , 0.0 , 

103.0 , 4128.71794872 , 4129.23076923 , 4129.23076923 , 4132.30769231 , 4128.71794872 , 4128.20512821 , 4124.1025641 , 4133.33333333 , 4133.84615385 , 4137.94871795 , 4186.66666667 , 4909.23076923 , 4135.8974359 , 4137.94871795 , 2045.0 , 2035.0 , 194.941 , 0.0 , 0.0 , 0.0 , 0.0 , 

104.0 , 4129.74358974 , 4127.69230769 , 4132.82051282 , 4127.69230769 , 4123.58974359 , 4125.12820513 , 4120.51282051 , 4121.02564103 , 4126.66666667 , 4136.41025641 , 4182.56410256 , 4911.28205128 , 4128.20512821 , 4138.97435897 , 2044.0 , 2037.0 , 194.944 , 0.0 , 0.0 , 0.0 , 0.0 , 

105.0 , 4128.71794872 , 4130.76923077 , 4127.17948718 , 4131.79487179 , 4124.61538462 , 4127.69230769 , 4125.12820513 , 4131.28205128 , 4135.8974359 , 4138.46153846 , 4189.74358974 , 4906.66666667 , 4133.33333333 , 4134.87179487 , 2044.0 , 2038.0 , 194.953 , 0.0 , 0.0 , 0.0 , 0.0 , 

106.0 , 4128.20512821 , 4129.74358974 , 4131.28205128 , 4128.20512821 , 4127.69230769 , 4123.58974359 , 4120.0 , 4126.15384615 , 4132.82051282 , 4138.46153846 , 4188.20512821 , 4907.69230769 , 4125.64102564 , 4136.92307692 , 2045.0 , 2036.0 , 194.959 , 0.0 , 0.0 , 0.0 , 0.0 , 

107.0 , 4129.23076923 , 4132.82051282 , 4129.23076923 , 4130.76923077 , 4125.12820513 , 4129.23076923 , 4126.66666667 , 4131.79487179 , 4134.35897436 , 4138.46153846 , 4188.71794872 , 4908.71794872 , 4133.84615385 , 4140.51282051 , 2044.0 , 2035.0 , 194.972 , 0.0 , 0.0 , 0.0 , 0.0 , 

108.0 , 4129.74358974 , 4126.66666667 , 4132.30769231 , 4127.69230769 , 4126.15384615 , 4128.20512821 , 4121.53846154 , 4126.15384615 , 4129.23076923 , 4137.94871795 , 4187.17948718 , 4913.33333333 , 4130.25641026 , 4137.94871795 , 2043.0 , 2033.0 , 194.975 , 0.0 , 0.0 , 0.0 , 0.0 , 

109.0 , 4126.15384615 , 4128.71794872 , 4129.23076923 , 4132.30769231 , 4131.28205128 , 4129.74358974 , 4125.64102564 , 4136.41025641 , 4135.8974359 , 4138.97435897 , 4188.71794872 , 4908.71794872 , 4130.76923077 , 4136.41025641 , 2044.0 , 2033.0 , 194.984 , 0.0 , 0.0 , 0.0 , 0.0 , 

110.0 , 4128.71794872 , 4129.74358974 , 4132.30769231 , 4129.23076923 , 4130.25641026 , 4124.61538462 , 4124.61538462 , 4124.61538462 , 4129.74358974 , 4136.41025641 , 4184.1025641 , 4907.17948718 , 4128.20512821 , 4141.02564103 , 2043.0 , 2032.0 , 194.991 , 0.0 , 0.0 , 0.0 , 0.0 , 

111.0 , 4130.25641026 , 4130.76923077 , 4128.20512821 , 4134.35897436 , 4127.17948718 , 4126.66666667 , 4127.69230769 , 4124.1025641 , 4130.76923077 , 4137.94871795 , 4187.17948718 , 4905.64102564 , 4136.41025641 , 4138.97435897 , 2043.0 , 2032.0 , 195.003 , 0.0 , 0.0 , 0.0 , 0.0 , 

112.0 , 4126.15384615 , 4123.58974359 , 4129.74358974 , 4133.84615385 , 4129.74358974 , 4125.64102564 , 4119.48717949 , 4126.66666667 , 4128.71794872 , 4135.8974359 , 4187.17948718 , 4909.23076923 , 4129.74358974 , 4135.38461538 , 2043.0 , 2032.0 , 195.007 , 0.0 , 0.0 , 0.0 , 0.0 , 

113.0 , 4127.17948718 , 4126.66666667 , 4127.17948718 , 4132.30769231 , 4130.76923077 , 4127.69230769 , 4121.53846154 , 4130.25641026 , 4126.15384615 , 4133.33333333 , 4185.64102564 , 4910.76923077 , 4129.74358974 , 4137.43589744 , 2042.0 , 2034.0 , 195.016 , 0.0 , 0.0 , 0.0 , 0.0 , 

114.0 , 4129.74358974 , 4127.69230769 , 4126.66666667 , 4127.69230769 , 4124.61538462 , 4124.61538462 , 4122.56410256 , 4123.58974359 , 4125.64102564 , 4135.8974359 , 4184.1025641 , 4910.25641026 , 4132.82051282 , 4138.97435897 , 2041.0 , 2035.0 , 195.022 , 0.0 , 0.0 , 0.0 , 0.0 , 

115.0 , 4129.74358974 , 4126.66666667 , 4131.28205128 , 4129.23076923 , 4125.64102564 , 4124.1025641 , 4118.97435897 , 4125.12820513 , 4128.71794872 , 4138.46153846 , 4187.17948718 , 4905.64102564 , 4130.25641026 , 4136.41025641 , 2043.0 , 2036.0 , 195.033 , 0.0 , 0.0 , 0.0 , 0.0 , 

116.0 , 4128.20512821 , 4125.12820513 , 4132.82051282 , 4131.79487179 , 4130.25641026 , 4127.69230769 , 4120.51282051 , 4131.28205128 , 4130.25641026 , 4138.46153846 , 4188.20512821 , 4906.15384615 , 4128.20512821 , 4134.87179487 , 2041.0 , 2036.0 , 195.038 , 0.0 , 0.0 , 0.0 , 0.0 , 

117.0 , 4130.76923077 , 4126.15384615 , 4129.23076923 , 4132.30769231 , 4128.20512821 , 4125.64102564 , 4123.58974359 , 4126.66666667 , 4127.17948718 , 4138.46153846 , 4188.71794872 , 4909.74358974 , 4128.71794872 , 4137.94871795 , 2042.0 , 2037.0 , 195.046 , 0.0 , 0.0 , 0.0 , 0.0 , 

118.0 , 4127.69230769 , 4127.17948718 , 4128.20512821 , 4132.82051282 , 4125.64102564 , 4123.58974359 , 4124.61538462 , 4132.30769231 , 4135.38461538 , 4138.97435897 , 4189.74358974 , 4908.71794872 , 4132.82051282 , 4138.46153846 , 2042.0 , 2036.0 , 195.055 , 0.0 , 0.0 , 0.0 , 0.0 , 

119.0 , 4128.71794872 , 4123.58974359 , 4133.84615385 , 4129.74358974 , 4129.23076923 , 4125.64102564 , 4122.56410256 , 4129.74358974 , 4131.79487179 , 4137.94871795 , 4187.17948718 , 4908.20512821 , 4126.15384615 , 4138.46153846 , 2043.0 , 2037.0 , 195.067 , 0.0 , 0.0 , 0.0 , 0.0 , 

120.0 , 4128.71794872 , 4127.17948718 , 4126.66666667 , 4132.82051282 , 4127.17948718 , 4130.76923077 , 4127.17948718 , 4132.30769231 , 4131.28205128 , 4140.0 , 4190.76923077 , 4905.64102564 , 4134.87179487 , 4138.97435897 , 2042.0 , 2035.0 , 195.072 , 0.0 , 0.0 , 0.0 , 0.0 , 

121.0 , 4132.30769231 , 4129.74358974 , 4127.69230769 , 4130.76923077 , 4125.12820513 , 4126.66666667 , 4122.05128205 , 4121.02564103 , 4126.66666667 , 4136.41025641 , 4187.17948718 , 4908.20512821 , 4130.25641026 , 4139.48717949 , 2043.0 , 2035.0 , 195.078 , 0.0 , 0.0 , 0.0 , 0.0 , 

122.0 , 4129.74358974 , 4129.74358974 , 4129.74358974 , 4132.82051282 , 4125.64102564 , 4128.20512821 , 4127.17948718 , 4130.25641026 , 4133.84615385 , 4133.33333333 , 4186.66666667 , 4906.66666667 , 4128.71794872 , 4137.43589744 , 2042.0 , 2035.0 , 195.087 , 0.0 , 0.0 , 0.0 , 0.0 , 

123.0 , 4127.69230769 , 4122.05128205 , 4132.82051282 , 4126.15384615 , 4125.12820513 , 4122.56410256 , 4122.56410256 , 4121.53846154 , 4124.1025641 , 4135.8974359 , 4185.64102564 , 4907.69230769 , 4124.1025641 , 4137.43589744 , 2041.0 , 2035.0 , 195.097 , 0.0 , 0.0 , 0.0 , 0.0 , 

124.0 , 4127.69230769 , 4127.17948718 , 4125.64102564 , 4130.76923077 , 4125.64102564 , 4123.07692308 , 4124.61538462 , 4130.76923077 , 4132.30769231 , 4142.05128205 , 4190.76923077 , 4905.12820513 , 4134.87179487 , 4136.92307692 , 2042.0 , 2036.0 , 195.104 , 0.0 , 0.0 , 0.0 , 0.0 , 

125.0 , 4130.25641026 , 4127.17948718 , 4131.79487179 , 4128.71794872 , 4129.23076923 , 4123.07692308 , 4121.02564103 , 4126.15384615 , 4132.82051282 , 4139.48717949 , 4184.61538462 , 4908.71794872 , 4124.1025641 , 4134.87179487 , 2042.0 , 2035.0 , 195.109 , 0.0 , 0.0 , 0.0 , 0.0 , 

126.0 , 4127.17948718 , 4128.71794872 , 4129.23076923 , 4131.79487179 , 4130.25641026 , 4127.69230769 , 4127.69230769 , 4133.84615385 , 4135.38461538 , 4135.38461538 , 4185.64102564 , 4906.15384615 , 4129.23076923 , 4134.87179487 , 2041.0 , 2035.0 , 195.118 , 0.0 , 0.0 , 0.0 , 0.0 , 

127.0 , 4128.20512821 , 4125.12820513 , 4128.71794872 , 4127.69230769 , 4127.69230769 , 4123.58974359 , 4119.48717949 , 4123.58974359 , 4128.20512821 , 4131.79487179 , 4186.66666667 , 4907.17948718 , 4131.79487179 , 4138.46153846 , 2043.0 , 2035.0 , 195.128 , 0.0 , 0.0 , 0.0 , 0.0 , 

128.0 , 4130.25641026 , 4130.76923077 , 4125.64102564 , 4132.82051282 , 4128.20512821 , 4128.71794872 , 4121.02564103 , 4131.28205128 , 4132.82051282 , 4133.33333333 , 4189.74358974 , 4904.1025641 , 4136.41025641 , 4138.97435897 , 2044.0 , 2035.0 , 195.133 , 0.0 , 0.0 , 0.0 , 0.0 , 

0.0 , 4127.17948718 , 4125.12820513 , 4128.20512821 , 4130.76923077 , 4127.69230769 , 4127.17948718 , 4118.46153846 , 4128.20512821 , 4128.71794872 , 4135.38461538 , 4184.61538462 , 4904.61538462 , 4127.69230769 , 4138.46153846 , 2043.0 , 2033.0 , 195.141 , 0.0 , 0.0 , 0.0 , 0.0 , 

1.0 , 4127.69230769 , 4126.66666667 , 4128.20512821 , 4132.82051282 , 4126.66666667 , 4126.66666667 , 4125.12820513 , 4131.28205128 , 4129.74358974 , 4137.43589744 , 4187.17948718 , 4906.66666667 , 4132.30769231 , 4137.43589744 , 2044.0 , 2033.0 , 195.149 , 0.0 , 0.0 , 0.0 , 0.0 , 

2.0 , 4130.25641026 , 4129.23076923 , 4135.38461538 , 4129.74358974 , 4125.64102564 , 4125.12820513 , 4121.53846154 , 4128.20512821 , 4128.71794872 , 4138.46153846 , 4187.17948718 , 4911.79487179 , 4131.79487179 , 4134.35897436 , 2043.0 , 2031.0 , 195.16 , 0.0 , 0.0 , 0.0 , 0.0 , 

3.0 , 4129.74358974 , 4130.25641026 , 4134.87179487 , 4128.20512821 , 4128.71794872 , 4128.71794872 , 4118.97435897 , 4128.20512821 , 4128.71794872 , 4141.02564103 , 4186.15384615 , 4908.71794872 , 4130.76923077 , 4134.35897436 , 2042.0 , 2032.0 , 195.165 , 0.0 , 0.0 , 0.0 , 0.0 , 

4.0 , 4129.23076923 , 4125.12820513 , 4130.25641026 , 4125.64102564 , 4130.25641026 , 4127.17948718 , 4119.48717949 , 4126.66666667 , 4128.20512821 , 4138.46153846 , 4185.64102564 , 4906.66666667 , 4129.23076923 , 4138.97435897 , 2042.0 , 2033.0 , 195.172 , 0.0 , 0.0 , 0.0 , 0.0 , 

5.0 , 4129.23076923 , 4127.17948718 , 4129.23076923 , 4128.71794872 , 4128.71794872 , 4127.17948718 , 4124.61538462 , 4127.69230769 , 4126.15384615 , 4135.38461538 , 4186.15384615 , 4906.66666667 , 4128.20512821 , 4140.0 , 2041.0 , 2032.0 , 195.18 , 0.0 , 0.0 , 0.0 , 0.0 , 

6.0 , 4125.64102564 , 4128.71794872 , 4128.71794872 , 4131.79487179 , 4123.58974359 , 4127.17948718 , 4124.1025641 , 4132.30769231 , 4130.76923077 , 4135.38461538 , 4187.17948718 , 4906.15384615 , 4132.30769231 , 4136.41025641 , 2042.0 , 2034.0 , 195.191 , 0.0 , 0.0 , 0.0 , 0.0 , 

7.0 , 4129.74358974 , 4127.17948718 , 4129.74358974 , 4128.71794872 , 4125.64102564 , 4123.07692308 , 4120.0 , 4128.20512821 , 4132.30769231 , 4135.8974359 , 4187.17948718 , 4907.17948718 , 4130.25641026 , 4137.43589744 , 2042.0 , 2034.0 , 195.196 , 0.0 , 0.0 , 0.0 , 0.0 , 

8.0 , 4130.25641026 , 4130.25641026 , 4128.71794872 , 4130.25641026 , 4129.23076923 , 4124.1025641 , 4123.58974359 , 4134.87179487 , 4136.41025641 , 4137.94871795 , 4190.25641026 , 4905.64102564 , 4131.28205128 , 4138.46153846 , 2042.0 , 2035.0 , 195.205 , 0.0 , 0.0 , 0.0 , 0.0 , 

9.0 , 4129.74358974 , 4129.23076923 , 4131.28205128 , 4130.25641026 , 4128.71794872 , 4125.12820513 , 4123.07692308 , 4129.74358974 , 4129.23076923 , 4138.97435897 , 4187.17948718 , 4905.12820513 , 4124.1025641 , 4138.46153846 , 2042.0 , 2035.0 , 195.212 , 0.0 , 0.0 , 0.0 , 0.0 , 

10.0 , 4129.23076923 , 4128.20512821 , 4127.69230769 , 4132.82051282 , 4126.15384615 , 4128.71794872 , 4127.17948718 , 4130.76923077 , 4132.82051282 , 4140.0 , 4186.15384615 , 4905.12820513 , 4134.35897436 , 4137.43589744 , 2042.0 , 2036.0 , 195.224 , 0.0 , 0.0 , 0.0 , 0.0 , 

11.0 , 4131.28205128 , 4123.58974359 , 4131.28205128 , 4127.17948718 , 4127.17948718 , 4125.12820513 , 4118.46153846 , 4119.48717949 , 4124.1025641 , 4138.97435897 , 4185.64102564 , 4910.25641026 , 4131.28205128 , 4137.94871795 , 2042.0 , 2035.0 , 195.228 , 0.0 , 0.0 , 0.0 , 0.0 , 

12.0 , 4129.74358974 , 4125.64102564 , 4130.76923077 , 4130.76923077 , 4129.23076923 , 4124.61538462 , 4119.48717949 , 4130.76923077 , 4129.23076923 , 4138.97435897 , 4191.79487179 , 4909.23076923 , 4130.25641026 , 4135.8974359 , 2040.0 , 2036.0 , 195.236 , 0.0 , 0.0 , 0.0 , 0.0 , 

13.0 , 4132.30769231 , 4124.61538462 , 4135.8974359 , 4127.69230769 , 4129.23076923 , 4122.56410256 , 4117.94871795 , 4123.58974359 , 4128.20512821 , 4133.33333333 , 4187.69230769 , 4910.76923077 , 4121.53846154 , 4134.87179487 , 2042.0 , 2035.0 , 195.244 , 0.0 , 0.0 , 0.0 , 0.0 , 

14.0 , 4129.23076923 , 4130.76923077 , 4128.71794872 , 4132.30769231 , 4126.15384615 , 4127.69230769 , 4122.56410256 , 4132.30769231 , 4134.87179487 , 4135.38461538 , 4188.20512821 , 4908.20512821 , 4131.28205128 , 4135.38461538 , 2042.0 , 2032.0 , 195.255 , 0.0 , 0.0 , 0.0 , 0.0 , 

15.0 , 4128.20512821 , 4128.20512821 , 4130.25641026 , 4130.25641026 , 4125.64102564 , 4121.53846154 , 4116.41025641 , 4125.12820513 , 4127.69230769 , 4137.94871795 , 4188.71794872 , 4910.25641026 , 4126.66666667 , 4137.94871795 , 2042.0 , 2033.0 , 195.259 , 0.0 , 0.0 , 0.0 , 0.0 , 

16.0 , 4129.74358974 , 4132.82051282 , 4129.23076923 , 4135.38461538 , 4128.20512821 , 4124.61538462 , 4125.64102564 , 4131.79487179 , 4132.82051282 , 4135.38461538 , 4193.84615385 , 4907.69230769 , 4133.33333333 , 4137.43589744 , 2043.0 , 2033.0 , 195.266 , 0.0 , 0.0 , 0.0 , 0.0 , 

17.0 , 4130.76923077 , 4128.20512821 , 4132.82051282 , 4131.79487179 , 4125.64102564 , 4126.66666667 , 4122.05128205 , 4124.61538462 , 4130.76923077 , 4132.30769231 , 4189.23076923 , 4909.23076923 , 4131.28205128 , 4137.43589744 , 2044.0 , 2033.0 , 195.275 , 0.0 , 0.0 , 0.0 , 0.0 , 

18.0 , 4130.25641026 , 4125.64102564 , 4129.23076923 , 4132.82051282 , 4125.12820513 , 4132.82051282 , 4123.07692308 , 4133.33333333 , 4134.35897436 , 4137.43589744 , 4189.74358974 , 4906.66666667 , 4131.79487179 , 4138.46153846 , 2045.0 , 2036.0 , 195.287 , 0.0 , 0.0 , 0.0 , 0.0 , 

19.0 , 4131.79487179 , 4125.64102564 , 4130.76923077 , 4129.23076923 , 4128.71794872 , 4129.23076923 , 4121.02564103 , 4128.20512821 , 4129.74358974 , 4137.94871795 , 4186.15384615 , 4906.66666667 , 4124.1025641 , 4139.48717949 , 2045.0 , 2036.0 , 195.291 , 0.0 , 0.0 , 0.0 , 0.0 , 

20.0 , 4131.79487179 , 4132.82051282 , 4129.74358974 , 4131.79487179 , 4131.28205128 , 4127.69230769 , 4126.15384615 , 4124.1025641 , 4129.23076923 , 4137.94871795 , 4188.20512821 , 4906.15384615 , 4129.23076923 , 4137.94871795 , 2046.0 , 2034.0 , 195.298 , 0.0 , 0.0 , 0.0 , 0.0 , 

21.0 , 4129.23076923 , 4126.15384615 , 4134.35897436 , 4126.15384615 , 4127.69230769 , 4124.1025641 , 4124.1025641 , 4121.53846154 , 4129.23076923 , 4138.46153846 , 4189.23076923 , 4907.69230769 , 4128.71794872 , 4135.38461538 , 2047.0 , 2033.0 , 195.306 , 0.0 , 0.0 , 0.0 , 0.0 , 

22.0 , 4130.25641026 , 4124.61538462 , 4132.82051282 , 4126.66666667 , 4127.17948718 , 4125.64102564 , 4122.56410256 , 4128.20512821 , 4129.74358974 , 4137.94871795 , 4185.64102564 , 4907.69230769 , 4127.69230769 , 4135.8974359 , 2048.0 , 2031.0 , 195.318 , 0.0 , 0.0 , 0.0 , 0.0 , 

23.0 , 4129.23076923 , 4126.15384615 , 4128.20512821 , 4129.74358974 , 4128.71794872 , 4123.58974359 , 4118.46153846 , 4129.23076923 , 4130.76923077 , 4136.92307692 , 4183.07692308 , 4909.74358974 , 4129.74358974 , 4138.46153846 , 2047.0 , 2032.0 , 195.322 , 0.0 , 0.0 , 0.0 , 0.0 , 

24.0 , 4130.76923077 , 4126.15384615 , 4131.28205128 , 4131.28205128 , 4130.25641026 , 4120.51282051 , 4121.02564103 , 4123.58974359 , 4128.71794872 , 4136.41025641 , 4187.17948718 , 4906.66666667 , 4130.76923077 , 4140.0 , 2046.0 , 2033.0 , 195.331 , 0.0 , 0.0 , 0.0 , 0.0 , 

25.0 , 4131.28205128 , 4126.15384615 , 4130.25641026 , 4131.79487179 , 4129.74358974 , 4126.15384615 , 4129.23076923 , 4130.76923077 , 4133.33333333 , 4136.92307692 , 4189.23076923 , 4904.61538462 , 4131.28205128 , 4137.94871795 , 2047.0 , 2032.0 , 195.338 , 0.0 , 0.0 , 0.0 , 0.0 , 

26.0 , 4132.30769231 , 4125.64102564 , 4127.17948718 , 4132.30769231 , 4127.17948718 , 4127.69230769 , 4125.64102564 , 4129.74358974 , 4129.74358974 , 4137.43589744 , 4185.12820513 , 4910.25641026 , 4127.69230769 , 4136.92307692 , 2045.0 , 2035.0 , 195.348 , 0.0 , 0.0 , 0.0 , 0.0 , 

27.0 , 4131.28205128 , 4127.17948718 , 4127.69230769 , 4132.30769231 , 4126.15384615 , 4126.15384615 , 4124.61538462 , 4131.79487179 , 4133.33333333 , 4138.97435897 , 4186.66666667 , 4908.20512821 , 4133.33333333 , 4137.43589744 , 2044.0 , 2035.0 , 195.355 , 0.0 , 0.0 , 0.0 , 0.0 , 

28.0 , 4134.87179487 , 4128.71794872 , 4135.38461538 , 4126.15384615 , 4130.25641026 , 4123.07692308 , 4123.07692308 , 4123.58974359 , 4129.74358974 , 4137.94871795 , 4185.64102564 , 4903.58974359 , 4127.17948718 , 4138.46153846 , 2044.0 , 2036.0 , 195.361 , 0.0 , 0.0 , 0.0 , 0.0 , 

29.0 , 4131.28205128 , 4128.71794872 , 4130.76923077 , 4131.28205128 , 4128.20512821 , 4128.20512821 , 4125.64102564 , 4133.84615385 , 4134.87179487 , 4140.0 , 4187.17948718 , 4906.15384615 , 4133.84615385 , 4137.43589744 , 2045.0 , 2036.0 , 195.369 , 0.0 , 0.0 , 0.0 , 0.0 , 

30.0 , 4128.20512821 , 4121.02564103 , 4132.82051282 , 4128.20512821 , 4124.61538462 , 4126.15384615 , 4118.46153846 , 4129.23076923 , 4127.69230769 , 4140.0 , 4184.61538462 , 4913.84615385 , 4128.20512821 , 4137.94871795 , 2043.0 , 2037.0 , 195.379 , 0.0 , 0.0 , 0.0 , 0.0 , 

31.0 , 4126.66666667 , 4125.12820513 , 4130.76923077 , 4127.69230769 , 4125.12820513 , 4128.20512821 , 4123.58974359 , 4135.8974359 , 4131.79487179 , 4136.41025641 , 4188.71794872 , 4908.20512821 , 4131.79487179 , 4137.94871795 , 2043.0 , 2036.0 , 195.385 , 0.0 , 0.0 , 0.0 , 0.0 , 

32.0 , 4128.71794872 , 4127.17948718 , 4132.30769231 , 4123.07692308 , 4127.69230769 , 4123.58974359 , 4120.0 , 4123.07692308 , 4126.15384615 , 4130.25641026 , 4188.71794872 , 4906.15384615 , 4127.17948718 , 4139.48717949 , 2042.0 , 2034.0 , 195.394 , 0.0 , 0.0 , 0.0 , 0.0 , 

33.0 , 4128.71794872 , 4131.28205128 , 4128.71794872 , 4130.25641026 , 4129.74358974 , 4127.17948718 , 4125.64102564 , 4132.82051282 , 4133.84615385 , 4136.41025641 , 4192.30769231 , 4905.64102564 , 4133.33333333 , 4138.97435897 , 2041.0 , 2033.0 , 195.402 , 0.0 , 0.0 , 0.0 , 0.0 , 

34.0 , 4130.76923077 , 4127.17948718 , 4131.79487179 , 4127.69230769 , 4130.76923077 , 4124.61538462 , 4122.05128205 , 4129.74358974 , 4128.20512821 , 4140.0 , 4189.23076923 , 4910.25641026 , 4125.12820513 , 4138.46153846 , 2042.0 , 2032.0 , 195.415 , 0.0 , 0.0 , 0.0 , 0.0 , 

35.0 , 4131.79487179 , 4130.76923077 , 4126.66666667 , 4131.28205128 , 4130.76923077 , 4126.66666667 , 4126.66666667 , 4133.33333333 , 4129.74358974 , 4137.94871795 , 4189.74358974 , 4908.71794872 , 4131.79487179 , 4136.92307692 , 2041.0 , 2031.0 , 195.418 , 0.0 , 0.0 , 0.0 , 0.0 , 

36.0 , 4130.25641026 , 4126.66666667 , 4129.74358974 , 4131.28205128 , 4128.71794872 , 4125.12820513 , 4121.02564103 , 4123.58974359 , 4127.69230769 , 4136.41025641 , 4186.66666667 , 4907.69230769 , 4130.76923077 , 4136.92307692 , 2040.0 , 2031.0 , 195.424 , 0.0 , 0.0 , 0.0 , 0.0 , 

37.0 , 4128.20512821 , 4129.23076923 , 4127.69230769 , 4134.35897436 , 4128.20512821 , 4130.76923077 , 4125.12820513 , 4131.79487179 , 4131.28205128 , 4140.0 , 4188.71794872 , 4903.58974359 , 4132.82051282 , 4135.8974359 , 2040.0 , 2030.0 , 195.433 , 0.0 , 0.0 , 0.0 , 0.0 , 

38.0 , 4129.23076923 , 4127.17948718 , 4129.74358974 , 4127.69230769 , 4127.69230769 , 4126.15384615 , 4122.05128205 , 4127.17948718 , 4125.12820513 , 4136.41025641 , 4186.66666667 , 4907.17948718 , 4129.23076923 , 4137.43589744 , 2041.0 , 2029.0 , 195.445 , 0.0 , 0.0 , 0.0 , 0.0 , 

39.0 , 4132.82051282 , 4127.69230769 , 4130.76923077 , 4129.74358974 , 4128.20512821 , 4120.51282051 , 4121.02564103 , 4125.64102564 , 4128.20512821 , 4135.38461538 , 4188.71794872 , 4908.71794872 , 4132.30769231 , 4138.97435897 , 2043.0 , 2029.0 , 195.45 , 0.0 , 0.0 , 0.0 , 0.0 , 

40.0 , 4131.79487179 , 4123.07692308 , 4133.84615385 , 4130.76923077 , 4125.12820513 , 4117.43589744 , 4116.41025641 , 4125.64102564 , 4131.28205128 , 4138.46153846 , 4190.25641026 , 4909.74358974 , 4129.74358974 , 4138.46153846 , 2043.0 , 2031.0 , 195.456 , 0.0 , 0.0 , 0.0 , 0.0 , 

41.0 , 4132.30769231 , 4127.17948718 , 4132.30769231 , 4129.74358974 , 4127.17948718 , 4122.05128205 , 4122.05128205 , 4128.20512821 , 4127.69230769 , 4139.48717949 , 4189.74358974 , 4907.17948718 , 4129.23076923 , 4138.46153846 , 2042.0 , 2032.0 , 195.464 , 0.0 , 0.0 , 0.0 , 0.0 , 

42.0 , 4130.25641026 , 4130.25641026 , 4129.74358974 , 4130.76923077 , 4130.76923077 , 4124.1025641 , 4129.23076923 , 4129.74358974 , 4128.20512821 , 4138.97435897 , 4187.17948718 , 4908.20512821 , 4133.33333333 , 4138.97435897 , 2043.0 , 2033.0 , 195.477 , 0.0 , 0.0 , 0.0 , 0.0 , 

43.0 , 4128.20512821 , 4128.20512821 , 4130.25641026 , 4133.33333333 , 4128.71794872 , 4122.56410256 , 4125.12820513 , 4125.64102564 , 4127.69230769 , 4139.48717949 , 4188.71794872 , 4910.25641026 , 4129.74358974 , 4139.48717949 , 2043.0 , 2033.0 , 195.48 , 0.0 , 0.0 , 0.0 , 0.0 , 

44.0 , 4127.69230769 , 4126.66666667 , 4128.71794872 , 4134.35897436 , 4125.64102564 , 4123.58974359 , 4122.56410256 , 4129.74358974 , 4128.71794872 , 4140.0 , 4190.76923077 , 4907.69230769 , 4129.23076923 , 4137.94871795 , 2044.0 , 2033.0 , 195.488 , 0.0 , 0.0 , 0.0 , 0.0 , 

45.0 , 4133.84615385 , 4127.69230769 , 4131.28205128 , 4131.79487179 , 4128.71794872 , 4127.69230769 , 4123.58974359 , 4127.69230769 , 4126.15384615 , 4137.94871795 , 4186.15384615 , 4906.66666667 , 4127.69230769 , 4138.46153846 , 2045.0 , 2033.0 , 195.496 , 0.0 , 0.0 , 0.0 , 0.0 , 

46.0 , 4131.79487179 , 4129.74358974 , 4129.23076923 , 4133.33333333 , 4126.66666667 , 4133.33333333 , 4126.66666667 , 4134.87179487 , 4136.41025641 , 4141.02564103 , 4187.69230769 , 4906.15384615 , 4134.35897436 , 4138.46153846 , 2045.0 , 2034.0 , 195.508 , 0.0 , 0.0 , 0.0 , 0.0 , 

47.0 , 4130.25641026 , 4125.64102564 , 4133.33333333 , 4128.20512821 , 4125.12820513 , 4125.64102564 , 4118.97435897 , 4122.05128205 , 4126.15384615 , 4142.56410256 , 4187.17948718 , 4910.25641026 , 4129.23076923 , 4137.94871795 , 2046.0 , 2034.0 , 195.511 , 0.0 , 0.0 , 0.0 , 0.0 , 

48.0 , 4129.74358974 , 4129.74358974 , 4130.25641026 , 4131.79487179 , 4129.74358974 , 4124.1025641 , 4125.64102564 , 4127.69230769 , 4126.15384615 , 4138.97435897 , 4187.69230769 , 4908.20512821 , 4131.79487179 , 4135.8974359 , 2045.0 , 2035.0 , 195.52 , 0.0 , 0.0 , 0.0 , 0.0 , 

49.0 , 4132.30769231 , 4126.66666667 , 4132.30769231 , 4129.74358974 , 4130.25641026 , 4123.07692308 , 4121.02564103 , 4123.07692308 , 4126.66666667 , 4132.82051282 , 4185.12820513 , 4907.69230769 , 4124.1025641 , 4136.41025641 , 2044.0 , 2034.0 , 195.527 , 0.0 , 0.0 , 0.0 , 0.0 , 

50.0 , 4129.23076923 , 4127.69230769 , 4129.23076923 , 4132.82051282 , 4126.15384615 , 4126.66666667 , 4123.58974359 , 4129.23076923 , 4134.35897436 , 4136.41025641 , 4190.25641026 , 4906.15384615 , 4133.84615385 , 4136.92307692 , 2045.0 , 2033.0 , 195.539 , 0.0 , 0.0 , 0.0 , 0.0 , 

51.0 , 4129.23076923 , 4125.12820513 , 4133.84615385 , 4128.20512821 , 4128.71794872 , 4120.0 , 4121.53846154 , 4118.97435897 , 4122.56410256 , 4138.97435897 , 4188.20512821 , 4908.20512821 , 4128.20512821 , 4138.97435897 , 2045.0 , 2032.0 , 195.543 , 0.0 , 0.0 , 0.0 , 0.0 , 

52.0 , 4129.74358974 , 4128.71794872 , 4128.71794872 , 4132.82051282 , 4130.76923077 , 4126.66666667 , 4124.1025641 , 4131.79487179 , 4126.66666667 , 4138.97435897 , 4190.25641026 , 4903.58974359 , 4131.28205128 , 4137.43589744 , 2044.0 , 2032.0 , 195.55 , 0.0 , 0.0 , 0.0 , 0.0 , 

53.0 , 4131.79487179 , 4123.58974359 , 4128.71794872 , 4128.20512821 , 4128.20512821 , 4127.69230769 , 4115.38461538 , 4128.20512821 , 4126.15384615 , 4136.92307692 , 4188.20512821 , 4905.64102564 , 4129.23076923 , 4135.8974359 , 2044.0 , 2032.0 , 195.558 , 0.0 , 0.0 , 0.0 , 0.0 , 

54.0 , 4132.30769231 , 4127.17948718 , 4126.66666667 , 4131.28205128 , 4128.71794872 , 4126.66666667 , 4124.1025641 , 4132.30769231 , 4131.79487179 , 4141.02564103 , 4190.76923077 , 4906.66666667 , 4134.87179487 , 4136.41025641 , 2045.0 , 2032.0 , 195.572 , 0.0 , 0.0 , 0.0 , 0.0 , 

55.0 , 4132.30769231 , 4126.66666667 , 4131.28205128 , 4130.25641026 , 4128.71794872 , 4123.07692308 , 4123.07692308 , 4128.20512821 , 4130.76923077 , 4141.02564103 , 4186.66666667 , 4908.71794872 , 4125.12820513 , 4138.46153846 , 2045.0 , 2033.0 , 195.575 , 0.0 , 0.0 , 0.0 , 0.0 , 

56.0 , 4132.30769231 , 4129.23076923 , 4128.71794872 , 4129.74358974 , 4130.25641026 , 4130.25641026 , 4124.61538462 , 4134.35897436 , 4131.79487179 , 4140.0 , 4188.20512821 , 4908.20512821 , 4130.25641026 , 4137.94871795 , 2045.0 , 2033.0 , 195.582 , 0.0 , 0.0 , 0.0 , 0.0 , 

57.0 , 4130.76923077 , 4125.12820513 , 4131.79487179 , 4123.07692308 , 4130.25641026 , 4127.69230769 , 4123.07692308 , 4124.1025641 , 4127.17948718 , 4135.8974359 , 4187.17948718 , 4909.74358974 , 4131.79487179 , 4136.92307692 , 2044.0 , 2033.0 , 195.59 , 0.0 , 0.0 , 0.0 , 0.0 , 

58.0 , 4130.25641026 , 4127.69230769 , 4134.35897436 , 4130.25641026 , 4127.69230769 , 4126.15384615 , 4125.64102564 , 4121.02564103 , 4129.74358974 , 4134.87179487 , 4186.66666667 , 4907.69230769 , 4126.66666667 , 4136.41025641 , 2044.0 , 2033.0 , 195.603 , 0.0 , 0.0 , 0.0 , 0.0 , 

59.0 , 4128.71794872 , 4129.23076923 , 4132.82051282 , 4131.28205128 , 4126.66666667 , 4125.12820513 , 4123.58974359 , 4123.07692308 , 4129.23076923 , 4135.8974359 , 4186.66666667 , 4909.23076923 , 4124.1025641 , 4136.41025641 , 2044.0 , 2034.0 , 195.607 , 0.0 , 0.0 , 0.0 , 0.0 , 

60.0 , 4129.74358974 , 4130.25641026 , 4129.23076923 , 4126.15384615 , 4130.76923077 , 4125.12820513 , 4126.66666667 , 4123.58974359 , 4125.64102564 , 4134.87179487 , 4188.20512821 , 4908.20512821 , 4129.74358974 , 4137.43589744 , 2044.0 , 2034.0 , 195.612 , 0.0 , 0.0 , 0.0 , 0.0 , 

61.0 , 4131.28205128 , 4125.64102564 , 4131.28205128 , 4127.17948718 , 4127.17948718 , 4126.15384615 , 4128.71794872 , 4127.17948718 , 4132.82051282 , 4135.38461538 , 4188.71794872 , 4907.17948718 , 4132.82051282 , 4136.41025641 , 2045.0 , 2034.0 , 195.621 , 0.0 , 0.0 , 0.0 , 0.0 , 

62.0 , 4133.84615385 , 4124.61538462 , 4135.38461538 , 4129.74358974 , 4124.61538462 , 4128.20512821 , 4126.66666667 , 4127.17948718 , 4130.76923077 , 4138.97435897 , 4187.17948718 , 4909.23076923 , 4126.15384615 , 4136.41025641 , 2043.0 , 2034.0 , 195.633 , 0.0 , 0.0 , 0.0 , 0.0 , 

