['COUNTER', 'AF3', 'F7', 'F3', 'FC5', 'T7', 'P7', 'O1', 'O2', 'P8', 'T8', 'FC6', 'F4', 'F8', 'AF4', 'GYROX', 'GYROY', 'TIMESTAMP', 'FUNC_ID', 'FUNC_VALUE', 'MARKER', 'SYNC_SIGNAL']
91.0 , 3974.35897436 , 3980.51282051 , 3986.66666667 , 3980.51282051 , 3978.97435897 , 3972.30769231 , 3972.82051282 , 3981.53846154 , 3983.07692308 , 3989.23076923 , 3990.25641026 , 4074.35897436 , 3980.51282051 , 3982.56410256 , 2037.0 , 2043.0 , 11.769 , 0.0 , 0.0 , 0.0 , 0.0 , 

92.0 , 3977.94871795 , 3976.92307692 , 3975.8974359 , 3981.02564103 , 3978.46153846 , 3973.84615385 , 3972.82051282 , 3977.94871795 , 3978.97435897 , 3987.17948718 , 3987.69230769 , 4070.76923077 , 3977.94871795 , 3981.02564103 , 2036.0 , 2041.0 , 11.781 , 0.0 , 0.0 , 0.0 , 0.0 , 

93.0 , 3981.02564103 , 3975.8974359 , 3973.33333333 , 3981.53846154 , 3977.43589744 , 3975.38461538 , 3975.8974359 , 3978.97435897 , 3978.97435897 , 3984.61538462 , 3987.69230769 , 4073.33333333 , 3975.8974359 , 3981.53846154 , 2036.0 , 2038.0 , 11.785 , 0.0 , 0.0 , 0.0 , 0.0 , 

94.0 , 3978.46153846 , 3978.46153846 , 3984.1025641 , 3978.97435897 , 3975.8974359 , 3969.23076923 , 3975.8974359 , 3983.58974359 , 3983.07692308 , 3985.64102564 , 3989.23076923 , 4075.38461538 , 3975.8974359 , 3980.0 , 2037.0 , 2037.0 , 11.793 , 0.0 , 0.0 , 0.0 , 0.0 , 

95.0 , 3982.05128205 , 3978.97435897 , 3990.25641026 , 3977.94871795 , 3976.41025641 , 3966.66666667 , 3973.84615385 , 3984.1025641 , 3982.05128205 , 3989.74358974 , 3990.25641026 , 4073.84615385 , 3978.46153846 , 3981.02564103 , 2037.0 , 2036.0 , 11.801 , 0.0 , 0.0 , 0.0 , 0.0 , 

96.0 , 3982.56410256 , 3976.41025641 , 3998.46153846 , 3978.46153846 , 3976.41025641 , 3974.35897436 , 3975.38461538 , 3978.46153846 , 3981.53846154 , 3989.74358974 , 3990.25641026 , 4074.35897436 , 3981.53846154 , 3984.1025641 , 2037.0 , 2033.0 , 11.809 , 0.0 , 0.0 , 0.0 , 0.0 , 

97.0 , 3980.51282051 , 3981.02564103 , 4008.71794872 , 3980.51282051 , 3975.38461538 , 3976.92307692 , 3976.41025641 , 3980.0 , 3987.17948718 , 3989.23076923 , 3993.33333333 , 4078.97435897 , 3983.07692308 , 3986.15384615 , 2035.0 , 2031.0 , 11.817 , 0.0 , 0.0 , 0.0 , 0.0 , 

98.0 , 3978.97435897 , 3982.05128205 , 4013.84615385 , 3982.56410256 , 3976.92307692 , 3973.84615385 , 3973.33333333 , 3982.56410256 , 3986.15384615 , 3987.17948718 , 3992.82051282 , 4076.41025641 , 3981.53846154 , 3984.1025641 , 2034.0 , 2031.0 , 11.826 , 0.0 , 0.0 , 0.0 , 0.0 , 

99.0 , 3980.51282051 , 3976.41025641 , 4005.64102564 , 3983.07692308 , 3980.0 , 3972.82051282 , 3974.87179487 , 3981.02564103 , 3980.0 , 3987.69230769 , 3989.74358974 , 4074.87179487 , 3981.53846154 , 3982.56410256 , 2031.0 , 2030.0 , 11.834 , 0.0 , 0.0 , 0.0 , 0.0 , 

100.0 , 3976.41025641 , 3976.41025641 , 3991.28205128 , 3982.05128205 , 3978.97435897 , 3974.35897436 , 3976.41025641 , 3979.48717949 , 3978.97435897 , 3988.20512821 , 3987.69230769 , 4074.35897436 , 3977.94871795 , 3981.53846154 , 2031.0 , 2032.0 , 11.841 , 0.0 , 0.0 , 0.0 , 0.0 , 

101.0 , 3976.41025641 , 3981.53846154 , 3989.23076923 , 3982.56410256 , 3978.46153846 , 3975.38461538 , 3974.87179487 , 3983.58974359 , 3982.56410256 , 3988.71794872 , 3988.71794872 , 4074.35897436 , 3976.41025641 , 3982.56410256 , 2031.0 , 2034.0 , 11.848 , 0.0 , 0.0 , 0.0 , 0.0 , 

102.0 , 3978.97435897 , 3977.94871795 , 3987.17948718 , 3981.53846154 , 3980.51282051 , 3974.87179487 , 3975.38461538 , 3984.1025641 , 3980.51282051 , 3987.17948718 , 3987.17948718 , 4073.33333333 , 3977.94871795 , 3980.51282051 , 2032.0 , 2034.0 , 11.856 , 0.0 , 0.0 , 0.0 , 0.0 , 

103.0 , 3978.46153846 , 3974.87179487 , 3988.20512821 , 3980.51282051 , 3979.48717949 , 3972.82051282 , 3977.43589744 , 3983.58974359 , 3980.51282051 , 3990.25641026 , 3988.20512821 , 4075.38461538 , 3979.48717949 , 3980.0 , 2032.0 , 2034.0 , 11.864 , 0.0 , 0.0 , 0.0 , 0.0 , 

104.0 , 3978.46153846 , 3977.94871795 , 3990.25641026 , 3982.05128205 , 3978.97435897 , 3973.84615385 , 3974.35897436 , 3984.61538462 , 3982.05128205 , 3992.30769231 , 3990.76923077 , 4075.8974359 , 3980.51282051 , 3981.53846154 , 2033.0 , 2037.0 , 11.872 , 0.0 , 0.0 , 0.0 , 0.0 , 

105.0 , 3980.51282051 , 3979.48717949 , 4001.02564103 , 3982.56410256 , 3980.0 , 3975.8974359 , 3973.33333333 , 3985.12820513 , 3984.1025641 , 3990.25641026 , 3992.30769231 , 4076.41025641 , 3983.58974359 , 3982.56410256 , 2033.0 , 2038.0 , 11.884 , 0.0 , 0.0 , 0.0 , 0.0 , 

106.0 , 3980.51282051 , 3977.43589744 , 4004.61538462 , 3981.53846154 , 3981.02564103 , 3975.38461538 , 3977.94871795 , 3982.56410256 , 3986.15384615 , 3988.20512821 , 3989.74358974 , 4078.46153846 , 3983.58974359 , 3982.05128205 , 2033.0 , 2040.0 , 11.889 , 0.0 , 0.0 , 0.0 , 0.0 , 

107.0 , 3979.48717949 , 3977.94871795 , 4016.41025641 , 3981.02564103 , 3979.48717949 , 3972.30769231 , 3979.48717949 , 3983.07692308 , 3987.17948718 , 3990.76923077 , 3990.25641026 , 4078.46153846 , 3981.53846154 , 3983.07692308 , 2032.0 , 2040.0 , 11.897 , 0.0 , 0.0 , 0.0 , 0.0 , 

108.0 , 3982.05128205 , 3980.0 , 4015.38461538 , 3982.56410256 , 3979.48717949 , 3972.82051282 , 3976.92307692 , 3984.61538462 , 3983.07692308 , 3990.76923077 , 3993.84615385 , 4077.43589744 , 3981.02564103 , 3984.1025641 , 2032.0 , 2040.0 , 11.905 , 0.0 , 0.0 , 0.0 , 0.0 , 

109.0 , 3981.53846154 , 3980.51282051 , 4010.25641026 , 3983.58974359 , 3982.05128205 , 3977.94871795 , 3975.8974359 , 3983.58974359 , 3981.02564103 , 3987.17948718 , 3991.28205128 , 4075.38461538 , 3981.02564103 , 3982.56410256 , 2035.0 , 2042.0 , 11.912 , 0.0 , 0.0 , 0.0 , 0.0 , 

110.0 , 3979.48717949 , 3980.51282051 , 4001.53846154 , 3983.58974359 , 3981.53846154 , 3978.97435897 , 3976.41025641 , 3982.56410256 , 3985.64102564 , 3987.17948718 , 3987.17948718 , 4074.35897436 , 3979.48717949 , 3983.07692308 , 2036.0 , 2041.0 , 11.919 , 0.0 , 0.0 , 0.0 , 0.0 , 

111.0 , 3978.97435897 , 3980.51282051 , 4003.07692308 , 3982.56410256 , 3978.46153846 , 3973.33333333 , 3975.38461538 , 3985.12820513 , 3987.69230769 , 3989.23076923 , 3988.71794872 , 4075.38461538 , 3978.97435897 , 3983.58974359 , 2038.0 , 2037.0 , 11.927 , 0.0 , 0.0 , 0.0 , 0.0 , 

112.0 , 3979.48717949 , 3979.48717949 , 4006.15384615 , 3982.05128205 , 3979.48717949 , 3973.33333333 , 3975.38461538 , 3985.12820513 , 3983.58974359 , 3989.74358974 , 3991.79487179 , 4079.48717949 , 3981.02564103 , 3982.05128205 , 2038.0 , 2035.0 , 11.936 , 0.0 , 0.0 , 0.0 , 0.0 , 

113.0 , 3976.92307692 , 3977.94871795 , 4010.25641026 , 3981.02564103 , 3981.53846154 , 3977.43589744 , 3974.87179487 , 3982.05128205 , 3980.51282051 , 3988.20512821 , 3990.25641026 , 4080.0 , 3984.1025641 , 3982.05128205 , 2039.0 , 2032.0 , 11.943 , 0.0 , 0.0 , 0.0 , 0.0 , 

114.0 , 3980.0 , 3980.51282051 , 4012.82051282 , 3981.53846154 , 3978.46153846 , 3980.0 , 3974.35897436 , 3982.05128205 , 3981.53846154 , 3988.71794872 , 3990.76923077 , 4078.97435897 , 3986.66666667 , 3985.64102564 , 2040.0 , 2030.0 , 11.951 , 0.0 , 0.0 , 0.0 , 0.0 , 

115.0 , 3982.56410256 , 3981.02564103 , 4025.12820513 , 3981.53846154 , 3974.87179487 , 3980.51282051 , 3977.43589744 , 3983.07692308 , 3984.61538462 , 3991.79487179 , 3991.79487179 , 4081.53846154 , 3985.64102564 , 3985.64102564 , 2041.0 , 2029.0 , 11.959 , 0.0 , 0.0 , 0.0 , 0.0 , 

116.0 , 3981.02564103 , 3978.97435897 , 4034.87179487 , 3981.53846154 , 3976.41025641 , 3980.51282051 , 3979.48717949 , 3984.61538462 , 3987.17948718 , 3993.84615385 , 3992.30769231 , 4086.15384615 , 3986.15384615 , 3986.66666667 , 2043.0 , 2027.0 , 11.967 , 0.0 , 0.0 , 0.0 , 0.0 , 

117.0 , 3978.46153846 , 3978.46153846 , 4034.35897436 , 3984.1025641 , 3980.51282051 , 3977.43589744 , 3975.38461538 , 3985.64102564 , 3984.61538462 , 3989.74358974 , 3991.79487179 , 4084.1025641 , 3984.1025641 , 3987.17948718 , 2043.0 , 2027.0 , 11.974 , 0.0 , 0.0 , 0.0 , 0.0 , 

118.0 , 3981.53846154 , 3979.48717949 , 4031.79487179 , 3985.12820513 , 3982.56410256 , 3975.8974359 , 3974.35897436 , 3986.15384615 , 3980.51282051 , 3991.28205128 , 3992.30769231 , 4082.05128205 , 3982.56410256 , 3986.15384615 , 2046.0 , 2028.0 , 11.986 , 0.0 , 0.0 , 0.0 , 0.0 , 

119.0 , 3981.02564103 , 3980.0 , 4036.41025641 , 3984.1025641 , 3981.02564103 , 3973.84615385 , 3976.92307692 , 3984.61538462 , 3984.1025641 , 3995.8974359 , 3991.28205128 , 4082.56410256 , 3982.56410256 , 3984.1025641 , 2046.0 , 2030.0 , 11.99 , 0.0 , 0.0 , 0.0 , 0.0 , 

120.0 , 3981.02564103 , 3980.51282051 , 4041.02564103 , 3983.58974359 , 3980.51282051 , 3973.84615385 , 3976.92307692 , 3987.17948718 , 3990.25641026 , 3994.87179487 , 3990.76923077 , 4086.66666667 , 3984.61538462 , 3986.15384615 , 2047.0 , 2029.0 , 11.999 , 0.0 , 0.0 , 0.0 , 0.0 , 

121.0 , 3982.56410256 , 3980.51282051 , 4032.82051282 , 3981.53846154 , 3982.05128205 , 3980.0 , 3977.94871795 , 3987.69230769 , 3986.15384615 , 3987.17948718 , 3989.74358974 , 4085.64102564 , 3982.56410256 , 3986.15384615 , 2048.0 , 2029.0 , 12.006 , 0.0 , 0.0 , 0.0 , 0.0 , 

122.0 , 3982.05128205 , 3980.51282051 , 4032.30769231 , 3981.02564103 , 3981.53846154 , 3979.48717949 , 3978.46153846 , 3987.17948718 , 3983.07692308 , 3990.25641026 , 3992.30769231 , 4085.64102564 , 3982.56410256 , 3984.1025641 , 2048.0 , 2029.0 , 12.014 , 0.0 , 0.0 , 0.0 , 0.0 , 

123.0 , 3981.02564103 , 3981.53846154 , 4027.69230769 , 3982.56410256 , 3981.02564103 , 3975.38461538 , 3976.41025641 , 3985.12820513 , 3984.61538462 , 3993.84615385 , 3993.84615385 , 4085.12820513 , 3983.07692308 , 3980.51282051 , 2048.0 , 2027.0 , 12.023 , 0.0 , 0.0 , 0.0 , 0.0 , 

124.0 , 3982.05128205 , 3983.07692308 , 4026.15384615 , 3983.07692308 , 3981.02564103 , 3976.92307692 , 3975.8974359 , 3981.53846154 , 3983.58974359 , 3990.76923077 , 3992.30769231 , 4085.64102564 , 3983.07692308 , 3982.05128205 , 2049.0 , 2027.0 , 12.03 , 0.0 , 0.0 , 0.0 , 0.0 , 

125.0 , 3983.07692308 , 3982.56410256 , 4024.61538462 , 3981.53846154 , 3980.51282051 , 3980.0 , 3978.46153846 , 3981.53846154 , 3983.07692308 , 3990.76923077 , 3991.28205128 , 4086.66666667 , 3983.58974359 , 3985.64102564 , 2050.0 , 2028.0 , 12.039 , 0.0 , 0.0 , 0.0 , 0.0 , 

126.0 , 3982.56410256 , 3981.53846154 , 4030.25641026 , 3983.07692308 , 3981.02564103 , 3979.48717949 , 3976.92307692 , 3985.12820513 , 3987.69230769 , 3993.84615385 , 3993.84615385 , 4086.66666667 , 3984.61538462 , 3986.15384615 , 2048.0 , 2027.0 , 12.045 , 0.0 , 0.0 , 0.0 , 0.0 , 

127.0 , 3982.56410256 , 3983.58974359 , 4022.56410256 , 3984.61538462 , 3983.07692308 , 3978.46153846 , 3976.92307692 , 3983.07692308 , 3984.61538462 , 3989.74358974 , 3991.79487179 , 4087.69230769 , 3984.1025641 , 3985.64102564 , 2051.0 , 2026.0 , 12.054 , 0.0 , 0.0 , 0.0 , 0.0 , 

128.0 , 3981.53846154 , 3983.58974359 , 4016.41025641 , 3983.58974359 , 3983.07692308 , 3979.48717949 , 3979.48717949 , 3981.02564103 , 3979.48717949 , 3984.1025641 , 3989.23076923 , 4087.69230769 , 3983.07692308 , 3985.12820513 , 2049.0 , 2026.0 , 12.061 , 0.0 , 0.0 , 0.0 , 0.0 , 

0.0 , 3981.53846154 , 3981.53846154 , 4012.30769231 , 3984.61538462 , 3982.56410256 , 3980.0 , 3980.51282051 , 3984.61538462 , 3982.05128205 , 3986.15384615 , 3990.76923077 , 4091.28205128 , 3983.58974359 , 3985.64102564 , 2048.0 , 2025.0 , 12.069 , 0.0 , 0.0 , 0.0 , 0.0 , 

1.0 , 3980.51282051 , 3981.02564103 , 4021.02564103 , 3982.56410256 , 3981.02564103 , 3980.0 , 3977.43589744 , 3984.61538462 , 3984.61538462 , 3991.28205128 , 3991.79487179 , 4090.76923077 , 3982.56410256 , 3985.64102564 , 2048.0 , 2025.0 , 12.077 , 0.0 , 0.0 , 0.0 , 0.0 , 

2.0 , 3982.05128205 , 3983.07692308 , 4024.61538462 , 3981.53846154 , 3980.0 , 3978.97435897 , 3976.41025641 , 3984.1025641 , 3982.56410256 , 3993.84615385 , 3990.76923077 , 4091.28205128 , 3984.1025641 , 3987.17948718 , 2048.0 , 2024.0 , 12.088 , 0.0 , 0.0 , 0.0 , 0.0 , 

3.0 , 3982.05128205 , 3981.53846154 , 4023.07692308 , 3983.07692308 , 3981.53846154 , 3980.0 , 3977.94871795 , 3986.66666667 , 3985.12820513 , 3991.28205128 , 3993.33333333 , 4091.79487179 , 3986.15384615 , 3986.15384615 , 2048.0 , 2026.0 , 12.093 , 0.0 , 0.0 , 0.0 , 0.0 , 

4.0 , 3982.05128205 , 3981.02564103 , 4028.20512821 , 3984.1025641 , 3981.53846154 , 3983.07692308 , 3980.0 , 3987.69230769 , 3989.23076923 , 3990.25641026 , 3995.8974359 , 4094.87179487 , 3985.12820513 , 3985.64102564 , 2047.0 , 2024.0 , 12.101 , 0.0 , 0.0 , 0.0 , 0.0 , 

5.0 , 3981.02564103 , 3983.07692308 , 4033.84615385 , 3984.1025641 , 3980.0 , 3979.48717949 , 3978.97435897 , 3984.61538462 , 3986.66666667 , 3991.28205128 , 3992.30769231 , 4093.33333333 , 3983.07692308 , 3985.64102564 , 2045.0 , 2024.0 , 12.109 , 0.0 , 0.0 , 0.0 , 0.0 , 

6.0 , 3983.58974359 , 3983.07692308 , 4025.12820513 , 3985.64102564 , 3985.12820513 , 3977.43589744 , 3977.43589744 , 3985.64102564 , 3983.58974359 , 3992.82051282 , 3992.30769231 , 4092.82051282 , 3983.58974359 , 3987.17948718 , 2046.0 , 2025.0 , 12.116 , 0.0 , 0.0 , 0.0 , 0.0 , 

7.0 , 3984.61538462 , 3980.51282051 , 4015.8974359 , 3984.61538462 , 3987.17948718 , 3979.48717949 , 3977.94871795 , 3985.64102564 , 3984.1025641 , 3991.28205128 , 3994.87179487 , 4094.35897436 , 3982.05128205 , 3986.15384615 , 2044.0 , 2028.0 , 12.124 , 0.0 , 0.0 , 0.0 , 0.0 , 

8.0 , 3982.56410256 , 3981.53846154 , 4023.07692308 , 3984.61538462 , 3982.56410256 , 3980.0 , 3977.94871795 , 3984.61538462 , 3985.12820513 , 3991.28205128 , 3992.82051282 , 4095.8974359 , 3982.56410256 , 3985.64102564 , 2043.0 , 2029.0 , 12.132 , 0.0 , 0.0 , 0.0 , 0.0 , 

9.0 , 3980.0 , 3983.07692308 , 4025.12820513 , 3986.15384615 , 3982.56410256 , 3978.46153846 , 3978.46153846 , 3980.51282051 , 3984.1025641 , 3990.25641026 , 3991.28205128 , 4095.38461538 , 3984.1025641 , 3986.15384615 , 2042.0 , 2030.0 , 12.141 , 0.0 , 0.0 , 0.0 , 0.0 , 

10.0 , 3982.05128205 , 3984.61538462 , 4025.12820513 , 3984.61538462 , 3988.20512821 , 3979.48717949 , 3977.94871795 , 3981.02564103 , 3987.17948718 , 3991.28205128 , 3994.87179487 , 4098.46153846 , 3983.07692308 , 3988.20512821 , 2043.0 , 2029.0 , 12.148 , 0.0 , 0.0 , 0.0 , 0.0 , 

11.0 , 3984.1025641 , 3981.53846154 , 4026.15384615 , 3983.07692308 , 3987.17948718 , 3980.51282051 , 3977.43589744 , 3985.64102564 , 3989.74358974 , 3993.84615385 , 3994.35897436 , 4100.51282051 , 3981.53846154 , 3987.69230769 , 2043.0 , 2029.0 , 12.157 , 0.0 , 0.0 , 0.0 , 0.0 , 

12.0 , 3982.56410256 , 3978.97435897 , 4031.28205128 , 3984.61538462 , 3985.64102564 , 3981.53846154 , 3979.48717949 , 3987.69230769 , 3988.71794872 , 3995.8974359 , 3993.84615385 , 4098.97435897 , 3986.66666667 , 3984.61538462 , 2042.0 , 2029.0 , 12.165 , 0.0 , 0.0 , 0.0 , 0.0 , 

13.0 , 3982.05128205 , 3981.02564103 , 4028.71794872 , 3984.1025641 , 3987.69230769 , 3982.56410256 , 3981.02564103 , 3985.12820513 , 3988.20512821 , 3991.79487179 , 3994.35897436 , 4095.38461538 , 3987.17948718 , 3984.1025641 , 2041.0 , 2028.0 , 12.172 , 0.0 , 0.0 , 0.0 , 0.0 , 

14.0 , 3985.12820513 , 3983.58974359 , 4034.35897436 , 3985.12820513 , 3985.12820513 , 3983.07692308 , 3978.46153846 , 3986.66666667 , 3991.79487179 , 3991.79487179 , 3991.28205128 , 4096.41025641 , 3983.58974359 , 3987.17948718 , 2043.0 , 2026.0 , 12.18 , 0.0 , 0.0 , 0.0 , 0.0 , 

15.0 , 3984.61538462 , 3983.58974359 , 4030.76923077 , 3987.69230769 , 3980.0 , 3982.05128205 , 3977.43589744 , 3987.69230769 , 3990.76923077 , 3995.38461538 , 3991.79487179 , 4097.43589744 , 3982.05128205 , 3986.66666667 , 2044.0 , 2025.0 , 12.192 , 0.0 , 0.0 , 0.0 , 0.0 , 

16.0 , 3981.02564103 , 3982.56410256 , 4023.58974359 , 3986.66666667 , 3983.07692308 , 3980.0 , 3978.97435897 , 3983.07692308 , 3987.17948718 , 3996.41025641 , 3996.41025641 , 4098.97435897 , 3982.56410256 , 3987.69230769 , 2044.0 , 2024.0 , 12.195 , 0.0 , 0.0 , 0.0 , 0.0 , 

17.0 , 3981.53846154 , 3983.07692308 , 4021.53846154 , 3984.61538462 , 3989.23076923 , 3981.53846154 , 3978.46153846 , 3981.53846154 , 3986.66666667 , 3993.84615385 , 3995.38461538 , 4100.51282051 , 3983.58974359 , 3989.74358974 , 2044.0 , 2022.0 , 12.203 , 0.0 , 0.0 , 0.0 , 0.0 , 

18.0 , 3983.58974359 , 3985.64102564 , 4035.38461538 , 3984.1025641 , 3985.12820513 , 3985.64102564 , 3980.0 , 3986.66666667 , 3989.23076923 , 3993.84615385 , 3994.35897436 , 4100.51282051 , 3988.20512821 , 3989.74358974 , 2044.0 , 2023.0 , 12.212 , 0.0 , 0.0 , 0.0 , 0.0 , 

19.0 , 3983.58974359 , 3985.64102564 , 4035.8974359 , 3985.12820513 , 3981.53846154 , 3981.53846154 , 3982.56410256 , 3986.66666667 , 3989.23076923 , 3997.43589744 , 3996.41025641 , 4103.58974359 , 3988.20512821 , 3989.23076923 , 2044.0 , 2023.0 , 12.22 , 0.0 , 0.0 , 0.0 , 0.0 , 

20.0 , 3982.05128205 , 3981.53846154 , 4036.92307692 , 3983.07692308 , 3984.61538462 , 3977.43589744 , 3981.53846154 , 3984.61538462 , 3990.25641026 , 3995.8974359 , 3995.8974359 , 4106.15384615 , 3986.15384615 , 3990.25641026 , 2043.0 , 2022.0 , 12.227 , 0.0 , 0.0 , 0.0 , 0.0 , 

21.0 , 3982.56410256 , 3981.02564103 , 4042.56410256 , 3982.05128205 , 3984.61538462 , 3981.02564103 , 3980.51282051 , 3987.69230769 , 3989.23076923 , 3993.33333333 , 3995.8974359 , 4106.66666667 , 3986.15384615 , 3989.74358974 , 2042.0 , 2024.0 , 12.234 , 0.0 , 0.0 , 0.0 , 0.0 , 

22.0 , 3983.07692308 , 3983.07692308 , 4044.1025641 , 3983.07692308 , 3982.56410256 , 3982.56410256 , 3980.0 , 3989.23076923 , 3987.69230769 , 3994.35897436 , 3997.43589744 , 4106.15384615 , 3985.12820513 , 3986.66666667 , 2042.0 , 2025.0 , 12.242 , 0.0 , 0.0 , 0.0 , 0.0 , 

23.0 , 3986.15384615 , 3984.1025641 , 4032.30769231 , 3985.12820513 , 3984.1025641 , 3981.02564103 , 3977.94871795 , 3989.74358974 , 3988.20512821 , 3995.8974359 , 3998.46153846 , 4109.23076923 , 3986.15384615 , 3989.23076923 , 2040.0 , 2023.0 , 12.25 , 0.0 , 0.0 , 0.0 , 0.0 , 

24.0 , 3982.05128205 , 3983.58974359 , 4032.30769231 , 3984.61538462 , 3984.61538462 , 3981.53846154 , 3977.94871795 , 3988.20512821 , 3987.69230769 , 3993.33333333 , 3997.43589744 , 4108.71794872 , 3985.64102564 , 3991.28205128 , 2040.0 , 2020.0 , 12.258 , 0.0 , 0.0 , 0.0 , 0.0 , 

25.0 , 3981.02564103 , 3984.1025641 , 4045.12820513 , 3985.64102564 , 3984.1025641 , 3982.56410256 , 3983.07692308 , 3987.69230769 , 3989.23076923 , 3993.84615385 , 3996.41025641 , 4110.25641026 , 3986.66666667 , 3989.23076923 , 2039.0 , 2019.0 , 12.267 , 0.0 , 0.0 , 0.0 , 0.0 , 

26.0 , 3984.1025641 , 3984.61538462 , 4041.02564103 , 3987.69230769 , 3986.66666667 , 3982.56410256 , 3984.61538462 , 3985.64102564 , 3989.23076923 , 3995.8974359 , 3994.87179487 , 4110.76923077 , 3986.15384615 , 3986.15384615 , 2038.0 , 2017.0 , 12.275 , 0.0 , 0.0 , 0.0 , 0.0 , 

27.0 , 3985.12820513 , 3985.12820513 , 4031.28205128 , 3989.23076923 , 3987.69230769 , 3978.46153846 , 3982.05128205 , 3983.07692308 , 3988.71794872 , 3995.8974359 , 3995.38461538 , 4110.76923077 , 3984.61538462 , 3988.20512821 , 2039.0 , 2016.0 , 12.282 , 0.0 , 0.0 , 0.0 , 0.0 , 

28.0 , 3985.12820513 , 3983.58974359 , 4029.74358974 , 3989.23076923 , 3985.12820513 , 3974.35897436 , 3980.0 , 3980.51282051 , 3988.20512821 , 3994.87179487 , 3994.35897436 , 4109.74358974 , 3984.1025641 , 3989.74358974 , 2038.0 , 2015.0 , 12.294 , 0.0 , 0.0 , 0.0 , 0.0 , 

29.0 , 3986.15384615 , 3983.07692308 , 4037.94871795 , 3989.23076923 , 3986.15384615 , 3979.48717949 , 3979.48717949 , 3985.12820513 , 3990.76923077 , 3996.92307692 , 3995.38461538 , 4110.25641026 , 3986.15384615 , 3989.74358974 , 2038.0 , 2016.0 , 12.298 , 0.0 , 0.0 , 0.0 , 0.0 , 

30.0 , 3984.1025641 , 3984.61538462 , 4038.97435897 , 3988.20512821 , 3987.17948718 , 3984.1025641 , 3978.46153846 , 3988.71794872 , 3990.25641026 , 3994.35897436 , 3997.43589744 , 4108.71794872 , 3983.58974359 , 3989.23076923 , 2039.0 , 2018.0 , 12.306 , 0.0 , 0.0 , 0.0 , 0.0 , 

31.0 , 3981.53846154 , 3984.61538462 , 4038.46153846 , 3986.66666667 , 3985.64102564 , 3982.56410256 , 3978.46153846 , 3989.23076923 , 3990.25641026 , 3993.33333333 , 3997.94871795 , 4111.79487179 , 3983.07692308 , 3987.17948718 , 2039.0 , 2018.0 , 12.314 , 0.0 , 0.0 , 0.0 , 0.0 , 

32.0 , 3985.12820513 , 3983.58974359 , 4031.79487179 , 3988.71794872 , 3985.12820513 , 3983.07692308 , 3979.48717949 , 3987.69230769 , 3990.25641026 , 3997.94871795 , 3994.87179487 , 4115.8974359 , 3987.17948718 , 3987.17948718 , 2041.0 , 2020.0 , 12.322 , 0.0 , 0.0 , 0.0 , 0.0 , 

33.0 , 3986.66666667 , 3985.12820513 , 4035.38461538 , 3990.25641026 , 3986.66666667 , 3983.58974359 , 3981.02564103 , 3986.15384615 , 3990.25641026 , 4001.02564103 , 3994.87179487 , 4116.41025641 , 3987.17948718 , 3990.25641026 , 2041.0 , 2019.0 , 12.33 , 0.0 , 0.0 , 0.0 , 0.0 , 

34.0 , 3984.1025641 , 3985.12820513 , 4030.76923077 , 3988.71794872 , 3986.66666667 , 3984.61538462 , 3982.05128205 , 3985.12820513 , 3990.25641026 , 3998.46153846 , 3997.94871795 , 4114.87179487 , 3984.61538462 , 3991.28205128 , 2041.0 , 2020.0 , 12.337 , 0.0 , 0.0 , 0.0 , 0.0 , 

35.0 , 3985.12820513 , 3985.12820513 , 4025.12820513 , 3985.64102564 , 3986.66666667 , 3986.66666667 , 3983.58974359 , 3985.12820513 , 3990.76923077 , 3996.41025641 , 3996.92307692 , 4114.87179487 , 3985.12820513 , 3990.25641026 , 2042.0 , 2019.0 , 12.346 , 0.0 , 0.0 , 0.0 , 0.0 , 

36.0 , 3988.20512821 , 3988.71794872 , 4022.05128205 , 3985.12820513 , 3987.69230769 , 3983.58974359 , 3985.64102564 , 3985.64102564 , 3989.74358974 , 3996.92307692 , 3994.35897436 , 4116.41025641 , 3985.12820513 , 3991.28205128 , 2042.0 , 2020.0 , 12.353 , 0.0 , 0.0 , 0.0 , 0.0 , 

37.0 , 3984.1025641 , 3987.69230769 , 4030.76923077 , 3988.20512821 , 3986.15384615 , 3979.48717949 , 3982.56410256 , 3988.20512821 , 3989.74358974 , 3996.92307692 , 3995.8974359 , 4119.48717949 , 3985.12820513 , 3991.28205128 , 2043.0 , 2019.0 , 12.362 , 0.0 , 0.0 , 0.0 , 0.0 , 

38.0 , 3983.58974359 , 3985.12820513 , 4028.20512821 , 3992.30769231 , 3985.12820513 , 3983.58974359 , 3980.51282051 , 3991.28205128 , 3988.71794872 , 3997.43589744 , 3996.92307692 , 4120.51282051 , 3986.66666667 , 3988.71794872 , 2042.0 , 2018.0 , 12.368 , 0.0 , 0.0 , 0.0 , 0.0 , 

39.0 , 3989.23076923 , 3985.64102564 , 4020.0 , 3989.23076923 , 3986.15384615 , 3987.69230769 , 3981.53846154 , 3988.71794872 , 3988.20512821 , 3996.41025641 , 3994.35897436 , 4114.87179487 , 3986.66666667 , 3987.17948718 , 2043.0 , 2019.0 , 12.376 , 0.0 , 0.0 , 0.0 , 0.0 , 

40.0 , 3988.20512821 , 3987.69230769 , 4018.97435897 , 3985.64102564 , 3987.69230769 , 3983.58974359 , 3982.05128205 , 3986.15384615 , 3989.74358974 , 3995.38461538 , 3994.87179487 , 4115.38461538 , 3985.64102564 , 3991.28205128 , 2043.0 , 2020.0 , 12.384 , 0.0 , 0.0 , 0.0 , 0.0 , 

41.0 , 3981.53846154 , 3984.61538462 , 4029.23076923 , 3987.17948718 , 3987.69230769 , 3981.53846154 , 3980.51282051 , 3987.17948718 , 3990.25641026 , 3994.35897436 , 3997.43589744 , 4121.02564103 , 3986.66666667 , 3993.84615385 , 2043.0 , 2018.0 , 12.396 , 0.0 , 0.0 , 0.0 , 0.0 , 

42.0 , 3987.17948718 , 3985.12820513 , 4030.25641026 , 3988.71794872 , 3986.66666667 , 3987.17948718 , 3982.56410256 , 3990.76923077 , 3990.25641026 , 3997.43589744 , 3998.46153846 , 4123.58974359 , 3990.25641026 , 3993.84615385 , 2043.0 , 2019.0 , 12.401 , 0.0 , 0.0 , 0.0 , 0.0 , 

43.0 , 3991.79487179 , 3986.66666667 , 4025.12820513 , 3988.71794872 , 3987.69230769 , 3989.23076923 , 3983.58974359 , 3988.20512821 , 3992.82051282 , 3997.94871795 , 3998.46153846 , 4120.0 , 3988.71794872 , 3990.76923077 , 2042.0 , 2019.0 , 12.409 , 0.0 , 0.0 , 0.0 , 0.0 , 

44.0 , 3986.66666667 , 3984.61538462 , 4028.71794872 , 3986.15384615 , 3988.20512821 , 3985.64102564 , 3982.56410256 , 3987.17948718 , 3993.33333333 , 3996.92307692 , 3998.97435897 , 4122.05128205 , 3985.64102564 , 3989.74358974 , 2043.0 , 2017.0 , 12.416 , 0.0 , 0.0 , 0.0 , 0.0 , 

45.0 , 3985.12820513 , 3985.64102564 , 4031.79487179 , 3984.61538462 , 3987.69230769 , 3983.58974359 , 3981.53846154 , 3989.74358974 , 3989.74358974 , 3996.41025641 , 3998.97435897 , 4125.64102564 , 3986.66666667 , 3991.79487179 , 2043.0 , 2017.0 , 12.425 , 0.0 , 0.0 , 0.0 , 0.0 , 

46.0 , 3991.79487179 , 3989.23076923 , 4033.33333333 , 3987.69230769 , 3989.23076923 , 3986.15384615 , 3981.02564103 , 3990.25641026 , 3989.74358974 , 3999.48717949 , 4000.51282051 , 4123.58974359 , 3990.25641026 , 3994.35897436 , 2041.0 , 2016.0 , 12.431 , 0.0 , 0.0 , 0.0 , 0.0 , 

47.0 , 3989.74358974 , 3987.17948718 , 4028.71794872 , 3987.17948718 , 3990.25641026 , 3986.66666667 , 3981.53846154 , 3986.15384615 , 3990.25641026 , 3998.46153846 , 3999.48717949 , 4120.0 , 3989.23076923 , 3989.74358974 , 2041.0 , 2017.0 , 12.439 , 0.0 , 0.0 , 0.0 , 0.0 , 

48.0 , 3986.66666667 , 3985.64102564 , 4033.33333333 , 3985.64102564 , 3988.71794872 , 3984.61538462 , 3981.53846154 , 3987.69230769 , 3991.79487179 , 3998.97435897 , 3999.48717949 , 4123.58974359 , 3989.23076923 , 3989.74358974 , 2042.0 , 2019.0 , 12.447 , 0.0 , 0.0 , 0.0 , 0.0 , 

49.0 , 3988.71794872 , 3987.69230769 , 4041.53846154 , 3988.20512821 , 3988.20512821 , 3984.1025641 , 3981.02564103 , 3990.76923077 , 3992.82051282 , 3998.97435897 , 4001.02564103 , 4127.69230769 , 3990.25641026 , 3993.84615385 , 2040.0 , 2023.0 , 12.456 , 0.0 , 0.0 , 0.0 , 0.0 , 

50.0 , 3987.69230769 , 3989.23076923 , 4047.69230769 , 3991.79487179 , 3989.23076923 , 3985.64102564 , 3981.53846154 , 3990.76923077 , 3991.79487179 , 3996.92307692 , 3999.48717949 , 4127.17948718 , 3992.30769231 , 3994.87179487 , 2039.0 , 2023.0 , 12.463 , 0.0 , 0.0 , 0.0 , 0.0 , 

51.0 , 3985.12820513 , 3988.71794872 , 4036.92307692 , 3989.23076923 , 3989.23076923 , 3987.17948718 , 3982.05128205 , 3989.74358974 , 3989.74358974 , 3994.35897436 , 3995.38461538 , 4123.07692308 , 3988.71794872 , 3991.79487179 , 2040.0 , 2026.0 , 12.471 , 0.0 , 0.0 , 0.0 , 0.0 , 

52.0 , 3988.20512821 , 3986.15384615 , 4032.82051282 , 3986.66666667 , 3990.25641026 , 3986.15384615 , 3984.1025641 , 3991.79487179 , 3991.28205128 , 3997.43589744 , 3999.48717949 , 4124.61538462 , 3987.17948718 , 3989.74358974 , 2040.0 , 2026.0 , 12.479 , 0.0 , 0.0 , 0.0 , 0.0 , 

53.0 , 3989.74358974 , 3986.15384615 , 4027.69230769 , 3988.71794872 , 3990.25641026 , 3983.58974359 , 3985.12820513 , 3990.76923077 , 3991.28205128 , 3996.92307692 , 4001.02564103 , 4129.74358974 , 3991.28205128 , 3990.76923077 , 2040.0 , 2027.0 , 12.487 , 0.0 , 0.0 , 0.0 , 0.0 , 

54.0 , 3985.64102564 , 3988.20512821 , 4020.0 , 3989.74358974 , 3990.76923077 , 3982.56410256 , 3983.07692308 , 3989.74358974 , 3989.23076923 , 3994.87179487 , 3994.35897436 , 4129.74358974 , 3991.28205128 , 3992.30769231 , 2040.0 , 2026.0 , 12.498 , 0.0 , 0.0 , 0.0 , 0.0 , 

55.0 , 3984.61538462 , 3990.25641026 , 4010.76923077 , 3990.76923077 , 3991.28205128 , 3984.61538462 , 3982.56410256 , 3992.30769231 , 3989.23076923 , 3997.94871795 , 3993.84615385 , 4125.64102564 , 3987.17948718 , 3992.82051282 , 2041.0 , 2027.0 , 12.502 , 0.0 , 0.0 , 0.0 , 0.0 , 

56.0 , 3987.17948718 , 3990.25641026 , 4024.61538462 , 3989.74358974 , 3988.71794872 , 3987.17948718 , 3984.61538462 , 3994.35897436 , 3991.79487179 , 3999.48717949 , 4001.02564103 , 4126.66666667 , 3987.69230769 , 3990.76923077 , 2042.0 , 2026.0 , 12.51 , 0.0 , 0.0 , 0.0 , 0.0 , 

57.0 , 3990.25641026 , 3989.23076923 , 4033.84615385 , 3990.25641026 , 3987.69230769 , 3985.12820513 , 3983.58974359 , 3993.33333333 , 3992.82051282 , 3997.43589744 , 4003.07692308 , 4132.30769231 , 3991.28205128 , 3993.33333333 , 2043.0 , 2026.0 , 12.518 , 0.0 , 0.0 , 0.0 , 0.0 , 

58.0 , 3989.23076923 , 3987.69230769 , 4027.17948718 , 3990.25641026 , 3990.25641026 , 3986.15384615 , 3983.07692308 , 3990.76923077 , 3992.82051282 , 3998.46153846 , 3997.43589744 , 4131.79487179 , 3991.79487179 , 3993.84615385 , 2045.0 , 2029.0 , 12.526 , 0.0 , 0.0 , 0.0 , 0.0 , 

59.0 , 3989.23076923 , 3989.23076923 , 4021.02564103 , 3989.23076923 , 3990.76923077 , 3987.69230769 , 3988.20512821 , 3990.25641026 , 3995.38461538 , 4000.0 , 3996.92307692 , 4131.28205128 , 3992.30769231 , 3992.30769231 , 2045.0 , 2030.0 , 12.537 , 0.0 , 0.0 , 0.0 , 0.0 , 

60.0 , 3987.17948718 , 3988.20512821 , 4029.23076923 , 3988.20512821 , 3989.74358974 , 3979.48717949 , 3987.17948718 , 3988.20512821 , 3993.84615385 , 3997.43589744 , 4000.0 , 4130.25641026 , 3988.20512821 , 3992.30769231 , 2045.0 , 2030.0 , 12.542 , 0.0 , 0.0 , 0.0 , 0.0 , 

61.0 , 3986.66666667 , 3986.66666667 , 4026.66666667 , 3991.28205128 , 3989.74358974 , 3975.38461538 , 3983.07692308 , 3990.25641026 , 3987.69230769 , 3998.97435897 , 4001.53846154 , 4131.28205128 , 3985.64102564 , 3992.82051282 , 2044.0 , 2030.0 , 12.55 , 0.0 , 0.0 , 0.0 , 0.0 , 

62.0 , 3988.71794872 , 3986.66666667 , 4012.30769231 , 3994.87179487 , 3988.71794872 , 3984.1025641 , 3985.64102564 , 3991.28205128 , 3986.66666667 , 3996.92307692 , 4000.0 , 4133.84615385 , 3988.20512821 , 3989.74358974 , 2044.0 , 2030.0 , 12.558 , 0.0 , 0.0 , 0.0 , 0.0 , 

63.0 , 3990.25641026 , 3989.74358974 , 4010.25641026 , 3994.35897436 , 3989.23076923 , 3990.25641026 , 3988.20512821 , 3989.74358974 , 3992.30769231 , 3994.35897436 , 3999.48717949 , 4135.38461538 , 3990.76923077 , 3990.25641026 , 2043.0 , 2027.0 , 12.566 , 0.0 , 0.0 , 0.0 , 0.0 , 

64.0 , 3986.66666667 , 3989.23076923 , 4017.43589744 , 3989.74358974 , 3989.23076923 , 3988.20512821 , 3985.12820513 , 3989.74358974 , 3992.82051282 , 3996.41025641 , 3998.97435897 , 4132.30769231 , 3989.23076923 , 3991.79487179 , 2044.0 , 2027.0 , 12.574 , 0.0 , 0.0 , 0.0 , 0.0 , 

65.0 , 3987.69230769 , 3987.69230769 , 4021.02564103 , 3988.20512821 , 3987.69230769 , 3984.61538462 , 3982.05128205 , 3992.30769231 , 3992.30769231 , 3999.48717949 , 3999.48717949 , 4132.82051282 , 3990.25641026 , 3993.33333333 , 2046.0 , 2026.0 , 12.581 , 0.0 , 0.0 , 0.0 , 0.0 , 

66.0 , 3989.23076923 , 3985.64102564 , 4009.23076923 , 3990.25641026 , 3990.25641026 , 3983.58974359 , 3981.53846154 , 3989.74358974 , 3990.76923077 , 3997.43589744 , 3999.48717949 , 4133.33333333 , 3989.74358974 , 3992.82051282 , 2046.0 , 2024.0 , 12.589 , 0.0 , 0.0 , 0.0 , 0.0 , 

67.0 , 3990.76923077 , 3986.15384615 , 4017.94871795 , 3991.28205128 , 3990.25641026 , 3986.15384615 , 3982.05128205 , 3990.25641026 , 3992.30769231 , 3998.46153846 , 4002.05128205 , 4132.30769231 , 3990.25641026 , 3992.30769231 , 2047.0 , 2021.0 , 12.598 , 0.0 , 0.0 , 0.0 , 0.0 , 

68.0 , 3991.28205128 , 3986.66666667 , 4030.76923077 , 3990.76923077 , 3986.15384615 , 3988.20512821 , 3983.58974359 , 3992.82051282 , 3995.38461538 , 4000.51282051 , 4005.12820513 , 4135.38461538 , 3991.79487179 , 3993.84615385 , 2048.0 , 2021.0 , 12.606 , 0.0 , 0.0 , 0.0 , 0.0 , 

69.0 , 3988.71794872 , 3986.66666667 , 4034.35897436 , 3991.28205128 , 3987.69230769 , 3986.15384615 , 3983.07692308 , 3993.33333333 , 3994.35897436 , 4000.51282051 , 4004.61538462 , 4139.48717949 , 3990.76923077 , 3996.41025641 , 2047.0 , 2022.0 , 12.613 , 0.0 , 0.0 , 0.0 , 0.0 , 

70.0 , 3987.17948718 , 3987.69230769 , 4025.12820513 , 3991.79487179 , 3991.79487179 , 3986.66666667 , 3983.58974359 , 3992.82051282 , 3990.76923077 , 3999.48717949 , 4000.0 , 4140.0 , 3988.71794872 , 3993.84615385 , 2046.0 , 2025.0 , 12.621 , 0.0 , 0.0 , 0.0 , 0.0 , 

71.0 , 3990.76923077 , 3989.23076923 , 4026.15384615 , 3992.30769231 , 3988.71794872 , 3987.17948718 , 3983.58974359 , 3994.87179487 , 3993.33333333 , 4002.56410256 , 3999.48717949 , 4139.48717949 , 3991.28205128 , 3991.28205128 , 2047.0 , 2025.0 , 12.629 , 0.0 , 0.0 , 0.0 , 0.0 , 

72.0 , 3991.79487179 , 3989.74358974 , 4016.92307692 , 3991.79487179 , 3986.66666667 , 3986.15384615 , 3982.05128205 , 3996.41025641 , 3994.35897436 , 4003.58974359 , 4000.51282051 , 4141.02564103 , 3993.84615385 , 3992.82051282 , 2048.0 , 2027.0 , 12.636 , 0.0 , 0.0 , 0.0 , 0.0 , 

73.0 , 3988.71794872 , 3989.74358974 , 4006.15384615 , 3990.25641026 , 3990.76923077 , 3986.66666667 , 3985.12820513 , 3993.33333333 , 3990.25641026 , 3998.46153846 , 3998.97435897 , 4140.51282051 , 3991.28205128 , 3992.82051282 , 2048.0 , 2025.0 , 12.645 , 0.0 , 0.0 , 0.0 , 0.0 , 

74.0 , 3990.76923077 , 3989.23076923 , 3996.41025641 , 3990.76923077 , 3992.82051282 , 3987.69230769 , 3989.23076923 , 3991.28205128 , 3987.17948718 , 3995.8974359 , 4002.05128205 , 4136.92307692 , 3988.71794872 , 3992.30769231 , 2047.0 , 2027.0 , 12.652 , 0.0 , 0.0 , 0.0 , 0.0 , 

75.0 , 3990.76923077 , 3987.69230769 , 3996.92307692 , 3991.79487179 , 3990.76923077 , 3987.69230769 , 3986.15384615 , 3993.33333333 , 3989.74358974 , 3998.46153846 , 4003.07692308 , 4134.87179487 , 3991.28205128 , 3993.33333333 , 2047.0 , 2026.0 , 12.661 , 0.0 , 0.0 , 0.0 , 0.0 , 

76.0 , 3989.74358974 , 3988.71794872 , 3996.92307692 , 3992.30769231 , 3990.25641026 , 3987.17948718 , 3981.53846154 , 3994.35897436 , 3992.82051282 , 4000.0 , 4000.0 , 4137.43589744 , 3991.28205128 , 3994.35897436 , 2047.0 , 2025.0 , 12.668 , 0.0 , 0.0 , 0.0 , 0.0 , 

77.0 , 3992.30769231 , 3989.23076923 , 3996.41025641 , 3991.28205128 , 3991.28205128 , 3987.17948718 , 3985.64102564 , 3989.74358974 , 3993.84615385 , 3999.48717949 , 4001.02564103 , 4136.92307692 , 3989.74358974 , 3993.33333333 , 2048.0 , 2028.0 , 12.676 , 0.0 , 0.0 , 0.0 , 0.0 , 

78.0 , 3993.84615385 , 3990.25641026 , 3996.41025641 , 3990.76923077 , 3991.28205128 , 3987.69230769 , 3990.25641026 , 3988.71794872 , 3995.38461538 , 4000.51282051 , 4004.1025641 , 4137.94871795 , 3990.76923077 , 3992.82051282 , 2048.0 , 2027.0 , 12.685 , 0.0 , 0.0 , 0.0 , 0.0 , 

79.0 , 3987.69230769 , 3990.76923077 , 4004.61538462 , 3991.79487179 , 3988.20512821 , 3986.15384615 , 3986.66666667 , 3993.84615385 , 3996.92307692 , 4000.51282051 , 4001.02564103 , 4140.51282051 , 3989.23076923 , 3993.84615385 , 2046.0 , 2025.0 , 12.693 , 0.0 , 0.0 , 0.0 , 0.0 , 

80.0 , 3988.71794872 , 3992.30769231 , 4008.71794872 , 3996.92307692 , 3987.69230769 , 3986.66666667 , 3986.66666667 , 3996.92307692 , 3995.8974359 , 4001.02564103 , 4001.02564103 , 4142.05128205 , 3988.20512821 , 3996.92307692 , 2046.0 , 2024.0 , 12.7 , 0.0 , 0.0 , 0.0 , 0.0 , 

81.0 , 3992.30769231 , 3991.28205128 , 4005.64102564 , 3996.92307692 , 3990.76923077 , 3988.71794872 , 3990.25641026 , 3992.82051282 , 3994.87179487 , 4001.53846154 , 4002.56410256 , 4141.02564103 , 3992.30769231 , 3995.8974359 , 2044.0 , 2026.0 , 12.708 , 0.0 , 0.0 , 0.0 , 0.0 , 

82.0 , 3992.82051282 , 3990.25641026 , 4010.76923077 , 3993.33333333 , 3992.30769231 , 3986.15384615 , 3987.69230769 , 3990.76923077 , 3996.92307692 , 4003.58974359 , 4001.53846154 , 4141.02564103 , 3995.8974359 , 3994.35897436 , 2043.0 , 2027.0 , 12.716 , 0.0 , 0.0 , 0.0 , 0.0 , 

83.0 , 3991.79487179 , 3990.76923077 , 4015.8974359 , 3992.82051282 , 3990.76923077 , 3984.61538462 , 3983.58974359 , 3992.30769231 , 3995.8974359 , 4002.05128205 , 4000.51282051 , 4138.97435897 , 3992.30769231 , 3992.82051282 , 2043.0 , 2027.0 , 12.724 , 0.0 , 0.0 , 0.0 , 0.0 , 

84.0 , 3992.82051282 , 3990.25641026 , 4014.87179487 , 3996.41025641 , 3991.28205128 , 3986.66666667 , 3986.66666667 , 3995.8974359 , 3993.84615385 , 4000.51282051 , 4003.58974359 , 4141.02564103 , 3992.30769231 , 3994.87179487 , 2043.0 , 2027.0 , 12.732 , 0.0 , 0.0 , 0.0 , 0.0 , 

85.0 , 3989.74358974 , 3989.23076923 , 4011.28205128 , 3995.8974359 , 3992.30769231 , 3986.15384615 , 3988.20512821 , 3994.87179487 , 3993.84615385 , 4001.53846154 , 4001.53846154 , 4142.05128205 , 3991.28205128 , 3993.84615385 , 2041.0 , 2027.0 , 12.74 , 0.0 , 0.0 , 0.0 , 0.0 , 

86.0 , 3987.69230769 , 3992.82051282 , 4022.56410256 , 3992.30769231 , 3992.82051282 , 3987.69230769 , 3987.69230769 , 3994.87179487 , 3995.8974359 , 4004.1025641 , 4001.02564103 , 4140.0 , 3990.25641026 , 3992.82051282 , 2042.0 , 2027.0 , 12.748 , 0.0 , 0.0 , 0.0 , 0.0 , 

87.0 , 3992.30769231 , 3995.8974359 , 4020.0 , 3992.30769231 , 3991.28205128 , 3990.76923077 , 3990.25641026 , 3994.87179487 , 3993.84615385 , 4001.53846154 , 4004.1025641 , 4142.56410256 , 3992.30769231 , 3994.87179487 , 2042.0 , 2028.0 , 12.756 , 0.0 , 0.0 , 0.0 , 0.0 , 

88.0 , 3992.82051282 , 3991.79487179 , 4020.51282051 , 3995.8974359 , 3987.17948718 , 3988.71794872 , 3990.25641026 , 3995.38461538 , 3994.35897436 , 4001.02564103 , 4005.12820513 , 4146.66666667 , 3994.35897436 , 3995.38461538 , 2042.0 , 2026.0 , 12.763 , 0.0 , 0.0 , 0.0 , 0.0 , 

89.0 , 3987.69230769 , 3988.71794872 , 4033.33333333 , 3995.8974359 , 3988.20512821 , 3986.66666667 , 3986.66666667 , 3994.87179487 , 3996.41025641 , 4003.07692308 , 4005.12820513 , 4143.58974359 , 3993.84615385 , 3993.33333333 , 2042.0 , 2027.0 , 12.771 , 0.0 , 0.0 , 0.0 , 0.0 , 

90.0 , 3988.20512821 , 3990.25641026 , 4042.56410256 , 3990.25641026 , 3991.79487179 , 3988.71794872 , 3986.66666667 , 3995.8974359 , 3997.43589744 , 4003.07692308 , 4006.15384615 , 4144.1025641 , 3993.33333333 , 3994.35897436 , 2042.0 , 2028.0 , 12.778 , 0.0 , 0.0 , 0.0 , 0.0 , 

91.0 , 3992.82051282 , 3989.23076923 , 4028.20512821 , 3989.74358974 , 3991.79487179 , 3988.20512821 , 3987.69230769 , 3995.38461538 , 3997.43589744 , 4001.02564103 , 4006.66666667 , 4149.23076923 , 3993.33333333 , 3997.43589744 , 2043.0 , 2027.0 , 12.787 , 0.0 , 0.0 , 0.0 , 0.0 , 

92.0 , 3992.82051282 , 3987.17948718 , 4025.12820513 , 3994.87179487 , 3990.76923077 , 3986.66666667 , 3986.66666667 , 3993.84615385 , 3997.43589744 , 4001.02564103 , 4005.64102564 , 4147.17948718 , 3993.84615385 , 3997.43589744 , 2042.0 , 2027.0 , 12.794 , 0.0 , 0.0 , 0.0 , 0.0 , 

93.0 , 3992.30769231 , 3990.25641026 , 4028.20512821 , 3997.94871795 , 3991.28205128 , 3988.20512821 , 3987.17948718 , 3993.33333333 , 3995.38461538 , 4001.53846154 , 4004.61538462 , 4144.61538462 , 3993.33333333 , 3996.41025641 , 2041.0 , 2029.0 , 12.804 , 0.0 , 0.0 , 0.0 , 0.0 , 

94.0 , 3991.79487179 , 3991.28205128 , 4026.66666667 , 3994.35897436 , 3992.30769231 , 3989.23076923 , 3988.71794872 , 3994.35897436 , 3993.84615385 , 4000.0 , 4005.64102564 , 4147.17948718 , 3991.28205128 , 3995.38461538 , 2041.0 , 2028.0 , 12.81 , 0.0 , 0.0 , 0.0 , 0.0 , 

95.0 , 3990.25641026 , 3990.76923077 , 4014.87179487 , 3994.87179487 , 3993.33333333 , 3988.71794872 , 3988.20512821 , 3996.41025641 , 3994.35897436 , 4000.51282051 , 4005.64102564 , 4150.76923077 , 3992.82051282 , 3995.8974359 , 2040.0 , 2028.0 , 12.818 , 0.0 , 0.0 , 0.0 , 0.0 , 

96.0 , 3990.25641026 , 3991.79487179 , 4017.94871795 , 3995.8974359 , 3991.79487179 , 3987.69230769 , 3988.71794872 , 3995.8974359 , 3996.92307692 , 4000.51282051 , 4001.53846154 , 4147.17948718 , 3993.84615385 , 3994.35897436 , 2039.0 , 2028.0 , 12.827 , 0.0 , 0.0 , 0.0 , 0.0 , 

97.0 , 3994.35897436 , 3992.82051282 , 4032.82051282 , 3992.30769231 , 3989.23076923 , 3988.20512821 , 3991.79487179 , 3993.84615385 , 3998.97435897 , 4000.0 , 4001.53846154 , 4146.15384615 , 3995.38461538 , 3992.82051282 , 2040.0 , 2026.0 , 12.834 , 0.0 , 0.0 , 0.0 , 0.0 , 

98.0 , 3992.82051282 , 3989.74358974 , 4032.30769231 , 3991.28205128 , 3990.25641026 , 3989.23076923 , 3992.82051282 , 3993.84615385 , 3997.94871795 , 3999.48717949 , 4003.07692308 , 4146.66666667 , 3995.38461538 , 3994.35897436 , 2040.0 , 2024.0 , 12.842 , 0.0 , 0.0 , 0.0 , 0.0 , 

99.0 , 3992.30769231 , 3991.28205128 , 4014.87179487 , 3994.87179487 , 3993.33333333 , 3988.20512821 , 3989.23076923 , 3997.43589744 , 3996.92307692 , 4002.05128205 , 4002.56410256 , 4149.74358974 , 3994.87179487 , 3997.94871795 , 2040.0 , 2023.0 , 12.85 , 0.0 , 0.0 , 0.0 , 0.0 , 

100.0 , 3994.87179487 , 3993.84615385 , 4010.76923077 , 3994.35897436 , 3990.25641026 , 3986.15384615 , 3986.66666667 , 3995.38461538 , 3995.8974359 , 4002.05128205 , 4003.07692308 , 4150.76923077 , 3992.82051282 , 3996.41025641 , 2041.0 , 2022.0 , 12.857 , 0.0 , 0.0 , 0.0 , 0.0 , 

101.0 , 3995.8974359 , 3992.82051282 , 4026.15384615 , 3992.82051282 , 3989.74358974 , 3988.20512821 , 3989.74358974 , 3993.33333333 , 3994.87179487 , 4003.07692308 , 4007.17948718 , 4149.74358974 , 3994.87179487 , 3997.94871795 , 2041.0 , 2024.0 , 12.865 , 0.0 , 0.0 , 0.0 , 0.0 , 

102.0 , 3995.38461538 , 3992.30769231 , 4022.05128205 , 3996.41025641 , 3994.35897436 , 3990.25641026 , 3992.30769231 , 3996.41025641 , 3992.82051282 , 4003.07692308 , 4005.12820513 , 4148.20512821 , 3995.38461538 , 3998.97435897 , 2043.0 , 2024.0 , 12.874 , 0.0 , 0.0 , 0.0 , 0.0 , 

103.0 , 3995.8974359 , 3996.92307692 , 4007.17948718 , 3996.92307692 , 3995.8974359 , 3988.71794872 , 3990.76923077 , 3997.43589744 , 3994.87179487 , 4001.02564103 , 4002.56410256 , 4151.79487179 , 3993.84615385 , 3997.94871795 , 2041.0 , 2025.0 , 12.881 , 0.0 , 0.0 , 0.0 , 0.0 , 

104.0 , 3990.76923077 , 3998.97435897 , 3997.43589744 , 3994.87179487 , 3994.87179487 , 3990.25641026 , 3987.17948718 , 3994.35897436 , 3994.87179487 , 3999.48717949 , 4000.51282051 , 4151.79487179 , 3993.33333333 , 3996.92307692 , 2041.0 , 2026.0 , 12.889 , 0.0 , 0.0 , 0.0 , 0.0 , 

105.0 , 3989.74358974 , 3996.41025641 , 4003.07692308 , 3995.8974359 , 3995.8974359 , 3993.33333333 , 3987.17948718 , 3996.41025641 , 3993.84615385 , 4002.05128205 , 4000.51282051 , 4149.74358974 , 3994.87179487 , 3994.87179487 , 2042.0 , 2026.0 , 12.897 , 0.0 , 0.0 , 0.0 , 0.0 , 

106.0 , 3994.35897436 , 3995.38461538 , 4000.51282051 , 3996.92307692 , 3996.92307692 , 3990.25641026 , 3990.25641026 , 3997.94871795 , 3992.82051282 , 4002.05128205 , 4002.56410256 , 4151.28205128 , 3992.30769231 , 3992.30769231 , 2042.0 , 2025.0 , 12.909 , 0.0 , 0.0 , 0.0 , 0.0 , 

107.0 , 3993.84615385 , 3994.35897436 , 3998.46153846 , 3994.87179487 , 3993.33333333 , 3986.66666667 , 3991.28205128 , 3995.38461538 , 3996.41025641 , 4002.05128205 , 4004.1025641 , 4152.30769231 , 3991.79487179 , 3994.87179487 , 2044.0 , 2021.0 , 12.912 , 0.0 , 0.0 , 0.0 , 0.0 , 

108.0 , 3991.79487179 , 3991.79487179 , 3994.87179487 , 3996.41025641 , 3992.82051282 , 3989.23076923 , 3989.74358974 , 3993.84615385 , 3998.97435897 , 4003.07692308 , 4004.61538462 , 4149.74358974 , 3992.82051282 , 3995.8974359 , 2043.0 , 2021.0 , 12.92 , 0.0 , 0.0 , 0.0 , 0.0 , 

109.0 , 3992.30769231 , 3991.28205128 , 3998.46153846 , 4000.51282051 , 3995.38461538 , 3991.28205128 , 3990.25641026 , 3996.92307692 , 3996.41025641 , 4002.05128205 , 4006.15384615 , 4150.25641026 , 3993.84615385 , 3997.94871795 , 2044.0 , 2025.0 , 12.929 , 0.0 , 0.0 , 0.0 , 0.0 , 

110.0 , 3994.87179487 , 3992.30769231 , 3998.97435897 , 4000.51282051 , 3994.35897436 , 3988.71794872 , 3991.79487179 , 3995.38461538 , 3993.84615385 , 4002.05128205 , 4006.15384615 , 4153.84615385 , 3992.82051282 , 4002.05128205 , 2044.0 , 2025.0 , 12.937 , 0.0 , 0.0 , 0.0 , 0.0 , 

111.0 , 3996.92307692 , 3991.79487179 , 4003.07692308 , 3997.43589744 , 3991.28205128 , 3987.69230769 , 3990.76923077 , 3993.84615385 , 3996.41025641 , 4006.15384615 , 4008.20512821 , 4150.76923077 , 3992.82051282 , 3999.48717949 , 2041.0 , 2028.0 , 12.944 , 0.0 , 0.0 , 0.0 , 0.0 , 

112.0 , 3995.38461538 , 3991.79487179 , 3998.97435897 , 3996.92307692 , 3993.33333333 , 3989.74358974 , 3990.25641026 , 3995.8974359 , 3996.92307692 , 4006.66666667 , 4009.74358974 , 4149.74358974 , 3995.38461538 , 3995.38461538 , 2041.0 , 2028.0 , 12.953 , 0.0 , 0.0 , 0.0 , 0.0 , 

113.0 , 3990.25641026 , 3993.84615385 , 4005.12820513 , 3995.8974359 , 3996.92307692 , 3988.71794872 , 3990.25641026 , 3997.94871795 , 3997.43589744 , 4004.61538462 , 4005.64102564 , 4154.87179487 , 3996.41025641 , 3996.92307692 , 2040.0 , 2027.0 , 12.96 , 0.0 , 0.0 , 0.0 , 0.0 , 

114.0 , 3996.41025641 , 3994.35897436 , 4013.33333333 , 3996.92307692 , 3996.41025641 , 3987.69230769 , 3990.76923077 , 3999.48717949 , 4001.53846154 , 4007.17948718 , 4007.17948718 , 4160.0 , 3996.41025641 , 3997.94871795 , 2039.0 , 2030.0 , 12.967 , 0.0 , 0.0 , 0.0 , 0.0 , 

115.0 , 4000.51282051 , 3993.84615385 , 4012.82051282 , 3997.43589744 , 3994.87179487 , 3992.30769231 , 3992.30769231 , 3998.97435897 , 4002.56410256 , 4005.64102564 , 4007.69230769 , 4156.92307692 , 3994.87179487 , 3996.92307692 , 2038.0 , 2032.0 , 12.976 , 0.0 , 0.0 , 0.0 , 0.0 , 

116.0 , 3995.38461538 , 3994.87179487 , 4007.69230769 , 3995.8974359 , 3994.35897436 , 3994.35897436 , 3992.30769231 , 3995.38461538 , 3998.97435897 , 4002.05128205 , 4004.61538462 , 4152.82051282 , 3994.35897436 , 3999.48717949 , 2037.0 , 2031.0 , 12.983 , 0.0 , 0.0 , 0.0 , 0.0 , 

117.0 , 3992.82051282 , 3994.87179487 , 4010.76923077 , 3995.38461538 , 3994.35897436 , 3987.17948718 , 3989.74358974 , 3992.82051282 , 3997.94871795 , 4001.53846154 , 4005.64102564 , 4150.76923077 , 3993.84615385 , 3999.48717949 , 2036.0 , 2032.0 , 12.992 , 0.0 , 0.0 , 0.0 , 0.0 , 

118.0 , 3995.8974359 , 3995.38461538 , 4010.25641026 , 3998.46153846 , 3995.38461538 , 3988.20512821 , 3989.74358974 , 3996.92307692 , 3997.43589744 , 4004.1025641 , 4007.69230769 , 4152.82051282 , 3994.87179487 , 3998.97435897 , 2038.0 , 2031.0 , 13.0 , 0.0 , 0.0 , 0.0 , 0.0 , 

119.0 , 3994.87179487 , 3994.87179487 , 3997.94871795 , 3997.43589744 , 3994.87179487 , 3995.38461538 , 3992.30769231 , 3996.92307692 , 3996.92307692 , 4001.53846154 , 4003.07692308 , 4153.33333333 , 3993.33333333 , 3998.97435897 , 2038.0 , 2031.0 , 13.008 , 0.0 , 0.0 , 0.0 , 0.0 , 

120.0 , 3993.84615385 , 3995.8974359 , 4000.0 , 3995.8974359 , 3995.38461538 , 3994.87179487 , 3992.82051282 , 3995.38461538 , 3998.97435897 , 4002.56410256 , 4003.58974359 , 4153.84615385 , 3992.30769231 , 3997.43589744 , 2037.0 , 2031.0 , 13.015 , 0.0 , 0.0 , 0.0 , 0.0 , 

121.0 , 3992.82051282 , 3994.87179487 , 4002.56410256 , 3997.43589744 , 3995.8974359 , 3991.79487179 , 3992.30769231 , 3995.8974359 , 3995.8974359 , 4004.1025641 , 4006.66666667 , 4153.33333333 , 3993.33333333 , 3995.8974359 , 2037.0 , 2028.0 , 13.023 , 0.0 , 0.0 , 0.0 , 0.0 , 

122.0 , 3993.33333333 , 3995.38461538 , 3998.97435897 , 4001.02564103 , 3995.38461538 , 3991.79487179 , 3990.25641026 , 3998.46153846 , 3994.87179487 , 4004.1025641 , 4006.66666667 , 4155.38461538 , 3995.8974359 , 3996.92307692 , 2038.0 , 2028.0 , 13.03 , 0.0 , 0.0 , 0.0 , 0.0 , 

123.0 , 3995.8974359 , 3996.92307692 , 3989.74358974 , 4000.0 , 3995.38461538 , 3991.79487179 , 3990.25641026 , 3997.43589744 , 3997.43589744 , 4002.05128205 , 4007.17948718 , 4152.82051282 , 3994.35897436 , 3997.94871795 , 2040.0 , 2026.0 , 13.038 , 0.0 , 0.0 , 0.0 , 0.0 , 

124.0 , 3995.8974359 , 3994.35897436 , 3991.28205128 , 3994.87179487 , 3995.8974359 , 3990.25641026 , 3993.84615385 , 3995.38461538 , 3997.43589744 , 4000.51282051 , 4008.20512821 , 4152.30769231 , 3992.82051282 , 3996.92307692 , 2041.0 , 2028.0 , 13.046 , 0.0 , 0.0 , 0.0 , 0.0 , 

125.0 , 3994.35897436 , 3992.82051282 , 3986.66666667 , 3996.41025641 , 3994.87179487 , 3989.23076923 , 3994.35897436 , 3993.84615385 , 3995.8974359 , 3999.48717949 , 4007.17948718 , 4154.87179487 , 3992.82051282 , 3996.92307692 , 2045.0 , 2029.0 , 13.055 , 0.0 , 0.0 , 0.0 , 0.0 , 

126.0 , 3997.43589744 , 3996.92307692 , 3987.69230769 , 4001.53846154 , 3994.35897436 , 3990.76923077 , 3991.28205128 , 3995.8974359 , 3997.94871795 , 4003.07692308 , 4006.66666667 , 4156.92307692 , 3994.87179487 , 3998.97435897 , 2046.0 , 2031.0 , 13.063 , 0.0 , 0.0 , 0.0 , 0.0 , 

127.0 , 3997.43589744 , 3997.94871795 , 3986.15384615 , 3998.97435897 , 3995.38461538 , 3990.76923077 , 3994.35897436 , 3994.87179487 , 3997.43589744 , 4006.15384615 , 4004.61538462 , 4155.8974359 , 3991.79487179 , 4000.51282051 , 2047.0 , 2030.0 , 13.071 , 0.0 , 0.0 , 0.0 , 0.0 , 

128.0 , 3993.84615385 , 3994.87179487 , 3992.30769231 , 3993.84615385 , 3995.38461538 , 3988.71794872 , 3998.46153846 , 3993.33333333 , 3996.92307692 , 4005.12820513 , 4006.66666667 , 4155.38461538 , 3989.23076923 , 3998.97435897 , 2049.0 , 2027.0 , 13.079 , 0.0 , 0.0 , 0.0 , 0.0 , 

0.0 , 3996.92307692 , 3995.38461538 , 3993.33333333 , 3997.94871795 , 3996.92307692 , 3989.74358974 , 3995.38461538 , 3996.92307692 , 3998.97435897 , 4007.17948718 , 4012.30769231 , 4156.41025641 , 3993.84615385 , 3996.92307692 , 2049.0 , 2026.0 , 13.087 , 0.0 , 0.0 , 0.0 , 0.0 , 

1.0 , 3998.46153846 , 3997.43589744 , 3992.82051282 , 4000.0 , 3997.43589744 , 3993.84615385 , 3989.23076923 , 4001.02564103 , 4000.51282051 , 4007.69230769 , 4009.74358974 , 4153.84615385 , 3994.35897436 , 3997.94871795 , 2049.0 , 2027.0 , 13.093 , 0.0 , 0.0 , 0.0 , 0.0 , 

2.0 , 3996.92307692 , 3995.38461538 , 3993.33333333 , 3997.43589744 , 3996.92307692 , 3992.82051282 , 3991.28205128 , 4000.51282051 , 4002.05128205 , 4006.15384615 , 4002.56410256 , 4155.38461538 , 3991.79487179 , 4000.0 , 2048.0 , 2029.0 , 13.102 , 0.0 , 0.0 , 0.0 , 0.0 , 

3.0 , 3994.35897436 , 3994.35897436 , 3997.94871795 , 3997.94871795 , 3996.92307692 , 3990.25641026 , 3994.35897436 , 3994.35897436 , 4001.02564103 , 4006.15384615 , 4005.64102564 , 4157.43589744 , 3993.84615385 , 4000.0 , 2046.0 , 2031.0 , 13.11 , 0.0 , 0.0 , 0.0 , 0.0 , 

4.0 , 3996.41025641 , 3997.43589744 , 3992.30769231 , 3999.48717949 , 3996.41025641 , 3994.35897436 , 3992.82051282 , 3993.84615385 , 3997.43589744 , 4007.17948718 , 4010.76923077 , 4154.87179487 , 3997.43589744 , 4000.0 , 2045.0 , 2032.0 , 13.118 , 0.0 , 0.0 , 0.0 , 0.0 , 

5.0 , 3997.43589744 , 3998.46153846 , 3985.12820513 , 3999.48717949 , 3995.8974359 , 3998.46153846 , 3991.79487179 , 3998.97435897 , 3996.92307692 , 4004.61538462 , 4008.20512821 , 4148.20512821 , 3995.38461538 , 4000.51282051 , 2042.0 , 2035.0 , 13.125 , 0.0 , 0.0 , 0.0 , 0.0 , 

6.0 , 3998.46153846 , 3996.41025641 , 3984.1025641 , 4001.53846154 , 3998.46153846 , 3995.38461538 , 3992.82051282 , 4002.05128205 , 3998.97435897 , 4004.1025641 , 4007.69230769 , 4152.82051282 , 3995.8974359 , 4001.53846154 , 2042.0 , 2033.0 , 13.133 , 0.0 , 0.0 , 0.0 , 0.0 , 

7.0 , 3997.43589744 , 3994.35897436 , 3984.61538462 , 3999.48717949 , 3998.46153846 , 3991.28205128 , 3994.35897436 , 3998.97435897 , 4000.51282051 , 4005.12820513 , 4010.25641026 , 4160.51282051 , 3995.38461538 , 3998.97435897 , 2041.0 , 2031.0 , 13.141 , 0.0 , 0.0 , 0.0 , 0.0 , 

8.0 , 3997.94871795 , 3996.41025641 , 3987.17948718 , 3995.38461538 , 3995.8974359 , 3995.38461538 , 3995.38461538 , 3998.97435897 , 4001.53846154 , 4005.64102564 , 4010.25641026 , 4159.48717949 , 3995.8974359 , 4001.53846154 , 2040.0 , 2028.0 , 13.15 , 0.0 , 0.0 , 0.0 , 0.0 , 

9.0 , 3999.48717949 , 3996.41025641 , 3990.25641026 , 3994.35897436 , 3996.41025641 , 3998.97435897 , 3993.84615385 , 4002.05128205 , 3999.48717949 , 4003.58974359 , 4008.20512821 , 4156.92307692 , 3998.97435897 , 4003.58974359 , 2040.0 , 2026.0 , 13.156 , 0.0 , 0.0 , 0.0 , 0.0 , 

10.0 , 4000.51282051 , 3994.35897436 , 3996.92307692 , 3997.43589744 , 3997.43589744 , 3997.94871795 , 3992.30769231 , 4004.61538462 , 3999.48717949 , 4004.61538462 , 4008.71794872 , 4159.48717949 , 3998.97435897 , 4002.56410256 , 2041.0 , 2024.0 , 13.164 , 0.0 , 0.0 , 0.0 , 0.0 , 

11.0 , 3997.43589744 , 3994.35897436 , 4002.56410256 , 3996.92307692 , 3994.87179487 , 3996.41025641 , 3993.33333333 , 4003.58974359 , 4004.61538462 , 4007.17948718 , 4007.69230769 , 4156.92307692 , 3994.35897436 , 4001.53846154 , 2041.0 , 2023.0 , 13.173 , 0.0 , 0.0 , 0.0 , 0.0 , 

12.0 , 3995.8974359 , 3995.38461538 , 4013.84615385 , 3996.41025641 , 3995.8974359 , 3996.41025641 , 3993.84615385 , 4003.58974359 , 4005.64102564 , 4010.25641026 , 4009.23076923 , 4154.35897436 , 3997.43589744 , 4002.56410256 , 2042.0 , 2026.0 , 13.18 , 0.0 , 0.0 , 0.0 , 0.0 , 

13.0 , 3998.97435897 , 3995.38461538 , 4013.33333333 , 3998.46153846 , 3998.97435897 , 3998.46153846 , 3992.82051282 , 4004.61538462 , 4000.0 , 4007.69230769 , 4009.74358974 , 4158.46153846 , 4002.05128205 , 4002.56410256 , 2041.0 , 2028.0 , 13.189 , 0.0 , 0.0 , 0.0 , 0.0 , 

14.0 , 4000.51282051 , 3994.35897436 , 4005.64102564 , 3999.48717949 , 3998.46153846 , 3996.41025641 , 3992.82051282 , 4004.61538462 , 3998.97435897 , 4004.61538462 , 4008.71794872 , 4159.48717949 , 3999.48717949 , 4002.56410256 , 2042.0 , 2028.0 , 13.196 , 0.0 , 0.0 , 0.0 , 0.0 , 

15.0 , 3997.43589744 , 3992.82051282 , 3991.79487179 , 3999.48717949 , 3997.43589744 , 3990.25641026 , 3993.33333333 , 3999.48717949 , 4000.0 , 4005.12820513 , 4008.71794872 , 4153.33333333 , 3994.35897436 , 4000.51282051 , 2042.0 , 2028.0 , 13.205 , 0.0 , 0.0 , 0.0 , 0.0 , 

16.0 , 3996.92307692 , 3993.84615385 , 3990.76923077 , 4000.51282051 , 3997.43589744 , 3989.74358974 , 3994.35897436 , 3997.94871795 , 4001.02564103 , 4008.20512821 , 4009.74358974 , 4152.82051282 , 3995.8974359 , 4000.0 , 2042.0 , 2029.0 , 13.213 , 0.0 , 0.0 , 0.0 , 0.0 , 

17.0 , 3998.46153846 , 3996.41025641 , 3986.66666667 , 4000.51282051 , 3997.43589744 , 3995.38461538 , 3995.8974359 , 4000.0 , 3999.48717949 , 4007.17948718 , 4008.20512821 , 4156.41025641 , 3998.46153846 , 4002.05128205 , 2044.0 , 2027.0 , 13.22 , 0.0 , 0.0 , 0.0 , 0.0 , 

18.0 , 3997.43589744 , 3996.41025641 , 3992.30769231 , 4000.0 , 3996.41025641 , 3993.84615385 , 3996.92307692 , 4002.56410256 , 4000.51282051 , 4003.58974359 , 4009.23076923 , 4156.41025641 , 3996.92307692 , 4002.05128205 , 2046.0 , 2028.0 , 13.227 , 0.0 , 0.0 , 0.0 , 0.0 , 

19.0 , 3998.97435897 , 3995.8974359 , 3997.94871795 , 4001.53846154 , 3995.38461538 , 3990.25641026 , 3994.87179487 , 4002.56410256 , 4001.53846154 , 4005.64102564 , 4010.25641026 , 4154.35897436 , 3995.38461538 , 4000.51282051 , 2048.0 , 2031.0 , 13.236 , 0.0 , 0.0 , 0.0 , 0.0 , 

20.0 , 4000.0 , 3996.41025641 , 4001.02564103 , 3998.97435897 , 3995.8974359 , 3994.35897436 , 3990.76923077 , 4001.53846154 , 4002.56410256 , 4009.74358974 , 4008.20512821 , 4152.30769231 , 3996.92307692 , 4000.51282051 , 2049.0 , 2029.0 , 13.244 , 0.0 , 0.0 , 0.0 , 0.0 , 

21.0 , 3999.48717949 , 3997.43589744 , 3996.41025641 , 3996.92307692 , 3996.92307692 , 3998.97435897 , 3993.33333333 , 4000.51282051 , 4004.61538462 , 4010.25641026 , 4008.71794872 , 4154.87179487 , 3998.46153846 , 4001.02564103 , 2049.0 , 2029.0 , 13.251 , 0.0 , 0.0 , 0.0 , 0.0 , 

22.0 , 3998.46153846 , 3997.43589744 , 4006.15384615 , 3999.48717949 , 3997.43589744 , 3997.43589744 , 3996.41025641 , 3998.97435897 , 4006.66666667 , 4009.23076923 , 4010.76923077 , 4156.41025641 , 3999.48717949 , 4000.51282051 , 2049.0 , 2032.0 , 13.259 , 0.0 , 0.0 , 0.0 , 0.0 , 

23.0 , 3998.46153846 , 3995.8974359 , 4012.82051282 , 4001.53846154 , 3997.94871795 , 3996.41025641 , 3994.35897436 , 4001.02564103 , 4005.64102564 , 4010.25641026 , 4009.74358974 , 4155.8974359 , 4000.0 , 4001.53846154 , 2047.0 , 2032.0 , 13.267 , 0.0 , 0.0 , 0.0 , 0.0 , 

24.0 , 3995.38461538 , 3994.87179487 , 4001.53846154 , 4000.51282051 , 3998.97435897 , 3997.43589744 , 3993.33333333 , 4004.61538462 , 4004.61538462 , 4008.71794872 , 4009.74358974 , 4154.87179487 , 3995.8974359 , 4001.53846154 , 2046.0 , 2035.0 , 13.275 , 0.0 , 0.0 , 0.0 , 0.0 , 

25.0 , 3997.94871795 , 3997.43589744 , 3990.76923077 , 4002.05128205 , 4002.56410256 , 3997.43589744 , 3996.41025641 , 4005.12820513 , 4006.66666667 , 4009.23076923 , 4012.82051282 , 4155.8974359 , 3996.92307692 , 4003.07692308 , 2044.0 , 2034.0 , 13.283 , 0.0 , 0.0 , 0.0 , 0.0 , 

26.0 , 4001.02564103 , 3996.92307692 , 3994.35897436 , 4000.51282051 , 4002.05128205 , 3996.92307692 , 3996.41025641 , 4000.51282051 , 4005.64102564 , 4010.25641026 , 4010.76923077 , 4155.38461538 , 4001.02564103 , 4002.05128205 , 2041.0 , 2034.0 , 13.29 , 0.0 , 0.0 , 0.0 , 0.0 , 

27.0 , 3998.46153846 , 3996.41025641 , 3998.46153846 , 3996.41025641 , 4000.0 , 3996.92307692 , 3994.35897436 , 4000.51282051 , 4004.1025641 , 4009.23076923 , 4007.69230769 , 4156.92307692 , 4000.51282051 , 4001.02564103 , 2042.0 , 2034.0 , 13.298 , 0.0 , 0.0 , 0.0 , 0.0 , 

28.0 , 3994.87179487 , 3997.94871795 , 3991.28205128 , 3997.43589744 , 4000.0 , 3994.87179487 , 3994.35897436 , 4001.02564103 , 4000.51282051 , 4005.12820513 , 4009.74358974 , 4155.38461538 , 3997.43589744 , 4003.07692308 , 2041.0 , 2033.0 , 13.306 , 0.0 , 0.0 , 0.0 , 0.0 , 

29.0 , 3998.97435897 , 3998.46153846 , 3994.35897436 , 4000.51282051 , 3999.48717949 , 3995.38461538 , 3995.8974359 , 3999.48717949 , 3999.48717949 , 4008.20512821 , 4014.87179487 , 4155.38461538 , 4000.0 , 4004.61538462 , 2042.0 , 2032.0 , 13.315 , 0.0 , 0.0 , 0.0 , 0.0 , 

30.0 , 4000.51282051 , 3997.94871795 , 3996.92307692 , 3999.48717949 , 3997.43589744 , 3997.43589744 , 3995.8974359 , 3998.46153846 , 4000.51282051 , 4010.25641026 , 4012.30769231 , 4158.46153846 , 4000.0 , 4000.51282051 , 2041.0 , 2031.0 , 13.323 , 0.0 , 0.0 , 0.0 , 0.0 , 

31.0 , 3998.46153846 , 3998.46153846 , 4007.17948718 , 4000.51282051 , 3997.94871795 , 3997.94871795 , 3994.35897436 , 4003.58974359 , 4003.07692308 , 4010.76923077 , 4010.76923077 , 4160.51282051 , 3999.48717949 , 4000.0 , 2040.0 , 2029.0 , 13.33 , 0.0 , 0.0 , 0.0 , 0.0 , 

32.0 , 3996.41025641 , 3997.43589744 , 4010.25641026 , 4004.1025641 , 3998.46153846 , 3997.43589744 , 3994.35897436 , 4004.61538462 , 4002.56410256 , 4008.20512821 , 4013.33333333 , 4160.0 , 4001.02564103 , 4003.58974359 , 2041.0 , 2028.0 , 13.339 , 0.0 , 0.0 , 0.0 , 0.0 , 

33.0 , 3996.92307692 , 3995.8974359 , 4008.20512821 , 4003.07692308 , 4000.0 , 3996.92307692 , 3996.41025641 , 4000.0 , 4002.05128205 , 4006.15384615 , 4012.82051282 , 4160.51282051 , 4001.02564103 , 4002.56410256 , 2040.0 , 2028.0 , 13.347 , 0.0 , 0.0 , 0.0 , 0.0 , 

34.0 , 3999.48717949 , 3997.94871795 , 4000.0 , 3998.97435897 , 4004.1025641 , 3996.92307692 , 3997.43589744 , 4000.51282051 , 4002.05128205 , 4005.64102564 , 4011.28205128 , 4158.46153846 , 3999.48717949 , 4001.02564103 , 2042.0 , 2027.0 , 13.354 , 0.0 , 0.0 , 0.0 , 0.0 , 

35.0 , 3998.97435897 , 3998.46153846 , 4002.05128205 , 3997.43589744 , 4002.56410256 , 3996.92307692 , 3998.46153846 , 4006.66666667 , 4001.53846154 , 4007.17948718 , 4012.30769231 , 4154.35897436 , 4000.51282051 , 4004.61538462 , 2040.0 , 2024.0 , 13.362 , 0.0 , 0.0 , 0.0 , 0.0 , 

36.0 , 3997.94871795 , 3998.46153846 , 3997.43589744 , 3998.97435897 , 3997.43589744 , 3996.92307692 , 3998.46153846 , 4007.17948718 , 4002.05128205 , 4009.23076923 , 4011.28205128 , 4157.43589744 , 4000.0 , 4003.58974359 , 2040.0 , 2024.0 , 13.369 , 0.0 , 0.0 , 0.0 , 0.0 , 

37.0 , 4000.51282051 , 3998.97435897 , 3998.46153846 , 4001.53846154 , 3996.92307692 , 3996.92307692 , 3994.35897436 , 4002.05128205 , 4003.58974359 , 4009.23076923 , 4009.74358974 , 4160.0 , 3997.43589744 , 3998.46153846 , 2041.0 , 2027.0 , 13.377 , 0.0 , 0.0 , 0.0 , 0.0 , 

38.0 , 4004.1025641 , 3998.46153846 , 3998.46153846 , 4002.56410256 , 3997.94871795 , 3996.41025641 , 3995.38461538 , 4001.53846154 , 4000.51282051 , 4009.23076923 , 4013.33333333 , 4158.97435897 , 4000.0 , 4001.53846154 , 2041.0 , 2027.0 , 13.385 , 0.0 , 0.0 , 0.0 , 0.0 , 

39.0 , 4000.51282051 , 3996.92307692 , 3993.33333333 , 4003.58974359 , 3996.92307692 , 3996.92307692 , 3997.94871795 , 4002.05128205 , 3999.48717949 , 4008.20512821 , 4014.87179487 , 4156.41025641 , 4001.53846154 , 4004.1025641 , 2041.0 , 2028.0 , 13.394 , 0.0 , 0.0 , 0.0 , 0.0 , 

40.0 , 3997.94871795 , 3998.97435897 , 3988.71794872 , 4003.07692308 , 3999.48717949 , 3998.46153846 , 3995.38461538 , 4002.05128205 , 4002.05128205 , 4008.20512821 , 4011.28205128 , 4157.94871795 , 3998.97435897 , 4001.53846154 , 2043.0 , 2031.0 , 13.401 , 0.0 , 0.0 , 0.0 , 0.0 , 

41.0 , 4000.51282051 , 3999.48717949 , 3999.48717949 , 4002.56410256 , 3999.48717949 , 3996.92307692 , 3994.35897436 , 4002.56410256 , 4001.02564103 , 4009.23076923 , 4009.74358974 , 4159.48717949 , 3998.97435897 , 4001.53846154 , 2042.0 , 2032.0 , 13.409 , 0.0 , 0.0 , 0.0 , 0.0 , 

42.0 , 4002.56410256 , 3996.92307692 , 4000.0 , 4005.64102564 , 3997.94871795 , 3995.8974359 , 3997.43589744 , 4005.12820513 , 4001.02564103 , 4011.28205128 , 4012.82051282 , 4160.0 , 4002.05128205 , 4006.15384615 , 2043.0 , 2034.0 , 13.418 , 0.0 , 0.0 , 0.0 , 0.0 , 

43.0 , 4000.51282051 , 3997.43589744 , 3997.43589744 , 4004.1025641 , 4002.05128205 , 3999.48717949 , 3996.92307692 , 4004.1025641 , 4003.58974359 , 4010.25641026 , 4014.35897436 , 4160.0 , 4000.0 , 4006.66666667 , 2042.0 , 2032.0 , 13.425 , 0.0 , 0.0 , 0.0 , 0.0 , 

44.0 , 4001.53846154 , 3998.97435897 , 4008.71794872 , 3998.97435897 , 4005.12820513 , 4001.02564103 , 3996.41025641 , 4003.07692308 , 4005.12820513 , 4010.25641026 , 4014.87179487 , 4161.53846154 , 3998.46153846 , 4005.12820513 , 2042.0 , 2030.0 , 13.432 , 0.0 , 0.0 , 0.0 , 0.0 , 

45.0 , 4002.05128205 , 3997.43589744 , 4011.28205128 , 4000.0 , 4000.51282051 , 3997.43589744 , 3996.41025641 , 4003.07692308 , 4003.58974359 , 4010.25641026 , 4014.35897436 , 4157.94871795 , 3998.46153846 , 4004.61538462 , 2045.0 , 2027.0 , 13.44 , 0.0 , 0.0 , 0.0 , 0.0 , 

46.0 , 4000.51282051 , 3996.92307692 , 4003.07692308 , 4002.56410256 , 3999.48717949 , 3996.41025641 , 3995.38461538 , 4003.58974359 , 4002.56410256 , 4010.76923077 , 4013.84615385 , 4155.8974359 , 4001.02564103 , 4004.61538462 , 2044.0 , 2026.0 , 13.448 , 0.0 , 0.0 , 0.0 , 0.0 , 

47.0 , 4000.51282051 , 4000.0 , 4006.66666667 , 4000.0 , 4003.07692308 , 4000.51282051 , 3995.38461538 , 4003.07692308 , 4001.02564103 , 4008.20512821 , 4012.82051282 , 4158.46153846 , 4000.51282051 , 4004.61538462 , 2044.0 , 2027.0 , 13.457 , 0.0 , 0.0 , 0.0 , 0.0 , 

48.0 , 4002.56410256 , 4001.02564103 , 4021.53846154 , 4001.02564103 , 4002.56410256 , 4000.51282051 , 3996.41025641 , 4003.07692308 , 4003.07692308 , 4010.25641026 , 4014.87179487 , 4162.56410256 , 4001.53846154 , 4005.64102564 , 2043.0 , 2026.0 , 13.465 , 0.0 , 0.0 , 0.0 , 0.0 , 

49.0 , 4003.07692308 , 4000.0 , 4011.79487179 , 4004.61538462 , 4001.02564103 , 3995.8974359 , 3995.8974359 , 4001.53846154 , 4005.64102564 , 4011.28205128 , 4013.84615385 , 4161.53846154 , 4003.07692308 , 4004.1025641 , 2044.0 , 2025.0 , 13.473 , 0.0 , 0.0 , 0.0 , 0.0 , 

50.0 , 4001.53846154 , 4000.0 , 4004.61538462 , 4004.1025641 , 4002.56410256 , 3995.38461538 , 3997.43589744 , 4004.1025641 , 4003.58974359 , 4009.74358974 , 4013.33333333 , 4159.48717949 , 4001.02564103 , 4001.53846154 , 2045.0 , 2025.0 , 13.48 , 0.0 , 0.0 , 0.0 , 0.0 , 

51.0 , 4000.51282051 , 4001.02564103 , 4008.20512821 , 4002.05128205 , 4002.56410256 , 3999.48717949 , 3998.46153846 , 4005.12820513 , 4000.0 , 4008.71794872 , 4012.30769231 , 4157.43589744 , 3997.43589744 , 4003.07692308 , 2044.0 , 2024.0 , 13.487 , 0.0 , 0.0 , 0.0 , 0.0 , 

52.0 , 4001.53846154 , 3998.97435897 , 4015.8974359 , 4002.56410256 , 4001.53846154 , 3999.48717949 , 3997.94871795 , 4002.56410256 , 4002.56410256 , 4010.76923077 , 4010.76923077 , 4161.02564103 , 3999.48717949 , 4007.69230769 , 2044.0 , 2022.0 , 13.495 , 0.0 , 0.0 , 0.0 , 0.0 , 

53.0 , 4003.07692308 , 3998.97435897 , 4006.15384615 , 4005.12820513 , 4001.02564103 , 3998.46153846 , 3998.97435897 , 4002.56410256 , 4005.12820513 , 4011.79487179 , 4013.33333333 , 4164.61538462 , 4000.51282051 , 4005.64102564 , 2045.0 , 2022.0 , 13.504 , 0.0 , 0.0 , 0.0 , 0.0 , 

54.0 , 4001.02564103 , 3999.48717949 , 4001.53846154 , 4005.12820513 , 4001.53846154 , 3998.97435897 , 3998.46153846 , 4005.64102564 , 4003.58974359 , 4010.76923077 , 4015.8974359 , 4161.53846154 , 4002.05128205 , 4001.02564103 , 2046.0 , 2022.0 , 13.511 , 0.0 , 0.0 , 0.0 , 0.0 , 

55.0 , 3998.46153846 , 3998.46153846 , 4005.12820513 , 4003.07692308 , 4000.51282051 , 3998.97435897 , 3995.8974359 , 4005.12820513 , 4002.05128205 , 4010.76923077 , 4013.84615385 , 4160.0 , 4004.61538462 , 4004.61538462 , 2045.0 , 2022.0 , 13.521 , 0.0 , 0.0 , 0.0 , 0.0 , 

56.0 , 3997.43589744 , 3999.48717949 , 4017.94871795 , 4002.05128205 , 3998.97435897 , 3996.41025641 , 3996.92307692 , 4004.1025641 , 4004.61538462 , 4010.25641026 , 4011.79487179 , 4162.56410256 , 4003.07692308 , 4007.17948718 , 2045.0 , 2024.0 , 13.527 , 0.0 , 0.0 , 0.0 , 0.0 , 

57.0 , 4000.0 , 4003.58974359 , 4015.8974359 , 4004.61538462 , 4002.05128205 , 3996.92307692 , 3998.97435897 , 4004.1025641 , 4005.64102564 , 4011.28205128 , 4014.35897436 , 4165.12820513 , 4000.0 , 4005.64102564 , 2043.0 , 2024.0 , 13.535 , 0.0 , 0.0 , 0.0 , 0.0 , 

58.0 , 4001.53846154 , 4001.53846154 , 4008.20512821 , 4005.12820513 , 4004.61538462 , 4001.02564103 , 3995.8974359 , 4003.07692308 , 4005.64102564 , 4011.28205128 , 4015.8974359 , 4162.05128205 , 4000.51282051 , 4005.12820513 , 2043.0 , 2023.0 , 13.543 , 0.0 , 0.0 , 0.0 , 0.0 , 

59.0 , 4003.07692308 , 3998.97435897 , 4001.53846154 , 4004.61538462 , 4001.53846154 , 3998.97435897 , 3993.84615385 , 4003.07692308 , 4003.58974359 , 4009.23076923 , 4016.41025641 , 4161.02564103 , 4000.0 , 4004.1025641 , 2045.0 , 2024.0 , 13.551 , 0.0 , 0.0 , 0.0 , 0.0 , 

60.0 , 4000.0 , 4001.02564103 , 3998.97435897 , 4003.58974359 , 4000.51282051 , 3996.41025641 , 3998.46153846 , 4003.58974359 , 4000.0 , 4007.17948718 , 4015.38461538 , 4162.05128205 , 3994.87179487 , 4001.02564103 , 2045.0 , 2024.0 , 13.558 , 0.0 , 0.0 , 0.0 , 0.0 , 

61.0 , 4000.51282051 , 4002.56410256 , 3996.41025641 , 4004.1025641 , 4004.1025641 , 3998.97435897 , 4001.02564103 , 4004.61538462 , 4002.05128205 , 4011.79487179 , 4014.87179487 , 4163.07692308 , 3997.43589744 , 4002.56410256 , 2044.0 , 2022.0 , 13.567 , 0.0 , 0.0 , 0.0 , 0.0 , 

62.0 , 4003.07692308 , 4000.51282051 , 4000.51282051 , 4005.12820513 , 4004.61538462 , 3999.48717949 , 3997.43589744 , 4003.07692308 , 4004.1025641 , 4012.30769231 , 4013.84615385 , 4158.46153846 , 4001.53846154 , 4003.58974359 , 2044.0 , 2022.0 , 13.575 , 0.0 , 0.0 , 0.0 , 0.0 , 

63.0 , 4002.05128205 , 4001.02564103 , 4011.28205128 , 4003.58974359 , 4001.53846154 , 3996.92307692 , 3995.38461538 , 4003.58974359 , 4005.64102564 , 4011.79487179 , 4013.84615385 , 4160.51282051 , 4002.56410256 , 4003.07692308 , 2042.0 , 2022.0 , 13.582 , 0.0 , 0.0 , 0.0 , 0.0 , 

64.0 , 3997.94871795 , 4000.51282051 , 4007.69230769 , 4004.1025641 , 4000.51282051 , 3997.94871795 , 3997.43589744 , 4004.1025641 , 4006.66666667 , 4014.35897436 , 4013.33333333 , 4164.61538462 , 4000.51282051 , 4003.58974359 , 2042.0 , 2024.0 , 13.591 , 0.0 , 0.0 , 0.0 , 0.0 , 

65.0 , 4001.02564103 , 3998.97435897 , 4001.02564103 , 4008.20512821 , 4005.12820513 , 3999.48717949 , 3996.92307692 , 4005.64102564 , 4006.66666667 , 4017.43589744 , 4013.84615385 , 4163.07692308 , 4002.05128205 , 4005.64102564 , 2043.0 , 2023.0 , 13.598 , 0.0 , 0.0 , 0.0 , 0.0 , 

66.0 , 4003.07692308 , 4001.02564103 , 3997.94871795 , 4007.17948718 , 4006.66666667 , 3997.43589744 , 3995.8974359 , 4003.07692308 , 4004.61538462 , 4014.87179487 , 4012.82051282 , 4160.51282051 , 4002.56410256 , 4005.12820513 , 2042.0 , 2020.0 , 13.606 , 0.0 , 0.0 , 0.0 , 0.0 , 

67.0 , 4001.02564103 , 4003.07692308 , 4000.0 , 4003.07692308 , 4003.58974359 , 3996.92307692 , 3997.94871795 , 4000.0 , 4005.12820513 , 4011.79487179 , 4013.84615385 , 4163.07692308 , 4000.0 , 4003.07692308 , 2041.0 , 2022.0 , 13.614 , 0.0 , 0.0 , 0.0 , 0.0 , 

68.0 , 4000.51282051 , 4002.05128205 , 3993.84615385 , 4002.56410256 , 4003.07692308 , 3996.92307692 , 3999.48717949 , 4001.53846154 , 4005.12820513 , 4010.76923077 , 4013.33333333 , 4165.64102564 , 3998.46153846 , 4002.56410256 , 2043.0 , 2021.0 , 13.623 , 0.0 , 0.0 , 0.0 , 0.0 , 

69.0 , 4001.53846154 , 4003.07692308 , 3990.25641026 , 4003.58974359 , 4005.12820513 , 3998.46153846 , 4001.02564103 , 4005.64102564 , 4003.07692308 , 4010.76923077 , 4013.84615385 , 4164.1025641 , 4001.02564103 , 4005.12820513 , 2042.0 , 2022.0 , 13.629 , 0.0 , 0.0 , 0.0 , 0.0 , 

70.0 , 4001.02564103 , 4004.1025641 , 3981.02564103 , 4002.05128205 , 4002.05128205 , 3997.94871795 , 4002.05128205 , 4004.61538462 , 4001.53846154 , 4010.25641026 , 4016.92307692 , 4161.02564103 , 4002.56410256 , 4003.07692308 , 2041.0 , 2021.0 , 13.637 , 0.0 , 0.0 , 0.0 , 0.0 , 

71.0 , 4000.51282051 , 4002.05128205 , 3984.61538462 , 4003.58974359 , 4000.0 , 3996.41025641 , 3998.46153846 , 4003.07692308 , 4002.56410256 , 4011.28205128 , 4017.43589744 , 4160.0 , 4003.07692308 , 4000.0 , 2041.0 , 2022.0 , 13.645 , 0.0 , 0.0 , 0.0 , 0.0 , 

72.0 , 4002.56410256 , 4001.02564103 , 3991.28205128 , 4004.1025641 , 4004.1025641 , 3997.94871795 , 3996.92307692 , 4004.1025641 , 4004.1025641 , 4013.84615385 , 4015.38461538 , 4161.53846154 , 4004.1025641 , 4003.58974359 , 2041.0 , 2022.0 , 13.653 , 0.0 , 0.0 , 0.0 , 0.0 , 

73.0 , 4002.56410256 , 4000.51282051 , 3993.84615385 , 4004.1025641 , 4003.07692308 , 3997.43589744 , 4000.51282051 , 4006.15384615 , 4005.64102564 , 4015.38461538 , 4013.84615385 , 4161.53846154 , 4003.07692308 , 4004.1025641 , 2038.0 , 2022.0 , 13.662 , 0.0 , 0.0 , 0.0 , 0.0 , 

74.0 , 4002.05128205 , 3997.94871795 , 3983.58974359 , 4007.69230769 , 4001.02564103 , 3997.43589744 , 4000.0 , 4008.20512821 , 4003.58974359 , 4011.28205128 , 4014.87179487 , 4158.97435897 , 4000.0 , 4000.51282051 , 2037.0 , 2020.0 , 13.669 , 0.0 , 0.0 , 0.0 , 0.0 , 

75.0 , 4001.02564103 , 3999.48717949 , 3981.02564103 , 4007.69230769 , 4004.1025641 , 4001.02564103 , 3997.43589744 , 4008.71794872 , 4004.61538462 , 4008.71794872 , 4014.35897436 , 4159.48717949 , 3999.48717949 , 4001.53846154 , 2036.0 , 2017.0 , 13.677 , 0.0 , 0.0 , 0.0 , 0.0 , 

76.0 , 4002.56410256 , 4003.07692308 , 3975.38461538 , 4006.66666667 , 4005.12820513 , 4000.51282051 , 4000.0 , 4006.66666667 , 4004.61538462 , 4013.84615385 , 4013.33333333 , 4159.48717949 , 4000.51282051 , 4004.61538462 , 2038.0 , 2016.0 , 13.684 , 0.0 , 0.0 , 0.0 , 0.0 , 

77.0 , 4004.1025641 , 4002.56410256 , 3972.30769231 , 4007.17948718 , 4003.07692308 , 3999.48717949 , 4000.51282051 , 4004.61538462 , 4003.07692308 , 4015.8974359 , 4013.33333333 , 4156.92307692 , 4001.53846154 , 4003.58974359 , 2038.0 , 2014.0 , 13.692 , 0.0 , 0.0 , 0.0 , 0.0 , 

78.0 , 4005.12820513 , 4002.05128205 , 3971.79487179 , 4005.64102564 , 4002.56410256 , 4000.0 , 3996.92307692 , 4005.64102564 , 4005.64102564 , 4012.30769231 , 4015.8974359 , 4156.92307692 , 4003.07692308 , 4003.58974359 , 2038.0 , 2013.0 , 13.7 , 0.0 , 0.0 , 0.0 , 0.0 , 

79.0 , 4002.05128205 , 4003.07692308 , 3981.53846154 , 4001.02564103 , 4003.07692308 , 3999.48717949 , 3997.94871795 , 4007.17948718 , 4008.20512821 , 4008.20512821 , 4016.92307692 , 4155.8974359 , 4001.53846154 , 4004.1025641 , 2039.0 , 2012.0 , 13.709 , 0.0 , 0.0 , 0.0 , 0.0 , 

80.0 , 4002.56410256 , 4005.12820513 , 3990.25641026 , 4002.05128205 , 4002.56410256 , 4001.02564103 , 4002.05128205 , 4008.20512821 , 4006.66666667 , 4011.28205128 , 4016.92307692 , 4156.92307692 , 4003.07692308 , 4004.61538462 , 2039.0 , 2011.0 , 13.716 , 0.0 , 0.0 , 0.0 , 0.0 , 

81.0 , 4004.1025641 , 4003.58974359 , 3987.69230769 , 4003.07692308 , 4003.07692308 , 4004.1025641 , 4002.05128205 , 4005.12820513 , 4005.64102564 , 4012.82051282 , 4016.92307692 , 4158.46153846 , 4005.12820513 , 4003.58974359 , 2041.0 , 2011.0 , 13.726 , 0.0 , 0.0 , 0.0 , 0.0 , 

82.0 , 4002.05128205 , 4003.07692308 , 3983.07692308 , 4001.53846154 , 4004.1025641 , 4003.58974359 , 4001.53846154 , 4004.61538462 , 4007.69230769 , 4013.33333333 , 4017.43589744 , 4157.94871795 , 4004.61538462 , 4003.07692308 , 2040.0 , 2010.0 , 13.733 , 0.0 , 0.0 , 0.0 , 0.0 , 

83.0 , 4001.53846154 , 4003.58974359 , 3984.61538462 , 4002.05128205 , 4004.1025641 , 4003.07692308 , 4003.58974359 , 4006.66666667 , 4005.64102564 , 4011.79487179 , 4017.94871795 , 4154.35897436 , 4002.56410256 , 4002.05128205 , 2040.0 , 2011.0 , 13.741 , 0.0 , 0.0 , 0.0 , 0.0 , 

84.0 , 4005.12820513 , 4003.58974359 , 3987.69230769 , 4006.15384615 , 4005.64102564 , 4003.07692308 , 4005.12820513 , 4007.69230769 , 4005.12820513 , 4012.30769231 , 4017.43589744 , 4157.94871795 , 4005.12820513 , 4003.07692308 , 2042.0 , 2013.0 , 13.749 , 0.0 , 0.0 , 0.0 , 0.0 , 

85.0 , 4003.58974359 , 4001.02564103 , 3980.51282051 , 4008.20512821 , 4005.64102564 , 3999.48717949 , 4004.61538462 , 4005.12820513 , 4006.66666667 , 4014.87179487 , 4013.33333333 , 4156.92307692 , 4005.12820513 , 4004.1025641 , 2041.0 , 2012.0 , 13.756 , 0.0 , 0.0 , 0.0 , 0.0 , 

86.0 , 4002.56410256 , 4002.05128205 , 3982.05128205 , 4005.64102564 , 4004.1025641 , 3998.97435897 , 4003.58974359 , 4005.12820513 , 4006.66666667 , 4014.35897436 , 4015.38461538 , 4149.23076923 , 4001.02564103 , 4003.58974359 , 2041.0 , 2012.0 , 13.763 , 0.0 , 0.0 , 0.0 , 0.0 , 

87.0 , 4003.58974359 , 4005.12820513 , 3980.51282051 , 4002.56410256 , 4006.15384615 , 4001.02564103 , 4003.07692308 , 4009.74358974 , 4006.15384615 , 4008.71794872 , 4016.92307692 , 4149.23076923 , 4000.51282051 , 4003.07692308 , 2042.0 , 2012.0 , 13.771 , 0.0 , 0.0 , 0.0 , 0.0 , 

88.0 , 4003.07692308 , 4003.07692308 , 3981.02564103 , 4005.64102564 , 4008.71794872 , 4002.56410256 , 4004.1025641 , 4010.25641026 , 4006.66666667 , 4009.74358974 , 4014.87179487 , 4157.43589744 , 4004.61538462 , 4005.12820513 , 2039.0 , 2010.0 , 13.78 , 0.0 , 0.0 , 0.0 , 0.0 , 

89.0 , 4001.53846154 , 4001.53846154 , 3981.53846154 , 4008.71794872 , 4006.66666667 , 4003.58974359 , 4003.07692308 , 4005.64102564 , 4005.64102564 , 4014.87179487 , 4014.35897436 , 4157.43589744 , 4004.61538462 , 4005.12820513 , 2042.0 , 2009.0 , 13.788 , 0.0 , 0.0 , 0.0 , 0.0 , 

90.0 , 4001.02564103 , 4002.56410256 , 3992.82051282 , 4006.66666667 , 4005.12820513 , 4003.07692308 , 3999.48717949 , 4007.17948718 , 4008.71794872 , 4013.84615385 , 4015.8974359 , 4151.28205128 , 4003.58974359 , 4001.53846154 , 2041.0 , 2009.0 , 13.795 , 0.0 , 0.0 , 0.0 , 0.0 , 

91.0 , 4002.56410256 , 4004.1025641 , 3988.71794872 , 4005.12820513 , 4005.64102564 , 4002.56410256 , 4000.0 , 4010.76923077 , 4010.25641026 , 4009.74358974 , 4015.8974359 , 4152.30769231 , 4005.12820513 , 4002.56410256 , 2041.0 , 2013.0 , 13.804 , 0.0 , 0.0 , 0.0 , 0.0 , 

92.0 , 4004.1025641 , 4004.1025641 , 3977.43589744 , 4005.64102564 , 4003.58974359 , 4002.56410256 , 4002.56410256 , 4007.69230769 , 4004.61538462 , 4010.25641026 , 4014.87179487 , 4152.82051282 , 4002.05128205 , 4006.66666667 , 2041.0 , 2015.0 , 13.811 , 0.0 , 0.0 , 0.0 , 0.0 , 

93.0 , 4004.61538462 , 4003.07692308 , 3963.58974359 , 4007.17948718 , 4003.07692308 , 4003.58974359 , 4002.56410256 , 4003.07692308 , 4000.51282051 , 4011.28205128 , 4013.84615385 , 4150.25641026 , 3998.46153846 , 4005.12820513 , 2040.0 , 2016.0 , 13.818 , 0.0 , 0.0 , 0.0 , 0.0 , 

94.0 , 4000.51282051 , 4001.02564103 , 3962.56410256 , 4007.69230769 , 4002.56410256 , 4003.58974359 , 4002.56410256 , 4005.64102564 , 4004.1025641 , 4011.28205128 , 4012.82051282 , 4149.23076923 , 4001.53846154 , 3998.97435897 , 2041.0 , 2015.0 , 13.827 , 0.0 , 0.0 , 0.0 , 0.0 , 

95.0 , 4002.05128205 , 4001.02564103 , 3963.07692308 , 4008.20512821 , 4001.53846154 , 4000.51282051 , 4003.58974359 , 4008.20512821 , 4004.61538462 , 4014.87179487 , 4014.87179487 , 4148.20512821 , 4005.12820513 , 4001.53846154 , 2041.0 , 2015.0 , 13.835 , 0.0 , 0.0 , 0.0 , 0.0 , 

96.0 , 4005.12820513 , 4001.02564103 , 3957.43589744 , 4007.69230769 , 4004.1025641 , 3999.48717949 , 4001.02564103 , 4005.12820513 , 4002.56410256 , 4014.87179487 , 4014.35897436 , 4144.1025641 , 4000.51282051 , 4007.69230769 , 2041.0 , 2015.0 , 13.843 , 0.0 , 0.0 , 0.0 , 0.0 , 

97.0 , 4004.61538462 , 4003.58974359 , 3945.64102564 , 4009.23076923 , 4008.71794872 , 4003.58974359 , 4003.07692308 , 4004.1025641 , 4004.61538462 , 4013.84615385 , 4014.87179487 , 4146.15384615 , 3999.48717949 , 4006.66666667 , 2040.0 , 2013.0 , 13.85 , 0.0 , 0.0 , 0.0 , 0.0 , 

98.0 , 4002.05128205 , 4007.17948718 , 3935.38461538 , 4008.71794872 , 4007.69230769 , 4005.12820513 , 4006.15384615 , 4004.1025641 , 4006.15384615 , 4014.35897436 , 4015.38461538 , 4146.66666667 , 4003.58974359 , 4001.02564103 , 2043.0 , 2012.0 , 13.858 , 0.0 , 0.0 , 0.0 , 0.0 , 

99.0 , 4004.1025641 , 4006.15384615 , 3931.28205128 , 4006.15384615 , 4005.12820513 , 4003.07692308 , 4004.61538462 , 4006.66666667 , 4005.64102564 , 4015.8974359 , 4013.84615385 , 4142.56410256 , 4004.61538462 , 4002.56410256 , 2045.0 , 2010.0 , 13.866 , 0.0 , 0.0 , 0.0 , 0.0 , 

100.0 , 4006.15384615 , 4003.58974359 , 3934.35897436 , 4003.07692308 , 4007.17948718 , 4003.07692308 , 4003.07692308 , 4009.74358974 , 4005.12820513 , 4015.38461538 , 4014.35897436 , 4140.51282051 , 4003.58974359 , 4005.12820513 , 2047.0 , 2009.0 , 13.874 , 0.0 , 0.0 , 0.0 , 0.0 , 

101.0 , 4007.69230769 , 4006.66666667 , 3946.66666667 , 4002.56410256 , 4008.20512821 , 4003.58974359 , 4006.15384615 , 4011.28205128 , 4006.66666667 , 4016.41025641 , 4018.46153846 , 4145.12820513 , 4005.12820513 , 4006.66666667 , 2047.0 , 2006.0 , 13.882 , 0.0 , 0.0 , 0.0 , 0.0 , 

102.0 , 4006.66666667 , 4008.71794872 , 3958.97435897 , 4002.56410256 , 4007.17948718 , 4003.58974359 , 4005.64102564 , 4010.25641026 , 4007.17948718 , 4015.38461538 , 4018.46153846 , 4146.15384615 , 4005.64102564 , 4006.15384615 , 2049.0 , 2004.0 , 13.89 , 0.0 , 0.0 , 0.0 , 0.0 , 

103.0 , 4006.15384615 , 4006.15384615 , 3973.84615385 , 4003.58974359 , 4007.69230769 , 4002.56410256 , 4003.07692308 , 4008.71794872 , 4008.71794872 , 4016.41025641 , 4017.43589744 , 4144.1025641 , 4007.17948718 , 4007.69230769 , 2051.0 , 2008.0 , 13.897 , 0.0 , 0.0 , 0.0 , 0.0 , 

104.0 , 4006.66666667 , 4005.64102564 , 3972.82051282 , 4005.64102564 , 4007.69230769 , 4002.05128205 , 4006.66666667 , 4005.12820513 , 4007.69230769 , 4017.43589744 , 4017.94871795 , 4144.61538462 , 4005.64102564 , 4008.71794872 , 2051.0 , 2009.0 , 13.906 , 0.0 , 0.0 , 0.0 , 0.0 , 

105.0 , 4006.15384615 , 4005.64102564 , 3966.15384615 , 4009.74358974 , 4007.17948718 , 4003.58974359 , 4008.20512821 , 4006.15384615 , 4005.12820513 , 4016.41025641 , 4016.41025641 , 4145.64102564 , 4004.1025641 , 4006.66666667 , 2051.0 , 2012.0 , 13.913 , 0.0 , 0.0 , 0.0 , 0.0 , 

106.0 , 4006.15384615 , 4005.12820513 , 3950.76923077 , 4011.28205128 , 4008.71794872 , 4004.61538462 , 4005.64102564 , 4007.17948718 , 4004.61538462 , 4016.41025641 , 4015.8974359 , 4143.58974359 , 4002.56410256 , 4003.58974359 , 2049.0 , 2017.0 , 13.922 , 0.0 , 0.0 , 0.0 , 0.0 , 

107.0 , 4007.17948718 , 4005.12820513 , 3936.41025641 , 4008.71794872 , 4009.23076923 , 4003.07692308 , 4006.15384615 , 4004.1025641 , 4004.61538462 , 4015.8974359 , 4017.94871795 , 4142.05128205 , 4003.58974359 , 4003.07692308 , 2047.0 , 2025.0 , 13.93 , 0.0 , 0.0 , 0.0 , 0.0 , 

108.0 , 4005.12820513 , 4006.66666667 , 3923.58974359 , 4009.74358974 , 4008.71794872 , 4002.05128205 , 4007.17948718 , 4003.07692308 , 4002.05128205 , 4010.76923077 , 4015.8974359 , 4140.0 , 4003.58974359 , 4005.12820513 , 2045.0 , 2027.0 , 13.937 , 0.0 , 0.0 , 0.0 , 0.0 , 

109.0 , 4002.56410256 , 4005.12820513 , 3922.56410256 , 4014.87179487 , 4007.17948718 , 4003.07692308 , 4006.66666667 , 4008.71794872 , 4002.56410256 , 4010.25641026 , 4014.35897436 , 4133.33333333 , 4004.1025641 , 4005.64102564 , 2045.0 , 2027.0 , 13.944 , 0.0 , 0.0 , 0.0 , 0.0 , 

110.0 , 4006.15384615 , 4003.07692308 , 3906.15384615 , 4014.87179487 , 4008.20512821 , 4004.1025641 , 4007.69230769 , 4009.23076923 , 4003.58974359 , 4014.35897436 , 4016.92307692 , 4127.69230769 , 4004.1025641 , 4004.1025641 , 2043.0 , 2026.0 , 13.953 , 0.0 , 0.0 , 0.0 , 0.0 , 

111.0 , 4007.69230769 , 4003.58974359 , 3896.41025641 , 4010.76923077 , 4009.74358974 , 4004.1025641 , 4007.17948718 , 4005.12820513 , 4003.58974359 , 4013.84615385 , 4016.41025641 , 4128.71794872 , 4003.58974359 , 4003.58974359 , 2043.0 , 2023.0 , 13.96 , 0.0 , 0.0 , 0.0 , 0.0 , 

112.0 , 4007.69230769 , 4007.17948718 , 3904.1025641 , 4009.74358974 , 4008.71794872 , 4004.61538462 , 4005.12820513 , 4006.15384615 , 4004.61538462 , 4011.28205128 , 4015.38461538 , 4132.82051282 , 4003.58974359 , 4006.15384615 , 2045.0 , 2018.0 , 13.968 , 0.0 , 0.0 , 0.0 , 0.0 , 

113.0 , 4006.66666667 , 4008.20512821 , 3925.12820513 , 4008.71794872 , 4005.64102564 , 4004.1025641 , 4003.58974359 , 4009.74358974 , 4007.69230769 , 4013.33333333 , 4016.41025641 , 4130.25641026 , 4004.61538462 , 4006.15384615 , 2045.0 , 2014.0 , 13.976 , 0.0 , 0.0 , 0.0 , 0.0 , 

114.0 , 4007.17948718 , 4008.71794872 , 3941.53846154 , 4007.17948718 , 4007.69230769 , 4004.1025641 , 4003.07692308 , 4011.79487179 , 4010.76923077 , 4016.92307692 , 4016.92307692 , 4129.74358974 , 4007.69230769 , 4007.17948718 , 2046.0 , 2012.0 , 13.984 , 0.0 , 0.0 , 0.0 , 0.0 , 

115.0 , 4006.15384615 , 4009.23076923 , 3962.56410256 , 4004.61538462 , 4008.71794872 , 4002.56410256 , 4004.61538462 , 4010.76923077 , 4011.79487179 , 4018.46153846 , 4018.46153846 , 4130.25641026 , 4007.69230769 , 4007.17948718 , 2048.0 , 2012.0 , 13.992 , 0.0 , 0.0 , 0.0 , 0.0 , 

116.0 , 4007.69230769 , 4007.69230769 , 3973.33333333 , 4003.07692308 , 4006.66666667 , 4003.07692308 , 4007.69230769 , 4010.76923077 , 4012.30769231 , 4021.02564103 , 4021.02564103 , 4132.30769231 , 4005.64102564 , 4007.17948718 , 2048.0 , 2016.0 , 14.0 , 0.0 , 0.0 , 0.0 , 0.0 , 

117.0 , 4008.71794872 , 4007.69230769 , 3971.79487179 , 4005.64102564 , 4006.15384615 , 4004.1025641 , 4006.66666667 , 4009.23076923 , 4012.30769231 , 4019.48717949 , 4017.43589744 , 4129.74358974 , 4005.64102564 , 4009.23076923 , 2045.0 , 2018.0 , 14.008 , 0.0 , 0.0 , 0.0 , 0.0 , 

118.0 , 4007.69230769 , 4010.76923077 , 3963.07692308 , 4011.79487179 , 4008.71794872 , 4004.1025641 , 4004.1025641 , 4009.74358974 , 4012.82051282 , 4018.97435897 , 4015.8974359 , 4127.69230769 , 4008.71794872 , 4008.20512821 , 2044.0 , 2021.0 , 14.015 , 0.0 , 0.0 , 0.0 , 0.0 , 

119.0 , 4005.12820513 , 4007.69230769 , 3944.61538462 , 4014.35897436 , 4009.23076923 , 4004.1025641 , 4005.12820513 , 4010.25641026 , 4010.76923077 , 4017.94871795 , 4017.94871795 , 4123.58974359 , 4007.69230769 , 4004.1025641 , 2040.0 , 2026.0 , 14.023 , 0.0 , 0.0 , 0.0 , 0.0 , 

120.0 , 4005.12820513 , 4004.61538462 , 3923.58974359 , 4013.33333333 , 4009.74358974 , 4004.1025641 , 4006.66666667 , 4008.20512821 , 4005.12820513 , 4015.38461538 , 4018.97435897 , 4118.97435897 , 4003.07692308 , 4005.64102564 , 2040.0 , 2026.0 , 14.032 , 0.0 , 0.0 , 0.0 , 0.0 , 

121.0 , 4004.61538462 , 4006.15384615 , 3903.58974359 , 4012.82051282 , 4009.23076923 , 4004.1025641 , 4006.66666667 , 4007.17948718 , 4001.02564103 , 4014.35897436 , 4014.35897436 , 4118.97435897 , 4000.0 , 4006.15384615 , 2040.0 , 2026.0 , 14.039 , 0.0 , 0.0 , 0.0 , 0.0 , 

122.0 , 4004.61538462 , 4007.17948718 , 3903.07692308 , 4011.79487179 , 4009.23076923 , 4003.58974359 , 4006.15384615 , 4009.23076923 , 4004.1025641 , 4016.92307692 , 4015.38461538 , 4124.61538462 , 4001.53846154 , 4004.61538462 , 2040.0 , 2025.0 , 14.047 , 0.0 , 0.0 , 0.0 , 0.0 , 

123.0 , 4008.71794872 , 4006.66666667 , 3912.30769231 , 4008.20512821 , 4009.23076923 , 4004.1025641 , 4007.17948718 , 4008.20512821 , 4006.66666667 , 4014.87179487 , 4018.46153846 , 4122.05128205 , 4004.1025641 , 4006.15384615 , 2043.0 , 2027.0 , 14.055 , 0.0 , 0.0 , 0.0 , 0.0 , 

124.0 , 4010.25641026 , 4008.71794872 , 3928.71794872 , 4008.20512821 , 4007.69230769 , 4004.1025641 , 4008.71794872 , 4008.71794872 , 4009.74358974 , 4015.8974359 , 4017.94871795 , 4116.41025641 , 4007.69230769 , 4009.74358974 , 2043.0 , 2029.0 , 14.064 , 0.0 , 0.0 , 0.0 , 0.0 , 

125.0 , 4008.20512821 , 4008.71794872 , 3934.87179487 , 4011.28205128 , 4008.20512821 , 4003.58974359 , 4006.66666667 , 4010.76923077 , 4013.33333333 , 4020.51282051 , 4016.41025641 , 4117.43589744 , 4008.71794872 , 4010.25641026 , 2043.0 , 2032.0 , 14.072 , 0.0 , 0.0 , 0.0 , 0.0 , 

126.0 , 4008.20512821 , 4005.64102564 , 3945.12820513 , 4011.28205128 , 4010.25641026 , 4003.58974359 , 4004.61538462 , 4011.79487179 , 4013.33333333 , 4020.0 , 4018.46153846 , 4116.41025641 , 4006.15384615 , 4009.23076923 , 2043.0 , 2036.0 , 14.078 , 0.0 , 0.0 , 0.0 , 0.0 , 

127.0 , 4011.79487179 , 4008.71794872 , 3940.51282051 , 4010.25641026 , 4010.76923077 , 4004.1025641 , 4005.64102564 , 4011.79487179 , 4007.69230769 , 4016.41025641 , 4018.97435897 , 4113.84615385 , 4004.61538462 , 4008.71794872 , 2042.0 , 2038.0 , 14.087 , 0.0 , 0.0 , 0.0 , 0.0 , 

128.0 , 4010.25641026 , 4012.30769231 , 3931.79487179 , 4010.76923077 , 4010.25641026 , 4003.58974359 , 4007.69230769 , 4010.25641026 , 4005.64102564 , 4017.43589744 , 4017.43589744 , 4115.38461538 , 4006.66666667 , 4009.23076923 , 2041.0 , 2042.0 , 14.094 , 0.0 , 0.0 , 0.0 , 0.0 , 

0.0 , 4006.66666667 , 4008.71794872 , 3914.35897436 , 4012.82051282 , 4010.76923077 , 4004.1025641 , 4009.74358974 , 4007.17948718 , 4006.15384615 , 4020.0 , 4019.48717949 , 4116.41025641 , 4008.20512821 , 4011.79487179 , 2040.0 , 2043.0 , 14.102 , 0.0 , 0.0 , 0.0 , 0.0 , 

1.0 , 4007.17948718 , 4005.12820513 , 3902.05128205 , 4011.79487179 , 4010.25641026 , 4007.17948718 , 4009.74358974 , 4008.71794872 , 4005.12820513 , 4017.94871795 , 4020.0 , 4113.33333333 , 4005.64102564 , 4009.23076923 , 2040.0 , 2038.0 , 14.11 , 0.0 , 0.0 , 0.0 , 0.0 , 

2.0 , 4010.76923077 , 4008.20512821 , 3896.41025641 , 4010.25641026 , 4008.71794872 , 4008.71794872 , 4008.20512821 , 4012.82051282 , 4004.61538462 , 4016.92307692 , 4019.48717949 , 4114.87179487 , 4004.61538462 , 4008.71794872 , 2040.0 , 2035.0 , 14.118 , 0.0 , 0.0 , 0.0 , 0.0 , 

3.0 , 4008.71794872 , 4010.25641026 , 3900.0 , 4008.20512821 , 4008.71794872 , 4006.15384615 , 4007.17948718 , 4009.74358974 , 4006.66666667 , 4020.51282051 , 4019.48717949 , 4111.79487179 , 4005.64102564 , 4009.74358974 , 2041.0 , 2033.0 , 14.126 , 0.0 , 0.0 , 0.0 , 0.0 , 

4.0 , 4009.23076923 , 4009.74358974 , 3898.46153846 , 4008.20512821 , 4009.23076923 , 4004.61538462 , 4008.71794872 , 4008.20512821 , 4007.69230769 , 4024.1025641 , 4018.97435897 , 4105.12820513 , 4009.23076923 , 4010.25641026 , 2043.0 , 2030.0 , 14.135 , 0.0 , 0.0 , 0.0 , 0.0 , 

5.0 , 4011.28205128 , 4009.74358974 , 3898.97435897 , 4008.20512821 , 4008.20512821 , 4006.15384615 , 4007.69230769 , 4009.74358974 , 4007.17948718 , 4019.48717949 , 4017.94871795 , 4102.05128205 , 4007.69230769 , 4010.25641026 , 2044.0 , 2032.0 , 14.143 , 0.0 , 0.0 , 0.0 , 0.0 , 

6.0 , 4011.28205128 , 4009.74358974 , 3914.87179487 , 4008.71794872 , 4008.71794872 , 4007.17948718 , 4006.15384615 , 4009.23076923 , 4009.23076923 , 4017.43589744 , 4018.97435897 , 4105.64102564 , 4005.64102564 , 4012.30769231 , 2047.0 , 2036.0 , 14.149 , 0.0 , 0.0 , 0.0 , 0.0 , 

7.0 , 4009.23076923 , 4008.20512821 , 3927.69230769 , 4010.76923077 , 4010.25641026 , 4007.69230769 , 4006.66666667 , 4008.20512821 , 4009.74358974 , 4018.97435897 , 4020.51282051 , 4105.12820513 , 4007.17948718 , 4011.28205128 , 2048.0 , 2037.0 , 14.157 , 0.0 , 0.0 , 0.0 , 0.0 , 

8.0 , 4010.76923077 , 4009.74358974 , 3922.05128205 , 4013.33333333 , 4011.79487179 , 4006.66666667 , 4009.23076923 , 4012.30769231 , 4010.25641026 , 4018.97435897 , 4021.02564103 , 4103.58974359 , 4010.25641026 , 4008.71794872 , 2051.0 , 2046.0 , 14.165 , 0.0 , 0.0 , 0.0 , 0.0 , 

9.0 , 4010.25641026 , 4009.74358974 , 3915.8974359 , 4013.33333333 , 4012.30769231 , 4007.69230769 , 4010.76923077 , 4013.84615385 , 4010.76923077 , 4017.94871795 , 4020.0 , 4101.02564103 , 4008.20512821 , 4008.20512821 , 2052.0 , 2048.0 , 14.174 , 0.0 , 0.0 , 0.0 , 0.0 , 

10.0 , 4009.74358974 , 4007.69230769 , 3918.46153846 , 4012.30769231 , 4012.82051282 , 4008.20512821 , 4007.69230769 , 4014.87179487 , 4010.25641026 , 4020.0 , 4019.48717949 , 4098.97435897 , 4007.17948718 , 4010.76923077 , 2051.0 , 2050.0 , 14.181 , 0.0 , 0.0 , 0.0 , 0.0 , 

11.0 , 4011.79487179 , 4008.71794872 , 3903.07692308 , 4012.82051282 , 4013.33333333 , 4008.20512821 , 4007.69230769 , 4014.87179487 , 4005.64102564 , 4017.94871795 , 4019.48717949 , 4098.46153846 , 4007.17948718 , 4009.74358974 , 2052.0 , 2053.0 , 14.189 , 0.0 , 0.0 , 0.0 , 0.0 , 

12.0 , 4013.33333333 , 4011.79487179 , 3886.66666667 , 4012.82051282 , 4012.82051282 , 4007.17948718 , 4011.28205128 , 4013.33333333 , 4004.1025641 , 4015.8974359 , 4019.48717949 , 4098.97435897 , 4009.23076923 , 4007.69230769 , 2051.0 , 2053.0 , 14.197 , 0.0 , 0.0 , 0.0 , 0.0 , 

13.0 , 4014.35897436 , 4009.23076923 , 3883.07692308 , 4010.76923077 , 4013.33333333 , 4007.17948718 , 4010.76923077 , 4010.25641026 , 4007.17948718 , 4017.94871795 , 4017.94871795 , 4095.8974359 , 4008.71794872 , 4008.20512821 , 2049.0 , 2051.0 , 14.205 , 0.0 , 0.0 , 0.0 , 0.0 , 

14.0 , 4013.33333333 , 4007.17948718 , 3893.33333333 , 4011.28205128 , 4013.33333333 , 4008.71794872 , 4008.20512821 , 4011.79487179 , 4010.76923077 , 4020.51282051 , 4018.46153846 , 4093.33333333 , 4009.74358974 , 4012.82051282 , 2049.0 , 2050.0 , 14.212 , 0.0 , 0.0 , 0.0 , 0.0 , 

15.0 , 4012.30769231 , 4011.28205128 , 3904.61538462 , 4012.30769231 , 4008.20512821 , 4008.20512821 , 4008.71794872 , 4013.84615385 , 4010.76923077 , 4020.51282051 , 4019.48717949 , 4093.33333333 , 4010.25641026 , 4013.33333333 , 2046.0 , 2046.0 , 14.221 , 0.0 , 0.0 , 0.0 , 0.0 , 

16.0 , 4010.76923077 , 4012.82051282 , 3931.28205128 , 4011.28205128 , 4006.15384615 , 4004.1025641 , 4008.71794872 , 4015.38461538 , 4012.30769231 , 4023.58974359 , 4021.02564103 , 4093.33333333 , 4009.74358974 , 4010.76923077 , 2046.0 , 2044.0 , 14.228 , 0.0 , 0.0 , 0.0 , 0.0 , 

17.0 , 4011.28205128 , 4010.25641026 , 3946.15384615 , 4011.28205128 , 4010.25641026 , 4005.12820513 , 4007.17948718 , 4013.84615385 , 4012.82051282 , 4021.02564103 , 4023.07692308 , 4091.28205128 , 4011.79487179 , 4011.79487179 , 2046.0 , 2043.0 , 14.237 , 0.0 , 0.0 , 0.0 , 0.0 , 

18.0 , 4010.76923077 , 4009.23076923 , 3960.51282051 , 4011.79487179 , 4011.79487179 , 4010.25641026 , 4007.17948718 , 4012.30769231 , 4015.38461538 , 4018.46153846 , 4023.58974359 , 4088.71794872 , 4014.87179487 , 4012.82051282 , 2044.0 , 2043.0 , 14.244 , 0.0 , 0.0 , 0.0 , 0.0 , 

19.0 , 4011.28205128 , 4012.30769231 , 3968.20512821 , 4011.79487179 , 4008.71794872 , 4008.71794872 , 4007.17948718 , 4013.84615385 , 4016.41025641 , 4023.07692308 , 4023.07692308 , 4090.76923077 , 4015.38461538 , 4013.33333333 , 2043.0 , 2043.0 , 14.252 , 0.0 , 0.0 , 0.0 , 0.0 , 

20.0 , 4010.25641026 , 4011.79487179 , 3968.71794872 , 4011.28205128 , 4009.74358974 , 4005.64102564 , 4006.15384615 , 4014.35897436 , 4014.35897436 , 4025.64102564 , 4021.53846154 , 4090.25641026 , 4013.33333333 , 4013.84615385 , 2043.0 , 2043.0 , 14.261 , 0.0 , 0.0 , 0.0 , 0.0 , 

21.0 , 4010.25641026 , 4008.71794872 , 3963.58974359 , 4011.28205128 , 4011.79487179 , 4007.69230769 , 4007.69230769 , 4015.38461538 , 4012.30769231 , 4022.56410256 , 4022.05128205 , 4089.74358974 , 4014.87179487 , 4013.33333333 , 2044.0 , 2042.0 , 14.267 , 0.0 , 0.0 , 0.0 , 0.0 , 

22.0 , 4010.25641026 , 4008.20512821 , 3968.20512821 , 4011.79487179 , 4011.28205128 , 4006.66666667 , 4009.74358974 , 4016.41025641 , 4012.82051282 , 4019.48717949 , 4023.58974359 , 4086.66666667 , 4015.8974359 , 4011.28205128 , 2042.0 , 2040.0 , 14.275 , 0.0 , 0.0 , 0.0 , 0.0 , 

23.0 , 4012.30769231 , 4014.35897436 , 3969.74358974 , 4012.30769231 , 4010.76923077 , 4005.12820513 , 4009.74358974 , 4018.97435897 , 4012.30769231 , 4023.07692308 , 4024.61538462 , 4086.15384615 , 4015.38461538 , 4014.87179487 , 2041.0 , 2038.0 , 14.283 , 0.0 , 0.0 , 0.0 , 0.0 , 

24.0 , 4014.35897436 , 4013.33333333 , 3972.82051282 , 4008.20512821 , 4010.25641026 , 4007.17948718 , 4007.69230769 , 4018.97435897 , 4015.8974359 , 4026.66666667 , 4021.53846154 , 4087.17948718 , 4012.30769231 , 4014.35897436 , 2043.0 , 2034.0 , 14.291 , 0.0 , 0.0 , 0.0 , 0.0 , 

25.0 , 4012.82051282 , 4006.15384615 , 3987.17948718 , 4008.71794872 , 4008.71794872 , 4008.71794872 , 4007.17948718 , 4018.46153846 , 4022.05128205 , 4027.17948718 , 4020.51282051 , 4088.20512821 , 4011.79487179 , 4011.79487179 , 2043.0 , 2032.0 , 14.299 , 0.0 , 0.0 , 0.0 , 0.0 , 

26.0 , 4008.20512821 , 4004.61538462 , 4001.02564103 , 4012.30769231 , 4006.15384615 , 4007.17948718 , 4008.71794872 , 4017.94871795 , 4020.51282051 , 4023.07692308 , 4021.53846154 , 4085.64102564 , 4012.30769231 , 4010.76923077 , 2043.0 , 2029.0 , 14.307 , 0.0 , 0.0 , 0.0 , 0.0 , 

27.0 , 4012.30769231 , 4010.76923077 , 4008.20512821 , 4009.74358974 , 4006.66666667 , 4006.15384615 , 4008.71794872 , 4015.8974359 , 4017.94871795 , 4023.58974359 , 4023.07692308 , 4086.15384615 , 4013.33333333 , 4011.79487179 , 2043.0 , 2024.0 , 14.315 , 0.0 , 0.0 , 0.0 , 0.0 , 

28.0 , 4014.87179487 , 4011.28205128 , 4011.28205128 , 4007.69230769 , 4007.69230769 , 4008.71794872 , 4007.17948718 , 4012.82051282 , 4019.48717949 , 4024.1025641 , 4024.1025641 , 4089.23076923 , 4011.28205128 , 4012.82051282 , 2043.0 , 2023.0 , 14.324 , 0.0 , 0.0 , 0.0 , 0.0 , 

29.0 , 4011.79487179 , 4007.69230769 , 4022.56410256 , 4010.76923077 , 4008.20512821 , 4009.74358974 , 4007.17948718 , 4014.87179487 , 4020.0 , 4021.02564103 , 4023.07692308 , 4087.69230769 , 4013.33333333 , 4015.8974359 , 2043.0 , 2021.0 , 14.332 , 0.0 , 0.0 , 0.0 , 0.0 , 

30.0 , 4010.76923077 , 4009.23076923 , 4024.61538462 , 4010.76923077 , 4009.23076923 , 4008.71794872 , 4009.23076923 , 4016.92307692 , 4018.97435897 , 4020.0 , 4020.51282051 , 4082.56410256 , 4014.35897436 , 4017.43589744 , 2042.0 , 2022.0 , 14.341 , 0.0 , 0.0 , 0.0 , 0.0 , 

31.0 , 4012.82051282 , 4011.79487179 , 4021.53846154 , 4009.74358974 , 4010.76923077 , 4008.20512821 , 4008.20512821 , 4017.43589744 , 4018.46153846 , 4023.07692308 , 4022.05128205 , 4084.1025641 , 4014.35897436 , 4014.87179487 , 2040.0 , 2023.0 , 14.346 , 0.0 , 0.0 , 0.0 , 0.0 , 

32.0 , 4013.33333333 , 4012.30769231 , 4006.66666667 , 4013.33333333 , 4011.79487179 , 4008.20512821 , 4007.69230769 , 4014.35897436 , 4012.30769231 , 4022.05128205 , 4022.56410256 , 4088.20512821 , 4012.30769231 , 4013.84615385 , 2041.0 , 2025.0 , 14.355 , 0.0 , 0.0 , 0.0 , 0.0 , 

33.0 , 4013.84615385 , 4012.82051282 , 3998.46153846 , 4014.87179487 , 4012.30769231 , 4008.71794872 , 4010.25641026 , 4014.35897436 , 4010.25641026 , 4017.94871795 , 4021.02564103 , 4087.17948718 , 4011.28205128 , 4012.82051282 , 2041.0 , 2026.0 , 14.362 , 0.0 , 0.0 , 0.0 , 0.0 , 

34.0 , 4012.30769231 , 4011.79487179 , 3990.76923077 , 4012.30769231 , 4012.30769231 , 4008.71794872 , 4010.25641026 , 4015.38461538 , 4013.33333333 , 4017.94871795 , 4021.02564103 , 4085.64102564 , 4010.76923077 , 4012.82051282 , 2042.0 , 2025.0 , 14.37 , 0.0 , 0.0 , 0.0 , 0.0 , 

35.0 , 4010.25641026 , 4011.28205128 , 3992.82051282 , 4011.28205128 , 4011.28205128 , 4004.61538462 , 4007.17948718 , 4015.38461538 , 4015.38461538 , 4020.0 , 4021.53846154 , 4087.17948718 , 4011.28205128 , 4016.92307692 , 2042.0 , 2026.0 , 14.378 , 0.0 , 0.0 , 0.0 , 0.0 , 

36.0 , 4013.84615385 , 4013.84615385 , 3984.61538462 , 4014.35897436 , 4012.30769231 , 4003.58974359 , 4008.20512821 , 4014.35897436 , 4013.33333333 , 4022.56410256 , 4020.51282051 , 4088.20512821 , 4012.82051282 , 4020.0 , 2043.0 , 2027.0 , 14.386 , 0.0 , 0.0 , 0.0 , 0.0 , 

37.0 , 4014.35897436 , 4013.33333333 , 3980.0 , 4013.84615385 , 4012.30769231 , 4007.69230769 , 4010.76923077 , 4015.38461538 , 4012.82051282 , 4021.53846154 , 4020.0 , 4084.1025641 , 4012.30769231 , 4017.43589744 , 2041.0 , 2029.0 , 14.395 , 0.0 , 0.0 , 0.0 , 0.0 , 

38.0 , 4013.33333333 , 4010.25641026 , 3991.28205128 , 4009.23076923 , 4010.76923077 , 4011.79487179 , 4011.28205128 , 4014.87179487 , 4013.84615385 , 4020.0 , 4023.07692308 , 4082.56410256 , 4012.30769231 , 4015.8974359 , 2040.0 , 2032.0 , 14.402 , 0.0 , 0.0 , 0.0 , 0.0 , 

39.0 , 4014.87179487 , 4009.74358974 , 4008.20512821 , 4009.74358974 , 4010.25641026 , 4011.79487179 , 4010.25641026 , 4013.84615385 , 4014.35897436 , 4023.58974359 , 4024.1025641 , 4083.58974359 , 4014.87179487 , 4018.46153846 , 2039.0 , 2032.0 , 14.41 , 0.0 , 0.0 , 0.0 , 0.0 , 

40.0 , 4014.35897436 , 4011.28205128 , 3993.33333333 , 4015.8974359 , 4011.28205128 , 4007.69230769 , 4009.23076923 , 4015.38461538 , 4013.33333333 , 4025.64102564 , 4021.02564103 , 4083.58974359 , 4012.30769231 , 4015.38461538 , 2039.0 , 2031.0 , 14.417 , 0.0 , 0.0 , 0.0 , 0.0 , 

41.0 , 4012.30769231 , 4011.79487179 , 3980.51282051 , 4014.35897436 , 4011.79487179 , 4006.15384615 , 4008.71794872 , 4015.8974359 , 4013.33333333 , 4019.48717949 , 4018.97435897 , 4080.51282051 , 4007.69230769 , 4011.28205128 , 2041.0 , 2032.0 , 14.425 , 0.0 , 0.0 , 0.0 , 0.0 , 

42.0 , 4015.38461538 , 4012.82051282 , 3989.23076923 , 4008.20512821 , 4011.28205128 , 4010.25641026 , 4011.28205128 , 4014.87179487 , 4015.38461538 , 4017.43589744 , 4023.58974359 , 4084.1025641 , 4013.33333333 , 4016.41025641 , 2041.0 , 2034.0 , 14.433 , 0.0 , 0.0 , 0.0 , 0.0 , 

43.0 , 4014.87179487 , 4009.74358974 , 3993.33333333 , 4009.23076923 , 4010.76923077 , 4011.79487179 , 4011.79487179 , 4013.84615385 , 4015.8974359 , 4022.56410256 , 4025.12820513 , 4084.1025641 , 4017.43589744 , 4017.94871795 , 2041.0 , 2035.0 , 14.443 , 0.0 , 0.0 , 0.0 , 0.0 , 

44.0 , 4013.84615385 , 4011.28205128 , 3984.1025641 , 4013.33333333 , 4010.76923077 , 4012.82051282 , 4009.74358974 , 4015.38461538 , 4016.41025641 , 4026.15384615 , 4022.05128205 , 4081.02564103 , 4011.79487179 , 4013.84615385 , 2041.0 , 2038.0 , 14.449 , 0.0 , 0.0 , 0.0 , 0.0 , 

45.0 , 4012.82051282 , 4012.82051282 , 3987.69230769 , 4012.30769231 , 4012.30769231 , 4015.38461538 , 4009.23076923 , 4016.41025641 , 4015.38461538 , 4024.1025641 , 4021.53846154 , 4079.48717949 , 4010.25641026 , 4013.84615385 , 2044.0 , 2043.0 , 14.458 , 0.0 , 0.0 , 0.0 , 0.0 , 

46.0 , 4012.30769231 , 4011.28205128 , 4004.61538462 , 4012.82051282 , 4013.84615385 , 4011.79487179 , 4010.25641026 , 4018.46153846 , 4015.38461538 , 4024.61538462 , 4025.12820513 , 4082.56410256 , 4016.92307692 , 4018.46153846 , 2045.0 , 2041.0 , 14.464 , 0.0 , 0.0 , 0.0 , 0.0 , 

47.0 , 4012.30769231 , 4012.30769231 , 4005.64102564 , 4015.38461538 , 4013.33333333 , 4005.12820513 , 4008.20512821 , 4017.43589744 , 4016.41025641 , 4025.12820513 , 4023.58974359 , 4080.51282051 , 4014.35897436 , 4017.43589744 , 2044.0 , 2044.0 , 14.473 , 0.0 , 0.0 , 0.0 , 0.0 , 

48.0 , 4013.84615385 , 4013.33333333 , 4002.05128205 , 4016.41025641 , 4012.82051282 , 4010.25641026 , 4006.66666667 , 4016.92307692 , 4020.51282051 , 4023.58974359 , 4024.61538462 , 4078.46153846 , 4011.28205128 , 4015.8974359 , 2043.0 , 2044.0 , 14.48 , 0.0 , 0.0 , 0.0 , 0.0 , 

49.0 , 4012.30769231 , 4010.25641026 , 4002.05128205 , 4014.87179487 , 4011.28205128 , 4016.92307692 , 4006.15384615 , 4017.43589744 , 4020.51282051 , 4021.53846154 , 4026.15384615 , 4080.51282051 , 4012.30769231 , 4015.8974359 , 2042.0 , 2044.0 , 14.489 , 0.0 , 0.0 , 0.0 , 0.0 , 

50.0 , 4009.74358974 , 4009.74358974 , 4008.20512821 , 4015.8974359 , 4010.25641026 , 4011.28205128 , 4007.69230769 , 4020.0 , 4017.94871795 , 4025.12820513 , 4026.15384615 , 4084.61538462 , 4013.33333333 , 4016.41025641 , 2042.0 , 2043.0 , 14.497 , 0.0 , 0.0 , 0.0 , 0.0 , 

51.0 , 4011.79487179 , 4012.30769231 , 4002.05128205 , 4017.94871795 , 4010.25641026 , 4006.66666667 , 4010.25641026 , 4018.97435897 , 4012.82051282 , 4025.12820513 , 4024.61538462 , 4086.66666667 , 4013.84615385 , 4017.43589744 , 2041.0 , 2041.0 , 14.505 , 0.0 , 0.0 , 0.0 , 0.0 , 

52.0 , 4012.82051282 , 4012.30769231 , 4003.58974359 , 4015.8974359 , 4011.79487179 , 4011.28205128 , 4010.25641026 , 4014.87179487 , 4012.82051282 , 4020.51282051 , 4021.53846154 , 4084.1025641 , 4013.33333333 , 4017.94871795 , 2042.0 , 2040.0 , 14.512 , 0.0 , 0.0 , 0.0 , 0.0 , 

53.0 , 4011.79487179 , 4012.30769231 , 4003.58974359 , 4012.82051282 , 4012.82051282 , 4014.35897436 , 4009.23076923 , 4013.84615385 , 4017.94871795 , 4021.02564103 , 4020.51282051 , 4081.53846154 , 4011.28205128 , 4015.38461538 , 2041.0 , 2039.0 , 14.52 , 0.0 , 0.0 , 0.0 , 0.0 , 

54.0 , 4012.30769231 , 4012.30769231 , 4007.69230769 , 4012.30769231 , 4013.33333333 , 4013.33333333 , 4010.25641026 , 4017.43589744 , 4021.02564103 , 4026.66666667 , 4022.56410256 , 4081.02564103 , 4013.84615385 , 4014.87179487 , 2041.0 , 2037.0 , 14.528 , 0.0 , 0.0 , 0.0 , 0.0 , 

55.0 , 4014.35897436 , 4011.79487179 , 4010.76923077 , 4013.33333333 , 4015.38461538 , 4012.30769231 , 4009.74358974 , 4018.46153846 , 4019.48717949 , 4027.69230769 , 4024.1025641 , 4082.56410256 , 4015.8974359 , 4016.92307692 , 2041.0 , 2036.0 , 14.535 , 0.0 , 0.0 , 0.0 , 0.0 , 

56.0 , 4012.30769231 , 4012.30769231 , 4022.05128205 , 4012.82051282 , 4015.38461538 , 4013.33333333 , 4008.20512821 , 4017.43589744 , 4017.94871795 , 4023.07692308 , 4025.64102564 , 4082.56410256 , 4013.33333333 , 4016.41025641 , 2042.0 , 2035.0 , 14.544 , 0.0 , 0.0 , 0.0 , 0.0 , 

57.0 , 4012.30769231 , 4014.87179487 , 4026.66666667 , 4012.30769231 , 4014.35897436 , 4015.38461538 , 4010.25641026 , 4020.51282051 , 4020.0 , 4021.02564103 , 4028.20512821 , 4083.58974359 , 4013.84615385 , 4016.92307692 , 2041.0 , 2035.0 , 14.551 , 0.0 , 0.0 , 0.0 , 0.0 , 

58.0 , 4013.84615385 , 4014.87179487 , 4030.25641026 , 4014.35897436 , 4011.79487179 , 4014.87179487 , 4011.28205128 , 4023.07692308 , 4023.07692308 , 4023.07692308 , 4026.15384615 , 4083.58974359 , 4016.41025641 , 4018.97435897 , 2041.0 , 2034.0 , 14.559 , 0.0 , 0.0 , 0.0 , 0.0 , 

59.0 , 4015.8974359 , 4013.33333333 , 4034.87179487 , 4015.8974359 , 4011.79487179 , 4012.30769231 , 4010.25641026 , 4021.53846154 , 4022.05128205 , 4024.61538462 , 4025.64102564 , 4085.12820513 , 4016.41025641 , 4023.07692308 , 2043.0 , 2033.0 , 14.567 , 0.0 , 0.0 , 0.0 , 0.0 , 

60.0 , 4014.87179487 , 4011.28205128 , 4042.05128205 , 4013.33333333 , 4013.33333333 , 4011.28205128 , 4010.76923077 , 4020.0 , 4018.97435897 , 4024.61538462 , 4027.69230769 , 4085.12820513 , 4016.92307692 , 4021.53846154 , 2043.0 , 2034.0 , 14.575 , 0.0 , 0.0 , 0.0 , 0.0 , 

61.0 , 4013.84615385 , 4011.28205128 , 4040.51282051 , 4011.28205128 , 4013.33333333 , 4012.82051282 , 4011.28205128 , 4020.0 , 4018.97435897 , 4028.71794872 , 4028.71794872 , 4085.12820513 , 4016.41025641 , 4018.97435897 , 2042.0 , 2033.0 , 14.584 , 0.0 , 0.0 , 0.0 , 0.0 , 

62.0 , 4012.82051282 , 4010.76923077 , 4038.46153846 , 4015.38461538 , 4012.30769231 , 4011.79487179 , 4010.76923077 , 4018.46153846 , 4018.46153846 , 4026.15384615 , 4026.15384615 , 4083.58974359 , 4011.79487179 , 4016.92307692 , 2043.0 , 2032.0 , 14.592 , 0.0 , 0.0 , 0.0 , 0.0 , 

63.0 , 4014.35897436 , 4011.79487179 , 4041.53846154 , 4017.94871795 , 4012.82051282 , 4011.79487179 , 4011.79487179 , 4019.48717949 , 4017.43589744 , 4022.56410256 , 4025.64102564 , 4083.58974359 , 4013.84615385 , 4015.8974359 , 2043.0 , 2028.0 , 14.599 , 0.0 , 0.0 , 0.0 , 0.0 , 

64.0 , 4011.79487179 , 4011.28205128 , 4032.30769231 , 4013.33333333 , 4012.82051282 , 4012.30769231 , 4010.76923077 , 4017.43589744 , 4017.43589744 , 4022.56410256 , 4025.12820513 , 4082.05128205 , 4015.8974359 , 4012.82051282 , 2043.0 , 2024.0 , 14.607 , 0.0 , 0.0 , 0.0 , 0.0 , 

65.0 , 4012.30769231 , 4011.28205128 , 4022.05128205 , 4012.82051282 , 4016.41025641 , 4012.30769231 , 4009.74358974 , 4018.46153846 , 4019.48717949 , 4022.56410256 , 4026.15384615 , 4082.56410256 , 4015.38461538 , 4014.87179487 , 2042.0 , 2020.0 , 14.614 , 0.0 , 0.0 , 0.0 , 0.0 , 

66.0 , 4016.92307692 , 4012.82051282 , 4017.43589744 , 4012.82051282 , 4018.97435897 , 4011.79487179 , 4012.30769231 , 4018.46153846 , 4016.92307692 , 4020.0 , 4023.07692308 , 4082.56410256 , 4014.35897436 , 4015.8974359 , 2045.0 , 2017.0 , 14.622 , 0.0 , 0.0 , 0.0 , 0.0 , 

67.0 , 4016.41025641 , 4014.87179487 , 4023.07692308 , 4011.28205128 , 4013.33333333 , 4011.28205128 , 4013.84615385 , 4014.87179487 , 4014.87179487 , 4021.53846154 , 4020.0 , 4081.02564103 , 4012.82051282 , 4014.87179487 , 2044.0 , 2016.0 , 14.631 , 0.0 , 0.0 , 0.0 , 0.0 , 

68.0 , 4011.79487179 , 4013.84615385 , 4020.0 , 4013.33333333 , 4009.23076923 , 4013.33333333 , 4010.76923077 , 4014.35897436 , 4014.87179487 , 4022.05128205 , 4024.1025641 , 4082.56410256 , 4012.82051282 , 4016.92307692 , 2047.0 , 2016.0 , 14.638 , 0.0 , 0.0 , 0.0 , 0.0 , 

69.0 , 4013.84615385 , 4013.33333333 , 4017.94871795 , 4015.8974359 , 4015.38461538 , 4011.28205128 , 4010.25641026 , 4017.94871795 , 4019.48717949 , 4022.56410256 , 4027.17948718 , 4084.1025641 , 4015.38461538 , 4017.94871795 , 2047.0 , 2016.0 , 14.647 , 0.0 , 0.0 , 0.0 , 0.0 , 

70.0 , 4017.43589744 , 4015.38461538 , 4011.79487179 , 4013.84615385 , 4018.46153846 , 4007.17948718 , 4010.76923077 , 4016.92307692 , 4021.02564103 , 4023.07692308 , 4022.56410256 , 4081.02564103 , 4014.35897436 , 4015.38461538 , 2047.0 , 2017.0 , 14.654 , 0.0 , 0.0 , 0.0 , 0.0 , 

71.0 , 4014.35897436 , 4016.41025641 , 4020.51282051 , 4013.84615385 , 4014.35897436 , 4010.25641026 , 4010.76923077 , 4018.46153846 , 4018.97435897 , 4022.56410256 , 4021.02564103 , 4080.51282051 , 4013.33333333 , 4017.43589744 , 2047.0 , 2021.0 , 14.662 , 0.0 , 0.0 , 0.0 , 0.0 , 

72.0 , 4015.38461538 , 4013.84615385 , 4023.58974359 , 4016.41025641 , 4012.30769231 , 4015.38461538 , 4013.84615385 , 4023.07692308 , 4017.94871795 , 4022.56410256 , 4025.12820513 , 4084.61538462 , 4016.41025641 , 4021.02564103 , 2047.0 , 2021.0 , 14.67 , 0.0 , 0.0 , 0.0 , 0.0 , 

73.0 , 4019.48717949 , 4012.30769231 , 4019.48717949 , 4015.8974359 , 4014.35897436 , 4014.35897436 , 4013.33333333 , 4020.0 , 4017.94871795 , 4023.07692308 , 4026.15384615 , 4087.17948718 , 4017.43589744 , 4018.97435897 , 2048.0 , 2024.0 , 14.678 , 0.0 , 0.0 , 0.0 , 0.0 , 

74.0 , 4017.94871795 , 4015.38461538 , 4014.87179487 , 4015.8974359 , 4014.87179487 , 4011.79487179 , 4010.25641026 , 4014.35897436 , 4015.8974359 , 4022.05128205 , 4022.56410256 , 4086.15384615 , 4014.35897436 , 4015.38461538 , 2048.0 , 2023.0 , 14.685 , 0.0 , 0.0 , 0.0 , 0.0 , 

75.0 , 4012.82051282 , 4013.33333333 , 4025.64102564 , 4014.87179487 , 4012.82051282 , 4013.33333333 , 4008.71794872 , 4015.38461538 , 4016.92307692 , 4022.05128205 , 4022.56410256 , 4086.15384615 , 4013.84615385 , 4016.41025641 , 2048.0 , 2023.0 , 14.693 , 0.0 , 0.0 , 0.0 , 0.0 , 

76.0 , 4016.41025641 , 4011.79487179 , 4030.76923077 , 4014.35897436 , 4013.84615385 , 4014.87179487 , 4009.23076923 , 4016.92307692 , 4018.46153846 , 4023.07692308 , 4025.12820513 , 4087.69230769 , 4018.46153846 , 4020.0 , 2048.0 , 2025.0 , 14.701 , 0.0 , 0.0 , 0.0 , 0.0 , 

77.0 , 4018.97435897 , 4013.84615385 , 4032.82051282 , 4015.38461538 , 4013.84615385 , 4014.87179487 , 4010.76923077 , 4017.94871795 , 4018.97435897 , 4025.12820513 , 4025.12820513 , 4085.64102564 , 4018.97435897 , 4019.48717949 , 2047.0 , 2023.0 , 14.709 , 0.0 , 0.0 , 0.0 , 0.0 , 

78.0 , 4018.97435897 , 4015.8974359 , 4028.71794872 , 4016.41025641 , 4012.82051282 , 4014.35897436 , 4012.30769231 , 4020.0 , 4020.51282051 , 4027.17948718 , 4022.56410256 , 4085.12820513 , 4011.28205128 , 4016.41025641 , 2049.0 , 2025.0 , 14.717 , 0.0 , 0.0 , 0.0 , 0.0 , 

79.0 , 4017.43589744 , 4014.87179487 , 4029.23076923 , 4014.35897436 , 4012.30769231 , 4013.84615385 , 4010.76923077 , 4018.97435897 , 4022.05128205 , 4023.07692308 , 4022.05128205 , 4085.64102564 , 4010.25641026 , 4015.38461538 , 2049.0 , 2025.0 , 14.726 , 0.0 , 0.0 , 0.0 , 0.0 , 

80.0 , 4015.8974359 , 4016.41025641 , 4032.82051282 , 4013.33333333 , 4012.82051282 , 4013.84615385 , 4011.28205128 , 4018.46153846 , 4021.53846154 , 4024.1025641 , 4026.15384615 , 4087.69230769 , 4021.53846154 , 4018.97435897 , 2048.0 , 2027.0 , 14.732 , 0.0 , 0.0 , 0.0 , 0.0 , 

81.0 , 4012.82051282 , 4015.38461538 , 4029.74358974 , 4015.8974359 , 4014.35897436 , 4011.79487179 , 4013.84615385 , 4016.41025641 , 4019.48717949 , 4028.71794872 , 4027.17948718 , 4086.15384615 , 4018.97435897 , 4018.46153846 , 2047.0 , 2027.0 , 14.74 , 0.0 , 0.0 , 0.0 , 0.0 , 

82.0 , 4013.33333333 , 4012.30769231 , 4022.05128205 , 4017.43589744 , 4014.35897436 , 4012.30769231 , 4013.84615385 , 4017.43589744 , 4020.0 , 4028.20512821 , 4024.1025641 , 4087.17948718 , 4010.76923077 , 4017.94871795 , 2047.0 , 2026.0 , 14.748 , 0.0 , 0.0 , 0.0 , 0.0 , 

83.0 , 4013.84615385 , 4012.82051282 , 4014.35897436 , 4015.8974359 , 4012.30769231 , 4012.82051282 , 4012.30769231 , 4018.46153846 , 4018.97435897 , 4022.56410256 , 4022.56410256 , 4087.69230769 , 4014.87179487 , 4015.8974359 , 2048.0 , 2027.0 , 14.756 , 0.0 , 0.0 , 0.0 , 0.0 , 

84.0 , 4013.84615385 , 4016.41025641 , 4020.51282051 , 4016.92307692 , 4012.30769231 , 4013.84615385 , 4012.30769231 , 4017.94871795 , 4018.97435897 , 4025.64102564 , 4024.61538462 , 4086.15384615 , 4021.02564103 , 4016.41025641 , 2048.0 , 2030.0 , 14.764 , 0.0 , 0.0 , 0.0 , 0.0 , 

85.0 , 4016.92307692 , 4014.87179487 , 4026.15384615 , 4017.94871795 , 4014.35897436 , 4016.92307692 , 4012.82051282 , 4018.46153846 , 4018.46153846 , 4029.23076923 , 4023.58974359 , 4083.07692308 , 4016.92307692 , 4017.43589744 , 2046.0 , 2031.0 , 14.773 , 0.0 , 0.0 , 0.0 , 0.0 , 

86.0 , 4018.46153846 , 4013.33333333 , 4028.20512821 , 4014.87179487 , 4014.35897436 , 4017.43589744 , 4012.82051282 , 4021.53846154 , 4018.97435897 , 4028.71794872 , 4024.61538462 , 4086.15384615 , 4015.38461538 , 4016.92307692 , 2046.0 , 2032.0 , 14.781 , 0.0 , 0.0 , 0.0 , 0.0 , 

87.0 , 4015.38461538 , 4013.84615385 , 4018.97435897 , 4014.87179487 , 4011.79487179 , 4014.35897436 , 4013.33333333 , 4018.97435897 , 4017.94871795 , 4027.17948718 , 4029.23076923 , 4091.28205128 , 4016.41025641 , 4017.43589744 , 2045.0 , 2035.0 , 14.788 , 0.0 , 0.0 , 0.0 , 0.0 , 

88.0 , 4014.87179487 , 4015.38461538 , 4020.0 , 4016.92307692 , 4012.82051282 , 4013.33333333 , 4013.84615385 , 4015.8974359 , 4020.0 , 4026.15384615 , 4028.71794872 , 4090.25641026 , 4018.46153846 , 4022.05128205 , 2045.0 , 2036.0 , 14.796 , 0.0 , 0.0 , 0.0 , 0.0 , 

89.0 , 4017.94871795 , 4017.94871795 , 4019.48717949 , 4016.41025641 , 4014.87179487 , 4014.35897436 , 4011.79487179 , 4018.97435897 , 4021.02564103 , 4023.07692308 , 4024.1025641 , 4085.12820513 , 4019.48717949 , 4023.07692308 , 2043.0 , 2038.0 , 14.804 , 0.0 , 0.0 , 0.0 , 0.0 , 

90.0 , 4017.43589744 , 4018.46153846 , 4020.0 , 4016.41025641 , 4013.84615385 , 4012.82051282 , 4011.28205128 , 4021.02564103 , 4020.51282051 , 4024.1025641 , 4026.66666667 , 4086.15384615 , 4018.46153846 , 4019.48717949 , 2044.0 , 2038.0 , 14.811 , 0.0 , 0.0 , 0.0 , 0.0 , 

91.0 , 4016.41025641 , 4016.92307692 , 4014.87179487 , 4018.97435897 , 4012.30769231 , 4013.33333333 , 4014.35897436 , 4017.43589744 , 4020.51282051 , 4026.15384615 , 4028.71794872 , 4089.74358974 , 4015.38461538 , 4018.46153846 , 2045.0 , 2037.0 , 14.819 , 0.0 , 0.0 , 0.0 , 0.0 , 

92.0 , 4016.41025641 , 4016.92307692 , 4017.94871795 , 4019.48717949 , 4013.84615385 , 4016.92307692 , 4013.33333333 , 4016.92307692 , 4022.05128205 , 4027.17948718 , 4023.07692308 , 4088.71794872 , 4015.8974359 , 4020.0 , 2045.0 , 2037.0 , 14.827 , 0.0 , 0.0 , 0.0 , 0.0 , 

93.0 , 4017.94871795 , 4019.48717949 , 4014.87179487 , 4020.0 , 4014.87179487 , 4015.38461538 , 4010.76923077 , 4019.48717949 , 4020.0 , 4029.23076923 , 4022.56410256 , 4088.71794872 , 4017.94871795 , 4021.53846154 , 2045.0 , 2035.0 , 14.835 , 0.0 , 0.0 , 0.0 , 0.0 , 

94.0 , 4015.8974359 , 4016.41025641 , 4020.0 , 4018.97435897 , 4014.87179487 , 4012.82051282 , 4012.30769231 , 4019.48717949 , 4018.97435897 , 4027.69230769 , 4026.15384615 , 4089.23076923 , 4015.8974359 , 4021.53846154 , 2046.0 , 2034.0 , 14.844 , 0.0 , 0.0 , 0.0 , 0.0 , 

95.0 , 4016.41025641 , 4012.82051282 , 4027.17948718 , 4016.92307692 , 4016.92307692 , 4013.33333333 , 4014.35897436 , 4018.97435897 , 4021.53846154 , 4025.64102564 , 4026.15384615 , 4088.71794872 , 4015.8974359 , 4023.07692308 , 2045.0 , 2034.0 , 14.852 , 0.0 , 0.0 , 0.0 , 0.0 , 

96.0 , 4016.92307692 , 4013.33333333 , 4027.69230769 , 4017.43589744 , 4016.92307692 , 4013.84615385 , 4013.33333333 , 4021.53846154 , 4023.07692308 , 4027.69230769 , 4024.61538462 , 4086.66666667 , 4017.43589744 , 4022.56410256 , 2041.0 , 2033.0 , 14.86 , 0.0 , 0.0 , 0.0 , 0.0 , 

97.0 , 4016.41025641 , 4016.41025641 , 4020.51282051 , 4021.02564103 , 4015.38461538 , 4012.82051282 , 4012.82051282 , 4023.58974359 , 4021.53846154 , 4029.74358974 , 4027.17948718 , 4089.23076923 , 4019.48717949 , 4020.51282051 , 2041.0 , 2037.0 , 14.866 , 0.0 , 0.0 , 0.0 , 0.0 , 

98.0 , 4014.35897436 , 4016.92307692 , 4018.97435897 , 4018.97435897 , 4014.87179487 , 4012.82051282 , 4014.35897436 , 4022.56410256 , 4018.46153846 , 4026.66666667 , 4026.66666667 , 4090.25641026 , 4017.94871795 , 4020.51282051 , 2037.0 , 2035.0 , 14.874 , 0.0 , 0.0 , 0.0 , 0.0 , 

99.0 , 4017.43589744 , 4016.92307692 , 4024.1025641 , 4016.92307692 , 4016.41025641 , 4015.38461538 , 4014.87179487 , 4021.53846154 , 4020.0 , 4028.20512821 , 4025.64102564 , 4091.28205128 , 4019.48717949 , 4023.58974359 , 2037.0 , 2036.0 , 14.882 , 0.0 , 0.0 , 0.0 , 0.0 , 

100.0 , 4018.97435897 , 4016.41025641 , 4027.17948718 , 4018.46153846 , 4020.0 , 4015.8974359 , 4012.82051282 , 4018.46153846 , 4020.0 , 4028.71794872 , 4026.66666667 , 4087.17948718 , 4018.97435897 , 4020.51282051 , 2035.0 , 2037.0 , 14.89 , 0.0 , 0.0 , 0.0 , 0.0 , 

101.0 , 4018.46153846 , 4016.92307692 , 4030.76923077 , 4020.0 , 4023.07692308 , 4014.35897436 , 4011.79487179 , 4017.43589744 , 4018.97435897 , 4027.69230769 , 4027.69230769 , 4087.17948718 , 4017.94871795 , 4016.92307692 , 2036.0 , 2040.0 , 14.898 , 0.0 , 0.0 , 0.0 , 0.0 , 

102.0 , 4018.97435897 , 4015.8974359 , 4026.66666667 , 4018.46153846 , 4018.46153846 , 4013.84615385 , 4012.82051282 , 4020.0 , 4021.53846154 , 4027.69230769 , 4026.66666667 , 4090.76923077 , 4019.48717949 , 4018.46153846 , 2035.0 , 2041.0 , 14.907 , 0.0 , 0.0 , 0.0 , 0.0 , 

103.0 , 4018.46153846 , 4016.41025641 , 4028.71794872 , 4017.43589744 , 4012.82051282 , 4013.84615385 , 4013.33333333 , 4023.07692308 , 4023.58974359 , 4028.20512821 , 4026.66666667 , 4090.25641026 , 4021.02564103 , 4024.1025641 , 2037.0 , 2040.0 , 14.914 , 0.0 , 0.0 , 0.0 , 0.0 , 

104.0 , 4016.41025641 , 4016.41025641 , 4029.23076923 , 4017.43589744 , 4013.33333333 , 4012.82051282 , 4012.82051282 , 4021.53846154 , 4018.46153846 , 4027.17948718 , 4027.69230769 , 4087.69230769 , 4018.97435897 , 4025.64102564 , 2038.0 , 2038.0 , 14.922 , 0.0 , 0.0 , 0.0 , 0.0 , 

105.0 , 4017.94871795 , 4016.92307692 , 4029.74358974 , 4017.43589744 , 4015.38461538 , 4013.33333333 , 4012.82051282 , 4021.53846154 , 4018.46153846 , 4029.23076923 , 4027.17948718 , 4090.76923077 , 4017.43589744 , 4021.53846154 , 2039.0 , 2035.0 , 14.931 , 0.0 , 0.0 , 0.0 , 0.0 , 

106.0 , 4017.43589744 , 4017.94871795 , 4029.23076923 , 4017.43589744 , 4015.8974359 , 4014.87179487 , 4012.30769231 , 4021.02564103 , 4023.58974359 , 4028.71794872 , 4025.12820513 , 4090.25641026 , 4015.38461538 , 4017.94871795 , 2040.0 , 2033.0 , 14.937 , 0.0 , 0.0 , 0.0 , 0.0 , 

107.0 , 4014.35897436 , 4017.94871795 , 4034.35897436 , 4015.8974359 , 4016.41025641 , 4013.33333333 , 4012.82051282 , 4019.48717949 , 4022.05128205 , 4026.66666667 , 4028.20512821 , 4086.66666667 , 4015.8974359 , 4018.46153846 , 2041.0 , 2032.0 , 14.945 , 0.0 , 0.0 , 0.0 , 0.0 , 

108.0 , 4015.8974359 , 4016.41025641 , 4025.64102564 , 4017.94871795 , 4017.43589744 , 4013.33333333 , 4014.87179487 , 4019.48717949 , 4018.46153846 , 4026.66666667 , 4031.79487179 , 4090.25641026 , 4018.46153846 , 4019.48717949 , 2041.0 , 2027.0 , 14.954 , 0.0 , 0.0 , 0.0 , 0.0 , 

109.0 , 4017.94871795 , 4014.35897436 , 4024.61538462 , 4019.48717949 , 4016.41025641 , 4014.35897436 , 4014.35897436 , 4020.0 , 4020.51282051 , 4028.20512821 , 4027.69230769 , 4094.35897436 , 4020.0 , 4017.94871795 , 2041.0 , 2026.0 , 14.962 , 0.0 , 0.0 , 0.0 , 0.0 , 

110.0 , 4018.97435897 , 4015.38461538 , 4028.71794872 , 4020.0 , 4014.87179487 , 4013.84615385 , 4011.28205128 , 4018.46153846 , 4020.51282051 , 4029.74358974 , 4024.61538462 , 4091.79487179 , 4017.94871795 , 4020.51282051 , 2042.0 , 2026.0 , 14.97 , 0.0 , 0.0 , 0.0 , 0.0 , 

111.0 , 4019.48717949 , 4017.43589744 , 4032.30769231 , 4018.97435897 , 4014.87179487 , 4016.41025641 , 4011.28205128 , 4021.53846154 , 4021.02564103 , 4028.71794872 , 4027.17948718 , 4088.71794872 , 4017.94871795 , 4024.61538462 , 2043.0 , 2028.0 , 14.978 , 0.0 , 0.0 , 0.0 , 0.0 , 

112.0 , 4018.46153846 , 4017.94871795 , 4025.12820513 , 4017.94871795 , 4017.43589744 , 4020.51282051 , 4012.82051282 , 4023.58974359 , 4022.05128205 , 4025.64102564 , 4027.17948718 , 4090.76923077 , 4020.51282051 , 4023.07692308 , 2044.0 , 2031.0 , 14.985 , 0.0 , 0.0 , 0.0 , 0.0 , 

113.0 , 4016.92307692 , 4016.92307692 , 4025.64102564 , 4017.43589744 , 4016.41025641 , 4018.97435897 , 4012.30769231 , 4017.43589744 , 4022.56410256 , 4025.64102564 , 4026.15384615 , 4092.30769231 , 4018.97435897 , 4018.46153846 , 2046.0 , 2032.0 , 14.993 , 0.0 , 0.0 , 0.0 , 0.0 , 

114.0 , 4016.92307692 , 4017.94871795 , 4025.64102564 , 4019.48717949 , 4015.38461538 , 4017.94871795 , 4013.84615385 , 4017.94871795 , 4024.1025641 , 4029.74358974 , 4029.23076923 , 4092.82051282 , 4017.94871795 , 4020.51282051 , 2046.0 , 2030.0 , 15.0 , 0.0 , 0.0 , 0.0 , 0.0 , 

115.0 , 4014.87179487 , 4017.43589744 , 4026.15384615 , 4017.94871795 , 4015.38461538 , 4017.94871795 , 4015.38461538 , 4024.61538462 , 4024.61538462 , 4029.23076923 , 4029.23076923 , 4090.76923077 , 4018.46153846 , 4021.53846154 , 2046.0 , 2031.0 , 15.009 , 0.0 , 0.0 , 0.0 , 0.0 , 

116.0 , 4016.92307692 , 4017.43589744 , 4023.58974359 , 4018.46153846 , 4018.46153846 , 4015.38461538 , 4015.38461538 , 4024.61538462 , 4023.07692308 , 4028.20512821 , 4026.15384615 , 4092.30769231 , 4019.48717949 , 4018.97435897 , 2047.0 , 2031.0 , 15.016 , 0.0 , 0.0 , 0.0 , 0.0 , 

117.0 , 4020.51282051 , 4016.41025641 , 4021.53846154 , 4022.56410256 , 4018.97435897 , 4015.8974359 , 4013.84615385 , 4017.43589744 , 4022.56410256 , 4028.20512821 , 4027.69230769 , 4093.33333333 , 4018.97435897 , 4018.97435897 , 2048.0 , 2033.0 , 15.024 , 0.0 , 0.0 , 0.0 , 0.0 , 

118.0 , 4020.51282051 , 4015.8974359 , 4029.23076923 , 4021.53846154 , 4014.35897436 , 4017.43589744 , 4013.84615385 , 4017.43589744 , 4026.66666667 , 4029.23076923 , 4030.25641026 , 4093.84615385 , 4021.02564103 , 4023.07692308 , 2047.0 , 2034.0 , 15.032 , 0.0 , 0.0 , 0.0 , 0.0 , 

119.0 , 4017.43589744 , 4017.94871795 , 4035.8974359 , 4015.38461538 , 4014.87179487 , 4016.92307692 , 4012.82051282 , 4022.56410256 , 4026.15384615 , 4029.23076923 , 4027.69230769 , 4092.82051282 , 4018.97435897 , 4022.05128205 , 2046.0 , 2037.0 , 15.04 , 0.0 , 0.0 , 0.0 , 0.0 , 

120.0 , 4017.94871795 , 4018.97435897 , 4032.30769231 , 4018.97435897 , 4022.05128205 , 4016.92307692 , 4014.87179487 , 4023.07692308 , 4021.53846154 , 4029.74358974 , 4027.69230769 , 4093.84615385 , 4017.94871795 , 4022.56410256 , 2045.0 , 2037.0 , 15.048 , 0.0 , 0.0 , 0.0 , 0.0 , 

121.0 , 4016.41025641 , 4015.38461538 , 4022.56410256 , 4024.1025641 , 4022.05128205 , 4017.43589744 , 4016.92307692 , 4020.51282051 , 4021.53846154 , 4028.71794872 , 4027.17948718 , 4093.33333333 , 4020.0 , 4023.58974359 , 2044.0 , 2036.0 , 15.056 , 0.0 , 0.0 , 0.0 , 0.0 , 

122.0 , 4017.94871795 , 4014.87179487 , 4020.0 , 4021.53846154 , 4017.94871795 , 4014.87179487 , 4014.87179487 , 4023.07692308 , 4025.64102564 , 4029.74358974 , 4028.20512821 , 4093.84615385 , 4020.51282051 , 4021.53846154 , 2042.0 , 2035.0 , 15.064 , 0.0 , 0.0 , 0.0 , 0.0 , 

123.0 , 4020.0 , 4018.97435897 , 4013.84615385 , 4018.46153846 , 4021.02564103 , 4015.8974359 , 4015.38461538 , 4024.61538462 , 4023.07692308 , 4027.69230769 , 4029.23076923 , 4094.87179487 , 4018.46153846 , 4020.51282051 , 2043.0 , 2034.0 , 15.072 , 0.0 , 0.0 , 0.0 , 0.0 , 

124.0 , 4018.46153846 , 4018.97435897 , 4016.92307692 , 4021.02564103 , 4021.02564103 , 4017.94871795 , 4016.92307692 , 4021.02564103 , 4022.56410256 , 4027.69230769 , 4028.20512821 , 4093.84615385 , 4018.46153846 , 4024.61538462 , 2040.0 , 2032.0 , 15.08 , 0.0 , 0.0 , 0.0 , 0.0 , 

125.0 , 4016.92307692 , 4016.41025641 , 4019.48717949 , 4021.02564103 , 4017.43589744 , 4014.87179487 , 4014.35897436 , 4020.0 , 4025.12820513 , 4028.20512821 , 4027.69230769 , 4092.30769231 , 4018.97435897 , 4024.1025641 , 2042.0 , 2034.0 , 15.088 , 0.0 , 0.0 , 0.0 , 0.0 , 

126.0 , 4017.94871795 , 4017.43589744 , 4028.20512821 , 4018.46153846 , 4018.97435897 , 4016.41025641 , 4012.82051282 , 4025.12820513 , 4025.12820513 , 4028.71794872 , 4033.84615385 , 4093.33333333 , 4019.48717949 , 4023.58974359 , 2043.0 , 2032.0 , 15.095 , 0.0 , 0.0 , 0.0 , 0.0 , 

127.0 , 4018.97435897 , 4019.48717949 , 4032.30769231 , 4018.97435897 , 4020.0 , 4020.51282051 , 4015.38461538 , 4025.12820513 , 4024.1025641 , 4029.23076923 , 4034.35897436 , 4096.92307692 , 4020.51282051 , 4027.17948718 , 2044.0 , 2034.0 , 15.104 , 0.0 , 0.0 , 0.0 , 0.0 , 

128.0 , 4017.94871795 , 4017.94871795 , 4044.1025641 , 4018.97435897 , 4018.97435897 , 4018.46153846 , 4014.87179487 , 4023.58974359 , 4029.23076923 , 4030.25641026 , 4030.25641026 , 4096.41025641 , 4021.53846154 , 4027.69230769 , 2043.0 , 2036.0 , 15.112 , 0.0 , 0.0 , 0.0 , 0.0 , 

0.0 , 4020.0 , 4016.41025641 , 4046.15384615 , 4017.94871795 , 4019.48717949 , 4015.8974359 , 4013.33333333 , 4025.12820513 , 4027.69230769 , 4030.76923077 , 4032.82051282 , 4093.84615385 , 4020.0 , 4021.53846154 , 2043.0 , 2038.0 , 15.12 , 0.0 , 0.0 , 0.0 , 0.0 , 

