['COUNTER', 'AF3', 'F7', 'F3', 'FC5', 'T7', 'P7', 'O1', 'O2', 'P8', 'T8', 'FC6', 'F4', 'F8', 'AF4', 'GYROX', 'GYROY', 'TIMESTAMP', 'FUNC_ID', 'FUNC_VALUE', 'MARKER', 'SYNC_SIGNAL']
86.0 , 4132.82051282 , 4126.15384615 , 4131.79487179 , 4132.30769231 , 4132.30769231 , 4126.15384615 , 4124.61538462 , 4132.82051282 , 4130.76923077 , 4137.43589744 , 4186.15384615 , 4910.25641026 , 4126.15384615 , 4135.8974359 , 2044.0 , 2039.0 , 228.353 , 0.0 , 0.0 , 0.0 , 0.0 , 

87.0 , 4129.23076923 , 4129.74358974 , 4124.1025641 , 4133.84615385 , 4131.28205128 , 4128.71794872 , 4131.28205128 , 4132.30769231 , 4136.41025641 , 4141.53846154 , 4192.30769231 , 4906.15384615 , 4133.84615385 , 4134.87179487 , 2044.0 , 2036.0 , 228.359 , 0.0 , 0.0 , 0.0 , 0.0 , 

88.0 , 4130.25641026 , 4129.74358974 , 4126.66666667 , 4129.23076923 , 4128.71794872 , 4126.15384615 , 4125.12820513 , 4127.17948718 , 4128.71794872 , 4141.02564103 , 4188.71794872 , 4910.76923077 , 4131.28205128 , 4137.94871795 , 2041.0 , 2036.0 , 228.364 , 0.0 , 0.0 , 0.0 , 0.0 , 

89.0 , 4129.74358974 , 4129.23076923 , 4129.23076923 , 4129.74358974 , 4130.25641026 , 4128.20512821 , 4124.61538462 , 4136.92307692 , 4132.30769231 , 4139.48717949 , 4188.71794872 , 4910.25641026 , 4134.35897436 , 4136.92307692 , 2041.0 , 2036.0 , 228.372 , 0.0 , 0.0 , 0.0 , 0.0 , 

90.0 , 4130.25641026 , 4122.56410256 , 4132.30769231 , 4128.20512821 , 4130.25641026 , 4126.15384615 , 4121.02564103 , 4127.69230769 , 4128.71794872 , 4137.94871795 , 4188.71794872 , 4909.23076923 , 4125.64102564 , 4135.8974359 , 2038.0 , 2034.0 , 228.383 , 0.0 , 0.0 , 0.0 , 0.0 , 

91.0 , 4128.71794872 , 4126.66666667 , 4126.15384615 , 4133.84615385 , 4127.17948718 , 4128.20512821 , 4123.58974359 , 4136.41025641 , 4135.8974359 , 4136.92307692 , 4189.23076923 , 4906.66666667 , 4132.82051282 , 4135.8974359 , 2037.0 , 2032.0 , 228.391 , 0.0 , 0.0 , 0.0 , 0.0 , 

92.0 , 4130.25641026 , 4127.17948718 , 4131.28205128 , 4126.66666667 , 4127.69230769 , 4124.1025641 , 4117.94871795 , 4129.74358974 , 4130.25641026 , 4135.38461538 , 4186.15384615 , 4910.76923077 , 4131.28205128 , 4137.94871795 , 2037.0 , 2030.0 , 228.394 , 0.0 , 0.0 , 0.0 , 0.0 , 

93.0 , 4129.23076923 , 4130.25641026 , 4129.23076923 , 4129.74358974 , 4128.71794872 , 4126.66666667 , 4126.66666667 , 4132.30769231 , 4134.35897436 , 4138.97435897 , 4191.28205128 , 4907.69230769 , 4136.41025641 , 4137.43589744 , 2037.0 , 2030.0 , 228.406 , 0.0 , 0.0 , 0.0 , 0.0 , 

94.0 , 4131.28205128 , 4124.61538462 , 4132.30769231 , 4127.69230769 , 4127.69230769 , 4123.07692308 , 4122.05128205 , 4125.12820513 , 4131.28205128 , 4138.97435897 , 4188.20512821 , 4910.25641026 , 4127.69230769 , 4137.94871795 , 2038.0 , 2028.0 , 228.417 , 0.0 , 0.0 , 0.0 , 0.0 , 

95.0 , 4132.30769231 , 4125.64102564 , 4131.28205128 , 4129.23076923 , 4128.20512821 , 4127.17948718 , 4125.12820513 , 4134.87179487 , 4135.38461538 , 4138.46153846 , 4189.23076923 , 4909.74358974 , 4130.25641026 , 4135.8974359 , 2041.0 , 2030.0 , 228.423 , 0.0 , 0.0 , 0.0 , 0.0 , 

96.0 , 4130.76923077 , 4126.15384615 , 4133.84615385 , 4124.1025641 , 4127.17948718 , 4126.15384615 , 4125.12820513 , 4128.20512821 , 4131.79487179 , 4136.92307692 , 4188.20512821 , 4909.23076923 , 4128.20512821 , 4135.8974359 , 2041.0 , 2031.0 , 228.427 , 0.0 , 0.0 , 0.0 , 0.0 , 

97.0 , 4127.17948718 , 4131.79487179 , 4130.76923077 , 4131.28205128 , 4127.69230769 , 4128.71794872 , 4130.25641026 , 4130.25641026 , 4136.92307692 , 4138.97435897 , 4190.76923077 , 4905.12820513 , 4131.79487179 , 4135.8974359 , 2044.0 , 2032.0 , 228.435 , 0.0 , 0.0 , 0.0 , 0.0 , 

98.0 , 4128.71794872 , 4130.25641026 , 4133.33333333 , 4132.30769231 , 4127.69230769 , 4126.15384615 , 4122.56410256 , 4127.69230769 , 4132.30769231 , 4138.97435897 , 4188.20512821 , 4908.20512821 , 4127.17948718 , 4135.38461538 , 2044.0 , 2031.0 , 228.449 , 0.0 , 0.0 , 0.0 , 0.0 , 

99.0 , 4130.76923077 , 4131.79487179 , 4134.35897436 , 4132.82051282 , 4129.74358974 , 4128.71794872 , 4122.05128205 , 4126.15384615 , 4127.17948718 , 4136.41025641 , 4186.15384615 , 4907.69230769 , 4129.74358974 , 4133.33333333 , 2045.0 , 2033.0 , 228.453 , 0.0 , 0.0 , 0.0 , 0.0 , 

100.0 , 4130.76923077 , 4129.23076923 , 4134.35897436 , 4130.76923077 , 4128.20512821 , 4126.15384615 , 4121.02564103 , 4123.58974359 , 4126.66666667 , 4135.38461538 , 4184.61538462 , 4910.76923077 , 4131.28205128 , 4133.84615385 , 2045.0 , 2033.0 , 228.458 , 0.0 , 0.0 , 0.0 , 0.0 , 

101.0 , 4132.30769231 , 4129.74358974 , 4129.23076923 , 4132.30769231 , 4129.23076923 , 4125.64102564 , 4121.02564103 , 4127.69230769 , 4125.64102564 , 4137.43589744 , 4187.17948718 , 4910.76923077 , 4130.25641026 , 4137.94871795 , 2046.0 , 2032.0 , 228.466 , 0.0 , 0.0 , 0.0 , 0.0 , 

102.0 , 4130.25641026 , 4129.23076923 , 4126.66666667 , 4133.33333333 , 4131.28205128 , 4128.20512821 , 4121.02564103 , 4129.74358974 , 4127.17948718 , 4135.8974359 , 4189.74358974 , 4908.20512821 , 4132.30769231 , 4138.97435897 , 2048.0 , 2032.0 , 228.478 , 0.0 , 0.0 , 0.0 , 0.0 , 

103.0 , 4129.74358974 , 4127.69230769 , 4130.76923077 , 4129.23076923 , 4130.76923077 , 4126.66666667 , 4121.02564103 , 4125.64102564 , 4127.69230769 , 4135.38461538 , 4187.69230769 , 4908.20512821 , 4132.30769231 , 4135.8974359 , 2048.0 , 2033.0 , 228.483 , 0.0 , 0.0 , 0.0 , 0.0 , 

104.0 , 4129.23076923 , 4129.74358974 , 4128.71794872 , 4128.20512821 , 4128.71794872 , 4124.61538462 , 4124.61538462 , 4133.33333333 , 4133.84615385 , 4138.46153846 , 4190.76923077 , 4908.71794872 , 4135.8974359 , 4134.87179487 , 2048.0 , 2031.0 , 228.49 , 0.0 , 0.0 , 0.0 , 0.0 , 

105.0 , 4131.28205128 , 4129.74358974 , 4127.69230769 , 4127.69230769 , 4128.71794872 , 4124.1025641 , 4124.61538462 , 4131.79487179 , 4131.79487179 , 4137.43589744 , 4191.79487179 , 4908.20512821 , 4131.28205128 , 4137.94871795 , 2049.0 , 2030.0 , 228.498 , 0.0 , 0.0 , 0.0 , 0.0 , 

106.0 , 4128.20512821 , 4127.69230769 , 4127.17948718 , 4130.25641026 , 4126.15384615 , 4125.12820513 , 4126.15384615 , 4136.92307692 , 4138.46153846 , 4136.92307692 , 4190.76923077 , 4906.15384615 , 4134.35897436 , 4136.92307692 , 2047.0 , 2028.0 , 228.513 , 0.0 , 0.0 , 0.0 , 0.0 , 

107.0 , 4130.76923077 , 4124.1025641 , 4134.87179487 , 4124.1025641 , 4125.12820513 , 4121.02564103 , 4121.53846154 , 4126.66666667 , 4130.25641026 , 4136.41025641 , 4186.66666667 , 4910.76923077 , 4127.17948718 , 4135.8974359 , 2047.0 , 2029.0 , 228.516 , 0.0 , 0.0 , 0.0 , 0.0 , 

108.0 , 4129.23076923 , 4128.71794872 , 4132.82051282 , 4123.58974359 , 4130.25641026 , 4127.69230769 , 4129.23076923 , 4130.76923077 , 4133.84615385 , 4136.92307692 , 4192.30769231 , 4908.20512821 , 4130.76923077 , 4135.38461538 , 2047.0 , 2031.0 , 228.522 , 0.0 , 0.0 , 0.0 , 0.0 , 

109.0 , 4128.71794872 , 4124.1025641 , 4134.87179487 , 4123.58974359 , 4132.30769231 , 4127.69230769 , 4126.15384615 , 4124.1025641 , 4130.25641026 , 4134.87179487 , 4190.25641026 , 4909.23076923 , 4124.61538462 , 4137.43589744 , 2046.0 , 2031.0 , 228.529 , 0.0 , 0.0 , 0.0 , 0.0 , 

110.0 , 4130.25641026 , 4126.66666667 , 4132.30769231 , 4133.33333333 , 4128.20512821 , 4127.17948718 , 4129.74358974 , 4137.94871795 , 4134.35897436 , 4135.8974359 , 4188.20512821 , 4908.20512821 , 4128.20512821 , 4136.92307692 , 2048.0 , 2033.0 , 228.54 , 0.0 , 0.0 , 0.0 , 0.0 , 

111.0 , 4132.82051282 , 4127.17948718 , 4135.8974359 , 4128.71794872 , 4128.20512821 , 4125.12820513 , 4125.64102564 , 4129.23076923 , 4129.23076923 , 4137.43589744 , 4184.1025641 , 4908.20512821 , 4122.05128205 , 4136.41025641 , 2047.0 , 2033.0 , 228.547 , 0.0 , 0.0 , 0.0 , 0.0 , 

112.0 , 4131.79487179 , 4132.30769231 , 4131.79487179 , 4130.76923077 , 4130.25641026 , 4132.30769231 , 4129.74358974 , 4131.28205128 , 4136.92307692 , 4139.48717949 , 4187.69230769 , 4905.64102564 , 4131.28205128 , 4135.8974359 , 2045.0 , 2033.0 , 228.552 , 0.0 , 0.0 , 0.0 , 0.0 , 

113.0 , 4133.84615385 , 4129.23076923 , 4132.82051282 , 4131.79487179 , 4129.23076923 , 4127.69230769 , 4124.61538462 , 4125.12820513 , 4131.28205128 , 4133.84615385 , 4187.17948718 , 4908.71794872 , 4131.79487179 , 4138.97435897 , 2044.0 , 2031.0 , 228.561 , 0.0 , 0.0 , 0.0 , 0.0 , 

114.0 , 4132.82051282 , 4131.79487179 , 4128.20512821 , 4135.38461538 , 4129.23076923 , 4128.20512821 , 4127.17948718 , 4131.28205128 , 4131.28205128 , 4133.33333333 , 4187.69230769 , 4905.64102564 , 4136.92307692 , 4139.48717949 , 2044.0 , 2031.0 , 228.574 , 0.0 , 0.0 , 0.0 , 0.0 , 

115.0 , 4131.28205128 , 4129.23076923 , 4128.20512821 , 4127.17948718 , 4128.20512821 , 4125.12820513 , 4123.07692308 , 4125.12820513 , 4127.69230769 , 4134.35897436 , 4183.58974359 , 4910.25641026 , 4132.30769231 , 4140.51282051 , 2046.0 , 2029.0 , 228.579 , 0.0 , 0.0 , 0.0 , 0.0 , 

116.0 , 4132.30769231 , 4129.23076923 , 4127.17948718 , 4128.71794872 , 4128.71794872 , 4126.15384615 , 4125.12820513 , 4129.74358974 , 4127.69230769 , 4133.33333333 , 4186.15384615 , 4910.76923077 , 4135.38461538 , 4141.02564103 , 2044.0 , 2028.0 , 228.585 , 0.0 , 0.0 , 0.0 , 0.0 , 

117.0 , 4130.76923077 , 4125.64102564 , 4131.79487179 , 4129.23076923 , 4128.71794872 , 4124.61538462 , 4121.53846154 , 4127.17948718 , 4128.71794872 , 4132.30769231 , 4188.20512821 , 4908.71794872 , 4134.35897436 , 4139.48717949 , 2043.0 , 2029.0 , 228.592 , 0.0 , 0.0 , 0.0 , 0.0 , 

118.0 , 4130.76923077 , 4126.66666667 , 4132.30769231 , 4129.23076923 , 4129.23076923 , 4126.15384615 , 4117.94871795 , 4129.23076923 , 4133.33333333 , 4135.8974359 , 4188.71794872 , 4907.17948718 , 4133.84615385 , 4137.94871795 , 2045.0 , 2029.0 , 228.604 , 0.0 , 0.0 , 0.0 , 0.0 , 

119.0 , 4131.28205128 , 4124.61538462 , 4132.82051282 , 4127.69230769 , 4127.69230769 , 4124.1025641 , 4117.43589744 , 4134.35897436 , 4133.33333333 , 4136.41025641 , 4187.69230769 , 4910.76923077 , 4131.28205128 , 4138.97435897 , 2046.0 , 2030.0 , 228.61 , 0.0 , 0.0 , 0.0 , 0.0 , 

120.0 , 4129.23076923 , 4126.66666667 , 4132.82051282 , 4127.69230769 , 4130.25641026 , 4123.07692308 , 4123.07692308 , 4135.38461538 , 4129.74358974 , 4136.41025641 , 4190.25641026 , 4909.74358974 , 4128.71794872 , 4137.94871795 , 2045.0 , 2028.0 , 228.615 , 0.0 , 0.0 , 0.0 , 0.0 , 

121.0 , 4125.12820513 , 4127.17948718 , 4131.28205128 , 4128.20512821 , 4127.69230769 , 4126.15384615 , 4123.58974359 , 4134.35897436 , 4133.33333333 , 4138.97435897 , 4191.79487179 , 4904.61538462 , 4131.79487179 , 4136.92307692 , 2044.0 , 2030.0 , 228.624 , 0.0 , 0.0 , 0.0 , 0.0 , 

122.0 , 4129.74358974 , 4127.17948718 , 4130.76923077 , 4126.66666667 , 4127.17948718 , 4127.69230769 , 4121.53846154 , 4127.17948718 , 4132.30769231 , 4138.97435897 , 4187.69230769 , 4904.61538462 , 4128.20512821 , 4138.97435897 , 2045.0 , 2031.0 , 228.635 , 0.0 , 0.0 , 0.0 , 0.0 , 

123.0 , 4132.30769231 , 4129.74358974 , 4129.23076923 , 4129.74358974 , 4130.76923077 , 4129.74358974 , 4129.23076923 , 4132.82051282 , 4136.92307692 , 4136.92307692 , 4186.15384615 , 4905.64102564 , 4130.25641026 , 4138.97435897 , 2047.0 , 2032.0 , 228.642 , 0.0 , 0.0 , 0.0 , 0.0 , 

124.0 , 4133.84615385 , 4128.71794872 , 4133.33333333 , 4128.71794872 , 4130.25641026 , 4127.69230769 , 4127.69230769 , 4129.74358974 , 4131.28205128 , 4133.84615385 , 4186.15384615 , 4908.71794872 , 4127.17948718 , 4138.97435897 , 2046.0 , 2036.0 , 228.648 , 0.0 , 0.0 , 0.0 , 0.0 , 

125.0 , 4131.79487179 , 4128.71794872 , 4129.74358974 , 4131.79487179 , 4128.20512821 , 4131.28205128 , 4126.15384615 , 4136.92307692 , 4131.28205128 , 4135.8974359 , 4189.74358974 , 4909.23076923 , 4130.76923077 , 4137.94871795 , 2048.0 , 2036.0 , 228.656 , 0.0 , 0.0 , 0.0 , 0.0 , 

126.0 , 4133.33333333 , 4125.64102564 , 4133.84615385 , 4128.20512821 , 4131.79487179 , 4128.20512821 , 4124.1025641 , 4122.56410256 , 4123.07692308 , 4135.38461538 , 4184.61538462 , 4911.79487179 , 4122.05128205 , 4138.46153846 , 2048.0 , 2037.0 , 228.668 , 0.0 , 0.0 , 0.0 , 0.0 , 

127.0 , 4130.76923077 , 4130.25641026 , 4132.30769231 , 4132.30769231 , 4130.25641026 , 4128.71794872 , 4131.79487179 , 4125.12820513 , 4128.71794872 , 4135.38461538 , 4186.15384615 , 4907.69230769 , 4131.28205128 , 4138.97435897 , 2047.0 , 2036.0 , 228.674 , 0.0 , 0.0 , 0.0 , 0.0 , 

128.0 , 4130.25641026 , 4128.71794872 , 4133.84615385 , 4128.20512821 , 4123.58974359 , 4125.12820513 , 4120.51282051 , 4122.05128205 , 4124.61538462 , 4133.84615385 , 4186.66666667 , 4911.28205128 , 4131.79487179 , 4140.0 , 2046.0 , 2036.0 , 228.678 , 0.0 , 0.0 , 0.0 , 0.0 , 

0.0 , 4129.74358974 , 4131.28205128 , 4128.71794872 , 4130.76923077 , 4126.66666667 , 4130.25641026 , 4124.1025641 , 4131.28205128 , 4128.71794872 , 4136.41025641 , 4190.25641026 , 4913.33333333 , 4135.8974359 , 4136.92307692 , 2047.0 , 2034.0 , 228.688 , 0.0 , 0.0 , 0.0 , 0.0 , 

1.0 , 4131.28205128 , 4127.17948718 , 4131.79487179 , 4126.66666667 , 4131.28205128 , 4127.17948718 , 4123.58974359 , 4120.0 , 4123.07692308 , 4138.97435897 , 4187.17948718 , 4913.33333333 , 4128.71794872 , 4136.92307692 , 2046.0 , 2034.0 , 228.699 , 0.0 , 0.0 , 0.0 , 0.0 , 

2.0 , 4128.71794872 , 4131.79487179 , 4130.25641026 , 4129.74358974 , 4128.71794872 , 4128.20512821 , 4127.17948718 , 4127.69230769 , 4130.25641026 , 4141.53846154 , 4189.74358974 , 4904.61538462 , 4138.46153846 , 4137.43589744 , 2046.0 , 2034.0 , 228.707 , 0.0 , 0.0 , 0.0 , 0.0 , 

3.0 , 4128.20512821 , 4129.74358974 , 4133.33333333 , 4127.17948718 , 4127.69230769 , 4126.66666667 , 4122.05128205 , 4128.20512821 , 4127.69230769 , 4136.41025641 , 4186.66666667 , 4908.71794872 , 4135.8974359 , 4137.43589744 , 2045.0 , 2033.0 , 228.711 , 0.0 , 0.0 , 0.0 , 0.0 , 

4.0 , 4130.25641026 , 4129.74358974 , 4128.71794872 , 4132.30769231 , 4129.23076923 , 4129.74358974 , 4127.69230769 , 4135.38461538 , 4131.28205128 , 4132.30769231 , 4189.23076923 , 4908.20512821 , 4134.87179487 , 4136.41025641 , 2045.0 , 2035.0 , 228.72 , 0.0 , 0.0 , 0.0 , 0.0 , 

5.0 , 4130.76923077 , 4124.61538462 , 4130.25641026 , 4129.23076923 , 4127.17948718 , 4124.61538462 , 4124.1025641 , 4133.84615385 , 4132.82051282 , 4133.33333333 , 4190.25641026 , 4904.61538462 , 4126.15384615 , 4140.51282051 , 2044.0 , 2034.0 , 228.732 , 0.0 , 0.0 , 0.0 , 0.0 , 

6.0 , 4130.76923077 , 4125.64102564 , 4130.76923077 , 4127.69230769 , 4128.71794872 , 4125.12820513 , 4125.12820513 , 4134.87179487 , 4135.8974359 , 4136.41025641 , 4187.69230769 , 4903.58974359 , 4126.66666667 , 4140.51282051 , 2043.0 , 2034.0 , 228.738 , 0.0 , 0.0 , 0.0 , 0.0 , 

7.0 , 4129.74358974 , 4123.07692308 , 4132.30769231 , 4125.12820513 , 4131.28205128 , 4124.1025641 , 4123.58974359 , 4126.66666667 , 4132.82051282 , 4135.38461538 , 4183.58974359 , 4910.25641026 , 4128.71794872 , 4137.43589744 , 2042.0 , 2035.0 , 228.742 , 0.0 , 0.0 , 0.0 , 0.0 , 

8.0 , 4130.25641026 , 4128.20512821 , 4133.33333333 , 4129.23076923 , 4132.30769231 , 4125.12820513 , 4126.15384615 , 4127.69230769 , 4130.76923077 , 4135.38461538 , 4186.66666667 , 4910.25641026 , 4129.23076923 , 4137.43589744 , 2043.0 , 2036.0 , 228.75 , 0.0 , 0.0 , 0.0 , 0.0 , 

9.0 , 4129.23076923 , 4131.79487179 , 4134.87179487 , 4129.23076923 , 4128.71794872 , 4126.66666667 , 4127.17948718 , 4132.30769231 , 4131.28205128 , 4136.92307692 , 4188.71794872 , 4908.71794872 , 4128.20512821 , 4138.46153846 , 2041.0 , 2037.0 , 228.761 , 0.0 , 0.0 , 0.0 , 0.0 , 

10.0 , 4131.28205128 , 4130.25641026 , 4132.82051282 , 4128.20512821 , 4130.25641026 , 4128.71794872 , 4124.61538462 , 4126.15384615 , 4126.15384615 , 4137.94871795 , 4186.15384615 , 4909.74358974 , 4129.23076923 , 4138.97435897 , 2042.0 , 2037.0 , 228.768 , 0.0 , 0.0 , 0.0 , 0.0 , 

11.0 , 4131.79487179 , 4128.71794872 , 4129.23076923 , 4130.25641026 , 4131.79487179 , 4129.74358974 , 4126.15384615 , 4128.71794872 , 4131.79487179 , 4136.92307692 , 4187.17948718 , 4908.20512821 , 4131.79487179 , 4138.46153846 , 2043.0 , 2037.0 , 228.774 , 0.0 , 0.0 , 0.0 , 0.0 , 

12.0 , 4132.30769231 , 4131.79487179 , 4132.82051282 , 4127.69230769 , 4130.25641026 , 4128.71794872 , 4127.69230769 , 4127.17948718 , 4130.25641026 , 4134.87179487 , 4186.66666667 , 4910.76923077 , 4128.20512821 , 4137.94871795 , 2043.0 , 2038.0 , 228.782 , 0.0 , 0.0 , 0.0 , 0.0 , 

13.0 , 4127.69230769 , 4131.28205128 , 4131.28205128 , 4132.82051282 , 4128.20512821 , 4129.74358974 , 4129.74358974 , 4131.28205128 , 4130.76923077 , 4135.38461538 , 4188.20512821 , 4910.25641026 , 4136.92307692 , 4136.92307692 , 2045.0 , 2036.0 , 228.794 , 0.0 , 0.0 , 0.0 , 0.0 , 

14.0 , 4130.25641026 , 4124.61538462 , 4131.79487179 , 4133.84615385 , 4129.23076923 , 4126.66666667 , 4123.07692308 , 4120.51282051 , 4124.1025641 , 4133.84615385 , 4186.66666667 , 4906.66666667 , 4133.33333333 , 4138.97435897 , 2044.0 , 2033.0 , 228.8 , 0.0 , 0.0 , 0.0 , 0.0 , 

15.0 , 4131.79487179 , 4128.71794872 , 4126.66666667 , 4133.84615385 , 4129.74358974 , 4129.23076923 , 4125.12820513 , 4128.20512821 , 4129.23076923 , 4134.35897436 , 4187.69230769 , 4903.07692308 , 4134.87179487 , 4138.46153846 , 2043.0 , 2033.0 , 228.805 , 0.0 , 0.0 , 0.0 , 0.0 , 

16.0 , 4131.28205128 , 4129.23076923 , 4131.79487179 , 4127.69230769 , 4128.71794872 , 4125.12820513 , 4120.0 , 4124.1025641 , 4124.61538462 , 4135.8974359 , 4186.66666667 , 4911.28205128 , 4129.74358974 , 4138.46153846 , 2044.0 , 2032.0 , 228.813 , 0.0 , 0.0 , 0.0 , 0.0 , 

17.0 , 4128.20512821 , 4129.74358974 , 4131.28205128 , 4133.84615385 , 4127.17948718 , 4124.61538462 , 4121.53846154 , 4133.84615385 , 4131.79487179 , 4136.41025641 , 4191.28205128 , 4909.74358974 , 4135.38461538 , 4137.43589744 , 2045.0 , 2033.0 , 228.826 , 0.0 , 0.0 , 0.0 , 0.0 , 

18.0 , 4129.74358974 , 4122.05128205 , 4130.76923077 , 4129.23076923 , 4124.1025641 , 4118.97435897 , 4114.87179487 , 4127.17948718 , 4127.17948718 , 4133.33333333 , 4188.71794872 , 4906.15384615 , 4128.71794872 , 4138.97435897 , 2046.0 , 2033.0 , 228.831 , 0.0 , 0.0 , 0.0 , 0.0 , 

19.0 , 4129.74358974 , 4125.12820513 , 4125.64102564 , 4130.76923077 , 4126.15384615 , 4123.58974359 , 4121.02564103 , 4134.87179487 , 4132.30769231 , 4137.43589744 , 4190.25641026 , 4905.12820513 , 4137.94871795 , 4137.94871795 , 2046.0 , 2033.0 , 228.837 , 0.0 , 0.0 , 0.0 , 0.0 , 

20.0 , 4131.28205128 , 4125.12820513 , 4132.30769231 , 4127.69230769 , 4131.79487179 , 4124.1025641 , 4123.07692308 , 4129.23076923 , 4131.28205128 , 4138.46153846 , 4188.71794872 , 4910.25641026 , 4131.28205128 , 4136.92307692 , 2046.0 , 2034.0 , 228.845 , 0.0 , 0.0 , 0.0 , 0.0 , 

21.0 , 4130.76923077 , 4130.25641026 , 4132.82051282 , 4129.23076923 , 4130.25641026 , 4131.28205128 , 4133.84615385 , 4134.35897436 , 4136.92307692 , 4138.46153846 , 4191.28205128 , 4906.66666667 , 4128.71794872 , 4136.41025641 , 2048.0 , 2033.0 , 228.857 , 0.0 , 0.0 , 0.0 , 0.0 , 

22.0 , 4131.79487179 , 4127.69230769 , 4135.38461538 , 4126.15384615 , 4126.66666667 , 4125.64102564 , 4128.71794872 , 4126.66666667 , 4132.30769231 , 4136.41025641 , 4187.17948718 , 4908.20512821 , 4127.17948718 , 4138.46153846 , 2048.0 , 2034.0 , 228.863 , 0.0 , 0.0 , 0.0 , 0.0 , 

23.0 , 4131.79487179 , 4130.76923077 , 4131.79487179 , 4132.82051282 , 4130.76923077 , 4126.15384615 , 4126.66666667 , 4129.74358974 , 4132.82051282 , 4136.92307692 , 4187.69230769 , 4909.74358974 , 4134.35897436 , 4136.92307692 , 2046.0 , 2036.0 , 228.867 , 0.0 , 0.0 , 0.0 , 0.0 , 

24.0 , 4129.23076923 , 4129.23076923 , 4132.82051282 , 4129.23076923 , 4131.79487179 , 4129.23076923 , 4125.64102564 , 4126.15384615 , 4130.25641026 , 4137.43589744 , 4187.17948718 , 4911.28205128 , 4127.17948718 , 4137.94871795 , 2045.0 , 2038.0 , 228.876 , 0.0 , 0.0 , 0.0 , 0.0 , 

25.0 , 4130.25641026 , 4130.76923077 , 4132.30769231 , 4128.71794872 , 4130.76923077 , 4130.76923077 , 4130.25641026 , 4126.66666667 , 4130.76923077 , 4138.46153846 , 4186.66666667 , 4908.71794872 , 4127.69230769 , 4141.53846154 , 2046.0 , 2038.0 , 228.89 , 0.0 , 0.0 , 0.0 , 0.0 , 

26.0 , 4132.30769231 , 4129.23076923 , 4131.79487179 , 4132.30769231 , 4130.25641026 , 4123.58974359 , 4125.12820513 , 4126.15384615 , 4131.28205128 , 4134.87179487 , 4184.1025641 , 4911.79487179 , 4131.79487179 , 4138.97435897 , 2046.0 , 2037.0 , 228.894 , 0.0 , 0.0 , 0.0 , 0.0 , 

27.0 , 4132.82051282 , 4130.76923077 , 4131.28205128 , 4134.35897436 , 4130.25641026 , 4124.61538462 , 4123.58974359 , 4124.1025641 , 4129.74358974 , 4133.33333333 , 4188.71794872 , 4913.33333333 , 4129.23076923 , 4136.41025641 , 2046.0 , 2037.0 , 228.899 , 0.0 , 0.0 , 0.0 , 0.0 , 

28.0 , 4130.25641026 , 4127.69230769 , 4132.30769231 , 4130.76923077 , 4129.74358974 , 4129.74358974 , 4126.66666667 , 4126.66666667 , 4130.25641026 , 4135.8974359 , 4190.76923077 , 4910.25641026 , 4129.74358974 , 4137.94871795 , 2046.0 , 2037.0 , 228.908 , 0.0 , 0.0 , 0.0 , 0.0 , 

29.0 , 4131.79487179 , 4126.15384615 , 4132.82051282 , 4129.23076923 , 4129.74358974 , 4126.15384615 , 4123.07692308 , 4128.71794872 , 4126.66666667 , 4137.43589744 , 4186.15384615 , 4909.74358974 , 4131.79487179 , 4138.97435897 , 2045.0 , 2037.0 , 228.922 , 0.0 , 0.0 , 0.0 , 0.0 , 

30.0 , 4129.23076923 , 4130.76923077 , 4129.23076923 , 4132.82051282 , 4126.66666667 , 4126.15384615 , 4122.56410256 , 4140.0 , 4133.33333333 , 4135.8974359 , 4191.28205128 , 4908.71794872 , 4134.87179487 , 4137.94871795 , 2047.0 , 2036.0 , 228.925 , 0.0 , 0.0 , 0.0 , 0.0 , 

31.0 , 4129.23076923 , 4130.76923077 , 4131.28205128 , 4131.28205128 , 4126.66666667 , 4127.17948718 , 4122.56410256 , 4135.8974359 , 4131.79487179 , 4133.33333333 , 4195.38461538 , 4907.17948718 , 4129.23076923 , 4138.46153846 , 2046.0 , 2038.0 , 228.931 , 0.0 , 0.0 , 0.0 , 0.0 , 

32.0 , 4127.69230769 , 4128.20512821 , 4128.71794872 , 4131.79487179 , 4129.23076923 , 4128.20512821 , 4124.61538462 , 4138.97435897 , 4136.41025641 , 4134.87179487 , 4191.28205128 , 4906.15384615 , 4134.87179487 , 4136.41025641 , 2047.0 , 2037.0 , 228.939 , 0.0 , 0.0 , 0.0 , 0.0 , 

33.0 , 4128.71794872 , 4126.15384615 , 4135.38461538 , 4125.64102564 , 4129.23076923 , 4125.12820513 , 4119.48717949 , 4131.79487179 , 4129.23076923 , 4135.8974359 , 4184.61538462 , 4909.74358974 , 4129.23076923 , 4136.41025641 , 2045.0 , 2038.0 , 228.95 , 0.0 , 0.0 , 0.0 , 0.0 , 

34.0 , 4128.20512821 , 4129.74358974 , 4133.33333333 , 4127.17948718 , 4128.20512821 , 4128.71794872 , 4126.66666667 , 4137.94871795 , 4132.82051282 , 4137.94871795 , 4190.25641026 , 4905.64102564 , 4131.79487179 , 4136.92307692 , 2045.0 , 2036.0 , 228.957 , 0.0 , 0.0 , 0.0 , 0.0 , 

35.0 , 4130.76923077 , 4124.1025641 , 4131.28205128 , 4125.12820513 , 4129.23076923 , 4125.12820513 , 4122.56410256 , 4128.71794872 , 4128.20512821 , 4136.41025641 , 4187.69230769 , 4908.20512821 , 4126.15384615 , 4138.46153846 , 2043.0 , 2037.0 , 228.962 , 0.0 , 0.0 , 0.0 , 0.0 , 

36.0 , 4129.74358974 , 4126.15384615 , 4128.71794872 , 4131.28205128 , 4128.71794872 , 4128.71794872 , 4124.61538462 , 4135.8974359 , 4133.33333333 , 4135.8974359 , 4186.15384615 , 4909.74358974 , 4130.76923077 , 4137.94871795 , 2043.0 , 2036.0 , 228.972 , 0.0 , 0.0 , 0.0 , 0.0 , 

37.0 , 4129.74358974 , 4125.64102564 , 4136.92307692 , 4129.23076923 , 4127.69230769 , 4127.17948718 , 4122.56410256 , 4127.17948718 , 4126.15384615 , 4133.84615385 , 4183.07692308 , 4911.79487179 , 4125.12820513 , 4136.41025641 , 2042.0 , 2035.0 , 228.983 , 0.0 , 0.0 , 0.0 , 0.0 , 

38.0 , 4128.20512821 , 4129.74358974 , 4130.76923077 , 4133.33333333 , 4129.23076923 , 4129.23076923 , 4129.74358974 , 4133.33333333 , 4131.28205128 , 4135.8974359 , 4186.15384615 , 4908.20512821 , 4132.82051282 , 4132.82051282 , 2042.0 , 2035.0 , 228.99 , 0.0 , 0.0 , 0.0 , 0.0 , 

39.0 , 4129.23076923 , 4127.69230769 , 4131.28205128 , 4130.25641026 , 4129.23076923 , 4127.17948718 , 4124.1025641 , 4127.69230769 , 4127.69230769 , 4136.41025641 , 4186.66666667 , 4909.74358974 , 4129.74358974 , 4136.41025641 , 2041.0 , 2035.0 , 228.994 , 0.0 , 0.0 , 0.0 , 0.0 , 

40.0 , 4130.25641026 , 4131.28205128 , 4130.76923077 , 4135.38461538 , 4129.23076923 , 4131.28205128 , 4126.15384615 , 4132.30769231 , 4130.76923077 , 4137.94871795 , 4189.23076923 , 4907.17948718 , 4134.35897436 , 4137.94871795 , 2040.0 , 2035.0 , 229.002 , 0.0 , 0.0 , 0.0 , 0.0 , 

41.0 , 4131.79487179 , 4127.17948718 , 4131.79487179 , 4130.76923077 , 4129.74358974 , 4127.69230769 , 4122.05128205 , 4124.61538462 , 4129.23076923 , 4137.94871795 , 4186.15384615 , 4910.25641026 , 4133.33333333 , 4138.97435897 , 2040.0 , 2034.0 , 229.015 , 0.0 , 0.0 , 0.0 , 0.0 , 

42.0 , 4132.30769231 , 4131.28205128 , 4130.76923077 , 4131.28205128 , 4130.76923077 , 4129.23076923 , 4124.1025641 , 4125.64102564 , 4129.74358974 , 4137.43589744 , 4188.71794872 , 4910.76923077 , 4134.87179487 , 4139.48717949 , 2040.0 , 2034.0 , 229.02 , 0.0 , 0.0 , 0.0 , 0.0 , 

43.0 , 4130.76923077 , 4130.25641026 , 4134.35897436 , 4131.28205128 , 4130.76923077 , 4128.20512821 , 4119.48717949 , 4122.05128205 , 4123.07692308 , 4134.87179487 , 4188.71794872 , 4911.28205128 , 4130.76923077 , 4138.97435897 , 2041.0 , 2034.0 , 229.026 , 0.0 , 0.0 , 0.0 , 0.0 , 

44.0 , 4131.28205128 , 4129.74358974 , 4132.30769231 , 4131.79487179 , 4130.76923077 , 4127.17948718 , 4121.02564103 , 4127.17948718 , 4126.15384615 , 4136.41025641 , 4187.69230769 , 4909.23076923 , 4132.30769231 , 4136.41025641 , 2043.0 , 2034.0 , 229.034 , 0.0 , 0.0 , 0.0 , 0.0 , 

45.0 , 4128.71794872 , 4129.23076923 , 4133.33333333 , 4127.69230769 , 4125.12820513 , 4123.58974359 , 4124.61538462 , 4131.28205128 , 4132.30769231 , 4138.46153846 , 4188.20512821 , 4908.20512821 , 4131.79487179 , 4137.94871795 , 2042.0 , 2036.0 , 229.047 , 0.0 , 0.0 , 0.0 , 0.0 , 

46.0 , 4127.17948718 , 4128.71794872 , 4134.35897436 , 4126.15384615 , 4123.58974359 , 4123.58974359 , 4124.1025641 , 4127.69230769 , 4128.20512821 , 4137.43589744 , 4191.28205128 , 4907.69230769 , 4129.23076923 , 4141.53846154 , 2043.0 , 2036.0 , 229.05 , 0.0 , 0.0 , 0.0 , 0.0 , 

47.0 , 4126.66666667 , 4127.69230769 , 4130.25641026 , 4127.69230769 , 4126.66666667 , 4124.61538462 , 4122.05128205 , 4132.82051282 , 4132.30769231 , 4136.92307692 , 4188.20512821 , 4907.69230769 , 4133.33333333 , 4140.0 , 2044.0 , 2036.0 , 229.057 , 0.0 , 0.0 , 0.0 , 0.0 , 

48.0 , 4129.74358974 , 4127.69230769 , 4132.30769231 , 4126.66666667 , 4127.69230769 , 4126.66666667 , 4123.58974359 , 4129.23076923 , 4132.82051282 , 4137.94871795 , 4186.15384615 , 4909.23076923 , 4129.74358974 , 4137.94871795 , 2045.0 , 2035.0 , 229.065 , 0.0 , 0.0 , 0.0 , 0.0 , 

49.0 , 4127.69230769 , 4127.17948718 , 4133.33333333 , 4128.20512821 , 4128.71794872 , 4131.79487179 , 4128.20512821 , 4130.25641026 , 4133.33333333 , 4136.92307692 , 4190.76923077 , 4907.69230769 , 4130.76923077 , 4137.94871795 , 2044.0 , 2035.0 , 229.077 , 0.0 , 0.0 , 0.0 , 0.0 , 

50.0 , 4129.23076923 , 4124.61538462 , 4134.35897436 , 4127.69230769 , 4131.79487179 , 4127.17948718 , 4122.56410256 , 4125.64102564 , 4125.64102564 , 4136.92307692 , 4187.69230769 , 4909.23076923 , 4129.23076923 , 4141.02564103 , 2044.0 , 2034.0 , 229.083 , 0.0 , 0.0 , 0.0 , 0.0 , 

51.0 , 4130.76923077 , 4132.30769231 , 4129.74358974 , 4131.79487179 , 4128.20512821 , 4127.69230769 , 4124.61538462 , 4135.38461538 , 4130.76923077 , 4139.48717949 , 4186.15384615 , 4909.74358974 , 4132.82051282 , 4139.48717949 , 2042.0 , 2034.0 , 229.089 , 0.0 , 0.0 , 0.0 , 0.0 , 

52.0 , 4132.30769231 , 4131.79487179 , 4132.30769231 , 4127.69230769 , 4126.66666667 , 4127.17948718 , 4122.05128205 , 4122.05128205 , 4123.07692308 , 4134.87179487 , 4186.15384615 , 4912.30769231 , 4124.61538462 , 4138.46153846 , 2042.0 , 2034.0 , 229.097 , 0.0 , 0.0 , 0.0 , 0.0 , 

53.0 , 4129.74358974 , 4131.79487179 , 4128.71794872 , 4132.30769231 , 4131.28205128 , 4129.74358974 , 4127.69230769 , 4125.12820513 , 4128.71794872 , 4133.84615385 , 4190.25641026 , 4908.71794872 , 4132.82051282 , 4137.43589744 , 2041.0 , 2034.0 , 229.107 , 0.0 , 0.0 , 0.0 , 0.0 , 

54.0 , 4131.79487179 , 4130.25641026 , 4132.82051282 , 4131.79487179 , 4131.28205128 , 4125.64102564 , 4121.53846154 , 4123.07692308 , 4125.64102564 , 4135.8974359 , 4184.61538462 , 4912.30769231 , 4130.25641026 , 4137.94871795 , 2040.0 , 2033.0 , 229.115 , 0.0 , 0.0 , 0.0 , 0.0 , 

55.0 , 4129.74358974 , 4130.25641026 , 4130.25641026 , 4136.41025641 , 4127.69230769 , 4130.76923077 , 4124.1025641 , 4132.82051282 , 4128.20512821 , 4137.43589744 , 4186.66666667 , 4911.79487179 , 4135.38461538 , 4135.8974359 , 2038.0 , 2032.0 , 229.12 , 0.0 , 0.0 , 0.0 , 0.0 , 

56.0 , 4128.71794872 , 4124.61538462 , 4133.33333333 , 4132.82051282 , 4129.23076923 , 4124.1025641 , 4119.48717949 , 4122.56410256 , 4124.61538462 , 4133.84615385 , 4188.71794872 , 4912.30769231 , 4131.28205128 , 4137.43589744 , 2036.0 , 2031.0 , 229.128 , 0.0 , 0.0 , 0.0 , 0.0 , 

57.0 , 4130.25641026 , 4133.33333333 , 4127.69230769 , 4136.41025641 , 4128.71794872 , 4125.12820513 , 4123.58974359 , 4128.71794872 , 4132.30769231 , 4135.38461538 , 4192.30769231 , 4908.71794872 , 4137.94871795 , 4140.0 , 2036.0 , 2031.0 , 229.139 , 0.0 , 0.0 , 0.0 , 0.0 , 

58.0 , 4131.79487179 , 4131.28205128 , 4129.23076923 , 4132.30769231 , 4125.12820513 , 4127.17948718 , 4115.8974359 , 4126.15384615 , 4126.66666667 , 4135.38461538 , 4187.17948718 , 4910.76923077 , 4131.79487179 , 4138.97435897 , 2035.0 , 2030.0 , 229.146 , 0.0 , 0.0 , 0.0 , 0.0 , 

59.0 , 4130.25641026 , 4128.71794872 , 4130.25641026 , 4133.33333333 , 4127.17948718 , 4129.23076923 , 4121.02564103 , 4131.79487179 , 4129.74358974 , 4135.8974359 , 4189.23076923 , 4906.15384615 , 4132.30769231 , 4134.35897436 , 2036.0 , 2031.0 , 229.151 , 0.0 , 0.0 , 0.0 , 0.0 , 

60.0 , 4129.23076923 , 4128.71794872 , 4134.87179487 , 4129.74358974 , 4129.74358974 , 4123.07692308 , 4123.58974359 , 4125.64102564 , 4131.28205128 , 4133.84615385 , 4189.23076923 , 4906.66666667 , 4130.25641026 , 4136.92307692 , 2036.0 , 2032.0 , 229.16 , 0.0 , 0.0 , 0.0 , 0.0 , 

61.0 , 4129.74358974 , 4130.25641026 , 4132.30769231 , 4130.76923077 , 4128.71794872 , 4127.69230769 , 4125.12820513 , 4128.71794872 , 4133.84615385 , 4134.35897436 , 4187.17948718 , 4909.23076923 , 4132.82051282 , 4140.0 , 2035.0 , 2032.0 , 229.172 , 0.0 , 0.0 , 0.0 , 0.0 , 

62.0 , 4130.25641026 , 4121.53846154 , 4132.30769231 , 4127.17948718 , 4127.69230769 , 4126.15384615 , 4118.97435897 , 4127.69230769 , 4131.79487179 , 4136.41025641 , 4183.58974359 , 4910.25641026 , 4128.20512821 , 4139.48717949 , 2036.0 , 2029.0 , 229.178 , 0.0 , 0.0 , 0.0 , 0.0 , 

63.0 , 4130.76923077 , 4124.1025641 , 4132.30769231 , 4124.1025641 , 4128.71794872 , 4124.61538462 , 4124.1025641 , 4127.69230769 , 4130.76923077 , 4140.0 , 4187.17948718 , 4907.69230769 , 4125.12820513 , 4138.46153846 , 2037.0 , 2030.0 , 229.183 , 0.0 , 0.0 , 0.0 , 0.0 , 

64.0 , 4128.20512821 , 4128.71794872 , 4133.84615385 , 4125.64102564 , 4127.17948718 , 4128.71794872 , 4128.20512821 , 4130.76923077 , 4130.25641026 , 4136.92307692 , 4189.23076923 , 4910.76923077 , 4127.69230769 , 4138.97435897 , 2038.0 , 2031.0 , 229.191 , 0.0 , 0.0 , 0.0 , 0.0 , 

65.0 , 4132.30769231 , 4130.25641026 , 4134.87179487 , 4129.74358974 , 4128.71794872 , 4132.30769231 , 4125.64102564 , 4131.28205128 , 4129.23076923 , 4133.84615385 , 4188.20512821 , 4912.30769231 , 4129.23076923 , 4137.94871795 , 2040.0 , 2029.0 , 229.208 , 0.0 , 0.0 , 0.0 , 0.0 , 

66.0 , 4135.8974359 , 4132.30769231 , 4131.28205128 , 4130.76923077 , 4130.25641026 , 4129.23076923 , 4124.61538462 , 4136.41025641 , 4135.8974359 , 4136.92307692 , 4189.74358974 , 4909.23076923 , 4132.82051282 , 4137.43589744 , 2040.0 , 2031.0 , 229.209 , 0.0 , 0.0 , 0.0 , 0.0 , 

67.0 , 4132.30769231 , 4131.79487179 , 4132.82051282 , 4130.25641026 , 4130.76923077 , 4126.66666667 , 4124.61538462 , 4130.25641026 , 4130.25641026 , 4137.43589744 , 4189.23076923 , 4908.20512821 , 4129.74358974 , 4140.0 , 2041.0 , 2034.0 , 229.215 , 0.0 , 0.0 , 0.0 , 0.0 , 

68.0 , 4126.66666667 , 4131.79487179 , 4131.79487179 , 4136.92307692 , 4131.79487179 , 4130.76923077 , 4129.23076923 , 4133.33333333 , 4131.79487179 , 4135.38461538 , 4186.66666667 , 4907.17948718 , 4135.38461538 , 4138.46153846 , 2040.0 , 2034.0 , 229.223 , 0.0 , 0.0 , 0.0 , 0.0 , 

69.0 , 4131.28205128 , 4128.71794872 , 4133.33333333 , 4134.87179487 , 4132.30769231 , 4127.17948718 , 4121.53846154 , 4125.12820513 , 4126.15384615 , 4135.38461538 , 4183.07692308 , 4909.23076923 , 4132.30769231 , 4136.92307692 , 2040.0 , 2032.0 , 229.234 , 0.0 , 0.0 , 0.0 , 0.0 , 

70.0 , 4132.30769231 , 4128.20512821 , 4128.71794872 , 4134.87179487 , 4128.20512821 , 4127.69230769 , 4121.02564103 , 4127.69230769 , 4127.17948718 , 4140.51282051 , 4189.74358974 , 4908.71794872 , 4135.8974359 , 4135.8974359 , 2043.0 , 2032.0 , 229.24 , 0.0 , 0.0 , 0.0 , 0.0 , 

71.0 , 4131.79487179 , 4125.12820513 , 4132.82051282 , 4129.74358974 , 4125.64102564 , 4121.53846154 , 4117.43589744 , 4117.43589744 , 4120.51282051 , 4137.43589744 , 4189.23076923 , 4910.76923077 , 4127.69230769 , 4138.97435897 , 2043.0 , 2033.0 , 229.246 , 0.0 , 0.0 , 0.0 , 0.0 , 

72.0 , 4127.69230769 , 4130.25641026 , 4128.20512821 , 4133.84615385 , 4129.23076923 , 4122.05128205 , 4122.05128205 , 4130.76923077 , 4131.28205128 , 4137.43589744 , 4190.25641026 , 4908.20512821 , 4132.30769231 , 4137.94871795 , 2044.0 , 2032.0 , 229.255 , 0.0 , 0.0 , 0.0 , 0.0 , 

73.0 , 4129.23076923 , 4127.17948718 , 4129.74358974 , 4129.23076923 , 4132.82051282 , 4123.07692308 , 4114.35897436 , 4127.17948718 , 4130.25641026 , 4138.97435897 , 4189.23076923 , 4911.28205128 , 4127.17948718 , 4136.41025641 , 2044.0 , 2030.0 , 229.265 , 0.0 , 0.0 , 0.0 , 0.0 , 

74.0 , 4130.76923077 , 4128.20512821 , 4128.71794872 , 4131.79487179 , 4129.74358974 , 4130.25641026 , 4121.53846154 , 4133.84615385 , 4134.35897436 , 4140.51282051 , 4192.30769231 , 4907.17948718 , 4134.35897436 , 4137.43589744 , 2044.0 , 2031.0 , 229.273 , 0.0 , 0.0 , 0.0 , 0.0 , 

75.0 , 4131.28205128 , 4125.12820513 , 4134.87179487 , 4128.71794872 , 4126.66666667 , 4126.15384615 , 4123.58974359 , 4129.23076923 , 4130.76923077 , 4138.46153846 , 4189.23076923 , 4910.76923077 , 4130.76923077 , 4140.0 , 2045.0 , 2032.0 , 229.278 , 0.0 , 0.0 , 0.0 , 0.0 , 

76.0 , 4129.23076923 , 4127.17948718 , 4131.79487179 , 4132.82051282 , 4128.20512821 , 4129.23076923 , 4127.17948718 , 4137.43589744 , 4135.38461538 , 4139.48717949 , 4191.28205128 , 4909.23076923 , 4133.84615385 , 4138.97435897 , 2045.0 , 2033.0 , 229.286 , 0.0 , 0.0 , 0.0 , 0.0 , 

77.0 , 4131.28205128 , 4125.64102564 , 4131.79487179 , 4128.20512821 , 4128.20512821 , 4130.25641026 , 4119.48717949 , 4128.71794872 , 4131.79487179 , 4136.92307692 , 4187.69230769 , 4907.17948718 , 4126.66666667 , 4137.94871795 , 2044.0 , 2033.0 , 229.297 , 0.0 , 0.0 , 0.0 , 0.0 , 

78.0 , 4133.84615385 , 4131.79487179 , 4130.25641026 , 4130.25641026 , 4128.71794872 , 4133.33333333 , 4126.15384615 , 4131.79487179 , 4133.84615385 , 4136.92307692 , 4188.71794872 , 4906.15384615 , 4128.20512821 , 4135.38461538 , 2044.0 , 2033.0 , 229.304 , 0.0 , 0.0 , 0.0 , 0.0 , 

79.0 , 4132.30769231 , 4128.20512821 , 4135.38461538 , 4129.74358974 , 4129.74358974 , 4128.20512821 , 4127.17948718 , 4129.74358974 , 4130.76923077 , 4136.92307692 , 4187.69230769 , 4911.79487179 , 4126.15384615 , 4134.87179487 , 2043.0 , 2033.0 , 229.31 , 0.0 , 0.0 , 0.0 , 0.0 , 

80.0 , 4130.76923077 , 4125.64102564 , 4133.84615385 , 4131.79487179 , 4128.71794872 , 4126.66666667 , 4124.61538462 , 4130.25641026 , 4131.28205128 , 4136.92307692 , 4187.17948718 , 4907.69230769 , 4129.23076923 , 4137.43589744 , 2042.0 , 2034.0 , 229.318 , 0.0 , 0.0 , 0.0 , 0.0 , 

81.0 , 4130.76923077 , 4125.64102564 , 4131.28205128 , 4131.79487179 , 4126.66666667 , 4126.15384615 , 4120.51282051 , 4127.69230769 , 4130.76923077 , 4134.87179487 , 4186.15384615 , 4907.17948718 , 4130.76923077 , 4136.92307692 , 2044.0 , 2036.0 , 229.329 , 0.0 , 0.0 , 0.0 , 0.0 , 

82.0 , 4133.33333333 , 4130.25641026 , 4129.74358974 , 4131.79487179 , 4130.76923077 , 4127.69230769 , 4125.12820513 , 4125.12820513 , 4127.69230769 , 4133.84615385 , 4187.69230769 , 4912.82051282 , 4130.25641026 , 4134.87179487 , 2043.0 , 2037.0 , 229.336 , 0.0 , 0.0 , 0.0 , 0.0 , 

83.0 , 4132.30769231 , 4130.76923077 , 4128.71794872 , 4130.76923077 , 4132.82051282 , 4126.15384615 , 4126.66666667 , 4126.15384615 , 4130.76923077 , 4134.87179487 , 4187.69230769 , 4913.33333333 , 4133.33333333 , 4136.41025641 , 2043.0 , 2038.0 , 229.341 , 0.0 , 0.0 , 0.0 , 0.0 , 

84.0 , 4132.82051282 , 4130.76923077 , 4129.23076923 , 4133.33333333 , 4130.76923077 , 4124.1025641 , 4121.53846154 , 4123.58974359 , 4130.25641026 , 4137.94871795 , 4188.71794872 , 4909.23076923 , 4134.87179487 , 4139.48717949 , 2043.0 , 2038.0 , 229.349 , 0.0 , 0.0 , 0.0 , 0.0 , 

85.0 , 4130.76923077 , 4130.76923077 , 4129.23076923 , 4135.38461538 , 4128.71794872 , 4127.17948718 , 4122.05128205 , 4129.23076923 , 4134.35897436 , 4139.48717949 , 4190.76923077 , 4907.69230769 , 4137.43589744 , 4137.43589744 , 2042.0 , 2038.0 , 229.362 , 0.0 , 0.0 , 0.0 , 0.0 , 

86.0 , 4132.82051282 , 4127.69230769 , 4132.30769231 , 4129.23076923 , 4128.20512821 , 4126.15384615 , 4120.51282051 , 4126.66666667 , 4132.30769231 , 4137.94871795 , 4188.20512821 , 4911.28205128 , 4132.30769231 , 4136.92307692 , 2042.0 , 2038.0 , 229.366 , 0.0 , 0.0 , 0.0 , 0.0 , 

87.0 , 4131.79487179 , 4129.74358974 , 4127.69230769 , 4132.82051282 , 4127.17948718 , 4127.17948718 , 4124.61538462 , 4136.92307692 , 4138.97435897 , 4138.46153846 , 4191.79487179 , 4909.23076923 , 4137.94871795 , 4137.43589744 , 2042.0 , 2036.0 , 229.373 , 0.0 , 0.0 , 0.0 , 0.0 , 

88.0 , 4130.76923077 , 4127.69230769 , 4132.30769231 , 4130.76923077 , 4129.74358974 , 4126.15384615 , 4121.53846154 , 4131.28205128 , 4132.82051282 , 4135.38461538 , 4190.76923077 , 4909.74358974 , 4129.74358974 , 4137.94871795 , 2043.0 , 2036.0 , 229.379 , 0.0 , 0.0 , 0.0 , 0.0 , 

89.0 , 4127.69230769 , 4127.17948718 , 4132.82051282 , 4127.69230769 , 4130.25641026 , 4129.74358974 , 4124.61538462 , 4134.87179487 , 4136.92307692 , 4135.38461538 , 4188.71794872 , 4908.71794872 , 4131.79487179 , 4137.94871795 , 2044.0 , 2035.0 , 229.391 , 0.0 , 0.0 , 0.0 , 0.0 , 

90.0 , 4130.25641026 , 4123.07692308 , 4135.8974359 , 4122.05128205 , 4126.66666667 , 4126.15384615 , 4120.0 , 4126.15384615 , 4131.28205128 , 4136.92307692 , 4183.58974359 , 4912.82051282 , 4126.66666667 , 4141.02564103 , 2042.0 , 2033.0 , 229.397 , 0.0 , 0.0 , 0.0 , 0.0 , 

91.0 , 4129.23076923 , 4128.20512821 , 4133.33333333 , 4132.82051282 , 4127.17948718 , 4128.20512821 , 4128.20512821 , 4135.38461538 , 4135.8974359 , 4140.51282051 , 4188.20512821 , 4907.69230769 , 4131.28205128 , 4139.48717949 , 2042.0 , 2033.0 , 229.403 , 0.0 , 0.0 , 0.0 , 0.0 , 

92.0 , 4128.71794872 , 4125.12820513 , 4136.92307692 , 4130.76923077 , 4130.25641026 , 4125.64102564 , 4128.71794872 , 4125.64102564 , 4129.23076923 , 4139.48717949 , 4188.71794872 , 4908.20512821 , 4126.66666667 , 4137.43589744 , 2044.0 , 2033.0 , 229.411 , 0.0 , 0.0 , 0.0 , 0.0 , 

93.0 , 4130.25641026 , 4129.74358974 , 4130.25641026 , 4132.30769231 , 4131.28205128 , 4130.76923077 , 4132.30769231 , 4132.30769231 , 4133.84615385 , 4139.48717949 , 4190.25641026 , 4907.69230769 , 4136.41025641 , 4135.38461538 , 2047.0 , 2035.0 , 229.423 , 0.0 , 0.0 , 0.0 , 0.0 , 

94.0 , 4132.30769231 , 4130.25641026 , 4130.76923077 , 4129.74358974 , 4128.20512821 , 4127.69230769 , 4122.56410256 , 4127.17948718 , 4131.79487179 , 4137.94871795 , 4185.64102564 , 4908.71794872 , 4129.74358974 , 4137.94871795 , 2046.0 , 2036.0 , 229.43 , 0.0 , 0.0 , 0.0 , 0.0 , 

95.0 , 4130.25641026 , 4132.30769231 , 4130.25641026 , 4134.35897436 , 4129.74358974 , 4128.71794872 , 4127.17948718 , 4130.76923077 , 4134.87179487 , 4140.51282051 , 4187.69230769 , 4904.61538462 , 4129.23076923 , 4136.92307692 , 2049.0 , 2036.0 , 229.435 , 0.0 , 0.0 , 0.0 , 0.0 , 

96.0 , 4130.25641026 , 4127.69230769 , 4132.82051282 , 4131.28205128 , 4131.28205128 , 4126.66666667 , 4126.66666667 , 4126.15384615 , 4130.76923077 , 4140.0 , 4187.17948718 , 4909.74358974 , 4129.74358974 , 4136.41025641 , 2050.0 , 2035.0 , 229.444 , 0.0 , 0.0 , 0.0 , 0.0 , 

97.0 , 4131.28205128 , 4132.30769231 , 4128.20512821 , 4132.30769231 , 4130.25641026 , 4129.23076923 , 4127.17948718 , 4129.23076923 , 4132.82051282 , 4135.38461538 , 4189.23076923 , 4910.25641026 , 4135.8974359 , 4137.94871795 , 2046.0 , 2033.0 , 229.457 , 0.0 , 0.0 , 0.0 , 0.0 , 

98.0 , 4131.28205128 , 4129.74358974 , 4127.69230769 , 4130.76923077 , 4128.20512821 , 4123.58974359 , 4120.0 , 4122.05128205 , 4128.20512821 , 4132.82051282 , 4188.71794872 , 4909.74358974 , 4131.28205128 , 4138.46153846 , 2047.0 , 2033.0 , 229.462 , 0.0 , 0.0 , 0.0 , 0.0 , 

99.0 , 4133.33333333 , 4127.69230769 , 4129.74358974 , 4132.30769231 , 4130.76923077 , 4122.56410256 , 4118.97435897 , 4122.56410256 , 4126.15384615 , 4138.46153846 , 4187.17948718 , 4910.76923077 , 4131.79487179 , 4135.8974359 , 2047.0 , 2033.0 , 229.467 , 0.0 , 0.0 , 0.0 , 0.0 , 

100.0 , 4131.79487179 , 4125.64102564 , 4133.33333333 , 4130.25641026 , 4130.25641026 , 4126.15384615 , 4120.51282051 , 4127.69230769 , 4133.33333333 , 4139.48717949 , 4185.64102564 , 4910.76923077 , 4134.35897436 , 4135.8974359 , 2045.0 , 2034.0 , 229.475 , 0.0 , 0.0 , 0.0 , 0.0 , 

101.0 , 4130.25641026 , 4126.66666667 , 4130.76923077 , 4128.71794872 , 4128.20512821 , 4126.66666667 , 4123.07692308 , 4128.20512821 , 4134.87179487 , 4135.38461538 , 4189.23076923 , 4906.66666667 , 4134.87179487 , 4138.46153846 , 2045.0 , 2035.0 , 229.486 , 0.0 , 0.0 , 0.0 , 0.0 , 

102.0 , 4128.20512821 , 4126.66666667 , 4129.74358974 , 4128.71794872 , 4128.71794872 , 4125.64102564 , 4125.12820513 , 4132.30769231 , 4135.38461538 , 4136.92307692 , 4188.71794872 , 4907.17948718 , 4136.92307692 , 4137.43589744 , 2044.0 , 2037.0 , 229.492 , 0.0 , 0.0 , 0.0 , 0.0 , 

103.0 , 4130.76923077 , 4126.15384615 , 4133.84615385 , 4126.15384615 , 4131.28205128 , 4128.20512821 , 4124.1025641 , 4131.79487179 , 4134.35897436 , 4141.53846154 , 4187.17948718 , 4912.82051282 , 4128.71794872 , 4136.92307692 , 2044.0 , 2038.0 , 229.498 , 0.0 , 0.0 , 0.0 , 0.0 , 

104.0 , 4129.74358974 , 4125.12820513 , 4128.20512821 , 4128.71794872 , 4128.71794872 , 4131.79487179 , 4126.66666667 , 4137.94871795 , 4136.92307692 , 4141.02564103 , 4192.30769231 , 4908.20512821 , 4130.76923077 , 4135.8974359 , 2044.0 , 2039.0 , 229.507 , 0.0 , 0.0 , 0.0 , 0.0 , 

105.0 , 4130.76923077 , 4123.07692308 , 4130.25641026 , 4128.71794872 , 4128.20512821 , 4126.15384615 , 4123.58974359 , 4134.87179487 , 4127.17948718 , 4138.46153846 , 4189.23076923 , 4907.17948718 , 4130.25641026 , 4136.92307692 , 2045.0 , 2036.0 , 229.522 , 0.0 , 0.0 , 0.0 , 0.0 , 

106.0 , 4128.71794872 , 4131.79487179 , 4133.33333333 , 4132.30769231 , 4131.79487179 , 4128.71794872 , 4128.20512821 , 4139.48717949 , 4130.76923077 , 4139.48717949 , 4187.69230769 , 4911.79487179 , 4132.82051282 , 4138.97435897 , 2045.0 , 2036.0 , 229.525 , 0.0 , 0.0 , 0.0 , 0.0 , 

107.0 , 4129.74358974 , 4132.30769231 , 4136.92307692 , 4128.71794872 , 4132.30769231 , 4127.69230769 , 4126.66666667 , 4124.61538462 , 4129.23076923 , 4137.94871795 , 4187.17948718 , 4914.87179487 , 4122.56410256 , 4139.48717949 , 2043.0 , 2036.0 , 229.529 , 0.0 , 0.0 , 0.0 , 0.0 , 

108.0 , 4129.23076923 , 4130.76923077 , 4129.74358974 , 4132.30769231 , 4127.17948718 , 4129.23076923 , 4129.74358974 , 4130.76923077 , 4136.41025641 , 4138.46153846 , 4188.71794872 , 4907.69230769 , 4129.23076923 , 4137.94871795 , 2042.0 , 2037.0 , 229.538 , 0.0 , 0.0 , 0.0 , 0.0 , 

109.0 , 4130.25641026 , 4128.20512821 , 4133.84615385 , 4129.74358974 , 4127.69230769 , 4126.66666667 , 4122.05128205 , 4126.15384615 , 4129.23076923 , 4136.92307692 , 4180.51282051 , 4912.30769231 , 4126.66666667 , 4139.48717949 , 2043.0 , 2035.0 , 229.548 , 0.0 , 0.0 , 0.0 , 0.0 , 

110.0 , 4126.66666667 , 4135.38461538 , 4132.30769231 , 4135.8974359 , 4130.76923077 , 4130.25641026 , 4126.66666667 , 4131.28205128 , 4134.35897436 , 4137.43589744 , 4186.15384615 , 4913.84615385 , 4135.38461538 , 4137.43589744 , 2040.0 , 2035.0 , 229.556 , 0.0 , 0.0 , 0.0 , 0.0 , 

111.0 , 4127.17948718 , 4128.71794872 , 4131.79487179 , 4132.82051282 , 4130.76923077 , 4124.61538462 , 4121.02564103 , 4121.53846154 , 4128.71794872 , 4137.94871795 , 4189.74358974 , 4911.79487179 , 4133.33333333 , 4137.94871795 , 2039.0 , 2036.0 , 229.561 , 0.0 , 0.0 , 0.0 , 0.0 , 

112.0 , 4129.23076923 , 4127.69230769 , 4126.15384615 , 4133.84615385 , 4128.71794872 , 4128.20512821 , 4124.61538462 , 4129.74358974 , 4129.74358974 , 4138.97435897 , 4189.23076923 , 4905.64102564 , 4136.41025641 , 4138.46153846 , 2041.0 , 2034.0 , 229.569 , 0.0 , 0.0 , 0.0 , 0.0 , 

113.0 , 4132.30769231 , 4127.69230769 , 4132.30769231 , 4131.28205128 , 4128.71794872 , 4128.20512821 , 4121.02564103 , 4126.66666667 , 4126.66666667 , 4138.46153846 , 4185.12820513 , 4910.25641026 , 4131.28205128 , 4138.46153846 , 2040.0 , 2034.0 , 229.582 , 0.0 , 0.0 , 0.0 , 0.0 , 

114.0 , 4131.28205128 , 4131.79487179 , 4131.79487179 , 4136.92307692 , 4129.23076923 , 4128.71794872 , 4124.1025641 , 4134.35897436 , 4133.33333333 , 4140.51282051 , 4190.76923077 , 4909.23076923 , 4135.38461538 , 4136.92307692 , 2040.0 , 2033.0 , 229.587 , 0.0 , 0.0 , 0.0 , 0.0 , 

115.0 , 4129.74358974 , 4126.15384615 , 4133.33333333 , 4132.30769231 , 4127.17948718 , 4121.53846154 , 4120.0 , 4131.28205128 , 4130.76923077 , 4139.48717949 , 4189.23076923 , 4908.71794872 , 4130.76923077 , 4138.97435897 , 2040.0 , 2034.0 , 229.593 , 0.0 , 0.0 , 0.0 , 0.0 , 

116.0 , 4131.79487179 , 4127.17948718 , 4132.30769231 , 4127.69230769 , 4130.25641026 , 4123.07692308 , 4120.51282051 , 4133.33333333 , 4133.84615385 , 4140.0 , 4186.66666667 , 4906.66666667 , 4131.79487179 , 4138.97435897 , 2040.0 , 2033.0 , 229.601 , 0.0 , 0.0 , 0.0 , 0.0 , 

117.0 , 4130.76923077 , 4123.58974359 , 4133.33333333 , 4124.61538462 , 4133.33333333 , 4125.64102564 , 4120.0 , 4130.76923077 , 4135.8974359 , 4140.0 , 4185.64102564 , 4909.23076923 , 4128.71794872 , 4136.92307692 , 2039.0 , 2032.0 , 229.614 , 0.0 , 0.0 , 0.0 , 0.0 , 

118.0 , 4129.74358974 , 4123.07692308 , 4133.84615385 , 4127.69230769 , 4131.28205128 , 4127.17948718 , 4123.58974359 , 4130.25641026 , 4131.79487179 , 4138.97435897 , 4188.71794872 , 4910.76923077 , 4127.17948718 , 4137.94871795 , 2041.0 , 2035.0 , 229.618 , 0.0 , 0.0 , 0.0 , 0.0 , 

119.0 , 4129.74358974 , 4125.64102564 , 4134.35897436 , 4127.17948718 , 4127.69230769 , 4126.15384615 , 4124.61538462 , 4131.79487179 , 4132.82051282 , 4136.92307692 , 4189.23076923 , 4909.74358974 , 4129.23076923 , 4140.0 , 2042.0 , 2036.0 , 229.625 , 0.0 , 0.0 , 0.0 , 0.0 , 

120.0 , 4131.79487179 , 4127.17948718 , 4133.33333333 , 4129.74358974 , 4129.23076923 , 4126.15384615 , 4123.58974359 , 4130.76923077 , 4133.84615385 , 4135.8974359 , 4187.69230769 , 4909.74358974 , 4129.23076923 , 4138.97435897 , 2043.0 , 2037.0 , 229.633 , 0.0 , 0.0 , 0.0 , 0.0 , 

121.0 , 4128.71794872 , 4129.74358974 , 4132.30769231 , 4134.35897436 , 4130.76923077 , 4128.20512821 , 4124.1025641 , 4134.35897436 , 4134.87179487 , 4134.35897436 , 4187.69230769 , 4909.23076923 , 4131.79487179 , 4136.92307692 , 2043.0 , 2039.0 , 229.644 , 0.0 , 0.0 , 0.0 , 0.0 , 

122.0 , 4129.74358974 , 4131.79487179 , 4134.87179487 , 4131.28205128 , 4129.74358974 , 4127.69230769 , 4121.53846154 , 4127.69230769 , 4128.20512821 , 4134.87179487 , 4186.15384615 , 4908.71794872 , 4128.20512821 , 4137.43589744 , 2043.0 , 2039.0 , 229.651 , 0.0 , 0.0 , 0.0 , 0.0 , 

123.0 , 4130.25641026 , 4131.28205128 , 4128.71794872 , 4134.87179487 , 4126.66666667 , 4130.25641026 , 4125.64102564 , 4131.79487179 , 4133.33333333 , 4138.97435897 , 4187.69230769 , 4907.69230769 , 4132.30769231 , 4138.46153846 , 2044.0 , 2039.0 , 229.656 , 0.0 , 0.0 , 0.0 , 0.0 , 

124.0 , 4132.30769231 , 4128.71794872 , 4129.74358974 , 4134.35897436 , 4126.66666667 , 4127.17948718 , 4123.07692308 , 4122.56410256 , 4127.69230769 , 4140.0 , 4187.69230769 , 4909.23076923 , 4130.76923077 , 4140.51282051 , 2044.0 , 2039.0 , 229.664 , 0.0 , 0.0 , 0.0 , 0.0 , 

125.0 , 4130.25641026 , 4133.33333333 , 4128.71794872 , 4135.38461538 , 4129.74358974 , 4128.20512821 , 4123.58974359 , 4126.15384615 , 4128.71794872 , 4137.43589744 , 4190.25641026 , 4904.1025641 , 4136.92307692 , 4138.46153846 , 2045.0 , 2040.0 , 229.675 , 0.0 , 0.0 , 0.0 , 0.0 , 

126.0 , 4131.79487179 , 4127.69230769 , 4132.82051282 , 4130.76923077 , 4130.76923077 , 4122.56410256 , 4116.92307692 , 4119.48717949 , 4124.1025641 , 4135.8974359 , 4186.15384615 , 4906.15384615 , 4129.23076923 , 4139.48717949 , 2044.0 , 2040.0 , 229.682 , 0.0 , 0.0 , 0.0 , 0.0 , 

127.0 , 4132.30769231 , 4127.17948718 , 4129.23076923 , 4135.38461538 , 4129.23076923 , 4124.1025641 , 4122.56410256 , 4132.82051282 , 4135.8974359 , 4139.48717949 , 4188.71794872 , 4908.20512821 , 4136.41025641 , 4141.02564103 , 2045.0 , 2038.0 , 229.688 , 0.0 , 0.0 , 0.0 , 0.0 , 

128.0 , 4133.84615385 , 4127.69230769 , 4131.28205128 , 4128.71794872 , 4129.23076923 , 4123.58974359 , 4118.97435897 , 4128.71794872 , 4133.33333333 , 4135.38461538 , 4187.69230769 , 4911.79487179 , 4133.33333333 , 4141.53846154 , 2047.0 , 2038.0 , 229.695 , 0.0 , 0.0 , 0.0 , 0.0 , 

0.0 , 4129.23076923 , 4130.25641026 , 4127.17948718 , 4130.25641026 , 4128.20512821 , 4125.64102564 , 4124.1025641 , 4136.41025641 , 4136.41025641 , 4133.33333333 , 4188.71794872 , 4907.69230769 , 4138.46153846 , 4135.38461538 , 2046.0 , 2039.0 , 229.708 , 0.0 , 0.0 , 0.0 , 0.0 , 

1.0 , 4129.23076923 , 4122.05128205 , 4131.79487179 , 4126.66666667 , 4127.69230769 , 4120.0 , 4118.97435897 , 4128.71794872 , 4131.79487179 , 4134.35897436 , 4185.64102564 , 4908.71794872 , 4131.79487179 , 4133.33333333 , 2044.0 , 2037.0 , 229.713 , 0.0 , 0.0 , 0.0 , 0.0 , 

2.0 , 4130.76923077 , 4127.17948718 , 4129.74358974 , 4129.74358974 , 4130.76923077 , 4127.17948718 , 4124.1025641 , 4136.41025641 , 4137.43589744 , 4135.8974359 , 4191.28205128 , 4908.71794872 , 4134.35897436 , 4135.38461538 , 2043.0 , 2036.0 , 229.719 , 0.0 , 0.0 , 0.0 , 0.0 , 

3.0 , 4129.23076923 , 4128.20512821 , 4131.28205128 , 4130.76923077 , 4129.23076923 , 4127.69230769 , 4124.61538462 , 4130.76923077 , 4134.35897436 , 4134.87179487 , 4190.25641026 , 4912.82051282 , 4130.25641026 , 4138.97435897 , 2043.0 , 2037.0 , 229.727 , 0.0 , 0.0 , 0.0 , 0.0 , 

4.0 , 4128.71794872 , 4131.79487179 , 4129.23076923 , 4134.87179487 , 4129.23076923 , 4128.20512821 , 4129.74358974 , 4131.28205128 , 4133.33333333 , 4138.97435897 , 4187.69230769 , 4907.69230769 , 4134.87179487 , 4137.94871795 , 2042.0 , 2036.0 , 229.741 , 0.0 , 0.0 , 0.0 , 0.0 , 

5.0 , 4129.23076923 , 4128.71794872 , 4130.76923077 , 4128.20512821 , 4130.76923077 , 4126.15384615 , 4122.56410256 , 4124.61538462 , 4129.23076923 , 4140.0 , 4184.1025641 , 4908.20512821 , 4131.28205128 , 4136.41025641 , 2042.0 , 2036.0 , 229.745 , 0.0 , 0.0 , 0.0 , 0.0 , 

6.0 , 4130.76923077 , 4129.74358974 , 4129.23076923 , 4130.76923077 , 4131.79487179 , 4129.23076923 , 4121.02564103 , 4122.56410256 , 4129.74358974 , 4137.43589744 , 4187.17948718 , 4912.30769231 , 4128.71794872 , 4136.41025641 , 2042.0 , 2036.0 , 229.751 , 0.0 , 0.0 , 0.0 , 0.0 , 

7.0 , 4132.30769231 , 4126.66666667 , 4130.25641026 , 4134.35897436 , 4129.74358974 , 4126.66666667 , 4123.07692308 , 4120.51282051 , 4130.25641026 , 4133.33333333 , 4186.15384615 , 4913.84615385 , 4128.20512821 , 4139.48717949 , 2041.0 , 2035.0 , 229.759 , 0.0 , 0.0 , 0.0 , 0.0 , 

8.0 , 4131.79487179 , 4127.69230769 , 4129.74358974 , 4133.33333333 , 4129.23076923 , 4126.15384615 , 4125.64102564 , 4122.56410256 , 4128.71794872 , 4135.8974359 , 4187.17948718 , 4908.71794872 , 4128.71794872 , 4141.02564103 , 2042.0 , 2037.0 , 229.776 , 0.0 , 0.0 , 0.0 , 0.0 , 

9.0 , 4125.12820513 , 4128.71794872 , 4129.23076923 , 4131.79487179 , 4129.23076923 , 4126.66666667 , 4122.56410256 , 4127.17948718 , 4130.25641026 , 4142.56410256 , 4191.79487179 , 4907.17948718 , 4133.84615385 , 4137.94871795 , 2043.0 , 2036.0 , 229.777 , 0.0 , 0.0 , 0.0 , 0.0 , 

10.0 , 4128.71794872 , 4127.17948718 , 4131.79487179 , 4134.87179487 , 4129.23076923 , 4125.12820513 , 4120.0 , 4123.58974359 , 4125.64102564 , 4140.0 , 4189.23076923 , 4909.74358974 , 4135.8974359 , 4136.92307692 , 2044.0 , 2035.0 , 229.782 , 0.0 , 0.0 , 0.0 , 0.0 , 

11.0 , 4130.76923077 , 4128.71794872 , 4128.71794872 , 4133.33333333 , 4128.20512821 , 4125.12820513 , 4123.58974359 , 4130.76923077 , 4131.79487179 , 4135.8974359 , 4186.15384615 , 4910.25641026 , 4136.92307692 , 4137.94871795 , 2044.0 , 2035.0 , 229.791 , 0.0 , 0.0 , 0.0 , 0.0 , 

12.0 , 4130.25641026 , 4129.74358974 , 4130.25641026 , 4127.17948718 , 4128.71794872 , 4124.61538462 , 4122.56410256 , 4128.71794872 , 4131.79487179 , 4138.46153846 , 4186.15384615 , 4909.23076923 , 4131.28205128 , 4141.02564103 , 2042.0 , 2035.0 , 229.802 , 0.0 , 0.0 , 0.0 , 0.0 , 

13.0 , 4128.71794872 , 4131.28205128 , 4129.74358974 , 4132.30769231 , 4129.74358974 , 4128.71794872 , 4125.12820513 , 4133.33333333 , 4133.33333333 , 4139.48717949 , 4190.25641026 , 4905.64102564 , 4140.51282051 , 4139.48717949 , 2043.0 , 2035.0 , 229.809 , 0.0 , 0.0 , 0.0 , 0.0 , 

14.0 , 4131.28205128 , 4125.64102564 , 4133.33333333 , 4127.69230769 , 4132.82051282 , 4126.66666667 , 4120.0 , 4125.64102564 , 4125.64102564 , 4134.35897436 , 4187.69230769 , 4910.25641026 , 4133.84615385 , 4138.97435897 , 2041.0 , 2034.0 , 229.814 , 0.0 , 0.0 , 0.0 , 0.0 , 

15.0 , 4130.25641026 , 4124.61538462 , 4130.25641026 , 4128.20512821 , 4131.28205128 , 4129.23076923 , 4125.12820513 , 4133.33333333 , 4134.35897436 , 4137.43589744 , 4187.69230769 , 4910.25641026 , 4129.74358974 , 4138.46153846 , 2042.0 , 2033.0 , 229.822 , 0.0 , 0.0 , 0.0 , 0.0 , 

16.0 , 4131.79487179 , 4124.61538462 , 4135.38461538 , 4127.69230769 , 4129.74358974 , 4126.15384615 , 4123.58974359 , 4126.15384615 , 4132.30769231 , 4137.43589744 , 4184.1025641 , 4910.25641026 , 4121.53846154 , 4140.0 , 2042.0 , 2033.0 , 229.834 , 0.0 , 0.0 , 0.0 , 0.0 , 

17.0 , 4130.25641026 , 4132.30769231 , 4132.30769231 , 4130.25641026 , 4131.28205128 , 4130.25641026 , 4131.28205128 , 4134.35897436 , 4138.46153846 , 4135.38461538 , 4187.17948718 , 4907.17948718 , 4129.23076923 , 4138.46153846 , 2041.0 , 2033.0 , 229.84 , 0.0 , 0.0 , 0.0 , 0.0 , 

18.0 , 4130.25641026 , 4128.71794872 , 4133.84615385 , 4123.07692308 , 4131.28205128 , 4129.23076923 , 4127.17948718 , 4125.64102564 , 4131.28205128 , 4137.43589744 , 4186.15384615 , 4910.76923077 , 4126.15384615 , 4136.92307692 , 2042.0 , 2033.0 , 229.845 , 0.0 , 0.0 , 0.0 , 0.0 , 

19.0 , 4130.25641026 , 4131.79487179 , 4130.76923077 , 4132.30769231 , 4130.25641026 , 4132.82051282 , 4128.71794872 , 4134.35897436 , 4132.82051282 , 4142.05128205 , 4188.71794872 , 4910.76923077 , 4134.87179487 , 4136.41025641 , 2042.0 , 2034.0 , 229.853 , 0.0 , 0.0 , 0.0 , 0.0 , 

20.0 , 4130.25641026 , 4131.28205128 , 4133.84615385 , 4132.30769231 , 4131.79487179 , 4128.20512821 , 4121.53846154 , 4129.23076923 , 4128.20512821 , 4137.94871795 , 4186.15384615 , 4909.23076923 , 4129.74358974 , 4139.48717949 , 2041.0 , 2034.0 , 229.864 , 0.0 , 0.0 , 0.0 , 0.0 , 

21.0 , 4129.23076923 , 4133.33333333 , 4130.25641026 , 4132.30769231 , 4132.30769231 , 4129.23076923 , 4125.12820513 , 4131.28205128 , 4133.33333333 , 4135.8974359 , 4187.69230769 , 4903.58974359 , 4132.82051282 , 4137.94871795 , 2041.0 , 2033.0 , 229.872 , 0.0 , 0.0 , 0.0 , 0.0 , 

22.0 , 4129.74358974 , 4127.17948718 , 4129.74358974 , 4131.28205128 , 4128.20512821 , 4126.15384615 , 4119.48717949 , 4123.07692308 , 4127.69230769 , 4136.92307692 , 4184.61538462 , 4910.25641026 , 4133.33333333 , 4134.87179487 , 2042.0 , 2034.0 , 229.877 , 0.0 , 0.0 , 0.0 , 0.0 , 

23.0 , 4129.74358974 , 4130.76923077 , 4126.66666667 , 4133.33333333 , 4129.23076923 , 4128.20512821 , 4119.48717949 , 4125.64102564 , 4125.64102564 , 4135.8974359 , 4186.15384615 , 4912.30769231 , 4135.38461538 , 4136.92307692 , 2042.0 , 2035.0 , 229.884 , 0.0 , 0.0 , 0.0 , 0.0 , 

24.0 , 4130.25641026 , 4128.71794872 , 4128.71794872 , 4127.69230769 , 4130.76923077 , 4127.69230769 , 4118.46153846 , 4122.05128205 , 4126.15384615 , 4135.38461538 , 4188.71794872 , 4910.25641026 , 4129.74358974 , 4141.53846154 , 2041.0 , 2035.0 , 229.897 , 0.0 , 0.0 , 0.0 , 0.0 , 

25.0 , 4131.79487179 , 4127.17948718 , 4129.23076923 , 4128.71794872 , 4130.25641026 , 4125.64102564 , 4120.0 , 4126.66666667 , 4127.69230769 , 4137.43589744 , 4188.20512821 , 4908.20512821 , 4132.82051282 , 4140.51282051 , 2040.0 , 2034.0 , 229.902 , 0.0 , 0.0 , 0.0 , 0.0 , 

26.0 , 4128.71794872 , 4126.15384615 , 4131.79487179 , 4128.71794872 , 4128.20512821 , 4124.61538462 , 4117.43589744 , 4130.25641026 , 4129.74358974 , 4134.35897436 , 4185.12820513 , 4910.25641026 , 4135.38461538 , 4137.94871795 , 2040.0 , 2037.0 , 229.908 , 0.0 , 0.0 , 0.0 , 0.0 , 

27.0 , 4128.71794872 , 4127.17948718 , 4132.82051282 , 4124.61538462 , 4127.69230769 , 4126.66666667 , 4118.97435897 , 4127.17948718 , 4131.79487179 , 4133.33333333 , 4186.66666667 , 4908.20512821 , 4132.30769231 , 4138.97435897 , 2039.0 , 2036.0 , 229.916 , 0.0 , 0.0 , 0.0 , 0.0 , 

28.0 , 4128.20512821 , 4125.12820513 , 4131.28205128 , 4126.66666667 , 4127.69230769 , 4124.1025641 , 4123.58974359 , 4131.79487179 , 4137.43589744 , 4138.97435897 , 4191.28205128 , 4906.15384615 , 4135.38461538 , 4140.0 , 2040.0 , 2034.0 , 229.927 , 0.0 , 0.0 , 0.0 , 0.0 , 

29.0 , 4130.25641026 , 4125.12820513 , 4135.38461538 , 4128.20512821 , 4129.74358974 , 4124.61538462 , 4122.05128205 , 4131.79487179 , 4132.30769231 , 4140.0 , 4191.79487179 , 4908.20512821 , 4132.30769231 , 4137.43589744 , 2039.0 , 2034.0 , 229.934 , 0.0 , 0.0 , 0.0 , 0.0 , 

30.0 , 4129.74358974 , 4129.74358974 , 4132.82051282 , 4129.23076923 , 4130.76923077 , 4132.30769231 , 4124.61538462 , 4134.87179487 , 4134.87179487 , 4136.92307692 , 4189.23076923 , 4907.69230769 , 4130.76923077 , 4133.84615385 , 2039.0 , 2034.0 , 229.94 , 0.0 , 0.0 , 0.0 , 0.0 , 

31.0 , 4131.28205128 , 4126.66666667 , 4131.79487179 , 4128.20512821 , 4130.76923077 , 4128.71794872 , 4125.12820513 , 4127.69230769 , 4129.74358974 , 4138.97435897 , 4184.61538462 , 4909.74358974 , 4126.66666667 , 4137.94871795 , 2040.0 , 2036.0 , 229.948 , 0.0 , 0.0 , 0.0 , 0.0 , 

32.0 , 4128.71794872 , 4127.17948718 , 4131.79487179 , 4134.35897436 , 4129.23076923 , 4127.69230769 , 4128.71794872 , 4133.84615385 , 4131.28205128 , 4140.51282051 , 4188.20512821 , 4911.79487179 , 4132.82051282 , 4140.0 , 2040.0 , 2035.0 , 229.96 , 0.0 , 0.0 , 0.0 , 0.0 , 

33.0 , 4131.28205128 , 4128.20512821 , 4141.02564103 , 4128.71794872 , 4129.23076923 , 4128.71794872 , 4122.56410256 , 4123.07692308 , 4124.1025641 , 4135.38461538 , 4186.66666667 , 4913.84615385 , 4123.07692308 , 4136.41025641 , 2042.0 , 2035.0 , 229.965 , 0.0 , 0.0 , 0.0 , 0.0 , 

34.0 , 4132.30769231 , 4132.82051282 , 4133.84615385 , 4131.28205128 , 4129.23076923 , 4131.79487179 , 4127.17948718 , 4129.23076923 , 4131.28205128 , 4135.38461538 , 4187.17948718 , 4908.20512821 , 4127.69230769 , 4134.35897436 , 2042.0 , 2036.0 , 229.971 , 0.0 , 0.0 , 0.0 , 0.0 , 

35.0 , 4133.84615385 , 4127.17948718 , 4128.71794872 , 4130.76923077 , 4130.25641026 , 4125.64102564 , 4122.05128205 , 4122.56410256 , 4128.20512821 , 4135.8974359 , 4183.07692308 , 4911.79487179 , 4128.20512821 , 4139.48717949 , 2044.0 , 2037.0 , 229.979 , 0.0 , 0.0 , 0.0 , 0.0 , 

36.0 , 4130.25641026 , 4130.76923077 , 4127.17948718 , 4136.41025641 , 4132.82051282 , 4128.20512821 , 4125.64102564 , 4129.23076923 , 4131.28205128 , 4136.41025641 , 4188.20512821 , 4912.30769231 , 4136.92307692 , 4138.46153846 , 2044.0 , 2036.0 , 229.993 , 0.0 , 0.0 , 0.0 , 0.0 , 

37.0 , 4129.74358974 , 4129.74358974 , 4135.8974359 , 4132.30769231 , 4131.79487179 , 4124.1025641 , 4121.02564103 , 4123.07692308 , 4124.61538462 , 4133.33333333 , 4187.17948718 , 4911.28205128 , 4130.76923077 , 4135.8974359 , 2045.0 , 2036.0 , 229.997 , 0.0 , 0.0 , 0.0 , 0.0 , 

38.0 , 4128.71794872 , 4131.28205128 , 4127.69230769 , 4133.84615385 , 4130.25641026 , 4129.23076923 , 4124.61538462 , 4131.79487179 , 4130.76923077 , 4133.33333333 , 4189.74358974 , 4906.15384615 , 4137.43589744 , 4136.41025641 , 2045.0 , 2036.0 , 230.003 , 0.0 , 0.0 , 0.0 , 0.0 , 

39.0 , 4127.69230769 , 4126.66666667 , 4126.15384615 , 4129.74358974 , 4130.25641026 , 4128.20512821 , 4121.02564103 , 4126.15384615 , 4131.28205128 , 4135.38461538 , 4189.74358974 , 4909.23076923 , 4134.87179487 , 4139.48717949 , 2045.0 , 2036.0 , 230.011 , 0.0 , 0.0 , 0.0 , 0.0 , 

40.0 , 4128.71794872 , 4130.76923077 , 4130.25641026 , 4132.82051282 , 4129.23076923 , 4127.69230769 , 4126.66666667 , 4134.35897436 , 4135.8974359 , 4137.94871795 , 4190.76923077 , 4907.69230769 , 4137.43589744 , 4136.92307692 , 2048.0 , 2033.0 , 230.024 , 0.0 , 0.0 , 0.0 , 0.0 , 

41.0 , 4130.76923077 , 4126.15384615 , 4134.87179487 , 4128.20512821 , 4128.71794872 , 4124.1025641 , 4124.1025641 , 4135.38461538 , 4132.82051282 , 4134.87179487 , 4186.66666667 , 4909.23076923 , 4131.79487179 , 4136.41025641 , 2047.0 , 2031.0 , 230.029 , 0.0 , 0.0 , 0.0 , 0.0 , 

42.0 , 4128.20512821 , 4125.12820513 , 4130.25641026 , 4128.71794872 , 4132.30769231 , 4126.15384615 , 4126.15384615 , 4135.8974359 , 4133.33333333 , 4135.38461538 , 4187.69230769 , 4908.71794872 , 4129.74358974 , 4138.97435897 , 2046.0 , 2030.0 , 230.034 , 0.0 , 0.0 , 0.0 , 0.0 , 

43.0 , 4126.15384615 , 4123.07692308 , 4131.28205128 , 4126.15384615 , 4131.79487179 , 4123.07692308 , 4123.07692308 , 4129.74358974 , 4131.79487179 , 4136.92307692 , 4188.71794872 , 4910.76923077 , 4128.71794872 , 4138.97435897 , 2046.0 , 2030.0 , 230.042 , 0.0 , 0.0 , 0.0 , 0.0 , 

44.0 , 4131.79487179 , 4125.64102564 , 4133.84615385 , 4124.61538462 , 4129.74358974 , 4125.12820513 , 4121.02564103 , 4131.79487179 , 4128.71794872 , 4134.35897436 , 4187.69230769 , 4909.74358974 , 4129.74358974 , 4135.8974359 , 2047.0 , 2033.0 , 230.053 , 0.0 , 0.0 , 0.0 , 0.0 , 

45.0 , 4132.30769231 , 4126.15384615 , 4135.38461538 , 4125.12820513 , 4131.28205128 , 4131.28205128 , 4122.56410256 , 4133.33333333 , 4129.23076923 , 4133.33333333 , 4188.20512821 , 4907.69230769 , 4130.25641026 , 4136.41025641 , 2047.0 , 2035.0 , 230.06 , 0.0 , 0.0 , 0.0 , 0.0 , 

46.0 , 4130.25641026 , 4129.74358974 , 4134.35897436 , 4127.69230769 , 4133.33333333 , 4132.82051282 , 4127.69230769 , 4128.20512821 , 4130.25641026 , 4137.94871795 , 4190.76923077 , 4909.23076923 , 4129.23076923 , 4139.48717949 , 2046.0 , 2035.0 , 230.065 , 0.0 , 0.0 , 0.0 , 0.0 , 

47.0 , 4128.20512821 , 4131.28205128 , 4129.23076923 , 4130.76923077 , 4130.25641026 , 4130.25641026 , 4129.23076923 , 4131.79487179 , 4133.84615385 , 4140.0 , 4190.25641026 , 4910.76923077 , 4134.35897436 , 4138.97435897 , 2045.0 , 2039.0 , 230.075 , 0.0 , 0.0 , 0.0 , 0.0 , 

48.0 , 4130.25641026 , 4128.20512821 , 4129.23076923 , 4130.25641026 , 4130.76923077 , 4128.71794872 , 4125.12820513 , 4127.69230769 , 4127.17948718 , 4135.8974359 , 4188.20512821 , 4909.23076923 , 4130.76923077 , 4136.92307692 , 2047.0 , 2040.0 , 230.09 , 0.0 , 0.0 , 0.0 , 0.0 , 

49.0 , 4129.23076923 , 4129.74358974 , 4128.71794872 , 4133.84615385 , 4132.82051282 , 4128.71794872 , 4127.17948718 , 4132.82051282 , 4132.30769231 , 4135.38461538 , 4190.25641026 , 4907.17948718 , 4134.35897436 , 4135.38461538 , 2047.0 , 2040.0 , 230.091 , 0.0 , 0.0 , 0.0 , 0.0 , 

50.0 , 4131.28205128 , 4130.25641026 , 4130.25641026 , 4129.74358974 , 4132.30769231 , 4124.61538462 , 4124.61538462 , 4126.15384615 , 4127.69230769 , 4135.38461538 , 4187.69230769 , 4910.76923077 , 4129.74358974 , 4137.43589744 , 2047.0 , 2040.0 , 230.098 , 0.0 , 0.0 , 0.0 , 0.0 , 

51.0 , 4128.20512821 , 4132.30769231 , 4126.15384615 , 4130.76923077 , 4128.20512821 , 4128.71794872 , 4127.69230769 , 4133.84615385 , 4128.71794872 , 4135.38461538 , 4187.17948718 , 4909.23076923 , 4134.87179487 , 4137.94871795 , 2047.0 , 2038.0 , 230.106 , 0.0 , 0.0 , 0.0 , 0.0 , 

52.0 , 4128.20512821 , 4126.66666667 , 4129.74358974 , 4127.17948718 , 4128.71794872 , 4126.66666667 , 4120.51282051 , 4127.17948718 , 4124.61538462 , 4132.82051282 , 4183.07692308 , 4911.79487179 , 4131.28205128 , 4138.97435897 , 2045.0 , 2038.0 , 230.118 , 0.0 , 0.0 , 0.0 , 0.0 , 

53.0 , 4128.71794872 , 4126.66666667 , 4126.66666667 , 4132.82051282 , 4132.82051282 , 4126.66666667 , 4121.53846154 , 4133.33333333 , 4135.38461538 , 4134.87179487 , 4187.69230769 , 4908.20512821 , 4136.92307692 , 4136.92307692 , 2045.0 , 2038.0 , 230.123 , 0.0 , 0.0 , 0.0 , 0.0 , 

54.0 , 4131.79487179 , 4124.1025641 , 4130.76923077 , 4127.69230769 , 4131.28205128 , 4123.07692308 , 4117.43589744 , 4126.15384615 , 4129.74358974 , 4134.87179487 , 4190.25641026 , 4908.20512821 , 4127.69230769 , 4135.38461538 , 2044.0 , 2038.0 , 230.129 , 0.0 , 0.0 , 0.0 , 0.0 , 

55.0 , 4128.20512821 , 4128.20512821 , 4129.23076923 , 4127.17948718 , 4128.20512821 , 4127.17948718 , 4125.64102564 , 4137.43589744 , 4134.87179487 , 4137.43589744 , 4192.30769231 , 4907.69230769 , 4136.41025641 , 4134.35897436 , 2044.0 , 2037.0 , 230.138 , 0.0 , 0.0 , 0.0 , 0.0 , 

56.0 , 4125.64102564 , 4125.12820513 , 4132.82051282 , 4123.58974359 , 4130.76923077 , 4122.05128205 , 4123.58974359 , 4132.30769231 , 4135.38461538 , 4138.97435897 , 4187.69230769 , 4911.28205128 , 4133.33333333 , 4137.43589744 , 2042.0 , 2036.0 , 230.149 , 0.0 , 0.0 , 0.0 , 0.0 , 

57.0 , 4126.66666667 , 4127.17948718 , 4130.25641026 , 4129.23076923 , 4132.30769231 , 4127.17948718 , 4129.23076923 , 4135.38461538 , 4138.46153846 , 4141.02564103 , 4190.76923077 , 4906.66666667 , 4132.30769231 , 4137.94871795 , 2042.0 , 2034.0 , 230.156 , 0.0 , 0.0 , 0.0 , 0.0 , 

58.0 , 4130.25641026 , 4124.61538462 , 4134.87179487 , 4126.66666667 , 4129.74358974 , 4128.71794872 , 4127.17948718 , 4129.23076923 , 4130.76923077 , 4141.02564103 , 4188.20512821 , 4909.23076923 , 4127.69230769 , 4136.41025641 , 2042.0 , 2031.0 , 230.161 , 0.0 , 0.0 , 0.0 , 0.0 , 

59.0 , 4130.76923077 , 4129.23076923 , 4134.35897436 , 4130.76923077 , 4130.25641026 , 4130.76923077 , 4132.82051282 , 4134.35897436 , 4131.79487179 , 4140.51282051 , 4188.20512821 , 4910.25641026 , 4133.84615385 , 4134.87179487 , 2042.0 , 2029.0 , 230.168 , 0.0 , 0.0 , 0.0 , 0.0 , 

60.0 , 4130.76923077 , 4127.69230769 , 4133.84615385 , 4130.25641026 , 4131.28205128 , 4127.17948718 , 4128.20512821 , 4128.20512821 , 4127.17948718 , 4137.94871795 , 4189.23076923 , 4910.76923077 , 4128.20512821 , 4137.43589744 , 2042.0 , 2030.0 , 230.18 , 0.0 , 0.0 , 0.0 , 0.0 , 

61.0 , 4132.30769231 , 4129.74358974 , 4129.23076923 , 4130.76923077 , 4131.28205128 , 4128.20512821 , 4124.1025641 , 4124.61538462 , 4126.66666667 , 4136.41025641 , 4188.20512821 , 4910.76923077 , 4127.17948718 , 4140.0 , 2043.0 , 2029.0 , 230.186 , 0.0 , 0.0 , 0.0 , 0.0 , 

62.0 , 4131.28205128 , 4129.74358974 , 4129.74358974 , 4129.74358974 , 4129.74358974 , 4128.71794872 , 4123.07692308 , 4121.02564103 , 4128.20512821 , 4134.35897436 , 4183.07692308 , 4913.33333333 , 4130.25641026 , 4140.0 , 2041.0 , 2030.0 , 230.192 , 0.0 , 0.0 , 0.0 , 0.0 , 

63.0 , 4130.76923077 , 4129.23076923 , 4130.25641026 , 4132.30769231 , 4131.28205128 , 4129.23076923 , 4127.17948718 , 4123.07692308 , 4126.66666667 , 4134.87179487 , 4185.64102564 , 4910.76923077 , 4131.28205128 , 4137.43589744 , 2043.0 , 2032.0 , 230.2 , 0.0 , 0.0 , 0.0 , 0.0 , 

64.0 , 4130.25641026 , 4126.66666667 , 4129.23076923 , 4133.33333333 , 4130.76923077 , 4126.66666667 , 4122.56410256 , 4125.64102564 , 4128.20512821 , 4134.87179487 , 4189.23076923 , 4909.74358974 , 4132.82051282 , 4136.41025641 , 2044.0 , 2031.0 , 230.213 , 0.0 , 0.0 , 0.0 , 0.0 , 

65.0 , 4131.79487179 , 4129.23076923 , 4130.25641026 , 4133.33333333 , 4128.71794872 , 4122.56410256 , 4116.92307692 , 4122.05128205 , 4125.64102564 , 4133.84615385 , 4187.69230769 , 4910.76923077 , 4131.79487179 , 4138.97435897 , 2044.0 , 2035.0 , 230.218 , 0.0 , 0.0 , 0.0 , 0.0 , 

66.0 , 4129.74358974 , 4133.33333333 , 4129.74358974 , 4133.84615385 , 4128.71794872 , 4127.69230769 , 4126.66666667 , 4130.25641026 , 4128.71794872 , 4135.38461538 , 4190.25641026 , 4908.20512821 , 4135.8974359 , 4138.46153846 , 2044.0 , 2035.0 , 230.224 , 0.0 , 0.0 , 0.0 , 0.0 , 

67.0 , 4132.30769231 , 4128.20512821 , 4133.33333333 , 4129.23076923 , 4129.23076923 , 4128.20512821 , 4127.69230769 , 4129.23076923 , 4129.23076923 , 4137.43589744 , 4190.25641026 , 4908.71794872 , 4131.79487179 , 4138.46153846 , 2045.0 , 2034.0 , 230.232 , 0.0 , 0.0 , 0.0 , 0.0 , 

68.0 , 4130.25641026 , 4127.69230769 , 4130.25641026 , 4131.28205128 , 4126.66666667 , 4125.64102564 , 4124.61538462 , 4137.43589744 , 4137.43589744 , 4137.43589744 , 4188.71794872 , 4906.66666667 , 4135.8974359 , 4138.97435897 , 2045.0 , 2034.0 , 230.243 , 0.0 , 0.0 , 0.0 , 0.0 , 

69.0 , 4130.76923077 , 4127.17948718 , 4132.82051282 , 4126.66666667 , 4127.69230769 , 4122.56410256 , 4120.51282051 , 4131.28205128 , 4127.69230769 , 4134.35897436 , 4185.12820513 , 4907.69230769 , 4129.23076923 , 4138.46153846 , 2045.0 , 2036.0 , 230.25 , 0.0 , 0.0 , 0.0 , 0.0 , 

70.0 , 4129.74358974 , 4128.20512821 , 4130.25641026 , 4127.17948718 , 4129.74358974 , 4126.66666667 , 4127.69230769 , 4135.8974359 , 4130.76923077 , 4135.8974359 , 4190.25641026 , 4909.74358974 , 4128.71794872 , 4135.8974359 , 2044.0 , 2034.0 , 230.255 , 0.0 , 0.0 , 0.0 , 0.0 , 

71.0 , 4131.79487179 , 4124.61538462 , 4135.38461538 , 4124.1025641 , 4127.17948718 , 4123.58974359 , 4122.56410256 , 4125.12820513 , 4128.71794872 , 4138.97435897 , 4187.17948718 , 4913.84615385 , 4121.02564103 , 4138.97435897 , 2045.0 , 2034.0 , 230.263 , 0.0 , 0.0 , 0.0 , 0.0 , 

72.0 , 4129.23076923 , 4130.25641026 , 4132.82051282 , 4128.71794872 , 4129.23076923 , 4130.25641026 , 4130.76923077 , 4133.33333333 , 4136.41025641 , 4139.48717949 , 4186.15384615 , 4906.15384615 , 4130.76923077 , 4139.48717949 , 2046.0 , 2035.0 , 230.277 , 0.0 , 0.0 , 0.0 , 0.0 , 

73.0 , 4131.28205128 , 4126.66666667 , 4136.41025641 , 4126.66666667 , 4132.82051282 , 4128.71794872 , 4129.23076923 , 4125.12820513 , 4130.25641026 , 4135.8974359 , 4183.58974359 , 4905.12820513 , 4125.12820513 , 4136.41025641 , 2044.0 , 2034.0 , 230.281 , 0.0 , 0.0 , 0.0 , 0.0 , 

74.0 , 4132.30769231 , 4129.23076923 , 4133.84615385 , 4132.30769231 , 4132.30769231 , 4128.71794872 , 4128.71794872 , 4132.30769231 , 4132.82051282 , 4137.94871795 , 4186.66666667 , 4906.66666667 , 4128.20512821 , 4133.84615385 , 2044.0 , 2034.0 , 230.287 , 0.0 , 0.0 , 0.0 , 0.0 , 

75.0 , 4133.33333333 , 4128.71794872 , 4136.41025641 , 4128.71794872 , 4131.28205128 , 4126.66666667 , 4124.1025641 , 4127.69230769 , 4129.23076923 , 4137.43589744 , 4184.61538462 , 4909.74358974 , 4126.15384615 , 4137.94871795 , 2044.0 , 2034.0 , 230.295 , 0.0 , 0.0 , 0.0 , 0.0 , 

76.0 , 4133.33333333 , 4131.28205128 , 4131.28205128 , 4131.79487179 , 4130.25641026 , 4133.84615385 , 4130.25641026 , 4130.76923077 , 4132.30769231 , 4134.87179487 , 4188.71794872 , 4905.64102564 , 4132.30769231 , 4138.46153846 , 2043.0 , 2032.0 , 230.308 , 0.0 , 0.0 , 0.0 , 0.0 , 

77.0 , 4131.28205128 , 4127.17948718 , 4131.79487179 , 4131.79487179 , 4127.17948718 , 4130.25641026 , 4124.1025641 , 4124.61538462 , 4127.69230769 , 4135.38461538 , 4189.23076923 , 4909.74358974 , 4128.20512821 , 4138.46153846 , 2043.0 , 2032.0 , 230.313 , 0.0 , 0.0 , 0.0 , 0.0 , 

78.0 , 4130.25641026 , 4129.23076923 , 4130.76923077 , 4133.33333333 , 4129.74358974 , 4130.25641026 , 4123.58974359 , 4127.69230769 , 4129.23076923 , 4136.92307692 , 4189.74358974 , 4911.28205128 , 4132.30769231 , 4140.0 , 2043.0 , 2032.0 , 230.317 , 0.0 , 0.0 , 0.0 , 0.0 , 

79.0 , 4131.79487179 , 4126.15384615 , 4133.33333333 , 4128.20512821 , 4129.74358974 , 4127.69230769 , 4119.48717949 , 4123.07692308 , 4127.17948718 , 4131.79487179 , 4187.17948718 , 4910.25641026 , 4132.30769231 , 4140.0 , 2043.0 , 2033.0 , 230.326 , 0.0 , 0.0 , 0.0 , 0.0 , 

80.0 , 4132.30769231 , 4126.66666667 , 4128.71794872 , 4129.23076923 , 4128.20512821 , 4126.15384615 , 4120.0 , 4125.64102564 , 4125.64102564 , 4132.30769231 , 4188.71794872 , 4908.71794872 , 4136.92307692 , 4136.92307692 , 2042.0 , 2033.0 , 230.337 , 0.0 , 0.0 , 0.0 , 0.0 , 

81.0 , 4128.20512821 , 4128.20512821 , 4126.66666667 , 4128.20512821 , 4126.66666667 , 4123.58974359 , 4121.53846154 , 4131.28205128 , 4129.74358974 , 4138.46153846 , 4190.76923077 , 4910.76923077 , 4135.38461538 , 4137.43589744 , 2041.0 , 2034.0 , 230.342 , 0.0 , 0.0 , 0.0 , 0.0 , 

82.0 , 4129.23076923 , 4129.23076923 , 4131.79487179 , 4127.17948718 , 4127.17948718 , 4123.07692308 , 4124.1025641 , 4131.79487179 , 4132.30769231 , 4139.48717949 , 4191.28205128 , 4910.76923077 , 4128.71794872 , 4140.0 , 2043.0 , 2034.0 , 230.35 , 0.0 , 0.0 , 0.0 , 0.0 , 

83.0 , 4130.25641026 , 4126.15384615 , 4134.35897436 , 4128.20512821 , 4127.17948718 , 4125.12820513 , 4125.12820513 , 4133.33333333 , 4133.84615385 , 4137.43589744 , 4191.28205128 , 4908.71794872 , 4130.25641026 , 4137.94871795 , 2042.0 , 2033.0 , 230.358 , 0.0 , 0.0 , 0.0 , 0.0 , 

84.0 , 4131.28205128 , 4124.1025641 , 4133.84615385 , 4127.17948718 , 4129.23076923 , 4127.69230769 , 4123.58974359 , 4131.28205128 , 4131.79487179 , 4138.46153846 , 4191.28205128 , 4908.20512821 , 4129.23076923 , 4137.94871795 , 2042.0 , 2033.0 , 230.369 , 0.0 , 0.0 , 0.0 , 0.0 , 

85.0 , 4129.23076923 , 4126.66666667 , 4131.79487179 , 4131.28205128 , 4129.23076923 , 4130.25641026 , 4125.64102564 , 4135.8974359 , 4136.41025641 , 4142.05128205 , 4193.33333333 , 4909.23076923 , 4129.74358974 , 4139.48717949 , 2041.0 , 2032.0 , 230.377 , 0.0 , 0.0 , 0.0 , 0.0 , 

86.0 , 4131.79487179 , 4126.15384615 , 4135.8974359 , 4129.74358974 , 4128.71794872 , 4127.17948718 , 4125.12820513 , 4125.12820513 , 4128.20512821 , 4136.41025641 , 4191.79487179 , 4912.30769231 , 4125.64102564 , 4138.97435897 , 2042.0 , 2031.0 , 230.381 , 0.0 , 0.0 , 0.0 , 0.0 , 

87.0 , 4130.25641026 , 4130.76923077 , 4132.82051282 , 4132.82051282 , 4130.25641026 , 4131.79487179 , 4132.82051282 , 4129.23076923 , 4132.30769231 , 4131.79487179 , 4191.79487179 , 4908.71794872 , 4134.35897436 , 4136.41025641 , 2041.0 , 2030.0 , 230.39 , 0.0 , 0.0 , 0.0 , 0.0 , 

88.0 , 4129.23076923 , 4130.76923077 , 4133.84615385 , 4129.23076923 , 4132.30769231 , 4130.25641026 , 4127.69230769 , 4123.07692308 , 4129.23076923 , 4134.35897436 , 4186.66666667 , 4909.74358974 , 4128.71794872 , 4138.97435897 , 2043.0 , 2031.0 , 230.402 , 0.0 , 0.0 , 0.0 , 0.0 , 

89.0 , 4129.74358974 , 4132.30769231 , 4130.25641026 , 4132.82051282 , 4130.25641026 , 4130.25641026 , 4128.71794872 , 4130.76923077 , 4133.84615385 , 4138.97435897 , 4188.20512821 , 4906.66666667 , 4131.79487179 , 4136.92307692 , 2041.0 , 2031.0 , 230.409 , 0.0 , 0.0 , 0.0 , 0.0 , 

90.0 , 4134.35897436 , 4128.20512821 , 4133.84615385 , 4128.71794872 , 4127.69230769 , 4126.15384615 , 4124.1025641 , 4123.07692308 , 4127.17948718 , 4134.87179487 , 4184.1025641 , 4906.66666667 , 4127.17948718 , 4135.38461538 , 2040.0 , 2028.0 , 230.413 , 0.0 , 0.0 , 0.0 , 0.0 , 

91.0 , 4131.28205128 , 4131.28205128 , 4127.69230769 , 4134.35897436 , 4130.76923077 , 4131.28205128 , 4128.71794872 , 4129.23076923 , 4131.28205128 , 4137.43589744 , 4185.12820513 , 4908.20512821 , 4136.41025641 , 4136.41025641 , 2042.0 , 2032.0 , 230.422 , 0.0 , 0.0 , 0.0 , 0.0 , 

92.0 , 4129.74358974 , 4125.64102564 , 4129.23076923 , 4132.30769231 , 4132.30769231 , 4126.15384615 , 4122.05128205 , 4120.51282051 , 4126.15384615 , 4141.02564103 , 4185.64102564 , 4914.35897436 , 4134.87179487 , 4136.92307692 , 2042.0 , 2031.0 , 230.433 , 0.0 , 0.0 , 0.0 , 0.0 , 

93.0 , 4131.79487179 , 4128.20512821 , 4129.74358974 , 4132.82051282 , 4129.23076923 , 4128.20512821 , 4126.66666667 , 4131.28205128 , 4131.79487179 , 4140.51282051 , 4189.74358974 , 4909.74358974 , 4137.43589744 , 4135.38461538 , 2042.0 , 2031.0 , 230.44 , 0.0 , 0.0 , 0.0 , 0.0 , 

94.0 , 4133.33333333 , 4128.20512821 , 4132.30769231 , 4129.74358974 , 4127.69230769 , 4126.15384615 , 4122.05128205 , 4129.74358974 , 4128.71794872 , 4138.97435897 , 4187.17948718 , 4909.74358974 , 4130.25641026 , 4137.43589744 , 2042.0 , 2031.0 , 230.444 , 0.0 , 0.0 , 0.0 , 0.0 , 

95.0 , 4129.74358974 , 4132.30769231 , 4127.69230769 , 4134.87179487 , 4129.74358974 , 4126.66666667 , 4123.58974359 , 4132.82051282 , 4133.33333333 , 4141.53846154 , 4188.71794872 , 4906.66666667 , 4135.8974359 , 4136.92307692 , 2042.0 , 2032.0 , 230.452 , 0.0 , 0.0 , 0.0 , 0.0 , 

96.0 , 4129.74358974 , 4128.20512821 , 4132.82051282 , 4131.28205128 , 4128.20512821 , 4122.56410256 , 4122.05128205 , 4129.74358974 , 4134.35897436 , 4136.92307692 , 4189.23076923 , 4907.69230769 , 4134.35897436 , 4136.92307692 , 2042.0 , 2033.0 , 230.464 , 0.0 , 0.0 , 0.0 , 0.0 , 

97.0 , 4133.33333333 , 4127.17948718 , 4133.84615385 , 4129.23076923 , 4128.20512821 , 4128.20512821 , 4129.74358974 , 4133.33333333 , 4136.41025641 , 4135.8974359 , 4191.28205128 , 4910.25641026 , 4131.28205128 , 4137.43589744 , 2042.0 , 2033.0 , 230.47 , 0.0 , 0.0 , 0.0 , 0.0 , 

98.0 , 4129.23076923 , 4123.07692308 , 4133.33333333 , 4126.15384615 , 4131.28205128 , 4127.17948718 , 4127.17948718 , 4128.20512821 , 4132.30769231 , 4139.48717949 , 4189.23076923 , 4914.35897436 , 4127.69230769 , 4137.94871795 , 2042.0 , 2035.0 , 230.476 , 0.0 , 0.0 , 0.0 , 0.0 , 

99.0 , 4127.17948718 , 4124.1025641 , 4134.35897436 , 4128.71794872 , 4133.33333333 , 4125.64102564 , 4126.15384615 , 4130.25641026 , 4130.25641026 , 4138.97435897 , 4187.17948718 , 4910.76923077 , 4130.25641026 , 4138.46153846 , 2044.0 , 2035.0 , 230.484 , 0.0 , 0.0 , 0.0 , 0.0 , 

100.0 , 4129.23076923 , 4126.15384615 , 4135.38461538 , 4127.17948718 , 4127.69230769 , 4129.23076923 , 4126.66666667 , 4133.84615385 , 4133.33333333 , 4135.38461538 , 4185.64102564 , 4907.69230769 , 4127.69230769 , 4139.48717949 , 2042.0 , 2033.0 , 230.497 , 0.0 , 0.0 , 0.0 , 0.0 , 

101.0 , 4132.82051282 , 4130.25641026 , 4134.35897436 , 4126.66666667 , 4127.17948718 , 4131.28205128 , 4125.12820513 , 4125.64102564 , 4130.76923077 , 4138.46153846 , 4186.15384615 , 4908.71794872 , 4124.61538462 , 4138.97435897 , 2041.0 , 2032.0 , 230.501 , 0.0 , 0.0 , 0.0 , 0.0 , 

102.0 , 4128.71794872 , 4131.28205128 , 4131.79487179 , 4132.30769231 , 4131.28205128 , 4129.74358974 , 4125.12820513 , 4128.71794872 , 4131.79487179 , 4140.0 , 4188.20512821 , 4910.25641026 , 4132.30769231 , 4135.8974359 , 2041.0 , 2033.0 , 230.508 , 0.0 , 0.0 , 0.0 , 0.0 , 

103.0 , 4128.71794872 , 4128.20512821 , 4133.84615385 , 4134.35897436 , 4130.76923077 , 4128.20512821 , 4124.1025641 , 4127.69230769 , 4127.69230769 , 4134.35897436 , 4187.17948718 , 4908.20512821 , 4131.79487179 , 4136.92307692 , 2041.0 , 2033.0 , 230.515 , 0.0 , 0.0 , 0.0 , 0.0 , 

104.0 , 4133.33333333 , 4129.23076923 , 4130.25641026 , 4136.41025641 , 4128.20512821 , 4130.76923077 , 4128.71794872 , 4131.28205128 , 4132.82051282 , 4133.33333333 , 4187.17948718 , 4905.12820513 , 4135.8974359 , 4137.43589744 , 2041.0 , 2034.0 , 230.528 , 0.0 , 0.0 , 0.0 , 0.0 , 

105.0 , 4135.8974359 , 4128.20512821 , 4132.30769231 , 4133.33333333 , 4130.25641026 , 4126.15384615 , 4123.58974359 , 4120.0 , 4126.66666667 , 4136.41025641 , 4183.58974359 , 4910.76923077 , 4132.30769231 , 4136.92307692 , 2041.0 , 2034.0 , 230.533 , 0.0 , 0.0 , 0.0 , 0.0 , 

106.0 , 4128.71794872 , 4128.71794872 , 4131.28205128 , 4134.87179487 , 4128.71794872 , 4127.17948718 , 4124.1025641 , 4125.12820513 , 4128.71794872 , 4136.92307692 , 4188.71794872 , 4909.23076923 , 4137.94871795 , 4136.41025641 , 2041.0 , 2033.0 , 230.54 , 0.0 , 0.0 , 0.0 , 0.0 , 

107.0 , 4129.74358974 , 4123.07692308 , 4134.35897436 , 4128.71794872 , 4126.15384615 , 4122.56410256 , 4117.94871795 , 4118.46153846 , 4121.02564103 , 4135.38461538 , 4187.69230769 , 4909.23076923 , 4133.33333333 , 4140.51282051 , 2042.0 , 2035.0 , 230.547 , 0.0 , 0.0 , 0.0 , 0.0 , 

108.0 , 4132.30769231 , 4127.69230769 , 4128.20512821 , 4132.82051282 , 4127.69230769 , 4124.1025641 , 4122.05128205 , 4131.79487179 , 4129.74358974 , 4139.48717949 , 4188.71794872 , 4906.66666667 , 4138.46153846 , 4136.41025641 , 2042.0 , 2034.0 , 230.559 , 0.0 , 0.0 , 0.0 , 0.0 , 

109.0 , 4131.79487179 , 4127.69230769 , 4132.30769231 , 4127.69230769 , 4128.71794872 , 4124.61538462 , 4119.48717949 , 4128.71794872 , 4129.74358974 , 4138.97435897 , 4188.20512821 , 4908.20512821 , 4128.20512821 , 4134.87179487 , 2041.0 , 2034.0 , 230.565 , 0.0 , 0.0 , 0.0 , 0.0 , 

110.0 , 4128.71794872 , 4129.74358974 , 4130.25641026 , 4128.71794872 , 4128.71794872 , 4128.20512821 , 4127.17948718 , 4135.38461538 , 4134.87179487 , 4139.48717949 , 4191.28205128 , 4906.66666667 , 4134.35897436 , 4139.48717949 , 2044.0 , 2034.0 , 230.57 , 0.0 , 0.0 , 0.0 , 0.0 , 

111.0 , 4130.76923077 , 4124.61538462 , 4130.76923077 , 4127.69230769 , 4129.74358974 , 4121.53846154 , 4123.58974359 , 4128.71794872 , 4131.28205128 , 4139.48717949 , 4189.23076923 , 4912.30769231 , 4132.82051282 , 4140.51282051 , 2044.0 , 2034.0 , 230.578 , 0.0 , 0.0 , 0.0 , 0.0 , 

112.0 , 4128.71794872 , 4128.71794872 , 4128.71794872 , 4134.35897436 , 4131.28205128 , 4126.66666667 , 4127.69230769 , 4137.43589744 , 4136.92307692 , 4138.46153846 , 4192.82051282 , 4908.71794872 , 4132.82051282 , 4135.38461538 , 2044.0 , 2036.0 , 230.591 , 0.0 , 0.0 , 0.0 , 0.0 , 

113.0 , 4126.66666667 , 4127.69230769 , 4135.38461538 , 4131.79487179 , 4131.79487179 , 4127.69230769 , 4124.1025641 , 4130.25641026 , 4130.25641026 , 4134.87179487 , 4187.69230769 , 4906.15384615 , 4127.69230769 , 4137.43589744 , 2044.0 , 2035.0 , 230.595 , 0.0 , 0.0 , 0.0 , 0.0 , 

114.0 , 4128.20512821 , 4131.79487179 , 4132.82051282 , 4134.87179487 , 4130.76923077 , 4128.71794872 , 4128.71794872 , 4131.28205128 , 4128.71794872 , 4136.92307692 , 4184.1025641 , 4907.17948718 , 4133.33333333 , 4140.0 , 2045.0 , 2033.0 , 230.602 , 0.0 , 0.0 , 0.0 , 0.0 , 

115.0 , 4130.76923077 , 4130.25641026 , 4132.30769231 , 4131.79487179 , 4128.71794872 , 4126.15384615 , 4126.15384615 , 4125.64102564 , 4130.76923077 , 4136.92307692 , 4185.64102564 , 4911.79487179 , 4127.17948718 , 4140.0 , 2044.0 , 2031.0 , 230.61 , 0.0 , 0.0 , 0.0 , 0.0 , 

116.0 , 4133.84615385 , 4131.28205128 , 4131.28205128 , 4131.28205128 , 4130.25641026 , 4129.23076923 , 4125.64102564 , 4126.15384615 , 4131.28205128 , 4134.35897436 , 4190.76923077 , 4908.71794872 , 4127.17948718 , 4136.92307692 , 2042.0 , 2028.0 , 230.625 , 0.0 , 0.0 , 0.0 , 0.0 , 

117.0 , 4132.30769231 , 4129.74358974 , 4131.28205128 , 4131.79487179 , 4129.23076923 , 4126.15384615 , 4122.05128205 , 4125.64102564 , 4125.64102564 , 4134.87179487 , 4185.12820513 , 4908.20512821 , 4130.25641026 , 4135.8974359 , 2043.0 , 2029.0 , 230.628 , 0.0 , 0.0 , 0.0 , 0.0 , 

118.0 , 4130.25641026 , 4130.76923077 , 4130.76923077 , 4133.84615385 , 4130.25641026 , 4125.64102564 , 4126.15384615 , 4124.1025641 , 4123.07692308 , 4138.46153846 , 4184.1025641 , 4910.76923077 , 4128.71794872 , 4138.46153846 , 2043.0 , 2030.0 , 230.633 , 0.0 , 0.0 , 0.0 , 0.0 , 

119.0 , 4129.74358974 , 4126.15384615 , 4127.17948718 , 4131.79487179 , 4132.30769231 , 4126.15384615 , 4129.74358974 , 4124.1025641 , 4126.66666667 , 4136.41025641 , 4189.23076923 , 4912.82051282 , 4132.82051282 , 4137.43589744 , 2042.0 , 2034.0 , 230.642 , 0.0 , 0.0 , 0.0 , 0.0 , 

120.0 , 4132.82051282 , 4126.66666667 , 4125.64102564 , 4131.79487179 , 4130.76923077 , 4124.61538462 , 4126.15384615 , 4122.56410256 , 4122.56410256 , 4132.30769231 , 4188.71794872 , 4912.30769231 , 4136.92307692 , 4134.87179487 , 2041.0 , 2035.0 , 230.654 , 0.0 , 0.0 , 0.0 , 0.0 , 

121.0 , 4130.76923077 , 4131.79487179 , 4126.15384615 , 4134.35897436 , 4128.71794872 , 4128.20512821 , 4127.69230769 , 4129.23076923 , 4127.69230769 , 4131.79487179 , 4188.20512821 , 4910.76923077 , 4138.97435897 , 4135.38461538 , 2043.0 , 2037.0 , 230.659 , 0.0 , 0.0 , 0.0 , 0.0 , 

122.0 , 4130.76923077 , 4129.23076923 , 4131.28205128 , 4130.25641026 , 4130.25641026 , 4127.69230769 , 4127.17948718 , 4125.12820513 , 4128.20512821 , 4133.84615385 , 4188.20512821 , 4913.84615385 , 4130.25641026 , 4141.53846154 , 2043.0 , 2038.0 , 230.664 , 0.0 , 0.0 , 0.0 , 0.0 , 

123.0 , 4131.28205128 , 4127.69230769 , 4129.74358974 , 4133.33333333 , 4126.66666667 , 4126.66666667 , 4128.71794872 , 4136.41025641 , 4132.30769231 , 4138.46153846 , 4190.25641026 , 4910.76923077 , 4135.38461538 , 4140.51282051 , 2043.0 , 2038.0 , 230.673 , 0.0 , 0.0 , 0.0 , 0.0 , 

124.0 , 4132.82051282 , 4124.1025641 , 4134.35897436 , 4129.74358974 , 4124.1025641 , 4124.1025641 , 4122.56410256 , 4132.82051282 , 4124.1025641 , 4137.43589744 , 4186.15384615 , 4910.76923077 , 4130.25641026 , 4136.92307692 , 2043.0 , 2038.0 , 230.685 , 0.0 , 0.0 , 0.0 , 0.0 , 

125.0 , 4128.20512821 , 4124.61538462 , 4132.30769231 , 4127.69230769 , 4127.17948718 , 4129.23076923 , 4125.64102564 , 4136.92307692 , 4130.76923077 , 4135.8974359 , 4189.23076923 , 4909.74358974 , 4131.79487179 , 4137.43589744 , 2042.0 , 2037.0 , 230.691 , 0.0 , 0.0 , 0.0 , 0.0 , 

126.0 , 4128.20512821 , 4122.56410256 , 4135.38461538 , 4123.07692308 , 4130.25641026 , 4125.12820513 , 4121.53846154 , 4129.74358974 , 4131.28205128 , 4136.92307692 , 4189.23076923 , 4911.79487179 , 4125.64102564 , 4140.51282051 , 2042.0 , 2037.0 , 230.696 , 0.0 , 0.0 , 0.0 , 0.0 , 

127.0 , 4128.20512821 , 4129.23076923 , 4131.28205128 , 4132.30769231 , 4130.25641026 , 4128.71794872 , 4130.76923077 , 4140.0 , 4137.94871795 , 4140.51282051 , 4189.23076923 , 4907.17948718 , 4131.28205128 , 4136.92307692 , 2041.0 , 2035.0 , 230.703 , 0.0 , 0.0 , 0.0 , 0.0 , 

128.0 , 4129.23076923 , 4128.20512821 , 4135.38461538 , 4129.23076923 , 4129.23076923 , 4130.25641026 , 4128.71794872 , 4127.69230769 , 4127.69230769 , 4138.46153846 , 4183.58974359 , 4908.71794872 , 4124.61538462 , 4134.87179487 , 2040.0 , 2033.0 , 230.715 , 0.0 , 0.0 , 0.0 , 0.0 , 

0.0 , 4129.23076923 , 4131.28205128 , 4132.82051282 , 4133.84615385 , 4128.71794872 , 4134.35897436 , 4128.71794872 , 4132.82051282 , 4131.28205128 , 4138.97435897 , 4187.69230769 , 4909.74358974 , 4129.23076923 , 4137.94871795 , 2040.0 , 2033.0 , 230.722 , 0.0 , 0.0 , 0.0 , 0.0 , 

1.0 , 4130.76923077 , 4127.69230769 , 4135.8974359 , 4131.79487179 , 4129.23076923 , 4129.23076923 , 4122.05128205 , 4130.25641026 , 4131.28205128 , 4136.92307692 , 4187.17948718 , 4911.28205128 , 4127.17948718 , 4140.0 , 2039.0 , 2031.0 , 230.727 , 0.0 , 0.0 , 0.0 , 0.0 , 

2.0 , 4129.23076923 , 4132.30769231 , 4131.79487179 , 4133.84615385 , 4131.28205128 , 4133.33333333 , 4130.76923077 , 4134.35897436 , 4131.28205128 , 4136.41025641 , 4188.20512821 , 4906.66666667 , 4134.87179487 , 4137.43589744 , 2040.0 , 2029.0 , 230.735 , 0.0 , 0.0 , 0.0 , 0.0 , 

3.0 , 4129.23076923 , 4129.74358974 , 4133.84615385 , 4132.82051282 , 4131.28205128 , 4131.28205128 , 4128.20512821 , 4124.61538462 , 4123.58974359 , 4136.92307692 , 4186.66666667 , 4911.28205128 , 4132.82051282 , 4137.94871795 , 2040.0 , 2030.0 , 230.747 , 0.0 , 0.0 , 0.0 , 0.0 , 

4.0 , 4132.30769231 , 4128.20512821 , 4132.30769231 , 4135.8974359 , 4133.33333333 , 4130.25641026 , 4128.71794872 , 4125.64102564 , 4127.17948718 , 4139.48717949 , 4189.23076923 , 4912.82051282 , 4133.33333333 , 4137.43589744 , 2040.0 , 2029.0 , 230.752 , 0.0 , 0.0 , 0.0 , 0.0 , 

5.0 , 4132.30769231 , 4126.15384615 , 4131.28205128 , 4130.76923077 , 4132.30769231 , 4127.69230769 , 4126.15384615 , 4122.05128205 , 4128.20512821 , 4140.0 , 4188.20512821 , 4912.82051282 , 4128.71794872 , 4137.94871795 , 2040.0 , 2030.0 , 230.759 , 0.0 , 0.0 , 0.0 , 0.0 , 

6.0 , 4131.28205128 , 4129.74358974 , 4129.23076923 , 4131.79487179 , 4131.28205128 , 4127.69230769 , 4122.05128205 , 4124.1025641 , 4128.20512821 , 4138.97435897 , 4187.17948718 , 4910.76923077 , 4129.74358974 , 4138.97435897 , 2042.0 , 2032.0 , 230.766 , 0.0 , 0.0 , 0.0 , 0.0 , 

7.0 , 4130.76923077 , 4127.69230769 , 4131.28205128 , 4131.79487179 , 4132.30769231 , 4126.66666667 , 4119.48717949 , 4130.76923077 , 4129.74358974 , 4137.94871795 , 4186.15384615 , 4909.74358974 , 4130.25641026 , 4138.97435897 , 2042.0 , 2032.0 , 230.778 , 0.0 , 0.0 , 0.0 , 0.0 , 

8.0 , 4129.74358974 , 4126.66666667 , 4132.30769231 , 4128.71794872 , 4131.79487179 , 4127.17948718 , 4124.1025641 , 4131.79487179 , 4126.66666667 , 4139.48717949 , 4189.23076923 , 4906.66666667 , 4131.28205128 , 4136.92307692 , 2043.0 , 2033.0 , 230.783 , 0.0 , 0.0 , 0.0 , 0.0 , 

9.0 , 4126.66666667 , 4126.66666667 , 4129.23076923 , 4129.74358974 , 4128.71794872 , 4127.17948718 , 4125.12820513 , 4132.82051282 , 4131.28205128 , 4142.05128205 , 4191.28205128 , 4908.20512821 , 4134.35897436 , 4136.92307692 , 2043.0 , 2035.0 , 230.791 , 0.0 , 0.0 , 0.0 , 0.0 , 

10.0 , 4130.25641026 , 4125.12820513 , 4131.28205128 , 4128.71794872 , 4129.74358974 , 4125.64102564 , 4122.05128205 , 4129.23076923 , 4133.33333333 , 4141.53846154 , 4190.25641026 , 4909.23076923 , 4128.71794872 , 4139.48717949 , 2044.0 , 2036.0 , 230.798 , 0.0 , 0.0 , 0.0 , 0.0 , 

11.0 , 4130.25641026 , 4126.66666667 , 4131.28205128 , 4128.20512821 , 4128.71794872 , 4130.25641026 , 4127.69230769 , 4134.35897436 , 4135.38461538 , 4142.56410256 , 4190.25641026 , 4904.61538462 , 4134.35897436 , 4138.46153846 , 2044.0 , 2036.0 , 230.81 , 0.0 , 0.0 , 0.0 , 0.0 , 

12.0 , 4132.30769231 , 4126.15384615 , 4132.30769231 , 4128.20512821 , 4128.20512821 , 4129.74358974 , 4125.64102564 , 4126.66666667 , 4124.61538462 , 4138.97435897 , 4186.15384615 , 4908.20512821 , 4133.33333333 , 4135.8974359 , 2044.0 , 2038.0 , 230.816 , 0.0 , 0.0 , 0.0 , 0.0 , 

13.0 , 4131.28205128 , 4129.74358974 , 4129.23076923 , 4135.38461538 , 4130.25641026 , 4130.76923077 , 4128.71794872 , 4131.28205128 , 4130.76923077 , 4136.41025641 , 4187.69230769 , 4909.74358974 , 4132.30769231 , 4133.84615385 , 2042.0 , 2037.0 , 230.823 , 0.0 , 0.0 , 0.0 , 0.0 , 

14.0 , 4131.28205128 , 4128.20512821 , 4133.84615385 , 4131.28205128 , 4132.30769231 , 4127.17948718 , 4125.64102564 , 4121.02564103 , 4128.20512821 , 4134.87179487 , 4187.17948718 , 4913.33333333 , 4123.58974359 , 4138.46153846 , 2044.0 , 2037.0 , 230.83 , 0.0 , 0.0 , 0.0 , 0.0 , 

15.0 , 4128.20512821 , 4128.71794872 , 4131.28205128 , 4133.33333333 , 4129.74358974 , 4130.76923077 , 4127.69230769 , 4128.71794872 , 4130.76923077 , 4137.43589744 , 4187.69230769 , 4914.35897436 , 4134.87179487 , 4140.0 , 2045.0 , 2036.0 , 230.844 , 0.0 , 0.0 , 0.0 , 0.0 , 

16.0 , 4130.25641026 , 4127.17948718 , 4133.33333333 , 4130.25641026 , 4129.23076923 , 4128.20512821 , 4123.07692308 , 4123.58974359 , 4121.02564103 , 4137.43589744 , 4184.1025641 , 4916.92307692 , 4130.76923077 , 4137.94871795 , 2043.0 , 2036.0 , 230.848 , 0.0 , 0.0 , 0.0 , 0.0 , 

17.0 , 4128.20512821 , 4131.79487179 , 4126.66666667 , 4133.84615385 , 4130.25641026 , 4131.28205128 , 4130.25641026 , 4128.71794872 , 4126.15384615 , 4137.43589744 , 4188.71794872 , 4909.23076923 , 4133.84615385 , 4134.87179487 , 2043.0 , 2035.0 , 230.854 , 0.0 , 0.0 , 0.0 , 0.0 , 

18.0 , 4128.20512821 , 4124.61538462 , 4129.23076923 , 4129.74358974 , 4129.74358974 , 4126.66666667 , 4121.02564103 , 4121.53846154 , 4125.64102564 , 4135.38461538 , 4187.17948718 , 4908.20512821 , 4131.28205128 , 4137.94871795 , 2045.0 , 2035.0 , 230.862 , 0.0 , 0.0 , 0.0 , 0.0 , 

19.0 , 4129.23076923 , 4126.66666667 , 4128.71794872 , 4133.84615385 , 4129.74358974 , 4129.23076923 , 4122.56410256 , 4134.87179487 , 4130.76923077 , 4137.43589744 , 4190.76923077 , 4906.15384615 , 4139.48717949 , 4140.0 , 2046.0 , 2035.0 , 230.873 , 0.0 , 0.0 , 0.0 , 0.0 , 

20.0 , 4130.25641026 , 4126.66666667 , 4131.79487179 , 4129.74358974 , 4129.74358974 , 4126.66666667 , 4121.02564103 , 4129.23076923 , 4124.61538462 , 4139.48717949 , 4190.76923077 , 4909.23076923 , 4131.79487179 , 4137.94871795 , 2044.0 , 2035.0 , 230.88 , 0.0 , 0.0 , 0.0 , 0.0 , 

21.0 , 4128.71794872 , 4126.66666667 , 4126.66666667 , 4132.82051282 , 4129.74358974 , 4127.69230769 , 4125.12820513 , 4131.28205128 , 4129.23076923 , 4140.0 , 4191.79487179 , 4908.20512821 , 4132.30769231 , 4134.87179487 , 2044.0 , 2035.0 , 230.886 , 0.0 , 0.0 , 0.0 , 0.0 , 

22.0 , 4129.23076923 , 4122.05128205 , 4130.25641026 , 4130.76923077 , 4128.71794872 , 4124.61538462 , 4122.05128205 , 4132.30769231 , 4132.30769231 , 4140.0 , 4189.23076923 , 4908.20512821 , 4128.71794872 , 4138.46153846 , 2044.0 , 2035.0 , 230.893 , 0.0 , 0.0 , 0.0 , 0.0 , 

23.0 , 4132.82051282 , 4126.66666667 , 4134.35897436 , 4128.71794872 , 4130.76923077 , 4128.71794872 , 4125.64102564 , 4135.38461538 , 4134.87179487 , 4144.61538462 , 4189.74358974 , 4909.23076923 , 4127.69230769 , 4140.51282051 , 2043.0 , 2035.0 , 230.904 , 0.0 , 0.0 , 0.0 , 0.0 , 

24.0 , 4132.30769231 , 4125.12820513 , 4135.8974359 , 4122.56410256 , 4128.71794872 , 4127.17948718 , 4123.07692308 , 4124.61538462 , 4130.25641026 , 4140.0 , 4186.15384615 , 4912.30769231 , 4125.64102564 , 4136.41025641 , 2042.0 , 2033.0 , 230.91 , 0.0 , 0.0 , 0.0 , 0.0 , 

25.0 , 4130.76923077 , 4127.17948718 , 4132.82051282 , 4128.71794872 , 4127.69230769 , 4127.69230769 , 4126.15384615 , 4125.64102564 , 4127.17948718 , 4135.8974359 , 4185.64102564 , 4909.23076923 , 4127.17948718 , 4133.33333333 , 2042.0 , 2033.0 , 230.916 , 0.0 , 0.0 , 0.0 , 0.0 , 

26.0 , 4128.71794872 , 4129.23076923 , 4133.33333333 , 4131.79487179 , 4129.23076923 , 4130.76923077 , 4127.69230769 , 4132.30769231 , 4130.76923077 , 4140.51282051 , 4187.69230769 , 4908.71794872 , 4127.17948718 , 4136.41025641 , 2043.0 , 2035.0 , 230.926 , 0.0 , 0.0 , 0.0 , 0.0 , 

27.0 , 4130.76923077 , 4129.74358974 , 4135.8974359 , 4129.23076923 , 4132.82051282 , 4131.79487179 , 4125.64102564 , 4127.17948718 , 4131.79487179 , 4144.61538462 , 4186.66666667 , 4910.25641026 , 4125.64102564 , 4141.02564103 , 2041.0 , 2034.0 , 230.942 , 0.0 , 0.0 , 0.0 , 0.0 , 

28.0 , 4130.25641026 , 4131.28205128 , 4133.33333333 , 4133.33333333 , 4131.79487179 , 4129.23076923 , 4126.66666667 , 4130.25641026 , 4136.41025641 , 4141.53846154 , 4184.61538462 , 4910.25641026 , 4130.76923077 , 4138.97435897 , 2042.0 , 2034.0 , 230.943 , 0.0 , 0.0 , 0.0 , 0.0 , 

29.0 , 4131.28205128 , 4131.28205128 , 4131.79487179 , 4134.87179487 , 4131.28205128 , 4128.20512821 , 4126.15384615 , 4128.71794872 , 4130.76923077 , 4140.0 , 4186.66666667 , 4908.20512821 , 4128.20512821 , 4134.87179487 , 2043.0 , 2035.0 , 230.949 , 0.0 , 0.0 , 0.0 , 0.0 , 

30.0 , 4129.23076923 , 4131.28205128 , 4128.20512821 , 4135.8974359 , 4131.79487179 , 4132.82051282 , 4128.20512821 , 4132.30769231 , 4132.30769231 , 4140.51282051 , 4192.82051282 , 4904.1025641 , 4132.82051282 , 4134.87179487 , 2044.0 , 2034.0 , 230.957 , 0.0 , 0.0 , 0.0 , 0.0 , 

31.0 , 4128.71794872 , 4128.20512821 , 4132.82051282 , 4131.28205128 , 4130.76923077 , 4127.17948718 , 4121.53846154 , 4123.07692308 , 4126.15384615 , 4135.38461538 , 4188.71794872 , 4908.71794872 , 4130.76923077 , 4138.46153846 , 2043.0 , 2037.0 , 230.969 , 0.0 , 0.0 , 0.0 , 0.0 , 

32.0 , 4126.66666667 , 4128.20512821 , 4130.25641026 , 4133.33333333 , 4129.23076923 , 4126.66666667 , 4124.1025641 , 4131.28205128 , 4129.23076923 , 4133.84615385 , 4187.69230769 , 4911.28205128 , 4133.84615385 , 4137.94871795 , 2043.0 , 2035.0 , 230.974 , 0.0 , 0.0 , 0.0 , 0.0 , 

33.0 , 4130.76923077 , 4124.1025641 , 4131.28205128 , 4127.69230769 , 4129.23076923 , 4125.12820513 , 4121.53846154 , 4126.15384615 , 4121.02564103 , 4135.38461538 , 4187.17948718 , 4910.76923077 , 4129.74358974 , 4137.43589744 , 2043.0 , 2033.0 , 230.98 , 0.0 , 0.0 , 0.0 , 0.0 , 

34.0 , 4131.28205128 , 4127.17948718 , 4128.20512821 , 4130.25641026 , 4130.76923077 , 4128.20512821 , 4127.17948718 , 4137.94871795 , 4131.28205128 , 4139.48717949 , 4190.25641026 , 4906.66666667 , 4137.94871795 , 4137.43589744 , 2043.0 , 2033.0 , 230.987 , 0.0 , 0.0 , 0.0 , 0.0 , 

35.0 , 4130.76923077 , 4123.07692308 , 4132.82051282 , 4127.17948718 , 4130.76923077 , 4121.53846154 , 4121.53846154 , 4131.28205128 , 4132.30769231 , 4139.48717949 , 4188.71794872 , 4911.28205128 , 4127.69230769 , 4140.0 , 2042.0 , 2032.0 , 230.999 , 0.0 , 0.0 , 0.0 , 0.0 , 

36.0 , 4127.69230769 , 4125.12820513 , 4128.71794872 , 4132.30769231 , 4130.25641026 , 4124.1025641 , 4126.15384615 , 4133.84615385 , 4134.87179487 , 4139.48717949 , 4191.28205128 , 4906.66666667 , 4131.28205128 , 4136.92307692 , 2043.0 , 2032.0 , 231.005 , 0.0 , 0.0 , 0.0 , 0.0 , 

37.0 , 4128.71794872 , 4124.61538462 , 4132.30769231 , 4129.74358974 , 4129.74358974 , 4125.64102564 , 4123.58974359 , 4127.69230769 , 4128.20512821 , 4136.41025641 , 4186.15384615 , 4906.66666667 , 4129.74358974 , 4136.92307692 , 2042.0 , 2032.0 , 231.011 , 0.0 , 0.0 , 0.0 , 0.0 , 

38.0 , 4130.25641026 , 4129.74358974 , 4131.79487179 , 4132.30769231 , 4131.79487179 , 4130.76923077 , 4130.76923077 , 4137.43589744 , 4136.41025641 , 4138.46153846 , 4187.69230769 , 4907.17948718 , 4131.28205128 , 4138.97435897 , 2043.0 , 2032.0 , 231.02 , 0.0 , 0.0 , 0.0 , 0.0 , 

39.0 , 4131.28205128 , 4127.69230769 , 4133.33333333 , 4128.20512821 , 4133.33333333 , 4126.66666667 , 4127.69230769 , 4127.69230769 , 4133.84615385 , 4140.0 , 4187.17948718 , 4909.23076923 , 4125.64102564 , 4138.97435897 , 2043.0 , 2032.0 , 231.032 , 0.0 , 0.0 , 0.0 , 0.0 , 

40.0 , 4128.71794872 , 4132.30769231 , 4129.74358974 , 4132.30769231 , 4132.30769231 , 4130.25641026 , 4128.71794872 , 4127.17948718 , 4132.82051282 , 4141.02564103 , 4188.20512821 , 4906.66666667 , 4131.79487179 , 4136.41025641 , 2043.0 , 2031.0 , 231.04 , 0.0 , 0.0 , 0.0 , 0.0 , 

41.0 , 4127.17948718 , 4129.23076923 , 4132.30769231 , 4132.82051282 , 4129.23076923 , 4131.28205128 , 4124.1025641 , 4126.15384615 , 4130.25641026 , 4137.94871795 , 4185.64102564 , 4909.74358974 , 4127.17948718 , 4137.94871795 , 2043.0 , 2031.0 , 231.044 , 0.0 , 0.0 , 0.0 , 0.0 , 

42.0 , 4130.25641026 , 4128.71794872 , 4132.30769231 , 4134.35897436 , 4128.71794872 , 4129.23076923 , 4127.17948718 , 4126.15384615 , 4130.25641026 , 4136.92307692 , 4186.15384615 , 4908.71794872 , 4127.17948718 , 4138.46153846 , 2043.0 , 2032.0 , 231.051 , 0.0 , 0.0 , 0.0 , 0.0 , 

43.0 , 4131.28205128 , 4126.66666667 , 4133.84615385 , 4131.79487179 , 4127.69230769 , 4124.1025641 , 4125.12820513 , 4121.53846154 , 4129.74358974 , 4136.92307692 , 4184.61538462 , 4909.74358974 , 4131.28205128 , 4137.43589744 , 2042.0 , 2032.0 , 231.061 , 0.0 , 0.0 , 0.0 , 0.0 , 

44.0 , 4132.30769231 , 4127.17948718 , 4132.30769231 , 4132.30769231 , 4129.74358974 , 4126.66666667 , 4123.58974359 , 4121.53846154 , 4125.12820513 , 4134.87179487 , 4185.12820513 , 4910.76923077 , 4133.84615385 , 4137.43589744 , 2043.0 , 2032.0 , 231.071 , 0.0 , 0.0 , 0.0 , 0.0 , 

45.0 , 4131.28205128 , 4127.17948718 , 4127.17948718 , 4132.30769231 , 4128.71794872 , 4128.71794872 , 4124.61538462 , 4124.1025641 , 4125.12820513 , 4133.84615385 , 4188.71794872 , 4909.23076923 , 4135.38461538 , 4137.94871795 , 2041.0 , 2035.0 , 231.075 , 0.0 , 0.0 , 0.0 , 0.0 , 

46.0 , 4131.28205128 , 4126.66666667 , 4127.69230769 , 4131.28205128 , 4128.20512821 , 4123.07692308 , 4122.56410256 , 4122.56410256 , 4125.64102564 , 4137.43589744 , 4188.71794872 , 4908.20512821 , 4135.38461538 , 4138.97435897 , 2041.0 , 2034.0 , 231.083 , 0.0 , 0.0 , 0.0 , 0.0 , 

47.0 , 4129.74358974 , 4126.66666667 , 4128.20512821 , 4133.33333333 , 4128.71794872 , 4123.58974359 , 4122.56410256 , 4132.82051282 , 4133.33333333 , 4140.51282051 , 4187.17948718 , 4908.20512821 , 4136.92307692 , 4138.97435897 , 2044.0 , 2034.0 , 231.094 , 0.0 , 0.0 , 0.0 , 0.0 , 

48.0 , 4129.23076923 , 4126.15384615 , 4129.23076923 , 4130.25641026 , 4132.30769231 , 4125.12820513 , 4121.02564103 , 4130.76923077 , 4129.23076923 , 4136.41025641 , 4187.69230769 , 4908.71794872 , 4131.28205128 , 4138.97435897 , 2043.0 , 2035.0 , 231.101 , 0.0 , 0.0 , 0.0 , 0.0 , 

49.0 , 4125.64102564 , 4128.20512821 , 4127.17948718 , 4132.30769231 , 4130.25641026 , 4126.66666667 , 4125.12820513 , 4134.87179487 , 4133.33333333 , 4135.8974359 , 4192.82051282 , 4905.64102564 , 4137.43589744 , 4137.94871795 , 2044.0 , 2036.0 , 231.106 , 0.0 , 0.0 , 0.0 , 0.0 , 

50.0 , 4129.74358974 , 4123.58974359 , 4134.35897436 , 4128.20512821 , 4128.20512821 , 4123.58974359 , 4122.56410256 , 4128.20512821 , 4133.33333333 , 4137.94871795 , 4188.71794872 , 4908.71794872 , 4129.23076923 , 4136.92307692 , 2043.0 , 2035.0 , 231.114 , 0.0 , 0.0 , 0.0 , 0.0 , 

51.0 , 4128.71794872 , 4124.61538462 , 4133.84615385 , 4126.66666667 , 4130.76923077 , 4128.20512821 , 4127.69230769 , 4137.94871795 , 4142.56410256 , 4139.48717949 , 4186.15384615 , 4908.71794872 , 4129.23076923 , 4133.84615385 , 2042.0 , 2035.0 , 231.129 , 0.0 , 0.0 , 0.0 , 0.0 , 

52.0 , 4128.20512821 , 4125.64102564 , 4135.38461538 , 4121.53846154 , 4131.28205128 , 4124.61538462 , 4123.07692308 , 4128.20512821 , 4133.84615385 , 4137.43589744 , 4186.15384615 , 4911.28205128 , 4124.61538462 , 4136.41025641 , 2041.0 , 2036.0 , 231.133 , 0.0 , 0.0 , 0.0 , 0.0 , 

53.0 , 4128.71794872 , 4132.30769231 , 4130.25641026 , 4130.25641026 , 4130.25641026 , 4127.17948718 , 4128.71794872 , 4132.30769231 , 4135.8974359 , 4140.0 , 4191.28205128 , 4908.20512821 , 4131.79487179 , 4136.92307692 , 2043.0 , 2035.0 , 231.137 , 0.0 , 0.0 , 0.0 , 0.0 , 

54.0 , 4129.74358974 , 4127.17948718 , 4134.35897436 , 4128.71794872 , 4131.28205128 , 4125.12820513 , 4126.15384615 , 4126.15384615 , 4128.71794872 , 4138.46153846 , 4186.15384615 , 4909.23076923 , 4123.58974359 , 4134.87179487 , 2042.0 , 2034.0 , 231.146 , 0.0 , 0.0 , 0.0 , 0.0 , 

55.0 , 4128.20512821 , 4129.74358974 , 4129.74358974 , 4131.79487179 , 4130.76923077 , 4128.71794872 , 4130.76923077 , 4135.38461538 , 4132.30769231 , 4135.8974359 , 4186.15384615 , 4906.15384615 , 4129.23076923 , 4134.87179487 , 2042.0 , 2035.0 , 231.159 , 0.0 , 0.0 , 0.0 , 0.0 , 

56.0 , 4131.28205128 , 4130.76923077 , 4131.28205128 , 4130.76923077 , 4128.71794872 , 4127.17948718 , 4123.58974359 , 4128.71794872 , 4127.69230769 , 4136.92307692 , 4184.1025641 , 4909.74358974 , 4128.71794872 , 4140.0 , 2042.0 , 2034.0 , 231.164 , 0.0 , 0.0 , 0.0 , 0.0 , 

57.0 , 4131.28205128 , 4133.84615385 , 4127.17948718 , 4133.84615385 , 4130.25641026 , 4130.76923077 , 4127.17948718 , 4130.76923077 , 4131.79487179 , 4142.05128205 , 4188.20512821 , 4909.23076923 , 4134.35897436 , 4140.0 , 2043.0 , 2034.0 , 231.168 , 0.0 , 0.0 , 0.0 , 0.0 , 

58.0 , 4128.71794872 , 4126.66666667 , 4128.20512821 , 4130.25641026 , 4130.25641026 , 4126.15384615 , 4123.07692308 , 4123.58974359 , 4125.64102564 , 4137.43589744 , 4188.71794872 , 4910.76923077 , 4129.74358974 , 4137.43589744 , 2043.0 , 2035.0 , 231.226 , 0.0 , 0.0 , 0.0 , 0.0 , 

59.0 , 4128.71794872 , 4127.69230769 , 4127.69230769 , 4135.38461538 , 4129.74358974 , 4126.66666667 , 4123.58974359 , 4128.71794872 , 4125.12820513 , 4134.35897436 , 4188.20512821 , 4907.69230769 , 4132.30769231 , 4136.92307692 , 2045.0 , 2036.0 , 231.237 , 0.0 , 0.0 , 0.0 , 0.0 , 

60.0 , 4129.74358974 , 4127.17948718 , 4131.28205128 , 4132.30769231 , 4129.23076923 , 4125.64102564 , 4120.0 , 4128.71794872 , 4128.71794872 , 4136.41025641 , 4187.17948718 , 4908.20512821 , 4131.79487179 , 4139.48717949 , 2045.0 , 2035.0 , 231.237 , 0.0 , 0.0 , 0.0 , 0.0 , 

61.0 , 4130.76923077 , 4128.20512821 , 4130.25641026 , 4131.79487179 , 4129.74358974 , 4126.66666667 , 4121.53846154 , 4128.71794872 , 4133.84615385 , 4138.97435897 , 4189.23076923 , 4908.71794872 , 4130.25641026 , 4140.0 , 2046.0 , 2031.0 , 231.237 , 0.0 , 0.0 , 0.0 , 0.0 , 

62.0 , 4129.23076923 , 4125.12820513 , 4131.28205128 , 4133.84615385 , 4129.74358974 , 4125.12820513 , 4121.02564103 , 4129.74358974 , 4134.87179487 , 4137.43589744 , 4188.20512821 , 4910.25641026 , 4128.20512821 , 4136.41025641 , 2045.0 , 2031.0 , 231.237 , 0.0 , 0.0 , 0.0 , 0.0 , 

63.0 , 4129.74358974 , 4125.64102564 , 4133.84615385 , 4132.82051282 , 4132.30769231 , 4124.61538462 , 4122.56410256 , 4130.25641026 , 4131.79487179 , 4138.46153846 , 4187.69230769 , 4910.25641026 , 4128.71794872 , 4134.87179487 , 2045.0 , 2030.0 , 231.237 , 0.0 , 0.0 , 0.0 , 0.0 , 

64.0 , 4131.28205128 , 4124.61538462 , 4131.28205128 , 4127.17948718 , 4130.25641026 , 4125.64102564 , 4125.64102564 , 4133.33333333 , 4131.28205128 , 4141.02564103 , 4188.20512821 , 4910.25641026 , 4132.82051282 , 4136.41025641 , 2046.0 , 2031.0 , 231.237 , 0.0 , 0.0 , 0.0 , 0.0 , 

65.0 , 4133.33333333 , 4126.15384615 , 4133.84615385 , 4124.61538462 , 4130.76923077 , 4127.69230769 , 4129.23076923 , 4130.76923077 , 4129.74358974 , 4141.02564103 , 4186.15384615 , 4911.28205128 , 4127.69230769 , 4137.94871795 , 2045.0 , 2034.0 , 231.237 , 0.0 , 0.0 , 0.0 , 0.0 , 

66.0 , 4127.69230769 , 4130.76923077 , 4134.35897436 , 4131.28205128 , 4129.74358974 , 4131.79487179 , 4135.8974359 , 4133.84615385 , 4135.8974359 , 4143.07692308 , 4189.23076923 , 4907.69230769 , 4129.74358974 , 4137.43589744 , 2046.0 , 2037.0 , 231.25 , 0.0 , 0.0 , 0.0 , 0.0 , 

67.0 , 4130.76923077 , 4127.17948718 , 4133.33333333 , 4131.79487179 , 4129.23076923 , 4128.71794872 , 4127.69230769 , 4122.05128205 , 4126.15384615 , 4143.07692308 , 4188.20512821 , 4908.71794872 , 4126.15384615 , 4138.97435897 , 2046.0 , 2038.0 , 231.25 , 0.0 , 0.0 , 0.0 , 0.0 , 

68.0 , 4134.35897436 , 4128.71794872 , 4128.20512821 , 4132.82051282 , 4130.25641026 , 4129.74358974 , 4123.58974359 , 4128.71794872 , 4128.20512821 , 4140.0 , 4189.23076923 , 4908.20512821 , 4131.28205128 , 4138.46153846 , 2045.0 , 2038.0 , 231.258 , 0.0 , 0.0 , 0.0 , 0.0 , 

69.0 , 4132.82051282 , 4131.28205128 , 4133.84615385 , 4127.17948718 , 4130.76923077 , 4127.17948718 , 4121.02564103 , 4123.58974359 , 4126.66666667 , 4133.33333333 , 4187.69230769 , 4908.71794872 , 4128.20512821 , 4138.46153846 , 2046.0 , 2037.0 , 231.264 , 0.0 , 0.0 , 0.0 , 0.0 , 

70.0 , 4125.12820513 , 4134.35897436 , 4131.28205128 , 4132.82051282 , 4127.17948718 , 4129.23076923 , 4129.23076923 , 4128.20512821 , 4130.25641026 , 4133.84615385 , 4188.20512821 , 4907.17948718 , 4135.38461538 , 4135.38461538 , 2043.0 , 2037.0 , 231.275 , 0.0 , 0.0 , 0.0 , 0.0 , 

71.0 , 4129.23076923 , 4127.17948718 , 4132.30769231 , 4132.82051282 , 4125.64102564 , 4125.12820513 , 4123.07692308 , 4120.0 , 4120.51282051 , 4134.35897436 , 4184.61538462 , 4912.30769231 , 4129.74358974 , 4134.35897436 , 2044.0 , 2037.0 , 231.281 , 0.0 , 0.0 , 0.0 , 0.0 , 

72.0 , 4133.84615385 , 4129.74358974 , 4128.20512821 , 4137.94871795 , 4130.76923077 , 4128.20512821 , 4124.61538462 , 4131.28205128 , 4127.69230769 , 4139.48717949 , 4189.74358974 , 4909.23076923 , 4134.87179487 , 4136.41025641 , 2043.0 , 2036.0 , 231.286 , 0.0 , 0.0 , 0.0 , 0.0 , 

73.0 , 4130.76923077 , 4126.66666667 , 4129.74358974 , 4133.33333333 , 4131.79487179 , 4124.61538462 , 4118.46153846 , 4123.58974359 , 4125.12820513 , 4141.53846154 , 4188.71794872 , 4910.25641026 , 4133.33333333 , 4140.0 , 2042.0 , 2035.0 , 231.295 , 0.0 , 0.0 , 0.0 , 0.0 , 

74.0 , 4125.12820513 , 4129.23076923 , 4125.64102564 , 4134.35897436 , 4128.20512821 , 4128.20512821 , 4125.12820513 , 4133.33333333 , 4131.28205128 , 4139.48717949 , 4187.69230769 , 4908.71794872 , 4138.97435897 , 4138.46153846 , 2040.0 , 2035.0 , 231.307 , 0.0 , 0.0 , 0.0 , 0.0 , 

75.0 , 4128.20512821 , 4125.12820513 , 4133.33333333 , 4127.17948718 , 4128.71794872 , 4128.20512821 , 4123.07692308 , 4135.8974359 , 4130.25641026 , 4136.92307692 , 4187.17948718 , 4909.74358974 , 4129.23076923 , 4136.92307692 , 2041.0 , 2032.0 , 231.313 , 0.0 , 0.0 , 0.0 , 0.0 , 

76.0 , 4132.30769231 , 4125.12820513 , 4132.82051282 , 4130.76923077 , 4130.76923077 , 4131.28205128 , 4122.56410256 , 4139.48717949 , 4131.28205128 , 4140.51282051 , 4191.79487179 , 4907.69230769 , 4132.82051282 , 4135.38461538 , 2040.0 , 2032.0 , 231.319 , 0.0 , 0.0 , 0.0 , 0.0 , 

77.0 , 4131.28205128 , 4125.12820513 , 4129.74358974 , 4130.25641026 , 4127.69230769 , 4127.17948718 , 4119.48717949 , 4129.74358974 , 4127.69230769 , 4137.94871795 , 4187.17948718 , 4910.25641026 , 4131.79487179 , 4137.94871795 , 2039.0 , 2032.0 , 231.327 , 0.0 , 0.0 , 0.0 , 0.0 , 

78.0 , 4131.28205128 , 4130.76923077 , 4128.71794872 , 4128.71794872 , 4128.20512821 , 4128.20512821 , 4127.69230769 , 4132.82051282 , 4134.35897436 , 4135.38461538 , 4188.20512821 , 4907.69230769 , 4129.74358974 , 4141.02564103 , 2039.0 , 2031.0 , 231.341 , 0.0 , 0.0 , 0.0 , 0.0 , 

79.0 , 4131.28205128 , 4125.64102564 , 4134.35897436 , 4124.61538462 , 4128.71794872 , 4127.69230769 , 4127.17948718 , 4125.12820513 , 4134.35897436 , 4136.41025641 , 4189.23076923 , 4907.17948718 , 4127.69230769 , 4137.94871795 , 2040.0 , 2031.0 , 231.345 , 0.0 , 0.0 , 0.0 , 0.0 , 

80.0 , 4131.28205128 , 4126.66666667 , 4134.87179487 , 4128.71794872 , 4128.20512821 , 4127.69230769 , 4125.64102564 , 4123.07692308 , 4130.76923077 , 4137.94871795 , 4189.74358974 , 4907.69230769 , 4129.23076923 , 4132.82051282 , 2041.0 , 2029.0 , 231.35 , 0.0 , 0.0 , 0.0 , 0.0 , 

81.0 , 4129.23076923 , 4128.71794872 , 4133.84615385 , 4130.25641026 , 4128.20512821 , 4127.17948718 , 4125.64102564 , 4131.79487179 , 4131.79487179 , 4136.41025641 , 4187.69230769 , 4907.17948718 , 4124.1025641 , 4136.41025641 , 2041.0 , 2031.0 , 231.358 , 0.0 , 0.0 , 0.0 , 0.0 , 

82.0 , 4131.28205128 , 4128.20512821 , 4134.87179487 , 4129.74358974 , 4129.23076923 , 4128.71794872 , 4126.15384615 , 4129.74358974 , 4132.82051282 , 4136.92307692 , 4187.17948718 , 4907.69230769 , 4121.02564103 , 4142.05128205 , 2043.0 , 2031.0 , 231.371 , 0.0 , 0.0 , 0.0 , 0.0 , 

83.0 , 4131.79487179 , 4128.71794872 , 4131.79487179 , 4132.82051282 , 4127.17948718 , 4130.76923077 , 4126.66666667 , 4129.74358974 , 4136.92307692 , 4138.97435897 , 4189.23076923 , 4907.17948718 , 4131.79487179 , 4136.41025641 , 2043.0 , 2032.0 , 231.376 , 0.0 , 0.0 , 0.0 , 0.0 , 

84.0 , 4133.33333333 , 4128.20512821 , 4133.33333333 , 4130.76923077 , 4128.71794872 , 4127.69230769 , 4123.07692308 , 4127.69230769 , 4128.71794872 , 4135.8974359 , 4187.17948718 , 4906.66666667 , 4131.28205128 , 4134.87179487 , 2044.0 , 2031.0 , 231.382 , 0.0 , 0.0 , 0.0 , 0.0 , 

85.0 , 4130.25641026 , 4130.25641026 , 4131.79487179 , 4131.79487179 , 4131.79487179 , 4128.71794872 , 4125.64102564 , 4132.30769231 , 4127.69230769 , 4136.92307692 , 4188.20512821 , 4907.17948718 , 4135.38461538 , 4141.02564103 , 2045.0 , 2032.0 , 231.39 , 0.0 , 0.0 , 0.0 , 0.0 , 

86.0 , 4131.79487179 , 4129.74358974 , 4132.30769231 , 4131.28205128 , 4130.25641026 , 4126.15384615 , 4123.07692308 , 4121.53846154 , 4123.58974359 , 4137.94871795 , 4186.66666667 , 4911.28205128 , 4133.84615385 , 4142.56410256 , 2044.0 , 2033.0 , 231.401 , 0.0 , 0.0 , 0.0 , 0.0 , 

87.0 , 4130.76923077 , 4129.23076923 , 4126.15384615 , 4133.84615385 , 4129.23076923 , 4128.20512821 , 4122.05128205 , 4130.25641026 , 4130.25641026 , 4137.94871795 , 4188.20512821 , 4910.25641026 , 4136.92307692 , 4135.38461538 , 2045.0 , 2034.0 , 231.409 , 0.0 , 0.0 , 0.0 , 0.0 , 

88.0 , 4132.82051282 , 4122.05128205 , 4130.76923077 , 4125.12820513 , 4130.76923077 , 4125.12820513 , 4115.8974359 , 4126.66666667 , 4122.05128205 , 4135.38461538 , 4187.17948718 , 4910.76923077 , 4127.69230769 , 4137.94871795 , 2044.0 , 2033.0 , 231.414 , 0.0 , 0.0 , 0.0 , 0.0 , 

89.0 , 4131.79487179 , 4126.15384615 , 4129.23076923 , 4128.20512821 , 4130.76923077 , 4127.69230769 , 4123.58974359 , 4136.41025641 , 4127.69230769 , 4139.48717949 , 4191.79487179 , 4908.71794872 , 4133.33333333 , 4141.53846154 , 2047.0 , 2036.0 , 231.421 , 0.0 , 0.0 , 0.0 , 0.0 , 

90.0 , 4130.25641026 , 4127.69230769 , 4132.82051282 , 4127.69230769 , 4127.17948718 , 4123.58974359 , 4119.48717949 , 4131.79487179 , 4128.71794872 , 4140.51282051 , 4187.69230769 , 4911.79487179 , 4125.64102564 , 4138.46153846 , 2046.0 , 2035.0 , 231.432 , 0.0 , 0.0 , 0.0 , 0.0 , 

91.0 , 4127.69230769 , 4129.23076923 , 4132.30769231 , 4130.76923077 , 4125.64102564 , 4128.20512821 , 4123.58974359 , 4140.0 , 4137.43589744 , 4139.48717949 , 4186.66666667 , 4906.66666667 , 4129.23076923 , 4134.87179487 , 2046.0 , 2035.0 , 231.439 , 0.0 , 0.0 , 0.0 , 0.0 , 

92.0 , 4129.74358974 , 4120.0 , 4136.41025641 , 4124.1025641 , 4128.71794872 , 4126.66666667 , 4122.56410256 , 4132.82051282 , 4136.41025641 , 4140.0 , 4186.15384615 , 4905.12820513 , 4127.17948718 , 4138.46153846 , 2046.0 , 2035.0 , 231.445 , 0.0 , 0.0 , 0.0 , 0.0 , 

93.0 , 4130.25641026 , 4127.69230769 , 4129.74358974 , 4130.25641026 , 4130.25641026 , 4128.71794872 , 4130.76923077 , 4139.48717949 , 4141.02564103 , 4142.05128205 , 4191.28205128 , 4905.12820513 , 4131.28205128 , 4138.97435897 , 2045.0 , 2033.0 , 231.453 , 0.0 , 0.0 , 0.0 , 0.0 , 

94.0 , 4131.28205128 , 4132.30769231 , 4131.28205128 , 4131.28205128 , 4127.17948718 , 4126.66666667 , 4126.15384615 , 4130.76923077 , 4130.76923077 , 4136.41025641 , 4187.69230769 , 4910.25641026 , 4126.66666667 , 4139.48717949 , 2045.0 , 2034.0 , 231.464 , 0.0 , 0.0 , 0.0 , 0.0 , 

95.0 , 4133.33333333 , 4132.82051282 , 4131.28205128 , 4134.35897436 , 4128.71794872 , 4130.25641026 , 4126.15384615 , 4129.74358974 , 4127.69230769 , 4134.87179487 , 4187.69230769 , 4907.69230769 , 4131.79487179 , 4138.46153846 , 2045.0 , 2034.0 , 231.471 , 0.0 , 0.0 , 0.0 , 0.0 , 

96.0 , 4134.87179487 , 4125.64102564 , 4131.28205128 , 4130.25641026 , 4132.30769231 , 4127.69230769 , 4122.05128205 , 4124.1025641 , 4126.66666667 , 4137.94871795 , 4184.1025641 , 4910.25641026 , 4128.71794872 , 4138.97435897 , 2044.0 , 2035.0 , 231.477 , 0.0 , 0.0 , 0.0 , 0.0 , 

97.0 , 4132.82051282 , 4130.76923077 , 4130.25641026 , 4130.76923077 , 4131.79487179 , 4130.25641026 , 4125.64102564 , 4125.12820513 , 4124.61538462 , 4138.46153846 , 4184.61538462 , 4912.82051282 , 4129.74358974 , 4137.94871795 , 2044.0 , 2036.0 , 231.485 , 0.0 , 0.0 , 0.0 , 0.0 , 

98.0 , 4130.25641026 , 4128.20512821 , 4133.84615385 , 4129.23076923 , 4127.17948718 , 4129.23076923 , 4123.07692308 , 4120.51282051 , 4120.0 , 4133.84615385 , 4186.15384615 , 4914.35897436 , 4131.79487179 , 4136.92307692 , 2042.0 , 2036.0 , 231.499 , 0.0 , 0.0 , 0.0 , 0.0 , 

99.0 , 4132.82051282 , 4126.15384615 , 4130.76923077 , 4129.74358974 , 4127.17948718 , 4127.17948718 , 4120.51282051 , 4121.02564103 , 4123.07692308 , 4134.87179487 , 4187.69230769 , 4913.33333333 , 4133.84615385 , 4139.48717949 , 2042.0 , 2036.0 , 231.503 , 0.0 , 0.0 , 0.0 , 0.0 , 

100.0 , 4132.30769231 , 4128.20512821 , 4127.17948718 , 4129.23076923 , 4129.23076923 , 4128.20512821 , 4121.02564103 , 4129.74358974 , 4128.71794872 , 4136.92307692 , 4189.23076923 , 4910.76923077 , 4134.87179487 , 4140.51282051 , 2043.0 , 2035.0 , 231.508 , 0.0 , 0.0 , 0.0 , 0.0 , 

101.0 , 4131.28205128 , 4129.74358974 , 4131.79487179 , 4127.17948718 , 4131.79487179 , 4129.23076923 , 4122.56410256 , 4129.74358974 , 4124.61538462 , 4137.43589744 , 4190.25641026 , 4908.20512821 , 4132.30769231 , 4136.92307692 , 2043.0 , 2035.0 , 231.517 , 0.0 , 0.0 , 0.0 , 0.0 , 

102.0 , 4129.23076923 , 4127.69230769 , 4132.82051282 , 4129.74358974 , 4128.20512821 , 4126.66666667 , 4126.66666667 , 4137.43589744 , 4132.30769231 , 4137.94871795 , 4191.28205128 , 4907.17948718 , 4134.35897436 , 4133.84615385 , 2042.0 , 2034.0 , 231.528 , 0.0 , 0.0 , 0.0 , 0.0 , 

103.0 , 4131.79487179 , 4126.15384615 , 4132.82051282 , 4127.17948718 , 4126.15384615 , 4122.05128205 , 4122.05128205 , 4133.84615385 , 4133.33333333 , 4137.43589744 , 4188.71794872 , 4908.20512821 , 4129.74358974 , 4137.94871795 , 2043.0 , 2033.0 , 231.534 , 0.0 , 0.0 , 0.0 , 0.0 , 

104.0 , 4130.25641026 , 4128.71794872 , 4128.71794872 , 4127.69230769 , 4127.69230769 , 4125.64102564 , 4123.07692308 , 4135.8974359 , 4135.38461538 , 4138.46153846 , 4191.28205128 , 4905.64102564 , 4134.87179487 , 4138.46153846 , 2043.0 , 2034.0 , 231.541 , 0.0 , 0.0 , 0.0 , 0.0 , 

105.0 , 4132.30769231 , 4127.17948718 , 4132.82051282 , 4125.64102564 , 4131.28205128 , 4125.64102564 , 4123.07692308 , 4125.64102564 , 4129.23076923 , 4137.94871795 , 4187.69230769 , 4909.74358974 , 4128.71794872 , 4137.94871795 , 2042.0 , 2035.0 , 231.549 , 0.0 , 0.0 , 0.0 , 0.0 , 

106.0 , 4131.28205128 , 4128.71794872 , 4132.82051282 , 4130.25641026 , 4129.74358974 , 4130.76923077 , 4131.28205128 , 4133.84615385 , 4136.41025641 , 4137.94871795 , 4187.17948718 , 4910.25641026 , 4130.76923077 , 4137.43589744 , 2041.0 , 2034.0 , 231.562 , 0.0 , 0.0 , 0.0 , 0.0 , 

107.0 , 4131.79487179 , 4124.1025641 , 4136.92307692 , 4126.66666667 , 4127.17948718 , 4128.71794872 , 4125.12820513 , 4127.69230769 , 4130.25641026 , 4133.84615385 , 4187.17948718 , 4912.82051282 , 4124.1025641 , 4138.97435897 , 2042.0 , 2035.0 , 231.565 , 0.0 , 0.0 , 0.0 , 0.0 , 

108.0 , 4131.28205128 , 4129.23076923 , 4131.28205128 , 4131.28205128 , 4127.69230769 , 4131.28205128 , 4127.69230769 , 4135.8974359 , 4131.79487179 , 4135.8974359 , 4190.76923077 , 4910.25641026 , 4132.30769231 , 4140.0 , 2042.0 , 2035.0 , 231.57 , 0.0 , 0.0 , 0.0 , 0.0 , 

109.0 , 4132.82051282 , 4130.76923077 , 4134.35897436 , 4128.20512821 , 4131.28205128 , 4127.17948718 , 4125.64102564 , 4125.64102564 , 4124.61538462 , 4138.46153846 , 4187.17948718 , 4910.25641026 , 4126.66666667 , 4139.48717949 , 2042.0 , 2036.0 , 231.579 , 0.0 , 0.0 , 0.0 , 0.0 , 

110.0 , 4129.23076923 , 4134.35897436 , 4130.25641026 , 4132.82051282 , 4129.74358974 , 4129.23076923 , 4128.71794872 , 4130.76923077 , 4130.76923077 , 4138.97435897 , 4191.28205128 , 4907.17948718 , 4134.87179487 , 4137.94871795 , 2041.0 , 2031.0 , 231.59 , 0.0 , 0.0 , 0.0 , 0.0 , 

111.0 , 4128.20512821 , 4128.20512821 , 4132.30769231 , 4131.79487179 , 4126.15384615 , 4125.64102564 , 4122.05128205 , 4127.17948718 , 4129.23076923 , 4132.30769231 , 4187.69230769 , 4909.74358974 , 4134.87179487 , 4141.02564103 , 2042.0 , 2031.0 , 231.597 , 0.0 , 0.0 , 0.0 , 0.0 , 

112.0 , 4131.28205128 , 4131.28205128 , 4128.71794872 , 4134.35897436 , 4129.23076923 , 4130.25641026 , 4128.71794872 , 4133.33333333 , 4130.76923077 , 4131.28205128 , 4186.15384615 , 4907.17948718 , 4136.92307692 , 4139.48717949 , 2041.0 , 2030.0 , 231.603 , 0.0 , 0.0 , 0.0 , 0.0 , 

113.0 , 4132.30769231 , 4128.20512821 , 4129.74358974 , 4128.20512821 , 4130.25641026 , 4127.17948718 , 4123.58974359 , 4126.66666667 , 4125.64102564 , 4136.41025641 , 4188.20512821 , 4910.25641026 , 4134.35897436 , 4136.92307692 , 2043.0 , 2031.0 , 231.611 , 0.0 , 0.0 , 0.0 , 0.0 , 

114.0 , 4129.74358974 , 4126.66666667 , 4128.20512821 , 4131.28205128 , 4129.74358974 , 4127.17948718 , 4118.97435897 , 4130.76923077 , 4129.23076923 , 4140.0 , 4192.30769231 , 4909.23076923 , 4138.97435897 , 4135.8974359 , 2042.0 , 2031.0 , 231.628 , 0.0 , 0.0 , 0.0 , 0.0 , 

115.0 , 4128.71794872 , 4124.1025641 , 4133.84615385 , 4128.71794872 , 4128.20512821 , 4124.1025641 , 4117.43589744 , 4128.71794872 , 4128.20512821 , 4133.84615385 , 4185.64102564 , 4910.25641026 , 4130.25641026 , 4137.94871795 , 2042.0 , 2034.0 , 231.628 , 0.0 , 0.0 , 0.0 , 0.0 , 

116.0 , 4130.76923077 , 4125.12820513 , 4132.82051282 , 4127.17948718 , 4127.69230769 , 4122.56410256 , 4124.1025641 , 4131.79487179 , 4128.20512821 , 4132.82051282 , 4185.12820513 , 4909.74358974 , 4127.17948718 , 4139.48717949 , 2042.0 , 2035.0 , 231.634 , 0.0 , 0.0 , 0.0 , 0.0 , 

117.0 , 4128.20512821 , 4124.61538462 , 4129.74358974 , 4128.20512821 , 4127.69230769 , 4121.53846154 , 4123.58974359 , 4136.41025641 , 4133.33333333 , 4138.46153846 , 4190.25641026 , 4909.23076923 , 4131.28205128 , 4140.51282051 , 2042.0 , 2034.0 , 231.643 , 0.0 , 0.0 , 0.0 , 0.0 , 

118.0 , 4128.71794872 , 4125.64102564 , 4132.30769231 , 4129.74358974 , 4131.28205128 , 4126.66666667 , 4124.1025641 , 4135.8974359 , 4134.35897436 , 4140.51282051 , 4190.76923077 , 4906.66666667 , 4130.76923077 , 4138.97435897 , 2042.0 , 2035.0 , 231.656 , 0.0 , 0.0 , 0.0 , 0.0 , 

119.0 , 4130.25641026 , 4125.12820513 , 4134.35897436 , 4128.71794872 , 4130.76923077 , 4129.23076923 , 4129.23076923 , 4135.8974359 , 4134.35897436 , 4138.46153846 , 4189.74358974 , 4907.17948718 , 4130.76923077 , 4137.94871795 , 2043.0 , 2036.0 , 231.66 , 0.0 , 0.0 , 0.0 , 0.0 , 

120.0 , 4132.30769231 , 4126.66666667 , 4134.35897436 , 4128.20512821 , 4129.74358974 , 4126.15384615 , 4127.69230769 , 4131.28205128 , 4130.76923077 , 4139.48717949 , 4188.71794872 , 4909.23076923 , 4131.79487179 , 4141.53846154 , 2044.0 , 2035.0 , 231.666 , 0.0 , 0.0 , 0.0 , 0.0 , 

