['COUNTER', 'AF3', 'F7', 'F3', 'FC5', 'T7', 'P7', 'O1', 'O2', 'P8', 'T8', 'FC6', 'F4', 'F8', 'AF4', 'GYROX', 'GYROY', 'TIMESTAMP', 'FUNC_ID', 'FUNC_VALUE', 'MARKER', 'SYNC_SIGNAL']
3.0 , 4144.1025641 , 4177.94871795 , 4158.46153846 , 4183.07692308 , 4129.23076923 , 4129.74358974 , 4151.79487179 , 4134.87179487 , 4134.35897436 , 4135.8974359 , 4112.30769231 , 4138.46153846 , 4213.33333333 , 4142.56410256 , 2042.0 , 2029.0 , 314.133 , 0.0 , 0.0 , 0.0 , 0.0 , 

4.0 , 4142.05128205 , 4174.35897436 , 4157.43589744 , 4178.97435897 , 4133.84615385 , 4133.84615385 , 4150.76923077 , 4136.41025641 , 4134.35897436 , 4135.8974359 , 4112.82051282 , 4141.53846154 , 4204.61538462 , 4136.41025641 , 2041.0 , 2030.0 , 314.14 , 0.0 , 0.0 , 0.0 , 0.0 , 

5.0 , 4160.51282051 , 4192.30769231 , 4162.56410256 , 4187.17948718 , 4134.87179487 , 4136.92307692 , 4155.8974359 , 4136.41025641 , 4134.35897436 , 4135.8974359 , 4122.05128205 , 4147.17948718 , 4226.66666667 , 4161.53846154 , 2041.0 , 2030.0 , 314.15 , 0.0 , 0.0 , 0.0 , 0.0 , 

6.0 , 4153.33333333 , 4193.84615385 , 4157.43589744 , 4185.64102564 , 4134.87179487 , 4132.82051282 , 4154.87179487 , 4135.8974359 , 4134.35897436 , 4135.8974359 , 4117.43589744 , 4142.56410256 , 4222.05128205 , 4156.92307692 , 2042.0 , 2031.0 , 314.157 , 0.0 , 0.0 , 0.0 , 0.0 , 

7.0 , 4162.05128205 , 4205.12820513 , 4161.02564103 , 4195.8974359 , 4136.41025641 , 4132.30769231 , 4159.48717949 , 4136.41025641 , 4134.35897436 , 4135.8974359 , 4126.15384615 , 4147.69230769 , 4228.71794872 , 4160.51282051 , 2041.0 , 2034.0 , 314.166 , 0.0 , 0.0 , 0.0 , 0.0 , 

8.0 , 4201.53846154 , 4236.41025641 , 4172.30769231 , 4212.30769231 , 4135.8974359 , 4133.84615385 , 4166.15384615 , 4137.94871795 , 4134.35897436 , 4135.8974359 , 4144.61538462 , 4155.8974359 , 4269.74358974 , 4196.41025641 , 2042.0 , 2036.0 , 314.172 , 0.0 , 0.0 , 0.0 , 0.0 , 

9.0 , 4197.43589744 , 4232.82051282 , 4166.15384615 , 4206.15384615 , 4135.38461538 , 4134.87179487 , 4163.58974359 , 4136.92307692 , 4134.35897436 , 4135.8974359 , 4141.02564103 , 4150.76923077 , 4268.71794872 , 4197.43589744 , 2044.0 , 2038.0 , 314.181 , 0.0 , 0.0 , 0.0 , 0.0 , 

10.0 , 4172.82051282 , 4216.41025641 , 4156.41025641 , 4195.8974359 , 4137.94871795 , 4135.8974359 , 4162.05128205 , 4135.8974359 , 4134.35897436 , 4135.8974359 , 4133.84615385 , 4146.15384615 , 4242.05128205 , 4176.41025641 , 2046.0 , 2037.0 , 314.188 , 0.0 , 0.0 , 0.0 , 0.0 , 

11.0 , 4175.38461538 , 4215.38461538 , 4158.46153846 , 4200.51282051 , 4137.43589744 , 4134.87179487 , 4160.51282051 , 4136.41025641 , 4134.35897436 , 4135.8974359 , 4136.92307692 , 4148.71794872 , 4237.43589744 , 4170.76923077 , 2046.0 , 2034.0 , 314.198 , 0.0 , 0.0 , 0.0 , 0.0 , 

12.0 , 4181.53846154 , 4216.92307692 , 4161.02564103 , 4203.58974359 , 4134.35897436 , 4133.33333333 , 4157.94871795 , 4136.41025641 , 4134.35897436 , 4135.8974359 , 4134.35897436 , 4146.15384615 , 4243.07692308 , 4175.8974359 , 2045.0 , 2033.0 , 314.204 , 0.0 , 0.0 , 0.0 , 0.0 , 

13.0 , 4179.48717949 , 4217.94871795 , 4166.15384615 , 4203.58974359 , 4136.92307692 , 4135.38461538 , 4161.02564103 , 4136.41025641 , 4134.35897436 , 4135.8974359 , 4134.35897436 , 4148.20512821 , 4249.23076923 , 4182.05128205 , 2046.0 , 2033.0 , 314.213 , 0.0 , 0.0 , 0.0 , 0.0 , 

14.0 , 4183.58974359 , 4223.07692308 , 4169.23076923 , 4205.64102564 , 4135.8974359 , 4136.92307692 , 4161.02564103 , 4137.94871795 , 4134.35897436 , 4135.8974359 , 4140.51282051 , 4154.87179487 , 4257.94871795 , 4182.56410256 , 2046.0 , 2033.0 , 314.219 , 0.0 , 0.0 , 0.0 , 0.0 , 

15.0 , 4169.74358974 , 4209.74358974 , 4162.56410256 , 4198.46153846 , 4129.23076923 , 4136.92307692 , 4155.8974359 , 4138.46153846 , 4134.35897436 , 4135.8974359 , 4134.35897436 , 4149.23076923 , 4238.97435897 , 4165.12820513 , 2046.0 , 2033.0 , 314.228 , 0.0 , 0.0 , 0.0 , 0.0 , 

16.0 , 4162.56410256 , 4204.61538462 , 4155.8974359 , 4195.38461538 , 4129.74358974 , 4134.87179487 , 4157.43589744 , 4136.92307692 , 4134.35897436 , 4135.8974359 , 4133.33333333 , 4143.58974359 , 4230.76923077 , 4165.64102564 , 2045.0 , 2032.0 , 314.235 , 0.0 , 0.0 , 0.0 , 0.0 , 

17.0 , 4154.87179487 , 4196.41025641 , 4154.35897436 , 4190.76923077 , 4134.35897436 , 4132.82051282 , 4155.38461538 , 4135.38461538 , 4134.35897436 , 4135.8974359 , 4131.79487179 , 4143.58974359 , 4221.53846154 , 4160.51282051 , 2044.0 , 2030.0 , 314.244 , 0.0 , 0.0 , 0.0 , 0.0 , 

18.0 , 4150.76923077 , 4189.74358974 , 4156.92307692 , 4195.8974359 , 4133.84615385 , 4132.82051282 , 4153.33333333 , 4135.8974359 , 4134.35897436 , 4135.8974359 , 4130.25641026 , 4146.15384615 , 4213.84615385 , 4144.61538462 , 2044.0 , 2030.0 , 314.251 , 0.0 , 0.0 , 0.0 , 0.0 , 

19.0 , 4154.87179487 , 4197.94871795 , 4158.46153846 , 4203.58974359 , 4134.35897436 , 4133.33333333 , 4159.48717949 , 4136.41025641 , 4134.35897436 , 4135.8974359 , 4135.38461538 , 4147.69230769 , 4224.61538462 , 4148.20512821 , 2043.0 , 2031.0 , 314.26 , 0.0 , 0.0 , 0.0 , 0.0 , 

20.0 , 4166.15384615 , 4208.71794872 , 4161.53846154 , 4203.58974359 , 4135.8974359 , 4132.82051282 , 4163.07692308 , 4135.8974359 , 4133.84615385 , 4135.8974359 , 4143.07692308 , 4150.25641026 , 4242.05128205 , 4161.53846154 , 2041.0 , 2029.0 , 314.266 , 0.0 , 0.0 , 0.0 , 0.0 , 

21.0 , 4167.69230769 , 4204.61538462 , 4161.53846154 , 4196.41025641 , 4135.8974359 , 4133.33333333 , 4155.8974359 , 4135.38461538 , 4134.35897436 , 4135.8974359 , 4138.46153846 , 4150.25641026 , 4241.53846154 , 4156.41025641 , 2040.0 , 2027.0 , 314.275 , 0.0 , 0.0 , 0.0 , 0.0 , 

22.0 , 4147.69230769 , 4188.71794872 , 4156.92307692 , 4187.17948718 , 4136.92307692 , 4133.33333333 , 4150.25641026 , 4135.38461538 , 4134.35897436 , 4135.8974359 , 4130.76923077 , 4143.07692308 , 4222.05128205 , 4140.0 , 2038.0 , 2028.0 , 314.283 , 0.0 , 0.0 , 0.0 , 0.0 , 

23.0 , 4146.15384615 , 4188.71794872 , 4157.43589744 , 4188.20512821 , 4136.41025641 , 4132.82051282 , 4154.35897436 , 4135.38461538 , 4133.84615385 , 4135.8974359 , 4136.92307692 , 4143.58974359 , 4218.46153846 , 4137.94871795 , 2039.0 , 2031.0 , 314.29 , 0.0 , 0.0 , 0.0 , 0.0 , 

24.0 , 4160.51282051 , 4197.94871795 , 4163.07692308 , 4194.35897436 , 4133.33333333 , 4133.84615385 , 4160.0 , 4136.92307692 , 4133.84615385 , 4135.8974359 , 4138.46153846 , 4149.23076923 , 4232.30769231 , 4143.58974359 , 2040.0 , 2030.0 , 314.299 , 0.0 , 0.0 , 0.0 , 0.0 , 

25.0 , 4145.12820513 , 4184.61538462 , 4162.05128205 , 4191.28205128 , 4135.38461538 , 4135.38461538 , 4155.38461538 , 4136.41025641 , 4133.33333333 , 4135.8974359 , 4128.71794872 , 4147.17948718 , 4226.15384615 , 4134.35897436 , 2039.0 , 2032.0 , 314.306 , 0.0 , 0.0 , 0.0 , 0.0 , 

26.0 , 4127.69230769 , 4172.30769231 , 4157.43589744 , 4189.23076923 , 4137.94871795 , 4133.84615385 , 4151.79487179 , 4134.87179487 , 4134.35897436 , 4135.8974359 , 4127.17948718 , 4143.07692308 , 4203.07692308 , 4124.61538462 , 2039.0 , 2031.0 , 314.315 , 0.0 , 0.0 , 0.0 , 0.0 , 

27.0 , 4151.28205128 , 4196.92307692 , 4161.53846154 , 4198.97435897 , 4132.30769231 , 4134.87179487 , 4158.46153846 , 4134.87179487 , 4136.41025641 , 4135.8974359 , 4133.33333333 , 4145.12820513 , 4207.69230769 , 4135.8974359 , 2040.0 , 2033.0 , 314.322 , 0.0 , 0.0 , 0.0 , 0.0 , 

28.0 , 4172.30769231 , 4220.0 , 4162.56410256 , 4204.61538462 , 4129.74358974 , 4137.43589744 , 4164.1025641 , 4136.92307692 , 4136.41025641 , 4135.8974359 , 4137.43589744 , 4149.23076923 , 4231.28205128 , 4150.25641026 , 2041.0 , 2033.0 , 314.332 , 0.0 , 0.0 , 0.0 , 0.0 , 

29.0 , 4159.48717949 , 4210.76923077 , 4161.02564103 , 4196.41025641 , 4132.82051282 , 4138.97435897 , 4156.41025641 , 4136.92307692 , 4134.87179487 , 4135.8974359 , 4136.41025641 , 4150.76923077 , 4232.30769231 , 4147.17948718 , 2040.0 , 2034.0 , 314.337 , 0.0 , 0.0 , 0.0 , 0.0 , 

30.0 , 4132.82051282 , 4182.05128205 , 4160.51282051 , 4184.1025641 , 4132.30769231 , 4135.38461538 , 4147.17948718 , 4135.38461538 , 4135.38461538 , 4135.8974359 , 4127.17948718 , 4146.66666667 , 4200.0 , 4124.1025641 , 2042.0 , 2031.0 , 314.346 , 0.0 , 0.0 , 0.0 , 0.0 , 

31.0 , 4134.35897436 , 4182.56410256 , 4159.48717949 , 4186.15384615 , 4130.76923077 , 4133.84615385 , 4152.82051282 , 4135.38461538 , 4135.38461538 , 4135.8974359 , 4126.66666667 , 4142.05128205 , 4195.8974359 , 4120.51282051 , 2043.0 , 2032.0 , 314.353 , 0.0 , 0.0 , 0.0 , 0.0 , 

32.0 , 4163.07692308 , 4215.8974359 , 4163.07692308 , 4198.97435897 , 4135.8974359 , 4136.92307692 , 4163.58974359 , 4136.41025641 , 4134.35897436 , 4135.8974359 , 4138.97435897 , 4149.74358974 , 4231.79487179 , 4147.69230769 , 2045.0 , 2032.0 , 314.363 , 0.0 , 0.0 , 0.0 , 0.0 , 

33.0 , 4174.87179487 , 4227.69230769 , 4167.69230769 , 4199.48717949 , 4137.43589744 , 4135.8974359 , 4158.97435897 , 4135.38461538 , 4134.35897436 , 4135.8974359 , 4139.48717949 , 4155.8974359 , 4242.56410256 , 4157.43589744 , 2044.0 , 2034.0 , 314.369 , 0.0 , 0.0 , 0.0 , 0.0 , 

34.0 , 4162.05128205 , 4207.17948718 , 4166.15384615 , 4192.30769231 , 4132.82051282 , 4135.8974359 , 4149.23076923 , 4136.41025641 , 4134.35897436 , 4135.8974359 , 4131.79487179 , 4152.30769231 , 4221.02564103 , 4141.53846154 , 2045.0 , 2033.0 , 314.378 , 0.0 , 0.0 , 0.0 , 0.0 , 

35.0 , 4159.48717949 , 4203.58974359 , 4157.94871795 , 4193.33333333 , 4133.84615385 , 4135.38461538 , 4152.82051282 , 4139.48717949 , 4134.35897436 , 4135.8974359 , 4135.8974359 , 4148.71794872 , 4214.87179487 , 4138.97435897 , 2046.0 , 2033.0 , 314.385 , 0.0 , 0.0 , 0.0 , 0.0 , 

36.0 , 4160.51282051 , 4212.82051282 , 4155.8974359 , 4194.87179487 , 4136.41025641 , 4131.28205128 , 4158.46153846 , 4138.46153846 , 4134.35897436 , 4135.8974359 , 4138.46153846 , 4150.25641026 , 4217.94871795 , 4142.56410256 , 2047.0 , 2033.0 , 314.394 , 0.0 , 0.0 , 0.0 , 0.0 , 

37.0 , 4165.12820513 , 4220.51282051 , 4158.46153846 , 4200.0 , 4135.38461538 , 4130.76923077 , 4156.41025641 , 4135.38461538 , 4134.35897436 , 4135.8974359 , 4137.94871795 , 4152.82051282 , 4228.71794872 , 4143.07692308 , 2045.0 , 2034.0 , 314.4 , 0.0 , 0.0 , 0.0 , 0.0 , 

38.0 , 4168.20512821 , 4219.48717949 , 4161.53846154 , 4204.1025641 , 4131.28205128 , 4133.33333333 , 4158.46153846 , 4134.87179487 , 4134.35897436 , 4135.8974359 , 4137.94871795 , 4152.30769231 , 4234.35897436 , 4141.02564103 , 2045.0 , 2034.0 , 314.409 , 0.0 , 0.0 , 0.0 , 0.0 , 

39.0 , 4157.94871795 , 4211.28205128 , 4160.0 , 4198.46153846 , 4129.74358974 , 4131.79487179 , 4161.53846154 , 4135.38461538 , 4134.35897436 , 4135.8974359 , 4136.41025641 , 4153.84615385 , 4222.05128205 , 4136.92307692 , 2045.0 , 2033.0 , 314.416 , 0.0 , 0.0 , 0.0 , 0.0 , 

40.0 , 4130.76923077 , 4185.12820513 , 4150.25641026 , 4181.02564103 , 4134.87179487 , 4129.23076923 , 4152.82051282 , 4133.33333333 , 4134.35897436 , 4135.8974359 , 4128.71794872 , 4149.74358974 , 4191.28205128 , 4118.46153846 , 2044.0 , 2033.0 , 314.424 , 0.0 , 0.0 , 0.0 , 0.0 , 

41.0 , 4120.51282051 , 4169.23076923 , 4152.30769231 , 4178.97435897 , 4136.92307692 , 4132.30769231 , 4150.76923077 , 4133.84615385 , 4134.35897436 , 4135.8974359 , 4130.25641026 , 4142.56410256 , 4180.51282051 , 4107.17948718 , 2044.0 , 2033.0 , 314.433 , 0.0 , 0.0 , 0.0 , 0.0 , 

42.0 , 4148.20512821 , 4195.8974359 , 4167.17948718 , 4197.94871795 , 4135.8974359 , 4134.87179487 , 4161.02564103 , 4136.41025641 , 4134.35897436 , 4135.8974359 , 4144.61538462 , 4147.17948718 , 4211.28205128 , 4127.17948718 , 2043.0 , 2033.0 , 314.44 , 0.0 , 0.0 , 0.0 , 0.0 , 

43.0 , 4162.05128205 , 4214.35897436 , 4166.15384615 , 4200.0 , 4137.94871795 , 4133.33333333 , 4158.97435897 , 4137.94871795 , 4134.35897436 , 4135.8974359 , 4146.66666667 , 4151.79487179 , 4225.12820513 , 4138.46153846 , 2043.0 , 2033.0 , 314.45 , 0.0 , 0.0 , 0.0 , 0.0 , 

44.0 , 4130.76923077 , 4183.58974359 , 4153.84615385 , 4177.94871795 , 4138.46153846 , 4134.35897436 , 4149.23076923 , 4136.41025641 , 4134.35897436 , 4135.8974359 , 4131.79487179 , 4143.58974359 , 4189.23076923 , 4110.76923077 , 2043.0 , 2034.0 , 314.456 , 0.0 , 0.0 , 0.0 , 0.0 , 

45.0 , 4127.17948718 , 4177.43589744 , 4157.94871795 , 4182.05128205 , 4133.33333333 , 4138.46153846 , 4156.92307692 , 4135.8974359 , 4134.35897436 , 4135.8974359 , 4136.41025641 , 4145.12820513 , 4186.15384615 , 4105.64102564 , 2043.0 , 2034.0 , 314.466 , 0.0 , 0.0 , 0.0 , 0.0 , 

46.0 , 4159.48717949 , 4209.23076923 , 4163.07692308 , 4200.0 , 4133.33333333 , 4134.87179487 , 4164.1025641 , 4135.38461538 , 4134.35897436 , 4135.8974359 , 4149.74358974 , 4155.8974359 , 4224.61538462 , 4134.87179487 , 2041.0 , 2033.0 , 314.471 , 0.0 , 0.0 , 0.0 , 0.0 , 

47.0 , 4141.53846154 , 4190.76923077 , 4154.87179487 , 4186.66666667 , 4137.94871795 , 4129.23076923 , 4151.79487179 , 4134.35897436 , 4134.35897436 , 4135.8974359 , 4137.43589744 , 4147.69230769 , 4206.66666667 , 4123.58974359 , 2041.0 , 2034.0 , 314.48 , 0.0 , 0.0 , 0.0 , 0.0 , 

48.0 , 4113.84615385 , 4165.12820513 , 4151.79487179 , 4176.41025641 , 4136.41025641 , 4132.82051282 , 4147.17948718 , 4134.87179487 , 4134.35897436 , 4135.8974359 , 4129.23076923 , 4140.51282051 , 4175.38461538 , 4102.05128205 , 2044.0 , 2033.0 , 314.487 , 0.0 , 0.0 , 0.0 , 0.0 , 

49.0 , 4135.38461538 , 4186.66666667 , 4156.92307692 , 4192.30769231 , 4130.25641026 , 4137.43589744 , 4157.94871795 , 4136.92307692 , 4134.35897436 , 4135.8974359 , 4141.02564103 , 4145.64102564 , 4196.92307692 , 4116.92307692 , 2044.0 , 2033.0 , 314.496 , 0.0 , 0.0 , 0.0 , 0.0 , 

50.0 , 4153.84615385 , 4202.56410256 , 4160.51282051 , 4200.0 , 4131.28205128 , 4134.35897436 , 4163.58974359 , 4135.8974359 , 4134.35897436 , 4135.8974359 , 4141.53846154 , 4146.66666667 , 4218.46153846 , 4132.30769231 , 2043.0 , 2036.0 , 314.503 , 0.0 , 0.0 , 0.0 , 0.0 , 

51.0 , 4129.74358974 , 4182.56410256 , 4161.02564103 , 4186.66666667 , 4139.48717949 , 4131.28205128 , 4155.38461538 , 4133.84615385 , 4134.35897436 , 4135.8974359 , 4131.28205128 , 4142.05128205 , 4200.51282051 , 4119.48717949 , 2045.0 , 2038.0 , 314.512 , 0.0 , 0.0 , 0.0 , 0.0 , 

52.0 , 4119.48717949 , 4177.94871795 , 4156.41025641 , 4184.61538462 , 4137.94871795 , 4130.25641026 , 4150.76923077 , 4132.82051282 , 4134.35897436 , 4135.8974359 , 4135.8974359 , 4144.61538462 , 4193.33333333 , 4108.20512821 , 2045.0 , 2037.0 , 314.52 , 0.0 , 0.0 , 0.0 , 0.0 , 

53.0 , 4135.8974359 , 4192.30769231 , 4153.84615385 , 4190.76923077 , 4130.76923077 , 4134.87179487 , 4156.41025641 , 4134.87179487 , 4134.35897436 , 4135.8974359 , 4140.0 , 4148.20512821 , 4203.07692308 , 4113.84615385 , 2047.0 , 2035.0 , 314.528 , 0.0 , 0.0 , 0.0 , 0.0 , 

54.0 , 4137.94871795 , 4189.74358974 , 4155.8974359 , 4185.12820513 , 4132.30769231 , 4136.41025641 , 4155.38461538 , 4136.92307692 , 4134.35897436 , 4135.8974359 , 4133.84615385 , 4145.64102564 , 4201.53846154 , 4122.56410256 , 2047.0 , 2035.0 , 314.534 , 0.0 , 0.0 , 0.0 , 0.0 , 

55.0 , 4119.48717949 , 4172.30769231 , 4154.87179487 , 4173.84615385 , 4136.41025641 , 4130.76923077 , 4149.23076923 , 4136.41025641 , 4134.35897436 , 4135.8974359 , 4129.74358974 , 4143.07692308 , 4184.1025641 , 4116.41025641 , 2047.0 , 2035.0 , 314.543 , 0.0 , 0.0 , 0.0 , 0.0 , 

56.0 , 4114.87179487 , 4169.74358974 , 4152.30769231 , 4174.87179487 , 4133.84615385 , 4129.74358974 , 4152.82051282 , 4135.8974359 , 4136.41025641 , 4135.8974359 , 4134.35897436 , 4145.12820513 , 4178.46153846 , 4106.15384615 , 2048.0 , 2033.0 , 314.55 , 0.0 , 0.0 , 0.0 , 0.0 , 

57.0 , 4122.56410256 , 4175.8974359 , 4155.8974359 , 4178.46153846 , 4130.76923077 , 4133.84615385 , 4154.87179487 , 4136.92307692 , 4136.92307692 , 4135.8974359 , 4135.8974359 , 4148.71794872 , 4185.12820513 , 4105.64102564 , 2047.0 , 2034.0 , 314.558 , 0.0 , 0.0 , 0.0 , 0.0 , 

58.0 , 4142.05128205 , 4194.35897436 , 4166.66666667 , 4187.69230769 , 4133.33333333 , 4134.87179487 , 4156.92307692 , 4137.43589744 , 4135.8974359 , 4135.8974359 , 4142.56410256 , 4152.30769231 , 4209.74358974 , 4130.25641026 , 2046.0 , 2036.0 , 314.566 , 0.0 , 0.0 , 0.0 , 0.0 , 

59.0 , 4152.82051282 , 4207.69230769 , 4167.17948718 , 4192.82051282 , 4136.92307692 , 4130.25641026 , 4156.92307692 , 4138.46153846 , 4134.87179487 , 4135.8974359 , 4145.64102564 , 4153.84615385 , 4226.66666667 , 4147.17948718 , 2044.0 , 2036.0 , 314.574 , 0.0 , 0.0 , 0.0 , 0.0 , 

60.0 , 4119.48717949 , 4176.92307692 , 4156.41025641 , 4172.30769231 , 4136.41025641 , 4128.71794872 , 4146.15384615 , 4137.43589744 , 4134.87179487 , 4135.8974359 , 4130.76923077 , 4147.69230769 , 4188.71794872 , 4117.94871795 , 2042.0 , 2036.0 , 314.583 , 0.0 , 0.0 , 0.0 , 0.0 , 

61.0 , 4098.46153846 , 4154.87179487 , 4153.84615385 , 4161.53846154 , 4136.92307692 , 4135.38461538 , 4144.61538462 , 4134.87179487 , 4134.87179487 , 4135.8974359 , 4124.1025641 , 4143.07692308 , 4161.53846154 , 4101.53846154 , 2041.0 , 2037.0 , 314.59 , 0.0 , 0.0 , 0.0 , 0.0 , 

62.0 , 4131.28205128 , 4187.69230769 , 4160.0 , 4180.0 , 4135.8974359 , 4139.48717949 , 4158.46153846 , 4135.38461538 , 4135.8974359 , 4135.8974359 , 4134.87179487 , 4148.20512821 , 4193.33333333 , 4133.33333333 , 2041.0 , 2036.0 , 314.599 , 0.0 , 0.0 , 0.0 , 0.0 , 

63.0 , 4139.48717949 , 4193.84615385 , 4156.92307692 , 4180.0 , 4134.87179487 , 4135.38461538 , 4154.35897436 , 4135.8974359 , 4136.41025641 , 4135.8974359 , 4131.28205128 , 4148.20512821 , 4200.51282051 , 4140.0 , 2041.0 , 2038.0 , 314.605 , 0.0 , 0.0 , 0.0 , 0.0 , 

64.0 , 4109.23076923 , 4158.46153846 , 4151.79487179 , 4163.07692308 , 4136.41025641 , 4132.30769231 , 4142.56410256 , 4133.84615385 , 4135.8974359 , 4135.8974359 , 4120.0 , 4143.58974359 , 4162.05128205 , 4109.74358974 , 2042.0 , 2036.0 , 314.614 , 0.0 , 0.0 , 0.0 , 0.0 , 

65.0 , 4107.17948718 , 4161.53846154 , 4155.8974359 , 4168.20512821 , 4137.43589744 , 4133.84615385 , 4147.69230769 , 4133.33333333 , 4135.8974359 , 4135.8974359 , 4128.20512821 , 4143.07692308 , 4158.97435897 , 4109.23076923 , 2041.0 , 2035.0 , 314.621 , 0.0 , 0.0 , 0.0 , 0.0 , 

66.0 , 4126.66666667 , 4186.15384615 , 4161.53846154 , 4183.07692308 , 4136.41025641 , 4131.79487179 , 4151.28205128 , 4137.43589744 , 4135.8974359 , 4135.8974359 , 4139.48717949 , 4146.66666667 , 4189.74358974 , 4130.25641026 , 2042.0 , 2033.0 , 314.63 , 0.0 , 0.0 , 0.0 , 0.0 , 

67.0 , 4119.48717949 , 4174.35897436 , 4157.94871795 , 4174.87179487 , 4135.38461538 , 4132.82051282 , 4146.15384615 , 4137.43589744 , 4135.8974359 , 4135.8974359 , 4131.79487179 , 4142.05128205 , 4184.61538462 , 4122.05128205 , 2041.0 , 2032.0 , 314.637 , 0.0 , 0.0 , 0.0 , 0.0 , 

68.0 , 4091.79487179 , 4143.07692308 , 4149.74358974 , 4158.97435897 , 4136.41025641 , 4136.92307692 , 4147.17948718 , 4134.35897436 , 4135.8974359 , 4135.8974359 , 4123.07692308 , 4134.35897436 , 4148.71794872 , 4094.87179487 , 2041.0 , 2030.0 , 314.646 , 0.0 , 0.0 , 0.0 , 0.0 , 

69.0 , 4116.41025641 , 4168.20512821 , 4157.43589744 , 4176.41025641 , 4135.38461538 , 4135.8974359 , 4156.41025641 , 4134.87179487 , 4135.8974359 , 4135.8974359 , 4139.48717949 , 4143.58974359 , 4176.92307692 , 4120.0 , 2043.0 , 2031.0 , 314.653 , 0.0 , 0.0 , 0.0 , 0.0 , 

70.0 , 4153.84615385 , 4204.1025641 , 4167.17948718 , 4192.30769231 , 4135.38461538 , 4134.87179487 , 4156.92307692 , 4137.94871795 , 4135.8974359 , 4135.8974359 , 4145.64102564 , 4153.33333333 , 4219.48717949 , 4154.87179487 , 2042.0 , 2031.0 , 314.662 , 0.0 , 0.0 , 0.0 , 0.0 , 

71.0 , 4136.41025641 , 4183.58974359 , 4157.94871795 , 4174.35897436 , 4135.8974359 , 4134.35897436 , 4146.66666667 , 4135.8974359 , 4135.8974359 , 4135.8974359 , 4127.69230769 , 4143.07692308 , 4192.82051282 , 4134.87179487 , 2044.0 , 2032.0 , 314.668 , 0.0 , 0.0 , 0.0 , 0.0 , 

72.0 , 4097.94871795 , 4145.64102564 , 4149.23076923 , 4157.43589744 , 4136.92307692 , 4135.38461538 , 4143.07692308 , 4130.76923077 , 4135.8974359 , 4135.8974359 , 4122.56410256 , 4134.87179487 , 4146.66666667 , 4102.05128205 , 2044.0 , 2033.0 , 314.677 , 0.0 , 0.0 , 0.0 , 0.0 , 

73.0 , 4102.05128205 , 4153.84615385 , 4156.92307692 , 4166.66666667 , 4137.43589744 , 4134.87179487 , 4148.20512821 , 4131.28205128 , 4135.8974359 , 4135.8974359 , 4136.41025641 , 4138.97435897 , 4157.43589744 , 4110.25641026 , 2043.0 , 2034.0 , 314.684 , 0.0 , 0.0 , 0.0 , 0.0 , 

74.0 , 4112.30769231 , 4163.07692308 , 4163.58974359 , 4169.23076923 , 4135.8974359 , 4133.84615385 , 4146.66666667 , 4135.38461538 , 4135.8974359 , 4135.8974359 , 4135.8974359 , 4139.48717949 , 4172.30769231 , 4114.35897436 , 2044.0 , 2036.0 , 314.693 , 0.0 , 0.0 , 0.0 , 0.0 , 

75.0 , 4114.35897436 , 4160.0 , 4157.94871795 , 4167.69230769 , 4133.33333333 , 4133.33333333 , 4145.64102564 , 4136.92307692 , 4135.8974359 , 4135.8974359 , 4133.33333333 , 4137.43589744 , 4167.69230769 , 4108.71794872 , 2044.0 , 2035.0 , 314.7 , 0.0 , 0.0 , 0.0 , 0.0 , 

76.0 , 4110.25641026 , 4156.92307692 , 4151.79487179 , 4164.61538462 , 4135.38461538 , 4132.30769231 , 4147.69230769 , 4135.8974359 , 4135.8974359 , 4135.8974359 , 4132.82051282 , 4137.43589744 , 4156.41025641 , 4106.66666667 , 2043.0 , 2036.0 , 314.709 , 0.0 , 0.0 , 0.0 , 0.0 , 

77.0 , 4097.43589744 , 4144.1025641 , 4152.30769231 , 4157.43589744 , 4138.97435897 , 4130.76923077 , 4147.69230769 , 4135.38461538 , 4135.8974359 , 4135.8974359 , 4130.25641026 , 4135.8974359 , 4147.69230769 , 4098.97435897 , 2044.0 , 2036.0 , 314.716 , 0.0 , 0.0 , 0.0 , 0.0 , 

78.0 , 4115.38461538 , 4157.43589744 , 4159.48717949 , 4173.33333333 , 4135.8974359 , 4131.79487179 , 4151.79487179 , 4135.8974359 , 4135.8974359 , 4135.8974359 , 4142.56410256 , 4137.43589744 , 4174.87179487 , 4116.41025641 , 2045.0 , 2034.0 , 314.724 , 0.0 , 0.0 , 0.0 , 0.0 , 

79.0 , 4132.82051282 , 4177.94871795 , 4158.46153846 , 4183.58974359 , 4133.33333333 , 4133.84615385 , 4154.35897436 , 4136.41025641 , 4135.8974359 , 4135.8974359 , 4147.17948718 , 4141.02564103 , 4188.71794872 , 4131.28205128 , 2044.0 , 2034.0 , 314.732 , 0.0 , 0.0 , 0.0 , 0.0 , 

80.0 , 4116.41025641 , 4167.17948718 , 4152.82051282 , 4167.69230769 , 4135.8974359 , 4129.74358974 , 4149.74358974 , 4136.92307692 , 4135.8974359 , 4135.8974359 , 4136.92307692 , 4137.94871795 , 4165.12820513 , 4116.41025641 , 2043.0 , 2032.0 , 314.739 , 0.0 , 0.0 , 0.0 , 0.0 , 

81.0 , 4108.71794872 , 4155.8974359 , 4155.38461538 , 4161.53846154 , 4135.38461538 , 4129.23076923 , 4147.17948718 , 4135.8974359 , 4136.41025641 , 4135.8974359 , 4137.94871795 , 4136.92307692 , 4160.51282051 , 4110.25641026 , 2044.0 , 2032.0 , 314.748 , 0.0 , 0.0 , 0.0 , 0.0 , 

82.0 , 4108.71794872 , 4153.33333333 , 4155.38461538 , 4163.58974359 , 4134.87179487 , 4133.84615385 , 4146.15384615 , 4135.38461538 , 4135.8974359 , 4135.8974359 , 4140.0 , 4137.94871795 , 4163.58974359 , 4105.64102564 , 2043.0 , 2031.0 , 314.755 , 0.0 , 0.0 , 0.0 , 0.0 , 

83.0 , 4104.61538462 , 4150.76923077 , 4153.84615385 , 4167.17948718 , 4136.92307692 , 4137.94871795 , 4147.17948718 , 4136.92307692 , 4134.35897436 , 4135.8974359 , 4136.41025641 , 4137.43589744 , 4156.41025641 , 4098.46153846 , 2042.0 , 2030.0 , 314.765 , 0.0 , 0.0 , 0.0 , 0.0 , 

84.0 , 4100.0 , 4148.71794872 , 4154.87179487 , 4169.74358974 , 4136.92307692 , 4137.43589744 , 4146.15384615 , 4136.41025641 , 4134.35897436 , 4135.8974359 , 4132.82051282 , 4134.87179487 , 4151.28205128 , 4100.51282051 , 2042.0 , 2030.0 , 314.771 , 0.0 , 0.0 , 0.0 , 0.0 , 

85.0 , 4081.53846154 , 4133.84615385 , 4154.87179487 , 4162.05128205 , 4133.33333333 , 4132.30769231 , 4142.56410256 , 4135.8974359 , 4134.35897436 , 4135.8974359 , 4127.17948718 , 4134.87179487 , 4129.74358974 , 4089.23076923 , 2043.0 , 2030.0 , 314.78 , 0.0 , 0.0 , 0.0 , 0.0 , 

86.0 , 4086.66666667 , 4138.46153846 , 4155.38461538 , 4164.61538462 , 4134.87179487 , 4131.79487179 , 4144.1025641 , 4137.43589744 , 4134.35897436 , 4135.8974359 , 4135.38461538 , 4139.48717949 , 4134.87179487 , 4090.76923077 , 2042.0 , 2030.0 , 314.787 , 0.0 , 0.0 , 0.0 , 0.0 , 

87.0 , 4112.82051282 , 4161.02564103 , 4156.41025641 , 4175.38461538 , 4136.92307692 , 4138.46153846 , 4148.20512821 , 4138.46153846 , 4134.35897436 , 4135.8974359 , 4145.64102564 , 4140.51282051 , 4167.69230769 , 4113.33333333 , 2040.0 , 2031.0 , 314.795 , 0.0 , 0.0 , 0.0 , 0.0 , 

88.0 , 4090.25641026 , 4143.07692308 , 4153.33333333 , 4157.94871795 , 4134.87179487 , 4138.97435897 , 4144.61538462 , 4136.92307692 , 4134.35897436 , 4135.8974359 , 4129.74358974 , 4134.87179487 , 4146.66666667 , 4097.94871795 , 2041.0 , 2033.0 , 314.802 , 0.0 , 0.0 , 0.0 , 0.0 , 

89.0 , 4062.56410256 , 4119.48717949 , 4153.84615385 , 4146.66666667 , 4136.92307692 , 4129.23076923 , 4141.53846154 , 4136.41025641 , 4134.35897436 , 4135.8974359 , 4124.61538462 , 4134.35897436 , 4114.35897436 , 4072.30769231 , 2042.0 , 2033.0 , 314.811 , 0.0 , 0.0 , 0.0 , 0.0 , 

90.0 , 4096.92307692 , 4150.25641026 , 4156.92307692 , 4175.38461538 , 4135.8974359 , 4127.69230769 , 4147.17948718 , 4136.41025641 , 4134.35897436 , 4135.8974359 , 4145.64102564 , 4137.94871795 , 4152.82051282 , 4102.56410256 , 2041.0 , 2036.0 , 314.818 , 0.0 , 0.0 , 0.0 , 0.0 , 

91.0 , 4096.41025641 , 4147.69230769 , 4153.33333333 , 4170.76923077 , 4131.79487179 , 4138.46153846 , 4146.15384615 , 4134.35897436 , 4134.35897436 , 4135.8974359 , 4137.94871795 , 4134.87179487 , 4151.79487179 , 4101.53846154 , 2040.0 , 2036.0 , 314.827 , 0.0 , 0.0 , 0.0 , 0.0 , 

92.0 , 4063.07692308 , 4117.94871795 , 4149.74358974 , 4146.15384615 , 4133.33333333 , 4138.97435897 , 4142.05128205 , 4132.82051282 , 4134.35897436 , 4135.8974359 , 4124.1025641 , 4135.38461538 , 4110.25641026 , 4070.25641026 , 2044.0 , 2037.0 , 314.834 , 0.0 , 0.0 , 0.0 , 0.0 , 

93.0 , 4073.33333333 , 4130.25641026 , 4153.33333333 , 4151.28205128 , 4133.33333333 , 4130.25641026 , 4142.05128205 , 4135.8974359 , 4134.35897436 , 4135.8974359 , 4135.38461538 , 4139.48717949 , 4123.07692308 , 4082.56410256 , 2044.0 , 2035.0 , 314.843 , 0.0 , 0.0 , 0.0 , 0.0 , 

94.0 , 4070.25641026 , 4127.17948718 , 4154.35897436 , 4152.82051282 , 4129.74358974 , 4130.25641026 , 4141.02564103 , 4138.46153846 , 4134.35897436 , 4135.8974359 , 4133.33333333 , 4130.25641026 , 4124.1025641 , 4082.56410256 , 2044.0 , 2033.0 , 314.85 , 0.0 , 0.0 , 0.0 , 0.0 , 

95.0 , 4043.58974359 , 4099.48717949 , 4151.28205128 , 4143.58974359 , 4134.87179487 , 4132.82051282 , 4140.51282051 , 4135.38461538 , 4134.35897436 , 4136.41025641 , 4119.48717949 , 4122.56410256 , 4092.82051282 , 4055.38461538 , 2043.0 , 2033.0 , 314.857 , 0.0 , 0.0 , 0.0 , 0.0 , 

96.0 , 4066.66666667 , 4121.02564103 , 4151.79487179 , 4154.87179487 , 4138.46153846 , 4132.30769231 , 4144.1025641 , 4132.30769231 , 4134.35897436 , 4137.43589744 , 4131.28205128 , 4133.84615385 , 4115.38461538 , 4070.25641026 , 2043.0 , 2033.0 , 314.866 , 0.0 , 0.0 , 0.0 , 0.0 , 

97.0 , 4107.69230769 , 4157.94871795 , 4155.38461538 , 4171.28205128 , 4134.87179487 , 4131.79487179 , 4148.71794872 , 4134.35897436 , 4134.35897436 , 4136.92307692 , 4147.17948718 , 4144.1025641 , 4161.02564103 , 4107.69230769 , 2042.0 , 2033.0 , 314.873 , 0.0 , 0.0 , 0.0 , 0.0 , 

98.0 , 4090.76923077 , 4141.02564103 , 4153.84615385 , 4162.56410256 , 4137.43589744 , 4131.28205128 , 4145.64102564 , 4137.94871795 , 4134.35897436 , 4136.41025641 , 4136.41025641 , 4134.35897436 , 4146.15384615 , 4102.05128205 , 2044.0 , 2032.0 , 314.882 , 0.0 , 0.0 , 0.0 , 0.0 , 

99.0 , 4056.92307692 , 4112.30769231 , 4149.74358974 , 4147.69230769 , 4135.8974359 , 4132.82051282 , 4137.94871795 , 4136.41025641 , 4134.35897436 , 4136.92307692 , 4123.58974359 , 4125.64102564 , 4109.23076923 , 4074.35897436 , 2043.0 , 2032.0 , 314.889 , 0.0 , 0.0 , 0.0 , 0.0 , 

100.0 , 4061.53846154 , 4117.94871795 , 4151.79487179 , 4148.71794872 , 4128.71794872 , 4136.41025641 , 4138.97435897 , 4132.30769231 , 4134.35897436 , 4136.92307692 , 4130.25641026 , 4132.30769231 , 4110.76923077 , 4068.71794872 , 2042.0 , 2032.0 , 314.899 , 0.0 , 0.0 , 0.0 , 0.0 , 

101.0 , 4074.87179487 , 4129.74358974 , 4153.33333333 , 4155.38461538 , 4132.30769231 , 4134.87179487 , 4143.07692308 , 4133.33333333 , 4134.35897436 , 4136.92307692 , 4135.8974359 , 4137.94871795 , 4126.15384615 , 4079.48717949 , 2041.0 , 2031.0 , 314.907 , 0.0 , 0.0 , 0.0 , 0.0 , 

102.0 , 4061.53846154 , 4119.48717949 , 4150.76923077 , 4147.69230769 , 4135.38461538 , 4131.28205128 , 4141.53846154 , 4136.41025641 , 4134.35897436 , 4136.92307692 , 4127.17948718 , 4128.71794872 , 4112.82051282 , 4073.84615385 , 2043.0 , 2033.0 , 314.916 , 0.0 , 0.0 , 0.0 , 0.0 , 

103.0 , 4051.79487179 , 4109.74358974 , 4150.25641026 , 4143.07692308 , 4133.33333333 , 4133.84615385 , 4141.53846154 , 4136.41025641 , 4134.35897436 , 4136.92307692 , 4126.15384615 , 4123.07692308 , 4100.0 , 4061.02564103 , 2042.0 , 2034.0 , 314.922 , 0.0 , 0.0 , 0.0 , 0.0 , 

104.0 , 4062.05128205 , 4113.84615385 , 4152.82051282 , 4153.84615385 , 4135.8974359 , 4136.92307692 , 4143.58974359 , 4135.38461538 , 4134.35897436 , 4136.92307692 , 4135.8974359 , 4128.71794872 , 4111.79487179 , 4067.69230769 , 2042.0 , 2035.0 , 314.93 , 0.0 , 0.0 , 0.0 , 0.0 , 

105.0 , 4070.25641026 , 4125.64102564 , 4152.82051282 , 4161.53846154 , 4136.92307692 , 4134.35897436 , 4143.07692308 , 4135.38461538 , 4134.35897436 , 4136.92307692 , 4140.0 , 4132.82051282 , 4124.1025641 , 4082.56410256 , 2044.0 , 2036.0 , 314.937 , 0.0 , 0.0 , 0.0 , 0.0 , 

106.0 , 4061.53846154 , 4122.56410256 , 4150.76923077 , 4157.43589744 , 4137.43589744 , 4129.23076923 , 4141.53846154 , 4135.38461538 , 4134.35897436 , 4136.92307692 , 4134.35897436 , 4129.74358974 , 4114.35897436 , 4076.92307692 , 2042.0 , 2037.0 , 314.946 , 0.0 , 0.0 , 0.0 , 0.0 , 

107.0 , 4065.12820513 , 4122.05128205 , 4150.76923077 , 4160.51282051 , 4135.8974359 , 4129.23076923 , 4143.07692308 , 4134.87179487 , 4134.35897436 , 4136.92307692 , 4133.33333333 , 4128.71794872 , 4114.87179487 , 4074.87179487 , 2042.0 , 2036.0 , 314.953 , 0.0 , 0.0 , 0.0 , 0.0 , 

108.0 , 4060.0 , 4112.82051282 , 4152.30769231 , 4155.8974359 , 4130.25641026 , 4135.38461538 , 4143.07692308 , 4135.8974359 , 4134.35897436 , 4136.92307692 , 4131.28205128 , 4129.23076923 , 4104.61538462 , 4067.17948718 , 2041.0 , 2035.0 , 314.962 , 0.0 , 0.0 , 0.0 , 0.0 , 

109.0 , 4054.35897436 , 4110.25641026 , 4152.30769231 , 4150.76923077 , 4130.25641026 , 4137.43589744 , 4142.56410256 , 4135.8974359 , 4134.35897436 , 4136.92307692 , 4133.84615385 , 4130.76923077 , 4106.15384615 , 4069.74358974 , 2042.0 , 2035.0 , 314.969 , 0.0 , 0.0 , 0.0 , 0.0 , 

110.0 , 4070.25641026 , 4123.58974359 , 4152.82051282 , 4156.92307692 , 4131.79487179 , 4135.38461538 , 4142.56410256 , 4136.41025641 , 4134.35897436 , 4136.92307692 , 4143.58974359 , 4134.35897436 , 4137.94871795 , 4093.33333333 , 2043.0 , 2036.0 , 314.978 , 0.0 , 0.0 , 0.0 , 0.0 , 

111.0 , 4081.02564103 , 4122.56410256 , 4153.33333333 , 4158.46153846 , 4129.23076923 , 4133.84615385 , 4142.56410256 , 4135.38461538 , 4134.35897436 , 4136.92307692 , 4144.1025641 , 4135.38461538 , 4149.23076923 , 4099.48717949 , 2043.0 , 2036.0 , 314.984 , 0.0 , 0.0 , 0.0 , 0.0 , 

112.0 , 4076.41025641 , 4109.23076923 , 4152.30769231 , 4150.76923077 , 4133.84615385 , 4131.79487179 , 4143.58974359 , 4135.38461538 , 4134.35897436 , 4136.92307692 , 4136.92307692 , 4134.35897436 , 4142.56410256 , 4090.25641026 , 2042.0 , 2036.0 , 314.992 , 0.0 , 0.0 , 0.0 , 0.0 , 

113.0 , 4078.46153846 , 4108.71794872 , 4152.30769231 , 4150.25641026 , 4138.46153846 , 4131.79487179 , 4144.1025641 , 4136.41025641 , 4134.35897436 , 4136.92307692 , 4140.51282051 , 4135.8974359 , 4158.46153846 , 4103.07692308 , 2042.0 , 2035.0 , 315.0 , 0.0 , 0.0 , 0.0 , 0.0 , 

114.0 , 4074.35897436 , 4101.53846154 , 4152.82051282 , 4149.23076923 , 4137.43589744 , 4135.8974359 , 4140.0 , 4135.38461538 , 4135.38461538 , 4136.92307692 , 4141.02564103 , 4136.41025641 , 4152.82051282 , 4102.56410256 , 2042.0 , 2037.0 , 315.008 , 0.0 , 0.0 , 0.0 , 0.0 , 

115.0 , 4069.74358974 , 4098.97435897 , 4151.79487179 , 4150.25641026 , 4137.43589744 , 4134.35897436 , 4140.51282051 , 4135.38461538 , 4135.38461538 , 4136.92307692 , 4137.94871795 , 4135.38461538 , 4140.51282051 , 4087.69230769 , 2042.0 , 2034.0 , 315.017 , 0.0 , 0.0 , 0.0 , 0.0 , 

116.0 , 4080.0 , 4112.82051282 , 4152.30769231 , 4153.84615385 , 4134.35897436 , 4133.33333333 , 4144.1025641 , 4135.8974359 , 4135.38461538 , 4136.92307692 , 4138.97435897 , 4134.87179487 , 4155.8974359 , 4093.84615385 , 2042.0 , 2035.0 , 315.024 , 0.0 , 0.0 , 0.0 , 0.0 , 

117.0 , 4082.05128205 , 4111.28205128 , 4153.84615385 , 4151.28205128 , 4129.74358974 , 4136.41025641 , 4144.61538462 , 4134.35897436 , 4135.38461538 , 4136.92307692 , 4141.02564103 , 4135.8974359 , 4158.97435897 , 4103.07692308 , 2042.0 , 2033.0 , 315.033 , 0.0 , 0.0 , 0.0 , 0.0 , 

118.0 , 4067.69230769 , 4095.8974359 , 4151.79487179 , 4144.1025641 , 4132.82051282 , 4134.35897436 , 4141.53846154 , 4133.33333333 , 4135.38461538 , 4136.92307692 , 4136.92307692 , 4133.84615385 , 4136.41025641 , 4091.28205128 , 2043.0 , 2034.0 , 315.04 , 0.0 , 0.0 , 0.0 , 0.0 , 

119.0 , 4071.79487179 , 4105.64102564 , 4152.30769231 , 4148.71794872 , 4133.84615385 , 4128.71794872 , 4141.02564103 , 4135.38461538 , 4135.38461538 , 4136.41025641 , 4139.48717949 , 4136.41025641 , 4140.0 , 4091.28205128 , 2045.0 , 2034.0 , 315.049 , 0.0 , 0.0 , 0.0 , 0.0 , 

120.0 , 4080.51282051 , 4117.94871795 , 4154.35897436 , 4152.30769231 , 4131.79487179 , 4134.35897436 , 4144.1025641 , 4136.41025641 , 4135.38461538 , 4135.8974359 , 4143.58974359 , 4137.94871795 , 4153.84615385 , 4097.43589744 , 2044.0 , 2035.0 , 315.055 , 0.0 , 0.0 , 0.0 , 0.0 , 

121.0 , 4062.56410256 , 4098.97435897 , 4151.79487179 , 4144.61538462 , 4135.8974359 , 4139.48717949 , 4141.53846154 , 4134.87179487 , 4135.38461538 , 4135.38461538 , 4138.46153846 , 4130.76923077 , 4134.87179487 , 4080.51282051 , 2046.0 , 2035.0 , 315.064 , 0.0 , 0.0 , 0.0 , 0.0 , 

122.0 , 4053.84615385 , 4090.76923077 , 4150.76923077 , 4146.15384615 , 4138.97435897 , 4135.38461538 , 4138.46153846 , 4135.8974359 , 4135.38461538 , 4134.35897436 , 4139.48717949 , 4127.17948718 , 4124.61538462 , 4074.87179487 , 2046.0 , 2035.0 , 315.071 , 0.0 , 0.0 , 0.0 , 0.0 , 

123.0 , 4067.69230769 , 4106.66666667 , 4152.82051282 , 4153.84615385 , 4134.87179487 , 4135.38461538 , 4143.07692308 , 4136.92307692 , 4135.38461538 , 4133.84615385 , 4146.15384615 , 4135.8974359 , 4142.05128205 , 4092.82051282 , 2046.0 , 2036.0 , 315.079 , 0.0 , 0.0 , 0.0 , 0.0 , 

124.0 , 4066.66666667 , 4107.17948718 , 4152.30769231 , 4147.69230769 , 4132.30769231 , 4137.94871795 , 4143.58974359 , 4136.92307692 , 4135.38461538 , 4135.8974359 , 4141.53846154 , 4139.48717949 , 4143.58974359 , 4094.35897436 , 2045.0 , 2035.0 , 315.088 , 0.0 , 0.0 , 0.0 , 0.0 , 

125.0 , 4046.66666667 , 4086.66666667 , 4150.76923077 , 4137.94871795 , 4133.84615385 , 4134.87179487 , 4138.97435897 , 4136.92307692 , 4135.38461538 , 4137.43589744 , 4132.30769231 , 4134.35897436 , 4121.02564103 , 4076.92307692 , 2045.0 , 2035.0 , 315.097 , 0.0 , 0.0 , 0.0 , 0.0 , 

126.0 , 4053.33333333 , 4094.87179487 , 4152.30769231 , 4144.1025641 , 4133.84615385 , 4132.82051282 , 4140.51282051 , 4136.41025641 , 4135.38461538 , 4135.38461538 , 4137.43589744 , 4137.43589744 , 4130.25641026 , 4082.56410256 , 2044.0 , 2035.0 , 315.103 , 0.0 , 0.0 , 0.0 , 0.0 , 

127.0 , 4059.48717949 , 4104.1025641 , 4153.33333333 , 4141.02564103 , 4133.33333333 , 4136.41025641 , 4139.48717949 , 4134.87179487 , 4135.38461538 , 4134.35897436 , 4140.51282051 , 4137.94871795 , 4139.48717949 , 4088.71794872 , 2042.0 , 2031.0 , 315.112 , 0.0 , 0.0 , 0.0 , 0.0 , 

128.0 , 4045.64102564 , 4089.23076923 , 4152.30769231 , 4132.30769231 , 4134.35897436 , 4135.8974359 , 4134.35897436 , 4132.82051282 , 4135.38461538 , 4137.43589744 , 4132.30769231 , 4128.71794872 , 4117.94871795 , 4080.0 , 2043.0 , 2031.0 , 315.118 , 0.0 , 0.0 , 0.0 , 0.0 , 

0.0 , 4054.87179487 , 4094.87179487 , 4152.82051282 , 4146.15384615 , 4135.38461538 , 4132.82051282 , 4140.0 , 4134.87179487 , 4135.8974359 , 4138.46153846 , 4136.41025641 , 4129.23076923 , 4126.66666667 , 4094.87179487 , 2040.0 , 2027.0 , 315.126 , 0.0 , 0.0 , 0.0 , 0.0 , 

1.0 , 4068.71794872 , 4110.76923077 , 4153.33333333 , 4152.30769231 , 4133.84615385 , 4133.33333333 , 4142.05128205 , 4136.92307692 , 4135.8974359 , 4136.41025641 , 4143.07692308 , 4136.92307692 , 4148.71794872 , 4108.71794872 , 2041.0 , 2027.0 , 315.134 , 0.0 , 0.0 , 0.0 , 0.0 , 

2.0 , 4036.41025641 , 4080.51282051 , 4150.25641026 , 4127.69230769 , 4135.38461538 , 4131.79487179 , 4130.76923077 , 4135.38461538 , 4135.8974359 , 4135.8974359 , 4127.17948718 , 4127.17948718 , 4109.23076923 , 4076.92307692 , 2040.0 , 2028.0 , 315.142 , 0.0 , 0.0 , 0.0 , 0.0 , 

3.0 , 4031.79487179 , 4071.28205128 , 4149.74358974 , 4128.71794872 , 4134.87179487 , 4130.76923077 , 4135.8974359 , 4132.82051282 , 4135.8974359 , 4136.41025641 , 4126.66666667 , 4122.05128205 , 4097.43589744 , 4071.28205128 , 2040.0 , 2029.0 , 315.15 , 0.0 , 0.0 , 0.0 , 0.0 , 

4.0 , 4060.51282051 , 4099.48717949 , 4151.79487179 , 4148.71794872 , 4132.30769231 , 4131.28205128 , 4142.05128205 , 4132.82051282 , 4135.8974359 , 4136.41025641 , 4142.05128205 , 4131.79487179 , 4135.38461538 , 4103.58974359 , 2039.0 , 2031.0 , 315.158 , 0.0 , 0.0 , 0.0 , 0.0 , 

5.0 , 4050.76923077 , 4094.35897436 , 4152.30769231 , 4141.02564103 , 4132.30769231 , 4131.28205128 , 4133.33333333 , 4134.35897436 , 4135.8974359 , 4135.8974359 , 4136.41025641 , 4130.25641026 , 4125.12820513 , 4097.94871795 , 2042.0 , 2032.0 , 315.167 , 0.0 , 0.0 , 0.0 , 0.0 , 

6.0 , 4035.38461538 , 4077.94871795 , 4152.30769231 , 4129.23076923 , 4132.30769231 , 4134.35897436 , 4130.76923077 , 4132.82051282 , 4135.8974359 , 4135.8974359 , 4127.17948718 , 4124.61538462 , 4102.56410256 , 4079.48717949 , 2042.0 , 2032.0 , 315.174 , 0.0 , 0.0 , 0.0 , 0.0 , 

7.0 , 4042.56410256 , 4083.07692308 , 4152.30769231 , 4136.92307692 , 4131.79487179 , 4137.94871795 , 4131.28205128 , 4131.28205128 , 4135.8974359 , 4136.41025641 , 4135.8974359 , 4125.64102564 , 4109.74358974 , 4085.64102564 , 2043.0 , 2030.0 , 315.183 , 0.0 , 0.0 , 0.0 , 0.0 , 

8.0 , 4046.15384615 , 4093.33333333 , 4152.30769231 , 4142.56410256 , 4135.38461538 , 4136.41025641 , 4132.30769231 , 4132.30769231 , 4135.8974359 , 4137.43589744 , 4143.07692308 , 4128.20512821 , 4115.38461538 , 4088.71794872 , 2042.0 , 2031.0 , 315.189 , 0.0 , 0.0 , 0.0 , 0.0 , 

9.0 , 4059.48717949 , 4106.15384615 , 4152.82051282 , 4142.56410256 , 4137.43589744 , 4134.87179487 , 4143.58974359 , 4135.38461538 , 4135.8974359 , 4136.41025641 , 4143.58974359 , 4129.74358974 , 4127.69230769 , 4099.48717949 , 2042.0 , 2032.0 , 315.197 , 0.0 , 0.0 , 0.0 , 0.0 , 

10.0 , 4076.92307692 , 4117.43589744 , 4153.84615385 , 4146.15384615 , 4135.8974359 , 4133.33333333 , 4146.15384615 , 4133.84615385 , 4135.8974359 , 4136.41025641 , 4145.64102564 , 4132.30769231 , 4149.23076923 , 4118.97435897 , 2041.0 , 2031.0 , 315.205 , 0.0 , 0.0 , 0.0 , 0.0 , 

11.0 , 4055.38461538 , 4097.43589744 , 4151.28205128 , 4137.94871795 , 4136.92307692 , 4130.76923077 , 4136.92307692 , 4128.71794872 , 4135.8974359 , 4137.94871795 , 4138.97435897 , 4127.17948718 , 4124.1025641 , 4098.46153846 , 2043.0 , 2033.0 , 315.214 , 0.0 , 0.0 , 0.0 , 0.0 , 

12.0 , 4036.92307692 , 4079.48717949 , 4148.20512821 , 4130.25641026 , 4134.87179487 , 4130.76923077 , 4138.46153846 , 4129.74358974 , 4135.8974359 , 4137.43589744 , 4135.38461538 , 4122.56410256 , 4098.46153846 , 4075.8974359 , 2043.0 , 2034.0 , 315.221 , 0.0 , 0.0 , 0.0 , 0.0 , 

13.0 , 4045.64102564 , 4088.20512821 , 4150.25641026 , 4133.84615385 , 4130.25641026 , 4130.76923077 , 4136.92307692 , 4137.43589744 , 4135.8974359 , 4135.38461538 , 4137.43589744 , 4126.66666667 , 4107.69230769 , 4083.07692308 , 2042.0 , 2035.0 , 315.23 , 0.0 , 0.0 , 0.0 , 0.0 , 

14.0 , 4048.20512821 , 4094.87179487 , 4152.30769231 , 4135.38461538 , 4127.69230769 , 4130.76923077 , 4130.25641026 , 4135.8974359 , 4135.8974359 , 4134.87179487 , 4136.92307692 , 4123.58974359 , 4108.71794872 , 4086.66666667 , 2042.0 , 2033.0 , 315.237 , 0.0 , 0.0 , 0.0 , 0.0 , 

15.0 , 4043.58974359 , 4090.25641026 , 4151.28205128 , 4133.33333333 , 4127.17948718 , 4135.8974359 , 4138.46153846 , 4127.69230769 , 4135.8974359 , 4134.87179487 , 4138.46153846 , 4121.02564103 , 4102.05128205 , 4082.05128205 , 2043.0 , 2033.0 , 315.246 , 0.0 , 0.0 , 0.0 , 0.0 , 

16.0 , 4050.25641026 , 4092.30769231 , 4150.76923077 , 4135.8974359 , 4129.74358974 , 4137.43589744 , 4142.56410256 , 4130.76923077 , 4135.8974359 , 4134.87179487 , 4144.61538462 , 4123.58974359 , 4110.25641026 , 4088.20512821 , 2043.0 , 2034.0 , 315.253 , 0.0 , 0.0 , 0.0 , 0.0 , 

17.0 , 4053.84615385 , 4097.43589744 , 4152.30769231 , 4136.41025641 , 4135.8974359 , 4135.38461538 , 4135.38461538 , 4136.92307692 , 4135.8974359 , 4135.8974359 , 4146.66666667 , 4124.61538462 , 4111.28205128 , 4088.71794872 , 2043.0 , 2035.0 , 315.26 , 0.0 , 0.0 , 0.0 , 0.0 , 

18.0 , 4047.17948718 , 4093.84615385 , 4151.79487179 , 4133.84615385 , 4132.30769231 , 4133.84615385 , 4133.33333333 , 4133.84615385 , 4135.8974359 , 4136.92307692 , 4143.07692308 , 4123.07692308 , 4105.64102564 , 4078.46153846 , 2043.0 , 2032.0 , 315.268 , 0.0 , 0.0 , 0.0 , 0.0 , 

19.0 , 4030.25641026 , 4075.38461538 , 4150.25641026 , 4127.69230769 , 4126.66666667 , 4132.82051282 , 4133.84615385 , 4134.35897436 , 4135.8974359 , 4136.41025641 , 4136.41025641 , 4120.51282051 , 4091.79487179 , 4066.15384615 , 2042.0 , 2031.0 , 315.276 , 0.0 , 0.0 , 0.0 , 0.0 , 

20.0 , 4034.35897436 , 4079.48717949 , 4152.82051282 , 4130.76923077 , 4132.30769231 , 4132.82051282 , 4137.94871795 , 4137.43589744 , 4135.8974359 , 4135.8974359 , 4136.92307692 , 4123.58974359 , 4093.84615385 , 4072.30769231 , 2042.0 , 2033.0 , 315.284 , 0.0 , 0.0 , 0.0 , 0.0 , 

21.0 , 4047.69230769 , 4095.38461538 , 4153.33333333 , 4136.92307692 , 4135.8974359 , 4132.82051282 , 4142.05128205 , 4136.41025641 , 4135.8974359 , 4136.41025641 , 4140.0 , 4126.15384615 , 4106.66666667 , 4085.12820513 , 2042.0 , 2032.0 , 315.292 , 0.0 , 0.0 , 0.0 , 0.0 , 

22.0 , 4043.58974359 , 4091.28205128 , 4150.76923077 , 4138.46153846 , 4131.79487179 , 4131.28205128 , 4140.0 , 4135.8974359 , 4135.8974359 , 4136.41025641 , 4141.02564103 , 4123.07692308 , 4109.23076923 , 4084.1025641 , 2041.0 , 2032.0 , 315.3 , 0.0 , 0.0 , 0.0 , 0.0 , 

23.0 , 4046.15384615 , 4090.25641026 , 4149.74358974 , 4138.97435897 , 4128.20512821 , 4131.28205128 , 4139.48717949 , 4136.41025641 , 4135.8974359 , 4135.8974359 , 4143.07692308 , 4124.1025641 , 4109.23076923 , 4085.64102564 , 2043.0 , 2031.0 , 315.308 , 0.0 , 0.0 , 0.0 , 0.0 , 

24.0 , 4070.25641026 , 4112.30769231 , 4154.87179487 , 4147.17948718 , 4130.25641026 , 4131.79487179 , 4146.15384615 , 4134.35897436 , 4135.8974359 , 4136.41025641 , 4149.23076923 , 4132.82051282 , 4131.28205128 , 4105.64102564 , 2041.0 , 2031.0 , 315.316 , 0.0 , 0.0 , 0.0 , 0.0 , 

25.0 , 4054.35897436 , 4100.51282051 , 4150.76923077 , 4143.07692308 , 4131.79487179 , 4130.76923077 , 4140.0 , 4131.79487179 , 4135.8974359 , 4135.8974359 , 4142.56410256 , 4127.69230769 , 4119.48717949 , 4095.8974359 , 2041.0 , 2030.0 , 315.323 , 0.0 , 0.0 , 0.0 , 0.0 , 

26.0 , 4007.17948718 , 4058.46153846 , 4143.07692308 , 4125.12820513 , 4130.25641026 , 4132.30769231 , 4128.71794872 , 4130.25641026 , 4135.8974359 , 4135.8974359 , 4128.20512821 , 4116.41025641 , 4067.17948718 , 4053.84615385 , 2042.0 , 2030.0 , 315.331 , 0.0 , 0.0 , 0.0 , 0.0 , 

27.0 , 4025.64102564 , 4077.43589744 , 4150.76923077 , 4131.28205128 , 4132.82051282 , 4133.33333333 , 4136.41025641 , 4132.30769231 , 4135.8974359 , 4135.8974359 , 4138.97435897 , 4123.58974359 , 4083.07692308 , 4066.66666667 , 2041.0 , 2031.0 , 315.338 , 0.0 , 0.0 , 0.0 , 0.0 , 

28.0 , 4047.69230769 , 4099.48717949 , 4151.28205128 , 4134.87179487 , 4138.97435897 , 4130.25641026 , 4141.02564103 , 4133.33333333 , 4135.8974359 , 4135.8974359 , 4144.61538462 , 4126.66666667 , 4110.76923077 , 4089.23076923 , 2041.0 , 2028.0 , 315.347 , 0.0 , 0.0 , 0.0 , 0.0 , 

29.0 , 4013.84615385 , 4067.17948718 , 4140.51282051 , 4120.0 , 4135.8974359 , 4130.76923077 , 4131.79487179 , 4132.30769231 , 4136.41025641 , 4135.8974359 , 4127.17948718 , 4122.05128205 , 4072.82051282 , 4058.46153846 , 2041.0 , 2029.0 , 315.354 , 0.0 , 0.0 , 0.0 , 0.0 , 

30.0 , 4011.79487179 , 4061.53846154 , 4145.64102564 , 4126.15384615 , 4128.71794872 , 4134.35897436 , 4135.38461538 , 4132.82051282 , 4134.87179487 , 4135.8974359 , 4130.76923077 , 4131.79487179 , 4064.61538462 , 4052.82051282 , 2042.0 , 2029.0 , 315.364 , 0.0 , 0.0 , 0.0 , 0.0 , 

31.0 , 4055.8974359 , 4103.58974359 , 4158.46153846 , 4147.69230769 , 4133.33333333 , 4132.82051282 , 4145.64102564 , 4134.35897436 , 4134.35897436 , 4135.8974359 , 4150.76923077 , 4141.02564103 , 4117.94871795 , 4098.46153846 , 2043.0 , 2029.0 , 315.372 , 0.0 , 0.0 , 0.0 , 0.0 , 

32.0 , 4045.64102564 , 4100.0 , 4148.71794872 , 4139.48717949 , 4136.41025641 , 4128.20512821 , 4137.43589744 , 4132.30769231 , 4135.38461538 , 4135.8974359 , 4142.56410256 , 4132.30769231 , 4117.43589744 , 4096.92307692 , 2044.0 , 2031.0 , 315.38 , 0.0 , 0.0 , 0.0 , 0.0 , 

33.0 , 4007.17948718 , 4066.66666667 , 4136.41025641 , 4121.02564103 , 4132.30769231 , 4132.30769231 , 4128.71794872 , 4133.33333333 , 4134.35897436 , 4135.8974359 , 4127.69230769 , 4123.58974359 , 4076.92307692 , 4062.05128205 , 2045.0 , 2029.0 , 315.386 , 0.0 , 0.0 , 0.0 , 0.0 , 

34.0 , 4012.82051282 , 4069.23076923 , 4146.15384615 , 4125.64102564 , 4134.87179487 , 4137.94871795 , 4133.84615385 , 4137.43589744 , 4132.82051282 , 4135.8974359 , 4134.35897436 , 4129.74358974 , 4075.8974359 , 4064.61538462 , 2046.0 , 2029.0 , 315.395 , 0.0 , 0.0 , 0.0 , 0.0 , 

35.0 , 4035.38461538 , 4089.23076923 , 4155.8974359 , 4136.41025641 , 4135.8974359 , 4135.38461538 , 4138.97435897 , 4136.92307692 , 4134.35897436 , 4135.8974359 , 4140.0 , 4138.97435897 , 4098.46153846 , 4083.07692308 , 2045.0 , 2031.0 , 315.402 , 0.0 , 0.0 , 0.0 , 0.0 , 

36.0 , 4027.69230769 , 4085.12820513 , 4148.20512821 , 4132.30769231 , 4129.23076923 , 4136.92307692 , 4136.92307692 , 4135.8974359 , 4135.8974359 , 4135.8974359 , 4135.8974359 , 4135.38461538 , 4096.41025641 , 4080.0 , 2045.0 , 2030.0 , 315.41 , 0.0 , 0.0 , 0.0 , 0.0 , 

37.0 , 4017.94871795 , 4075.8974359 , 4142.56410256 , 4127.17948718 , 4128.20512821 , 4139.48717949 , 4133.33333333 , 4135.8974359 , 4134.35897436 , 4135.8974359 , 4135.8974359 , 4126.15384615 , 4085.12820513 , 4076.41025641 , 2044.0 , 2031.0 , 315.418 , 0.0 , 0.0 , 0.0 , 0.0 , 

38.0 , 4018.97435897 , 4075.8974359 , 4147.69230769 , 4125.12820513 , 4133.33333333 , 4135.38461538 , 4131.28205128 , 4135.8974359 , 4133.84615385 , 4135.8974359 , 4135.8974359 , 4126.66666667 , 4078.46153846 , 4075.38461538 , 2045.0 , 2031.0 , 315.426 , 0.0 , 0.0 , 0.0 , 0.0 , 

39.0 , 4014.35897436 , 4071.79487179 , 4145.12820513 , 4124.61538462 , 4132.30769231 , 4130.25641026 , 4131.28205128 , 4133.33333333 , 4134.35897436 , 4135.8974359 , 4136.92307692 , 4132.30769231 , 4072.82051282 , 4069.23076923 , 2042.0 , 2032.0 , 315.435 , 0.0 , 0.0 , 0.0 , 0.0 , 

40.0 , 4001.53846154 , 4058.46153846 , 4142.56410256 , 4125.12820513 , 4132.82051282 , 4129.23076923 , 4130.25641026 , 4132.82051282 , 4134.35897436 , 4135.8974359 , 4134.87179487 , 4125.64102564 , 4061.02564103 , 4060.0 , 2042.0 , 2032.0 , 315.442 , 0.0 , 0.0 , 0.0 , 0.0 , 

41.0 , 4013.33333333 , 4069.74358974 , 4151.28205128 , 4131.79487179 , 4136.41025641 , 4129.74358974 , 4133.33333333 , 4135.8974359 , 4134.35897436 , 4135.8974359 , 4135.38461538 , 4124.1025641 , 4069.23076923 , 4069.23076923 , 2041.0 , 2031.0 , 315.45 , 0.0 , 0.0 , 0.0 , 0.0 , 

42.0 , 4028.71794872 , 4084.1025641 , 4152.82051282 , 4132.82051282 , 4133.84615385 , 4133.84615385 , 4134.35897436 , 4132.82051282 , 4134.35897436 , 4135.8974359 , 4136.92307692 , 4133.33333333 , 4082.05128205 , 4083.07692308 , 2039.0 , 2030.0 , 315.457 , 0.0 , 0.0 , 0.0 , 0.0 , 

43.0 , 4019.48717949 , 4073.33333333 , 4149.23076923 , 4126.66666667 , 4130.76923077 , 4136.92307692 , 4130.76923077 , 4128.20512821 , 4134.35897436 , 4135.8974359 , 4136.92307692 , 4132.30769231 , 4072.82051282 , 4077.43589744 , 2038.0 , 2030.0 , 315.466 , 0.0 , 0.0 , 0.0 , 0.0 , 

44.0 , 4013.33333333 , 4068.20512821 , 4151.28205128 , 4127.17948718 , 4133.84615385 , 4132.30769231 , 4129.23076923 , 4129.74358974 , 4134.35897436 , 4135.8974359 , 4135.8974359 , 4127.17948718 , 4069.23076923 , 4071.79487179 , 2039.0 , 2033.0 , 315.473 , 0.0 , 0.0 , 0.0 , 0.0 , 

45.0 , 4013.33333333 , 4072.30769231 , 4147.69230769 , 4125.12820513 , 4136.41025641 , 4131.79487179 , 4128.71794872 , 4134.87179487 , 4134.35897436 , 4135.8974359 , 4135.8974359 , 4128.71794872 , 4069.23076923 , 4068.20512821 , 2039.0 , 2031.0 , 315.482 , 0.0 , 0.0 , 0.0 , 0.0 , 

46.0 , 4013.33333333 , 4072.30769231 , 4143.07692308 , 4122.05128205 , 4132.30769231 , 4133.33333333 , 4129.23076923 , 4134.87179487 , 4134.35897436 , 4135.8974359 , 4137.94871795 , 4128.20512821 , 4065.12820513 , 4062.56410256 , 2040.0 , 2033.0 , 315.489 , 0.0 , 0.0 , 0.0 , 0.0 , 

47.0 , 4010.25641026 , 4067.17948718 , 4142.56410256 , 4121.53846154 , 4129.74358974 , 4132.30769231 , 4131.79487179 , 4132.82051282 , 4134.35897436 , 4135.8974359 , 4135.8974359 , 4122.56410256 , 4063.58974359 , 4058.46153846 , 2040.0 , 2032.0 , 315.497 , 0.0 , 0.0 , 0.0 , 0.0 , 

48.0 , 4004.61538462 , 4063.07692308 , 4145.12820513 , 4119.48717949 , 4134.35897436 , 4133.84615385 , 4130.25641026 , 4134.35897436 , 4134.35897436 , 4135.8974359 , 4136.41025641 , 4124.1025641 , 4064.1025641 , 4061.02564103 , 2040.0 , 2032.0 , 315.505 , 0.0 , 0.0 , 0.0 , 0.0 , 

49.0 , 4006.66666667 , 4066.15384615 , 4148.20512821 , 4121.53846154 , 4135.8974359 , 4136.41025641 , 4131.28205128 , 4134.35897436 , 4134.35897436 , 4135.8974359 , 4140.0 , 4129.74358974 , 4067.69230769 , 4067.17948718 , 2042.0 , 2035.0 , 315.512 , 0.0 , 0.0 , 0.0 , 0.0 , 

50.0 , 4005.12820513 , 4064.61538462 , 4142.56410256 , 4121.53846154 , 4131.79487179 , 4133.84615385 , 4132.30769231 , 4133.33333333 , 4134.35897436 , 4135.8974359 , 4132.30769231 , 4126.66666667 , 4064.1025641 , 4063.58974359 , 2043.0 , 2033.0 , 315.52 , 0.0 , 0.0 , 0.0 , 0.0 , 

51.0 , 3989.74358974 , 4047.69230769 , 4134.35897436 , 4115.8974359 , 4133.33333333 , 4133.33333333 , 4128.20512821 , 4133.33333333 , 4134.35897436 , 4135.8974359 , 4130.25641026 , 4123.07692308 , 4045.64102564 , 4051.79487179 , 2044.0 , 2034.0 , 315.529 , 0.0 , 0.0 , 0.0 , 0.0 , 

52.0 , 4002.05128205 , 4060.0 , 4143.07692308 , 4126.66666667 , 4136.41025641 , 4135.38461538 , 4131.79487179 , 4134.87179487 , 4134.35897436 , 4135.8974359 , 4148.20512821 , 4127.69230769 , 4061.53846154 , 4062.56410256 , 2045.0 , 2034.0 , 315.536 , 0.0 , 0.0 , 0.0 , 0.0 , 

53.0 , 4015.38461538 , 4074.87179487 , 4149.23076923 , 4132.30769231 , 4135.8974359 , 4133.33333333 , 4135.8974359 , 4136.41025641 , 4134.35897436 , 4135.8974359 , 4148.20512821 , 4128.71794872 , 4076.41025641 , 4069.23076923 , 2043.0 , 2035.0 , 315.545 , 0.0 , 0.0 , 0.0 , 0.0 , 

54.0 , 4007.17948718 , 4069.74358974 , 4142.05128205 , 4126.15384615 , 4132.30769231 , 4131.28205128 , 4131.28205128 , 4135.8974359 , 4134.35897436 , 4135.8974359 , 4140.51282051 , 4127.69230769 , 4067.69230769 , 4065.64102564 , 2045.0 , 2034.0 , 315.552 , 0.0 , 0.0 , 0.0 , 0.0 , 

55.0 , 4011.28205128 , 4072.82051282 , 4141.53846154 , 4126.15384615 , 4131.28205128 , 4131.28205128 , 4130.76923077 , 4133.84615385 , 4134.35897436 , 4135.8974359 , 4143.58974359 , 4128.71794872 , 4071.28205128 , 4073.33333333 , 2046.0 , 2033.0 , 315.561 , 0.0 , 0.0 , 0.0 , 0.0 , 

56.0 , 4014.87179487 , 4074.35897436 , 4143.07692308 , 4127.17948718 , 4132.30769231 , 4128.20512821 , 4132.30769231 , 4131.79487179 , 4134.35897436 , 4135.8974359 , 4136.41025641 , 4127.69230769 , 4074.35897436 , 4067.17948718 , 2047.0 , 2033.0 , 315.568 , 0.0 , 0.0 , 0.0 , 0.0 , 

57.0 , 4000.51282051 , 4061.02564103 , 4141.02564103 , 4121.02564103 , 4133.84615385 , 4127.17948718 , 4128.20512821 , 4133.84615385 , 4134.35897436 , 4135.8974359 , 4125.12820513 , 4125.64102564 , 4056.41025641 , 4047.17948718 , 2047.0 , 2032.0 , 315.575 , 0.0 , 0.0 , 0.0 , 0.0 , 

58.0 , 4007.69230769 , 4067.17948718 , 4142.05128205 , 4126.15384615 , 4134.87179487 , 4129.74358974 , 4130.25641026 , 4134.35897436 , 4134.35897436 , 4135.8974359 , 4133.84615385 , 4127.17948718 , 4064.61538462 , 4059.48717949 , 2046.0 , 2032.0 , 315.583 , 0.0 , 0.0 , 0.0 , 0.0 , 

59.0 , 4012.30769231 , 4069.74358974 , 4143.07692308 , 4127.17948718 , 4132.82051282 , 4131.28205128 , 4132.30769231 , 4131.79487179 , 4134.35897436 , 4135.8974359 , 4139.48717949 , 4128.71794872 , 4072.30769231 , 4067.69230769 , 2047.0 , 2030.0 , 315.59 , 0.0 , 0.0 , 0.0 , 0.0 , 

60.0 , 4004.1025641 , 4063.07692308 , 4140.51282051 , 4123.58974359 , 4129.74358974 , 4131.79487179 , 4130.76923077 , 4134.87179487 , 4135.38461538 , 4135.8974359 , 4137.94871795 , 4128.71794872 , 4064.61538462 , 4055.8974359 , 2047.0 , 2034.0 , 315.599 , 0.0 , 0.0 , 0.0 , 0.0 , 

61.0 , 3999.48717949 , 4057.43589744 , 4138.97435897 , 4120.0 , 4128.71794872 , 4132.82051282 , 4129.23076923 , 4134.87179487 , 4136.41025641 , 4135.8974359 , 4134.87179487 , 4124.1025641 , 4060.0 , 4048.20512821 , 2047.0 , 2033.0 , 315.606 , 0.0 , 0.0 , 0.0 , 0.0 , 

62.0 , 3978.46153846 , 4030.25641026 , 4137.94871795 , 4116.41025641 , 4130.76923077 , 4132.82051282 , 4127.17948718 , 4128.71794872 , 4136.41025641 , 4135.8974359 , 4126.66666667 , 4119.48717949 , 4039.48717949 , 4028.71794872 , 2046.0 , 2036.0 , 315.615 , 0.0 , 0.0 , 0.0 , 0.0 , 

63.0 , 3988.71794872 , 4046.15384615 , 4140.0 , 4132.82051282 , 4131.28205128 , 4131.79487179 , 4130.76923077 , 4130.76923077 , 4135.8974359 , 4135.8974359 , 4135.38461538 , 4127.17948718 , 4050.25641026 , 4038.46153846 , 2045.0 , 2037.0 , 315.622 , 0.0 , 0.0 , 0.0 , 0.0 , 

64.0 , 4029.74358974 , 4100.51282051 , 4142.56410256 , 4147.69230769 , 4130.25641026 , 4131.79487179 , 4136.41025641 , 4139.48717949 , 4136.41025641 , 4135.8974359 , 4144.1025641 , 4134.87179487 , 4087.69230769 , 4079.48717949 , 2043.0 , 2040.0 , 315.631 , 0.0 , 0.0 , 0.0 , 0.0 , 

65.0 , 4020.51282051 , 4097.94871795 , 4138.46153846 , 4130.76923077 , 4131.79487179 , 4132.30769231 , 4130.76923077 , 4134.35897436 , 4135.8974359 , 4135.8974359 , 4127.69230769 , 4125.64102564 , 4061.02564103 , 4072.82051282 , 2040.0 , 2042.0 , 315.638 , 0.0 , 0.0 , 0.0 , 0.0 , 

66.0 , 3990.25641026 , 4074.35897436 , 4137.94871795 , 4120.51282051 , 4135.8974359 , 4132.30769231 , 4126.15384615 , 4127.69230769 , 4135.8974359 , 4135.8974359 , 4118.46153846 , 4120.51282051 , 4009.74358974 , 4038.46153846 , 2037.0 , 2042.0 , 315.648 , 0.0 , 0.0 , 0.0 , 0.0 , 

67.0 , 4000.51282051 , 4090.25641026 , 4141.02564103 , 4129.23076923 , 4134.87179487 , 4130.25641026 , 4129.74358974 , 4130.76923077 , 4135.8974359 , 4135.8974359 , 4125.64102564 , 4121.02564103 , 4012.30769231 , 4045.64102564 , 2036.0 , 2044.0 , 315.653 , 0.0 , 0.0 , 0.0 , 0.0 , 

68.0 , 4001.02564103 , 4090.76923077 , 4140.51282051 , 4123.07692308 , 4128.71794872 , 4129.74358974 , 4128.20512821 , 4134.35897436 , 4135.8974359 , 4135.8974359 , 4124.1025641 , 4121.53846154 , 4016.41025641 , 4053.84615385 , 2035.0 , 2042.0 , 315.663 , 0.0 , 0.0 , 0.0 , 0.0 , 

69.0 , 3991.28205128 , 4078.97435897 , 4141.02564103 , 4118.97435897 , 4129.74358974 , 4129.74358974 , 4125.64102564 , 4132.82051282 , 4135.8974359 , 4135.8974359 , 4123.07692308 , 4121.53846154 , 4007.17948718 , 4046.66666667 , 2032.0 , 2043.0 , 315.669 , 0.0 , 0.0 , 0.0 , 0.0 , 

70.0 , 3990.76923077 , 4078.46153846 , 4140.51282051 , 4124.1025641 , 4137.94871795 , 4130.25641026 , 4127.69230769 , 4133.84615385 , 4135.8974359 , 4135.8974359 , 4122.56410256 , 4121.53846154 , 4000.0 , 4040.51282051 , 2032.0 , 2043.0 , 315.678 , 0.0 , 0.0 , 0.0 , 0.0 , 

71.0 , 3996.92307692 , 4089.74358974 , 4141.02564103 , 4129.74358974 , 4134.35897436 , 4130.76923077 , 4131.79487179 , 4134.87179487 , 4135.8974359 , 4135.8974359 , 4121.53846154 , 4123.58974359 , 4007.69230769 , 4048.71794872 , 2033.0 , 2043.0 , 315.685 , 0.0 , 0.0 , 0.0 , 0.0 , 

72.0 , 4000.0 , 4098.97435897 , 4144.1025641 , 4132.30769231 , 4126.66666667 , 4131.79487179 , 4132.30769231 , 4133.33333333 , 4136.41025641 , 4135.8974359 , 4124.1025641 , 4129.23076923 , 4016.92307692 , 4058.46153846 , 2033.0 , 2040.0 , 315.694 , 0.0 , 0.0 , 0.0 , 0.0 , 

73.0 , 3988.71794872 , 4085.64102564 , 4142.05128205 , 4124.1025641 , 4128.71794872 , 4131.28205128 , 4128.71794872 , 4133.33333333 , 4135.8974359 , 4135.8974359 , 4122.05128205 , 4127.69230769 , 4005.12820513 , 4047.17948718 , 2035.0 , 2039.0 , 315.701 , 0.0 , 0.0 , 0.0 , 0.0 , 

74.0 , 3987.17948718 , 4078.97435897 , 4137.94871795 , 4118.97435897 , 4131.79487179 , 4130.76923077 , 4127.69230769 , 4135.38461538 , 4136.41025641 , 4135.8974359 , 4121.53846154 , 4122.05128205 , 4005.12820513 , 4044.1025641 , 2037.0 , 2036.0 , 315.71 , 0.0 , 0.0 , 0.0 , 0.0 , 

75.0 , 4005.64102564 , 4102.05128205 , 4138.97435897 , 4127.17948718 , 4129.23076923 , 4129.23076923 , 4130.76923077 , 4134.35897436 , 4136.41025641 , 4135.8974359 , 4128.71794872 , 4124.1025641 , 4033.84615385 , 4068.20512821 , 2037.0 , 2034.0 , 315.807 , 0.0 , 0.0 , 0.0 , 0.0 , 

76.0 , 3990.25641026 , 4090.76923077 , 4137.94871795 , 4118.97435897 , 4130.25641026 , 4128.71794872 , 4127.69230769 , 4133.33333333 , 4135.38461538 , 4135.8974359 , 4124.1025641 , 4123.58974359 , 4014.87179487 , 4056.92307692 , 2040.0 , 2033.0 , 315.808 , 0.0 , 0.0 , 0.0 , 0.0 , 

77.0 , 3971.79487179 , 4071.28205128 , 4135.8974359 , 4112.30769231 , 4131.79487179 , 4130.76923077 , 4124.61538462 , 4133.84615385 , 4134.35897436 , 4135.8974359 , 4118.97435897 , 4121.53846154 , 3986.15384615 , 4033.33333333 , 2042.0 , 2034.0 , 315.808 , 0.0 , 0.0 , 0.0 , 0.0 , 

78.0 , 4000.51282051 , 4095.38461538 , 4141.02564103 , 4128.20512821 , 4131.28205128 , 4132.30769231 , 4129.23076923 , 4131.28205128 , 4134.35897436 , 4135.8974359 , 4126.66666667 , 4124.1025641 , 4020.51282051 , 4057.43589744 , 2043.0 , 2034.0 , 315.808 , 0.0 , 0.0 , 0.0 , 0.0 , 

79.0 , 3995.8974359 , 4088.71794872 , 4138.46153846 , 4119.48717949 , 4133.84615385 , 4128.71794872 , 4125.64102564 , 4128.20512821 , 4134.87179487 , 4135.8974359 , 4118.46153846 , 4121.53846154 , 4020.51282051 , 4055.38461538 , 2044.0 , 2035.0 , 315.808 , 0.0 , 0.0 , 0.0 , 0.0 , 

80.0 , 3957.94871795 , 4053.33333333 , 4135.8974359 , 4098.97435897 , 4131.28205128 , 4128.71794872 , 4119.48717949 , 4128.20512821 , 4134.35897436 , 4135.8974359 , 4107.69230769 , 4115.8974359 , 3975.38461538 , 4019.48717949 , 2043.0 , 2036.0 , 315.808 , 0.0 , 0.0 , 0.0 , 0.0 , 

81.0 , 3980.51282051 , 4076.92307692 , 4145.12820513 , 4115.8974359 , 4128.71794872 , 4132.82051282 , 4125.12820513 , 4130.76923077 , 4134.35897436 , 4135.8974359 , 4123.58974359 , 4121.02564103 , 4001.53846154 , 4041.53846154 , 2044.0 , 2038.0 , 315.808 , 0.0 , 0.0 , 0.0 , 0.0 , 

82.0 , 4008.20512821 , 4102.05128205 , 4145.12820513 , 4127.69230769 , 4131.28205128 , 4131.28205128 , 4131.28205128 , 4130.25641026 , 4134.35897436 , 4135.8974359 , 4134.35897436 , 4125.64102564 , 4040.0 , 4072.82051282 , 2042.0 , 2039.0 , 315.808 , 0.0 , 0.0 , 0.0 , 0.0 , 

83.0 , 3986.15384615 , 4080.51282051 , 4136.41025641 , 4113.84615385 , 4130.76923077 , 4128.71794872 , 4129.23076923 , 4128.71794872 , 4134.35897436 , 4135.8974359 , 4123.58974359 , 4122.05128205 , 4015.38461538 , 4051.79487179 , 2041.0 , 2043.0 , 315.808 , 0.0 , 0.0 , 0.0 , 0.0 , 

84.0 , 3982.05128205 , 4078.46153846 , 4137.94871795 , 4112.82051282 , 4129.74358974 , 4132.82051282 , 4129.23076923 , 4130.25641026 , 4134.35897436 , 4135.8974359 , 4118.46153846 , 4120.0 , 4003.07692308 , 4042.05128205 , 2042.0 , 2042.0 , 315.808 , 0.0 , 0.0 , 0.0 , 0.0 , 

85.0 , 3995.8974359 , 4091.28205128 , 4142.05128205 , 4117.94871795 , 4131.28205128 , 4134.87179487 , 4132.82051282 , 4132.30769231 , 4134.87179487 , 4135.8974359 , 4124.1025641 , 4123.07692308 , 4018.46153846 , 4056.41025641 , 2042.0 , 2041.0 , 315.808 , 0.0 , 0.0 , 0.0 , 0.0 , 

86.0 , 3984.61538462 , 4077.43589744 , 4138.46153846 , 4112.82051282 , 4129.74358974 , 4130.25641026 , 4128.71794872 , 4131.79487179 , 4134.35897436 , 4135.8974359 , 4123.58974359 , 4124.1025641 , 4009.74358974 , 4052.30769231 , 2040.0 , 2039.0 , 315.808 , 0.0 , 0.0 , 0.0 , 0.0 , 

87.0 , 3983.58974359 , 4074.87179487 , 4137.94871795 , 4119.48717949 , 4129.23076923 , 4129.74358974 , 4128.20512821 , 4132.30769231 , 4134.35897436 , 4135.8974359 , 4126.15384615 , 4124.1025641 , 4001.53846154 , 4045.64102564 , 2041.0 , 2039.0 , 315.813 , 0.0 , 0.0 , 0.0 , 0.0 , 

88.0 , 4042.05128205 , 4134.87179487 , 4146.15384615 , 4148.20512821 , 4132.30769231 , 4133.33333333 , 4140.51282051 , 4135.8974359 , 4134.35897436 , 4135.8974359 , 4146.66666667 , 4131.79487179 , 4061.53846154 , 4092.82051282 , 2041.0 , 2037.0 , 315.82 , 0.0 , 0.0 , 0.0 , 0.0 , 

89.0 , 3982.56410256 , 4074.87179487 , 4130.76923077 , 4097.94871795 , 4132.30769231 , 4131.28205128 , 4117.43589744 , 4131.28205128 , 4134.35897436 , 4135.8974359 , 4114.87179487 , 4116.41025641 , 4001.53846154 , 4047.17948718 , 2042.0 , 2035.0 , 315.829 , 0.0 , 0.0 , 0.0 , 0.0 , 

90.0 , 3746.66666667 , 3832.82051282 , 4097.94871795 , 3970.76923077 , 4128.20512821 , 4125.12820513 , 4060.51282051 , 4122.05128205 , 4134.35897436 , 4135.8974359 , 4025.64102564 , 4073.84615385 , 3734.35897436 , 3829.74358974 , 2044.0 , 2035.0 , 315.836 , 0.0 , 0.0 , 0.0 , 0.0 , 

91.0 , 3594.87179487 , 3671.28205128 , 4086.66666667 , 3911.79487179 , 4128.71794872 , 4125.64102564 , 4040.51282051 , 4121.02564103 , 4134.35897436 , 4135.8974359 , 3991.28205128 , 4051.79487179 , 3545.12820513 , 3670.76923077 , 2045.0 , 2033.0 , 315.844 , 0.0 , 0.0 , 0.0 , 0.0 , 

92.0 , 3628.71794872 , 3695.38461538 , 4095.8974359 , 3944.1025641 , 4131.28205128 , 4129.23076923 , 4058.46153846 , 4123.07692308 , 4134.35897436 , 4135.8974359 , 4025.64102564 , 4060.51282051 , 3571.28205128 , 3690.25641026 , 2044.0 , 2030.0 , 315.85 , 0.0 , 0.0 , 0.0 , 0.0 , 

93.0 , 3653.33333333 , 3716.92307692 , 4100.0 , 3960.0 , 4130.76923077 , 4131.28205128 , 4059.48717949 , 4123.07692308 , 4134.35897436 , 4135.8974359 , 4036.41025641 , 4065.12820513 , 3600.51282051 , 3714.35897436 , 2045.0 , 2030.0 , 315.859 , 0.0 , 0.0 , 0.0 , 0.0 , 

94.0 , 3645.12820513 , 3713.33333333 , 4103.07692308 , 3963.58974359 , 4127.17948718 , 4130.76923077 , 4057.43589744 , 4122.56410256 , 4134.35897436 , 4135.8974359 , 4033.33333333 , 4067.17948718 , 3592.30769231 , 3705.12820513 , 2045.0 , 2031.0 , 315.868 , 0.0 , 0.0 , 0.0 , 0.0 , 

95.0 , 3679.48717949 , 3752.82051282 , 4107.17948718 , 3984.1025641 , 4127.17948718 , 4130.25641026 , 4068.71794872 , 4124.1025641 , 4134.35897436 , 4135.8974359 , 4045.12820513 , 4074.35897436 , 3629.74358974 , 3736.41025641 , 2045.0 , 2030.0 , 315.874 , 0.0 , 0.0 , 0.0 , 0.0 , 

96.0 , 3688.71794872 , 3761.02564103 , 4106.15384615 , 3980.51282051 , 4127.69230769 , 4130.25641026 , 4067.69230769 , 4122.56410256 , 4134.35897436 , 4135.8974359 , 4044.61538462 , 4072.30769231 , 3642.56410256 , 3749.74358974 , 2044.0 , 2031.0 , 315.883 , 0.0 , 0.0 , 0.0 , 0.0 , 

97.0 , 3668.71794872 , 3737.43589744 , 4104.61538462 , 3968.71794872 , 4127.69230769 , 4130.25641026 , 4061.53846154 , 4123.07692308 , 4134.35897436 , 4135.8974359 , 4038.46153846 , 4068.71794872 , 3621.02564103 , 3733.33333333 , 2044.0 , 2029.0 , 315.89 , 0.0 , 0.0 , 0.0 , 0.0 , 

98.0 , 3671.28205128 , 3741.53846154 , 4103.58974359 , 3975.38461538 , 4128.20512821 , 4130.25641026 , 4064.61538462 , 4124.61538462 , 4134.35897436 , 4135.8974359 , 4041.53846154 , 4069.74358974 , 3622.05128205 , 3734.35897436 , 2045.0 , 2029.0 , 315.899 , 0.0 , 0.0 , 0.0 , 0.0 , 

99.0 , 3688.20512821 , 3760.51282051 , 4103.07692308 , 3985.64102564 , 4128.20512821 , 4130.25641026 , 4068.20512821 , 4124.61538462 , 4134.35897436 , 4135.8974359 , 4044.61538462 , 4071.28205128 , 3642.05128205 , 3749.23076923 , 2044.0 , 2029.0 , 315.906 , 0.0 , 0.0 , 0.0 , 0.0 , 

100.0 , 3690.25641026 , 3761.53846154 , 4101.53846154 , 3983.07692308 , 4128.20512821 , 4130.76923077 , 4066.15384615 , 4124.1025641 , 4134.35897436 , 4135.8974359 , 4043.58974359 , 4072.30769231 , 3647.17948718 , 3751.28205128 , 2044.0 , 2029.0 , 315.914 , 0.0 , 0.0 , 0.0 , 0.0 , 

101.0 , 3674.87179487 , 3747.17948718 , 4096.92307692 , 3975.38461538 , 4128.20512821 , 4130.76923077 , 4065.64102564 , 4122.05128205 , 4134.35897436 , 4135.8974359 , 4037.43589744 , 4069.23076923 , 3626.66666667 , 3734.35897436 , 2045.0 , 2028.0 , 315.922 , 0.0 , 0.0 , 0.0 , 0.0 , 

102.0 , 3690.25641026 , 3763.07692308 , 4102.56410256 , 3988.71794872 , 4128.71794872 , 4128.71794872 , 4073.33333333 , 4122.56410256 , 4134.35897436 , 4135.8974359 , 4042.05128205 , 4071.28205128 , 3638.97435897 , 3745.64102564 , 2043.0 , 2028.0 , 315.93 , 0.0 , 0.0 , 0.0 , 0.0 , 

103.0 , 3727.17948718 , 3796.92307692 , 4109.23076923 , 4004.61538462 , 4128.20512821 , 4128.20512821 , 4076.41025641 , 4123.58974359 , 4134.35897436 , 4135.8974359 , 4052.82051282 , 4076.92307692 , 3682.05128205 , 3781.53846154 , 2043.0 , 2027.0 , 315.937 , 0.0 , 0.0 , 0.0 , 0.0 , 

104.0 , 3720.0 , 3791.28205128 , 4103.07692308 , 3996.92307692 , 4127.69230769 , 4132.30769231 , 4069.23076923 , 4123.07692308 , 4134.35897436 , 4135.8974359 , 4047.69230769 , 4076.92307692 , 3675.8974359 , 3777.94871795 , 2043.0 , 2029.0 , 315.946 , 0.0 , 0.0 , 0.0 , 0.0 , 

105.0 , 3702.56410256 , 3778.46153846 , 4098.46153846 , 3991.28205128 , 4128.20512821 , 4133.84615385 , 4067.17948718 , 4121.02564103 , 4134.35897436 , 4135.8974359 , 4041.02564103 , 4072.30769231 , 3656.41025641 , 3763.58974359 , 2043.0 , 2029.0 , 315.953 , 0.0 , 0.0 , 0.0 , 0.0 , 

106.0 , 3710.25641026 , 3783.58974359 , 4104.61538462 , 3996.92307692 , 4128.20512821 , 4129.74358974 , 4073.33333333 , 4123.07692308 , 4134.35897436 , 4135.8974359 , 4045.12820513 , 4073.84615385 , 3666.66666667 , 3769.74358974 , 2043.0 , 2030.0 , 315.961 , 0.0 , 0.0 , 0.0 , 0.0 , 

107.0 , 3723.07692308 , 3791.79487179 , 4106.15384615 , 4000.0 , 4125.64102564 , 4127.69230769 , 4075.8974359 , 4125.12820513 , 4134.35897436 , 4136.92307692 , 4049.23076923 , 4078.46153846 , 3683.07692308 , 3777.43589744 , 2042.0 , 2032.0 , 315.97 , 0.0 , 0.0 , 0.0 , 0.0 , 

108.0 , 3731.79487179 , 3802.05128205 , 4104.1025641 , 4002.05128205 , 4125.64102564 , 4130.76923077 , 4075.8974359 , 4125.12820513 , 4134.35897436 , 4137.94871795 , 4044.61538462 , 4079.48717949 , 3690.25641026 , 3783.58974359 , 2041.0 , 2033.0 , 315.977 , 0.0 , 0.0 , 0.0 , 0.0 , 

109.0 , 3741.53846154 , 3818.97435897 , 4105.12820513 , 4007.17948718 , 4128.71794872 , 4130.76923077 , 4077.43589744 , 4123.58974359 , 4134.35897436 , 4137.94871795 , 4044.1025641 , 4080.51282051 , 3698.97435897 , 3793.33333333 , 2043.0 , 2035.0 , 315.984 , 0.0 , 0.0 , 0.0 , 0.0 , 

110.0 , 3738.46153846 , 3817.43589744 , 4106.15384615 , 4001.53846154 , 4129.23076923 , 4130.76923077 , 4076.41025641 , 4125.12820513 , 4134.35897436 , 4137.94871795 , 4046.66666667 , 4081.02564103 , 3696.92307692 , 3789.23076923 , 2044.0 , 2036.0 , 315.993 , 0.0 , 0.0 , 0.0 , 0.0 , 

111.0 , 3735.8974359 , 3810.25641026 , 4106.66666667 , 3995.8974359 , 4128.20512821 , 4131.79487179 , 4076.41025641 , 4128.71794872 , 4134.35897436 , 4137.94871795 , 4048.71794872 , 4079.48717949 , 3696.92307692 , 3787.17948718 , 2041.0 , 2038.0 , 316.0 , 0.0 , 0.0 , 0.0 , 0.0 , 

112.0 , 3741.53846154 , 3813.33333333 , 4107.17948718 , 3998.46153846 , 4128.20512821 , 4130.25641026 , 4075.8974359 , 4127.17948718 , 4134.35897436 , 4137.94871795 , 4048.71794872 , 4077.94871795 , 3700.0 , 3790.76923077 , 2040.0 , 2039.0 , 316.008 , 0.0 , 0.0 , 0.0 , 0.0 , 

113.0 , 3761.02564103 , 3832.30769231 , 4107.69230769 , 4011.79487179 , 4127.69230769 , 4129.23076923 , 4077.94871795 , 4126.15384615 , 4134.35897436 , 4137.94871795 , 4058.46153846 , 4078.46153846 , 3715.8974359 , 3805.12820513 , 2042.0 , 2044.0 , 316.018 , 0.0 , 0.0 , 0.0 , 0.0 , 

114.0 , 3766.15384615 , 3836.92307692 , 4105.64102564 , 4011.79487179 , 4127.69230769 , 4132.30769231 , 4075.38461538 , 4126.15384615 , 4134.35897436 , 4137.94871795 , 4056.92307692 , 4076.92307692 , 3723.07692308 , 3810.76923077 , 2042.0 , 2043.0 , 316.026 , 0.0 , 0.0 , 0.0 , 0.0 , 

115.0 , 3748.71794872 , 3822.56410256 , 4106.15384615 , 4001.02564103 , 4129.23076923 , 4131.79487179 , 4074.87179487 , 4127.17948718 , 4134.35897436 , 4137.94871795 , 4042.56410256 , 4074.35897436 , 3708.71794872 , 3794.35897436 , 2041.0 , 2044.0 , 316.034 , 0.0 , 0.0 , 0.0 , 0.0 , 

116.0 , 3750.25641026 , 3826.66666667 , 4109.23076923 , 4009.23076923 , 4128.71794872 , 4130.25641026 , 4081.53846154 , 4127.17948718 , 4134.35897436 , 4137.94871795 , 4044.1025641 , 4078.46153846 , 3711.28205128 , 3791.28205128 , 2041.0 , 2042.0 , 316.041 , 0.0 , 0.0 , 0.0 , 0.0 , 

117.0 , 3765.12820513 , 3840.51282051 , 4107.17948718 , 4017.94871795 , 4127.17948718 , 4131.28205128 , 4084.1025641 , 4128.71794872 , 4134.35897436 , 4137.94871795 , 4055.38461538 , 4082.56410256 , 3731.28205128 , 3806.66666667 , 2039.0 , 2041.0 , 316.049 , 0.0 , 0.0 , 0.0 , 0.0 , 

118.0 , 3765.12820513 , 3841.53846154 , 4106.15384615 , 4013.84615385 , 4128.20512821 , 4132.30769231 , 4078.46153846 , 4127.69230769 , 4134.35897436 , 4137.94871795 , 4055.38461538 , 4080.51282051 , 3736.92307692 , 3812.82051282 , 2038.0 , 2041.0 , 316.056 , 0.0 , 0.0 , 0.0 , 0.0 , 

119.0 , 3767.69230769 , 3847.17948718 , 4110.76923077 , 4015.38461538 , 4127.17948718 , 4133.33333333 , 4078.97435897 , 4124.61538462 , 4134.35897436 , 4137.94871795 , 4052.82051282 , 4077.43589744 , 3738.97435897 , 3814.87179487 , 2038.0 , 2041.0 , 316.065 , 0.0 , 0.0 , 0.0 , 0.0 , 

120.0 , 3778.97435897 , 3855.8974359 , 4110.25641026 , 4019.48717949 , 4125.12820513 , 4133.33333333 , 4084.1025641 , 4128.20512821 , 4134.35897436 , 4137.94871795 , 4057.43589744 , 4078.97435897 , 3749.23076923 , 3822.56410256 , 2038.0 , 2044.0 , 316.072 , 0.0 , 0.0 , 0.0 , 0.0 , 

121.0 , 3783.58974359 , 3856.92307692 , 4106.66666667 , 4016.92307692 , 4126.66666667 , 4132.30769231 , 4081.53846154 , 4129.23076923 , 4134.35897436 , 4137.94871795 , 4063.58974359 , 4082.56410256 , 3759.48717949 , 3829.23076923 , 2039.0 , 2043.0 , 316.081 , 0.0 , 0.0 , 0.0 , 0.0 , 

122.0 , 3776.41025641 , 3854.35897436 , 4107.69230769 , 4012.82051282 , 4127.17948718 , 4130.25641026 , 4075.8974359 , 4123.58974359 , 4134.35897436 , 4137.94871795 , 4059.48717949 , 4080.0 , 3762.05128205 , 3829.23076923 , 2040.0 , 2044.0 , 316.088 , 0.0 , 0.0 , 0.0 , 0.0 , 

123.0 , 3767.17948718 , 3850.25641026 , 4107.17948718 , 4009.23076923 , 4124.61538462 , 4130.76923077 , 4075.8974359 , 4125.64102564 , 4134.35897436 , 4137.94871795 , 4053.33333333 , 4076.41025641 , 3754.35897436 , 3822.56410256 , 2041.0 , 2042.0 , 316.096 , 0.0 , 0.0 , 0.0 , 0.0 , 

124.0 , 3762.56410256 , 3842.56410256 , 4104.61538462 , 4004.1025641 , 4126.66666667 , 4130.25641026 , 4076.92307692 , 4129.23076923 , 4134.35897436 , 4137.43589744 , 4052.30769231 , 4075.8974359 , 3746.66666667 , 3817.43589744 , 2043.0 , 2041.0 , 316.104 , 0.0 , 0.0 , 0.0 , 0.0 , 

125.0 , 3764.61538462 , 3839.48717949 , 4106.66666667 , 4008.71794872 , 4128.20512821 , 4128.20512821 , 4077.43589744 , 4126.66666667 , 4134.35897436 , 4137.94871795 , 4057.94871795 , 4078.46153846 , 3753.84615385 , 3821.02564103 , 2042.0 , 2038.0 , 316.112 , 0.0 , 0.0 , 0.0 , 0.0 , 

126.0 , 3782.56410256 , 3861.53846154 , 4108.71794872 , 4023.07692308 , 4125.64102564 , 4128.20512821 , 4081.53846154 , 4124.1025641 , 4135.38461538 , 4137.94871795 , 4066.66666667 , 4083.07692308 , 3781.53846154 , 3838.97435897 , 2043.0 , 2037.0 , 316.119 , 0.0 , 0.0 , 0.0 , 0.0 , 

127.0 , 3776.41025641 , 3861.53846154 , 4104.61538462 , 4011.79487179 , 4124.61538462 , 4131.28205128 , 4078.97435897 , 4127.17948718 , 4136.41025641 , 4137.43589744 , 4061.53846154 , 4077.94871795 , 3773.84615385 , 3833.33333333 , 2043.0 , 2035.0 , 316.127 , 0.0 , 0.0 , 0.0 , 0.0 , 

128.0 , 3765.12820513 , 3848.20512821 , 4104.1025641 , 4001.02564103 , 4123.58974359 , 4131.79487179 , 4077.94871795 , 4128.20512821 , 4136.41025641 , 4136.41025641 , 4054.35897436 , 4071.79487179 , 3758.97435897 , 3825.12820513 , 2044.0 , 2036.0 , 316.135 , 0.0 , 0.0 , 0.0 , 0.0 , 

0.0 , 3784.61538462 , 3861.02564103 , 4107.17948718 , 4015.8974359 , 4124.1025641 , 4128.71794872 , 4082.05128205 , 4127.17948718 , 4135.8974359 , 4136.41025641 , 4062.05128205 , 4077.94871795 , 3782.56410256 , 3844.1025641 , 2044.0 , 2040.0 , 316.143 , 0.0 , 0.0 , 0.0 , 0.0 , 

1.0 , 3806.15384615 , 3883.58974359 , 4108.20512821 , 4028.20512821 , 4128.20512821 , 4128.71794872 , 4084.1025641 , 4125.64102564 , 4135.8974359 , 4136.92307692 , 4070.76923077 , 4082.56410256 , 3808.20512821 , 3862.05128205 , 2045.0 , 2041.0 , 316.151 , 0.0 , 0.0 , 0.0 , 0.0 , 

2.0 , 3786.66666667 , 3871.28205128 , 4105.12820513 , 4013.33333333 , 4129.74358974 , 4131.28205128 , 4081.53846154 , 4125.64102564 , 4135.8974359 , 4136.92307692 , 4061.53846154 , 4076.41025641 , 3789.23076923 , 3847.69230769 , 2045.0 , 2040.0 , 316.159 , 0.0 , 0.0 , 0.0 , 0.0 , 

3.0 , 3769.74358974 , 3853.84615385 , 4104.61538462 , 4003.58974359 , 4127.17948718 , 4127.17948718 , 4079.48717949 , 4123.58974359 , 4135.8974359 , 4136.92307692 , 4056.92307692 , 4073.84615385 , 3769.23076923 , 3834.87179487 , 2041.0 , 2041.0 , 316.168 , 0.0 , 0.0 , 0.0 , 0.0 , 

4.0 , 3784.61538462 , 3862.05128205 , 4106.66666667 , 4011.79487179 , 4126.66666667 , 4126.15384615 , 4079.48717949 , 4122.56410256 , 4135.8974359 , 4136.92307692 , 4064.61538462 , 4074.35897436 , 3783.58974359 , 3842.56410256 , 2042.0 , 2041.0 , 316.174 , 0.0 , 0.0 , 0.0 , 0.0 , 

5.0 , 3794.35897436 , 3873.33333333 , 4106.66666667 , 4017.43589744 , 4128.20512821 , 4130.76923077 , 4080.51282051 , 4123.58974359 , 4135.8974359 , 4136.92307692 , 4066.15384615 , 4073.33333333 , 3797.94871795 , 3849.23076923 , 2041.0 , 2040.0 , 316.183 , 0.0 , 0.0 , 0.0 , 0.0 , 

6.0 , 3798.97435897 , 3878.97435897 , 4107.17948718 , 4020.51282051 , 4127.69230769 , 4131.28205128 , 4082.56410256 , 4124.1025641 , 4136.41025641 , 4136.92307692 , 4065.64102564 , 4078.97435897 , 3805.12820513 , 3860.0 , 2041.0 , 2038.0 , 316.19 , 0.0 , 0.0 , 0.0 , 0.0 , 

7.0 , 3808.20512821 , 3881.53846154 , 4108.20512821 , 4020.51282051 , 4125.64102564 , 4127.17948718 , 4082.56410256 , 4126.15384615 , 4135.8974359 , 4136.92307692 , 4070.25641026 , 4083.07692308 , 3809.74358974 , 3872.30769231 , 2042.0 , 2034.0 , 316.198 , 0.0 , 0.0 , 0.0 , 0.0 , 

8.0 , 3808.71794872 , 3883.58974359 , 4106.66666667 , 4018.97435897 , 4124.61538462 , 4128.20512821 , 4082.05128205 , 4128.71794872 , 4135.8974359 , 4136.92307692 , 4066.66666667 , 4078.46153846 , 3808.71794872 , 3870.76923077 , 2042.0 , 2032.0 , 316.206 , 0.0 , 0.0 , 0.0 , 0.0 , 

9.0 , 3803.58974359 , 3886.15384615 , 4106.15384615 , 4018.46153846 , 4125.64102564 , 4131.79487179 , 4084.1025641 , 4128.20512821 , 4136.41025641 , 4136.92307692 , 4064.61538462 , 4078.46153846 , 3809.74358974 , 3864.61538462 , 2041.0 , 2031.0 , 316.214 , 0.0 , 0.0 , 0.0 , 0.0 , 

10.0 , 3815.8974359 , 3892.82051282 , 4106.66666667 , 4022.05128205 , 4125.12820513 , 4130.76923077 , 4086.66666667 , 4126.15384615 , 4135.8974359 , 4136.92307692 , 4073.33333333 , 4083.07692308 , 3825.64102564 , 3875.38461538 , 2040.0 , 2029.0 , 316.221 , 0.0 , 0.0 , 0.0 , 0.0 , 

11.0 , 3828.20512821 , 3900.51282051 , 4106.15384615 , 4025.12820513 , 4125.64102564 , 4129.74358974 , 4088.71794872 , 4130.25641026 , 4133.33333333 , 4136.92307692 , 4076.92307692 , 4083.58974359 , 3838.97435897 , 3894.35897436 , 2041.0 , 2029.0 , 316.23 , 0.0 , 0.0 , 0.0 , 0.0 , 

12.0 , 3823.58974359 , 3904.61538462 , 4107.17948718 , 4022.56410256 , 4127.17948718 , 4130.76923077 , 4087.17948718 , 4130.76923077 , 4133.33333333 , 4136.92307692 , 4071.28205128 , 4081.02564103 , 3839.48717949 , 3898.97435897 , 2041.0 , 2028.0 , 316.237 , 0.0 , 0.0 , 0.0 , 0.0 , 

13.0 , 3815.8974359 , 3903.07692308 , 4108.71794872 , 4023.58974359 , 4125.64102564 , 4130.25641026 , 4087.69230769 , 4127.69230769 , 4135.8974359 , 4136.92307692 , 4070.76923077 , 4082.05128205 , 3836.92307692 , 3890.76923077 , 2041.0 , 2027.0 , 316.246 , 0.0 , 0.0 , 0.0 , 0.0 , 

14.0 , 3818.97435897 , 3901.53846154 , 4107.17948718 , 4029.74358974 , 4125.64102564 , 4129.74358974 , 4088.20512821 , 4126.66666667 , 4135.38461538 , 4136.92307692 , 4074.35897436 , 4085.12820513 , 3842.56410256 , 3892.30769231 , 2040.0 , 2027.0 , 316.253 , 0.0 , 0.0 , 0.0 , 0.0 , 

15.0 , 3817.43589744 , 3898.97435897 , 4106.15384615 , 4024.1025641 , 4126.66666667 , 4131.28205128 , 4089.74358974 , 4128.71794872 , 4133.84615385 , 4136.92307692 , 4073.33333333 , 4085.12820513 , 3837.94871795 , 3892.30769231 , 2040.0 , 2028.0 , 316.262 , 0.0 , 0.0 , 0.0 , 0.0 , 

16.0 , 3830.76923077 , 3915.8974359 , 4109.74358974 , 4024.61538462 , 4122.05128205 , 4130.76923077 , 4095.38461538 , 4128.20512821 , 4134.35897436 , 4136.92307692 , 4076.41025641 , 4086.15384615 , 3850.25641026 , 3900.51282051 , 2041.0 , 2027.0 , 316.27 , 0.0 , 0.0 , 0.0 , 0.0 , 

17.0 , 3829.23076923 , 3915.8974359 , 4109.74358974 , 4024.1025641 , 4121.02564103 , 4129.74358974 , 4093.33333333 , 4125.12820513 , 4134.35897436 , 4136.92307692 , 4070.76923077 , 4086.66666667 , 3850.25641026 , 3897.43589744 , 2041.0 , 2027.0 , 316.279 , 0.0 , 0.0 , 0.0 , 0.0 , 

18.0 , 3817.94871795 , 3904.1025641 , 4108.71794872 , 4023.07692308 , 4126.66666667 , 4130.76923077 , 4090.76923077 , 4127.69230769 , 4134.35897436 , 4136.92307692 , 4068.20512821 , 4085.12820513 , 3840.51282051 , 3891.79487179 , 2042.0 , 2029.0 , 316.285 , 0.0 , 0.0 , 0.0 , 0.0 , 

19.0 , 3835.38461538 , 3922.05128205 , 4109.74358974 , 4029.23076923 , 4128.20512821 , 4130.25641026 , 4094.87179487 , 4129.74358974 , 4134.35897436 , 4136.92307692 , 4078.46153846 , 4087.69230769 , 3863.58974359 , 3909.74358974 , 2042.0 , 2030.0 , 316.293 , 0.0 , 0.0 , 0.0 , 0.0 , 

20.0 , 3838.46153846 , 3927.69230769 , 4107.69230769 , 4024.1025641 , 4124.1025641 , 4128.71794872 , 4092.82051282 , 4127.69230769 , 4134.35897436 , 4136.92307692 , 4074.35897436 , 4087.17948718 , 3865.12820513 , 3911.79487179 , 2043.0 , 2031.0 , 316.301 , 0.0 , 0.0 , 0.0 , 0.0 , 

21.0 , 3816.92307692 , 3906.15384615 , 4104.61538462 , 4014.35897436 , 4123.58974359 , 4128.71794872 , 4088.20512821 , 4131.28205128 , 4134.35897436 , 4136.92307692 , 4065.64102564 , 4084.1025641 , 3837.43589744 , 3892.82051282 , 2044.0 , 2032.0 , 316.307 , 0.0 , 0.0 , 0.0 , 0.0 , 

22.0 , 3835.8974359 , 3920.51282051 , 4107.17948718 , 4027.17948718 , 4128.20512821 , 4128.20512821 , 4095.8974359 , 4132.30769231 , 4134.35897436 , 4136.92307692 , 4076.41025641 , 4088.71794872 , 3860.0 , 3909.74358974 , 2044.0 , 2033.0 , 316.317 , 0.0 , 0.0 , 0.0 , 0.0 , 

23.0 , 3855.38461538 , 3943.58974359 , 4107.17948718 , 4035.8974359 , 4129.74358974 , 4129.23076923 , 4096.41025641 , 4126.66666667 , 4134.35897436 , 4136.92307692 , 4080.51282051 , 4092.30769231 , 3887.17948718 , 3928.71794872 , 2044.0 , 2035.0 , 316.324 , 0.0 , 0.0 , 0.0 , 0.0 , 

24.0 , 3832.30769231 , 3926.15384615 , 4104.61538462 , 4025.64102564 , 4126.66666667 , 4128.71794872 , 4088.71794872 , 4125.12820513 , 4134.35897436 , 4136.92307692 , 4068.71794872 , 4087.17948718 , 3863.58974359 , 3908.20512821 , 2046.0 , 2035.0 , 316.333 , 0.0 , 0.0 , 0.0 , 0.0 , 

25.0 , 3823.07692308 , 3917.43589744 , 4105.64102564 , 4024.1025641 , 4124.61538462 , 4128.20512821 , 4089.23076923 , 4128.71794872 , 4134.35897436 , 4136.92307692 , 4065.12820513 , 4084.61538462 , 3852.82051282 , 3897.43589744 , 2045.0 , 2036.0 , 316.34 , 0.0 , 0.0 , 0.0 , 0.0 , 

26.0 , 3834.35897436 , 3925.12820513 , 4106.66666667 , 4027.69230769 , 4125.12820513 , 4128.71794872 , 4090.25641026 , 4129.23076923 , 4134.35897436 , 4136.92307692 , 4068.20512821 , 4088.71794872 , 3865.64102564 , 3904.1025641 , 2046.0 , 2035.0 , 316.349 , 0.0 , 0.0 , 0.0 , 0.0 , 

27.0 , 3837.94871795 , 3930.76923077 , 4106.66666667 , 4028.71794872 , 4125.12820513 , 4128.71794872 , 4089.23076923 , 4127.69230769 , 4134.35897436 , 4136.92307692 , 4071.79487179 , 4089.23076923 , 3873.33333333 , 3909.74358974 , 2046.0 , 2036.0 , 316.355 , 0.0 , 0.0 , 0.0 , 0.0 , 

28.0 , 3851.28205128 , 3942.56410256 , 4107.69230769 , 4033.33333333 , 4124.1025641 , 4129.74358974 , 4094.87179487 , 4128.20512821 , 4134.35897436 , 4136.92307692 , 4076.92307692 , 4088.71794872 , 3885.64102564 , 3923.58974359 , 2048.0 , 2034.0 , 316.364 , 0.0 , 0.0 , 0.0 , 0.0 , 

29.0 , 3857.94871795 , 3946.66666667 , 4107.17948718 , 4030.76923077 , 4123.07692308 , 4131.79487179 , 4097.43589744 , 4127.17948718 , 4134.35897436 , 4136.92307692 , 4073.33333333 , 4089.23076923 , 3892.82051282 , 3930.76923077 , 2048.0 , 2035.0 , 316.37 , 0.0 , 0.0 , 0.0 , 0.0 , 

30.0 , 3837.43589744 , 3930.76923077 , 4105.12820513 , 4023.58974359 , 4124.61538462 , 4131.79487179 , 4090.76923077 , 4126.66666667 , 4134.35897436 , 4136.92307692 , 4062.56410256 , 4087.17948718 , 3878.46153846 , 3911.79487179 , 2048.0 , 2034.0 , 316.379 , 0.0 , 0.0 , 0.0 , 0.0 , 

31.0 , 3830.76923077 , 3924.61538462 , 4108.20512821 , 4026.15384615 , 4128.71794872 , 4129.23076923 , 4090.76923077 , 4126.15384615 , 4134.35897436 , 4136.92307692 , 4062.05128205 , 4084.1025641 , 3870.25641026 , 3898.97435897 , 2048.0 , 2032.0 , 316.386 , 0.0 , 0.0 , 0.0 , 0.0 , 

32.0 , 3857.94871795 , 3946.15384615 , 4112.82051282 , 4040.0 , 4127.17948718 , 4130.25641026 , 4098.46153846 , 4129.74358974 , 4134.35897436 , 4136.92307692 , 4075.38461538 , 4086.66666667 , 3892.82051282 , 3921.53846154 , 2047.0 , 2033.0 , 316.396 , 0.0 , 0.0 , 0.0 , 0.0 , 

33.0 , 3892.82051282 , 3978.97435897 , 4114.87179487 , 4053.84615385 , 4122.56410256 , 4129.74358974 , 4100.51282051 , 4133.33333333 , 4133.84615385 , 4136.92307692 , 4088.71794872 , 4095.8974359 , 3937.43589744 , 3955.8974359 , 2047.0 , 2035.0 , 316.403 , 0.0 , 0.0 , 0.0 , 0.0 , 

34.0 , 3877.43589744 , 3971.28205128 , 4112.30769231 , 4038.97435897 , 4122.56410256 , 4128.20512821 , 4094.35897436 , 4129.23076923 , 4134.35897436 , 4136.92307692 , 4078.46153846 , 4094.87179487 , 3930.25641026 , 3945.12820513 , 2046.0 , 2036.0 , 316.412 , 0.0 , 0.0 , 0.0 , 0.0 , 

35.0 , 3851.28205128 , 3946.66666667 , 4108.20512821 , 4024.61538462 , 4125.12820513 , 4128.71794872 , 4091.28205128 , 4124.61538462 , 4136.41025641 , 4136.92307692 , 4071.79487179 , 4087.17948718 , 3898.97435897 , 3927.69230769 , 2045.0 , 2034.0 , 316.419 , 0.0 , 0.0 , 0.0 , 0.0 , 

36.0 , 3859.48717949 , 3946.66666667 , 4105.64102564 , 4031.79487179 , 4126.15384615 , 4129.23076923 , 4090.25641026 , 4125.12820513 , 4136.41025641 , 4136.92307692 , 4082.05128205 , 4088.20512821 , 3902.56410256 , 3935.8974359 , 2044.0 , 2035.0 , 316.425 , 0.0 , 0.0 , 0.0 , 0.0 , 

37.0 , 3869.74358974 , 3954.35897436 , 4106.15384615 , 4034.35897436 , 4124.61538462 , 4129.74358974 , 4090.25641026 , 4127.17948718 , 4134.87179487 , 4136.92307692 , 4083.58974359 , 4088.20512821 , 3911.79487179 , 3935.8974359 , 2043.0 , 2035.0 , 316.434 , 0.0 , 0.0 , 0.0 , 0.0 , 

38.0 , 3866.15384615 , 3952.82051282 , 4111.28205128 , 4033.33333333 , 4124.61538462 , 4131.28205128 , 4094.35897436 , 4125.12820513 , 4134.87179487 , 4136.92307692 , 4079.48717949 , 4084.1025641 , 3909.23076923 , 3930.25641026 , 2043.0 , 2037.0 , 316.441 , 0.0 , 0.0 , 0.0 , 0.0 , 

39.0 , 3885.64102564 , 3972.30769231 , 4116.41025641 , 4050.25641026 , 4124.1025641 , 4129.74358974 , 4101.02564103 , 4124.61538462 , 4134.87179487 , 4136.92307692 , 4091.28205128 , 4088.71794872 , 3935.8974359 , 3954.87179487 , 2042.0 , 2036.0 , 316.451 , 0.0 , 0.0 , 0.0 , 0.0 , 

40.0 , 3894.35897436 , 3981.53846154 , 4112.82051282 , 4051.79487179 , 4123.07692308 , 4128.71794872 , 4100.51282051 , 4128.20512821 , 4134.35897436 , 4136.92307692 , 4091.79487179 , 4095.8974359 , 3947.69230769 , 3962.56410256 , 2041.0 , 2036.0 , 316.457 , 0.0 , 0.0 , 0.0 , 0.0 , 

41.0 , 3877.43589744 , 3964.61538462 , 4107.17948718 , 4038.46153846 , 4125.12820513 , 4129.74358974 , 4097.94871795 , 4130.25641026 , 4135.38461538 , 4136.92307692 , 4078.97435897 , 4093.84615385 , 3926.66666667 , 3946.66666667 , 2042.0 , 2034.0 , 316.467 , 0.0 , 0.0 , 0.0 , 0.0 , 

42.0 , 3882.56410256 , 3966.66666667 , 4108.20512821 , 4043.58974359 , 4128.71794872 , 4129.74358974 , 4099.48717949 , 4128.20512821 , 4135.8974359 , 4136.92307692 , 4082.05128205 , 4088.71794872 , 3928.71794872 , 3954.35897436 , 2040.0 , 2033.0 , 316.475 , 0.0 , 0.0 , 0.0 , 0.0 , 

43.0 , 3899.48717949 , 3981.53846154 , 4112.30769231 , 4051.28205128 , 4126.66666667 , 4128.71794872 , 4102.56410256 , 4127.17948718 , 4134.87179487 , 4136.92307692 , 4092.30769231 , 4090.25641026 , 3946.66666667 , 3967.17948718 , 2040.0 , 2034.0 , 316.483 , 0.0 , 0.0 , 0.0 , 0.0 , 

44.0 , 3901.02564103 , 3982.05128205 , 4110.76923077 , 4050.25641026 , 4123.07692308 , 4131.28205128 , 4101.53846154 , 4130.25641026 , 4134.87179487 , 4136.92307692 , 4095.38461538 , 4093.33333333 , 3955.8974359 , 3971.28205128 , 2037.0 , 2034.0 , 316.489 , 0.0 , 0.0 , 0.0 , 0.0 , 

45.0 , 3890.76923077 , 3969.74358974 , 4106.66666667 , 4047.69230769 , 4124.1025641 , 4131.79487179 , 4097.43589744 , 4129.23076923 , 4136.41025641 , 4136.92307692 , 4089.23076923 , 4092.30769231 , 3947.17948718 , 3965.64102564 , 2037.0 , 2035.0 , 316.497 , 0.0 , 0.0 , 0.0 , 0.0 , 

46.0 , 3886.66666667 , 3971.28205128 , 4107.69230769 , 4045.12820513 , 4124.1025641 , 4130.76923077 , 4100.0 , 4129.74358974 , 4134.35897436 , 4136.92307692 , 4082.56410256 , 4091.28205128 , 3937.43589744 , 3957.43589744 , 2038.0 , 2034.0 , 316.505 , 0.0 , 0.0 , 0.0 , 0.0 , 

47.0 , 3904.1025641 , 3992.30769231 , 4114.35897436 , 4053.84615385 , 4124.1025641 , 4132.30769231 , 4106.66666667 , 4135.8974359 , 4130.25641026 , 4136.92307692 , 4089.74358974 , 4097.94871795 , 3956.92307692 , 3973.84615385 , 2039.0 , 2034.0 , 316.513 , 0.0 , 0.0 , 0.0 , 0.0 , 

48.0 , 3912.30769231 , 3996.41025641 , 4113.84615385 , 4060.51282051 , 4124.61538462 , 4131.79487179 , 4104.61538462 , 4132.82051282 , 4133.33333333 , 4136.41025641 , 4093.33333333 , 4099.48717949 , 3974.35897436 , 3991.28205128 , 2039.0 , 2035.0 , 316.521 , 0.0 , 0.0 , 0.0 , 0.0 , 

49.0 , 3884.1025641 , 3966.15384615 , 4107.69230769 , 4044.61538462 , 4124.61538462 , 4132.30769231 , 4098.46153846 , 4126.66666667 , 4136.41025641 , 4135.38461538 , 4081.02564103 , 4090.76923077 , 3940.51282051 , 3964.1025641 , 2040.0 , 2035.0 , 316.53 , 0.0 , 0.0 , 0.0 , 0.0 , 

50.0 , 3886.15384615 , 3972.30769231 , 4114.87179487 , 4045.12820513 , 4125.12820513 , 4133.33333333 , 4104.1025641 , 4129.23076923 , 4134.87179487 , 4134.35897436 , 4085.12820513 , 4091.79487179 , 3935.8974359 , 3957.94871795 , 2039.0 , 2036.0 , 316.537 , 0.0 , 0.0 , 0.0 , 0.0 , 

51.0 , 3917.43589744 , 4006.66666667 , 4120.0 , 4062.05128205 , 4125.12820513 , 4132.82051282 , 4108.71794872 , 4131.79487179 , 4134.35897436 , 4135.38461538 , 4094.87179487 , 4100.51282051 , 3975.8974359 , 3991.28205128 , 2043.0 , 2034.0 , 316.546 , 0.0 , 0.0 , 0.0 , 0.0 , 

52.0 , 3909.23076923 , 4001.53846154 , 4109.23076923 , 4055.8974359 , 4123.58974359 , 4129.74358974 , 4102.56410256 , 4127.69230769 , 4134.87179487 , 4136.41025641 , 4085.12820513 , 4095.38461538 , 3973.33333333 , 3988.20512821 , 2042.0 , 2034.0 , 316.553 , 0.0 , 0.0 , 0.0 , 0.0 , 

53.0 , 3887.17948718 , 3978.97435897 , 4109.74358974 , 4046.15384615 , 4123.58974359 , 4129.74358974 , 4101.02564103 , 4128.20512821 , 4132.82051282 , 4135.8974359 , 4079.48717949 , 4089.23076923 , 3948.71794872 , 3966.15384615 , 2044.0 , 2034.0 , 316.561 , 0.0 , 0.0 , 0.0 , 0.0 , 

54.0 , 3905.12820513 , 3994.87179487 , 4119.48717949 , 4057.43589744 , 4124.61538462 , 4128.71794872 , 4105.64102564 , 4131.28205128 , 4133.33333333 , 4134.87179487 , 4087.17948718 , 4096.41025641 , 3968.71794872 , 3983.58974359 , 2046.0 , 2037.0 , 316.568 , 0.0 , 0.0 , 0.0 , 0.0 , 

55.0 , 3910.25641026 , 4008.20512821 , 4113.33333333 , 4055.8974359 , 4124.61538462 , 4130.25641026 , 4103.07692308 , 4127.69230769 , 4134.35897436 , 4134.87179487 , 4085.12820513 , 4098.97435897 , 3976.41025641 , 3991.79487179 , 2046.0 , 2037.0 , 316.575 , 0.0 , 0.0 , 0.0 , 0.0 , 

56.0 , 3905.12820513 , 4004.1025641 , 4108.71794872 , 4050.76923077 , 4122.05128205 , 4132.82051282 , 4098.97435897 , 4124.1025641 , 4134.35897436 , 4134.87179487 , 4084.61538462 , 4092.82051282 , 3967.69230769 , 3985.12820513 , 2046.0 , 2034.0 , 316.584 , 0.0 , 0.0 , 0.0 , 0.0 , 

57.0 , 3911.79487179 , 3998.46153846 , 4114.87179487 , 4054.35897436 , 4122.05128205 , 4130.76923077 , 4098.46153846 , 4126.66666667 , 4133.84615385 , 4134.87179487 , 4088.20512821 , 4092.30769231 , 3970.25641026 , 3987.69230769 , 2047.0 , 2033.0 , 316.591 , 0.0 , 0.0 , 0.0 , 0.0 , 

58.0 , 3912.30769231 , 4000.51282051 , 4113.33333333 , 4056.92307692 , 4124.61538462 , 4127.69230769 , 4098.97435897 , 4131.28205128 , 4134.35897436 , 4135.8974359 , 4084.61538462 , 4093.84615385 , 3970.76923077 , 3990.25641026 , 2049.0 , 2033.0 , 316.6 , 0.0 , 0.0 , 0.0 , 0.0 , 

59.0 , 3921.53846154 , 4019.48717949 , 4113.84615385 , 4062.56410256 , 4125.64102564 , 4128.20512821 , 4104.1025641 , 4132.30769231 , 4135.38461538 , 4135.8974359 , 4087.69230769 , 4095.38461538 , 3984.61538462 , 4000.51282051 , 2048.0 , 2032.0 , 316.607 , 0.0 , 0.0 , 0.0 , 0.0 , 

60.0 , 3932.82051282 , 4024.1025641 , 4119.48717949 , 4067.17948718 , 4123.58974359 , 4128.20512821 , 4104.1025641 , 4128.20512821 , 4135.8974359 , 4135.8974359 , 4088.71794872 , 4095.38461538 , 3999.48717949 , 4006.15384615 , 2049.0 , 2031.0 , 316.616 , 0.0 , 0.0 , 0.0 , 0.0 , 

61.0 , 3913.84615385 , 3999.48717949 , 4113.33333333 , 4055.38461538 , 4122.56410256 , 4128.71794872 , 4095.38461538 , 4124.61538462 , 4134.87179487 , 4135.8974359 , 4077.94871795 , 4091.28205128 , 3971.28205128 , 3983.58974359 , 2049.0 , 2033.0 , 316.623 , 0.0 , 0.0 , 0.0 , 0.0 , 

62.0 , 3908.20512821 , 4001.53846154 , 4111.79487179 , 4052.82051282 , 4123.58974359 , 4128.71794872 , 4099.48717949 , 4127.69230769 , 4133.84615385 , 4135.8974359 , 4081.53846154 , 4090.25641026 , 3959.48717949 , 3981.53846154 , 2047.0 , 2033.0 , 316.632 , 0.0 , 0.0 , 0.0 , 0.0 , 

63.0 , 3928.71794872 , 4024.61538462 , 4115.8974359 , 4063.07692308 , 4124.61538462 , 4128.71794872 , 4107.17948718 , 4131.28205128 , 4134.35897436 , 4135.8974359 , 4090.76923077 , 4095.38461538 , 3989.74358974 , 4004.61538462 , 2046.0 , 2031.0 , 316.638 , 0.0 , 0.0 , 0.0 , 0.0 , 

64.0 , 3942.05128205 , 4031.28205128 , 4113.33333333 , 4068.20512821 , 4125.64102564 , 4130.25641026 , 4105.64102564 , 4129.23076923 , 4134.35897436 , 4135.8974359 , 4093.84615385 , 4099.48717949 , 4006.15384615 , 4014.87179487 , 2045.0 , 2031.0 , 316.647 , 0.0 , 0.0 , 0.0 , 0.0 , 

65.0 , 3946.66666667 , 4033.84615385 , 4111.28205128 , 4065.12820513 , 4124.61538462 , 4133.33333333 , 4100.51282051 , 4125.64102564 , 4134.35897436 , 4135.8974359 , 4094.87179487 , 4097.43589744 , 4007.17948718 , 4016.92307692 , 2044.0 , 2033.0 , 316.655 , 0.0 , 0.0 , 0.0 , 0.0 , 

66.0 , 3929.23076923 , 4018.97435897 , 4115.38461538 , 4054.87179487 , 4124.1025641 , 4132.82051282 , 4096.92307692 , 4124.61538462 , 4134.35897436 , 4135.8974359 , 4089.23076923 , 4090.76923077 , 3988.20512821 , 4001.02564103 , 2043.0 , 2032.0 , 316.664 , 0.0 , 0.0 , 0.0 , 0.0 , 

67.0 , 3936.41025641 , 4023.07692308 , 4117.94871795 , 4062.56410256 , 4124.1025641 , 4129.74358974 , 4103.58974359 , 4129.23076923 , 4134.35897436 , 4135.8974359 , 4091.28205128 , 4095.38461538 , 3994.35897436 , 4007.69230769 , 2046.0 , 2037.0 , 316.671 , 0.0 , 0.0 , 0.0 , 0.0 , 

68.0 , 3987.17948718 , 4065.64102564 , 4120.51282051 , 4085.12820513 , 4125.64102564 , 4127.69230769 , 4115.8974359 , 4136.41025641 , 4134.35897436 , 4135.8974359 , 4106.15384615 , 4108.71794872 , 4047.17948718 , 4057.94871795 , 2044.0 , 2037.0 , 316.68 , 0.0 , 0.0 , 0.0 , 0.0 , 

69.0 , 3997.43589744 , 4067.17948718 , 4117.94871795 , 4083.07692308 , 4125.64102564 , 4129.23076923 , 4109.74358974 , 4133.84615385 , 4134.35897436 , 4135.8974359 , 4103.07692308 , 4105.64102564 , 4061.02564103 , 4072.30769231 , 2043.0 , 2039.0 , 316.687 , 0.0 , 0.0 , 0.0 , 0.0 , 

70.0 , 3978.97435897 , 4039.48717949 , 4115.38461538 , 4069.74358974 , 4124.61538462 , 4132.82051282 , 4101.02564103 , 4128.71794872 , 4134.35897436 , 4135.8974359 , 4091.79487179 , 4096.41025641 , 4026.66666667 , 4051.79487179 , 2042.0 , 2041.0 , 316.695 , 0.0 , 0.0 , 0.0 , 0.0 , 

71.0 , 4036.41025641 , 4082.56410256 , 4123.58974359 , 4090.76923077 , 4124.1025641 , 4130.76923077 , 4110.76923077 , 4130.76923077 , 4134.35897436 , 4135.8974359 , 4108.20512821 , 4101.02564103 , 4062.56410256 , 4100.0 , 2043.0 , 2039.0 , 316.702 , 0.0 , 0.0 , 0.0 , 0.0 , 

72.0 , 4083.07692308 , 4115.8974359 , 4125.12820513 , 4100.0 , 4124.1025641 , 4128.71794872 , 4112.82051282 , 4133.33333333 , 4134.35897436 , 4135.8974359 , 4114.35897436 , 4104.1025641 , 4095.8974359 , 4145.12820513 , 2041.0 , 2039.0 , 316.711 , 0.0 , 0.0 , 0.0 , 0.0 , 

73.0 , 4079.48717949 , 4102.05128205 , 4122.56410256 , 4087.69230769 , 4123.58974359 , 4130.25641026 , 4107.17948718 , 4130.76923077 , 4133.84615385 , 4135.8974359 , 4107.17948718 , 4101.02564103 , 4078.97435897 , 4142.56410256 , 2041.0 , 2039.0 , 316.719 , 0.0 , 0.0 , 0.0 , 0.0 , 

74.0 , 4113.33333333 , 4118.97435897 , 4130.76923077 , 4094.87179487 , 4123.58974359 , 4132.30769231 , 4113.33333333 , 4130.25641026 , 4134.35897436 , 4135.8974359 , 4117.43589744 , 4104.61538462 , 4098.97435897 , 4172.82051282 , 2040.0 , 2035.0 , 316.727 , 0.0 , 0.0 , 0.0 , 0.0 , 

75.0 , 4155.38461538 , 4149.23076923 , 4135.38461538 , 4107.69230769 , 4126.66666667 , 4129.74358974 , 4116.92307692 , 4131.28205128 , 4134.35897436 , 4135.8974359 , 4124.1025641 , 4110.76923077 , 4126.66666667 , 4212.82051282 , 2041.0 , 2035.0 , 316.734 , 0.0 , 0.0 , 0.0 , 0.0 , 

76.0 , 4146.15384615 , 4137.43589744 , 4127.69230769 , 4098.97435897 , 4128.20512821 , 4128.71794872 , 4108.71794872 , 4131.79487179 , 4133.84615385 , 4135.8974359 , 4116.41025641 , 4109.23076923 , 4105.64102564 , 4205.64102564 , 2040.0 , 2032.0 , 316.741 , 0.0 , 0.0 , 0.0 , 0.0 , 

77.0 , 4135.8974359 , 4122.56410256 , 4123.07692308 , 4092.82051282 , 4125.12820513 , 4131.28205128 , 4107.17948718 , 4132.30769231 , 4134.87179487 , 4135.8974359 , 4115.38461538 , 4104.61538462 , 4094.87179487 , 4201.02564103 , 2041.0 , 2029.0 , 316.75 , 0.0 , 0.0 , 0.0 , 0.0 , 

78.0 , 4160.51282051 , 4140.0 , 4129.74358974 , 4106.66666667 , 4124.1025641 , 4132.30769231 , 4115.38461538 , 4129.74358974 , 4135.38461538 , 4135.8974359 , 4122.56410256 , 4110.76923077 , 4123.58974359 , 4227.69230769 , 2041.0 , 2028.0 , 316.757 , 0.0 , 0.0 , 0.0 , 0.0 , 

79.0 , 4173.84615385 , 4152.30769231 , 4132.82051282 , 4111.28205128 , 4126.15384615 , 4130.76923077 , 4120.51282051 , 4127.17948718 , 4134.87179487 , 4135.8974359 , 4123.07692308 , 4122.05128205 , 4141.53846154 , 4238.46153846 , 2042.0 , 2026.0 , 316.768 , 0.0 , 0.0 , 0.0 , 0.0 , 

80.0 , 4146.15384615 , 4131.28205128 , 4126.15384615 , 4093.33333333 , 4125.12820513 , 4130.76923077 , 4116.92307692 , 4128.20512821 , 4134.35897436 , 4135.8974359 , 4118.46153846 , 4118.97435897 , 4124.61538462 , 4212.82051282 , 2043.0 , 2028.0 , 316.773 , 0.0 , 0.0 , 0.0 , 0.0 , 

81.0 , 4114.35897436 , 4115.8974359 , 4121.53846154 , 4085.12820513 , 4125.12820513 , 4129.74358974 , 4113.84615385 , 4131.28205128 , 4134.35897436 , 4135.8974359 , 4117.94871795 , 4108.20512821 , 4108.71794872 , 4188.20512821 , 2044.0 , 2027.0 , 316.782 , 0.0 , 0.0 , 0.0 , 0.0 , 

82.0 , 4095.8974359 , 4112.30769231 , 4122.05128205 , 4087.17948718 , 4127.69230769 , 4128.71794872 , 4115.8974359 , 4129.74358974 , 4134.35897436 , 4135.8974359 , 4118.46153846 , 4105.64102564 , 4103.07692308 , 4172.30769231 , 2044.0 , 2026.0 , 316.789 , 0.0 , 0.0 , 0.0 , 0.0 , 

83.0 , 4068.20512821 , 4085.64102564 , 4121.53846154 , 4074.35897436 , 4127.69230769 , 4130.76923077 , 4112.82051282 , 4125.12820513 , 4134.35897436 , 4135.8974359 , 4110.76923077 , 4106.15384615 , 4083.07692308 , 4140.51282051 , 2044.0 , 2027.0 , 316.797 , 0.0 , 0.0 , 0.0 , 0.0 , 

84.0 , 4048.20512821 , 4068.71794872 , 4120.0 , 4069.74358974 , 4124.1025641 , 4131.28205128 , 4110.76923077 , 4130.25641026 , 4134.35897436 , 4135.8974359 , 4107.17948718 , 4105.64102564 , 4074.87179487 , 4118.46153846 , 2045.0 , 2028.0 , 316.805 , 0.0 , 0.0 , 0.0 , 0.0 , 

85.0 , 4052.82051282 , 4086.66666667 , 4123.07692308 , 4084.61538462 , 4125.12820513 , 4129.74358974 , 4113.33333333 , 4138.97435897 , 4134.35897436 , 4135.8974359 , 4118.46153846 , 4109.23076923 , 4098.46153846 , 4130.25641026 , 2045.0 , 2028.0 , 316.813 , 0.0 , 0.0 , 0.0 , 0.0 , 

86.0 , 4047.17948718 , 4091.79487179 , 4121.53846154 , 4085.64102564 , 4127.69230769 , 4129.74358974 , 4114.35897436 , 4134.35897436 , 4134.35897436 , 4135.8974359 , 4118.97435897 , 4107.69230769 , 4104.1025641 , 4127.69230769 , 2044.0 , 2031.0 , 316.821 , 0.0 , 0.0 , 0.0 , 0.0 , 

87.0 , 4038.46153846 , 4085.64102564 , 4121.02564103 , 4083.07692308 , 4127.17948718 , 4131.28205128 , 4116.41025641 , 4126.15384615 , 4134.35897436 , 4135.8974359 , 4109.74358974 , 4105.64102564 , 4093.84615385 , 4111.79487179 , 2045.0 , 2032.0 , 316.83 , 0.0 , 0.0 , 0.0 , 0.0 , 

88.0 , 4037.94871795 , 4085.64102564 , 4121.53846154 , 4085.64102564 , 4125.12820513 , 4131.79487179 , 4114.87179487 , 4126.15384615 , 4134.35897436 , 4135.8974359 , 4110.25641026 , 4108.20512821 , 4097.94871795 , 4112.30769231 , 2044.0 , 2035.0 , 316.836 , 0.0 , 0.0 , 0.0 , 0.0 , 

89.0 , 4012.82051282 , 4064.61538462 , 4120.0 , 4075.8974359 , 4124.61538462 , 4130.76923077 , 4108.20512821 , 4128.20512821 , 4134.35897436 , 4135.8974359 , 4107.69230769 , 4106.66666667 , 4077.43589744 , 4092.30769231 , 2042.0 , 2035.0 , 316.845 , 0.0 , 0.0 , 0.0 , 0.0 , 

90.0 , 4003.07692308 , 4063.58974359 , 4120.0 , 4075.38461538 , 4125.64102564 , 4130.76923077 , 4111.79487179 , 4130.25641026 , 4134.35897436 , 4135.8974359 , 4106.66666667 , 4105.64102564 , 4069.23076923 , 4077.94871795 , 2042.0 , 2035.0 , 316.852 , 0.0 , 0.0 , 0.0 , 0.0 , 

91.0 , 4017.94871795 , 4081.02564103 , 4122.56410256 , 4086.15384615 , 4126.15384615 , 4130.25641026 , 4117.43589744 , 4136.41025641 , 4134.35897436 , 4135.8974359 , 4111.79487179 , 4108.71794872 , 4087.69230769 , 4089.23076923 , 2042.0 , 2035.0 , 316.86 , 0.0 , 0.0 , 0.0 , 0.0 , 

92.0 , 4016.41025641 , 4080.51282051 , 4123.07692308 , 4085.12820513 , 4124.1025641 , 4128.20512821 , 4115.8974359 , 4136.92307692 , 4134.35897436 , 4135.8974359 , 4113.33333333 , 4109.74358974 , 4091.28205128 , 4089.23076923 , 2042.0 , 2036.0 , 316.868 , 0.0 , 0.0 , 0.0 , 0.0 , 

93.0 , 3989.74358974 , 4061.53846154 , 4118.97435897 , 4069.74358974 , 4123.58974359 , 4127.69230769 , 4113.33333333 , 4135.38461538 , 4134.35897436 , 4135.8974359 , 4103.58974359 , 4106.66666667 , 4062.56410256 , 4064.1025641 , 2042.0 , 2034.0 , 316.876 , 0.0 , 0.0 , 0.0 , 0.0 , 

94.0 , 3991.79487179 , 4068.71794872 , 4120.0 , 4071.79487179 , 4126.15384615 , 4131.28205128 , 4116.41025641 , 4136.92307692 , 4134.35897436 , 4135.8974359 , 4104.61538462 , 4107.69230769 , 4063.58974359 , 4065.12820513 , 2042.0 , 2035.0 , 316.884 , 0.0 , 0.0 , 0.0 , 0.0 , 

95.0 , 4006.15384615 , 4081.02564103 , 4122.05128205 , 4078.46153846 , 4127.17948718 , 4133.84615385 , 4116.41025641 , 4135.38461538 , 4134.35897436 , 4135.8974359 , 4110.25641026 , 4109.74358974 , 4082.56410256 , 4076.41025641 , 2042.0 , 2034.0 , 316.892 , 0.0 , 0.0 , 0.0 , 0.0 , 

96.0 , 3996.92307692 , 4068.71794872 , 4118.46153846 , 4075.8974359 , 4125.64102564 , 4131.79487179 , 4113.33333333 , 4132.30769231 , 4134.35897436 , 4135.8974359 , 4107.69230769 , 4107.69230769 , 4073.33333333 , 4066.66666667 , 2043.0 , 2034.0 , 316.901 , 0.0 , 0.0 , 0.0 , 0.0 , 

97.0 , 3986.66666667 , 4060.51282051 , 4116.41025641 , 4078.97435897 , 4125.12820513 , 4130.25641026 , 4114.35897436 , 4130.76923077 , 4134.35897436 , 4135.8974359 , 4107.69230769 , 4105.12820513 , 4062.56410256 , 4061.53846154 , 2042.0 , 2034.0 , 316.907 , 0.0 , 0.0 , 0.0 , 0.0 , 

98.0 , 3990.25641026 , 4066.15384615 , 4119.48717949 , 4082.05128205 , 4123.58974359 , 4130.76923077 , 4118.97435897 , 4127.17948718 , 4134.35897436 , 4135.8974359 , 4112.30769231 , 4106.15384615 , 4070.25641026 , 4065.64102564 , 2041.0 , 2034.0 , 316.917 , 0.0 , 0.0 , 0.0 , 0.0 , 

99.0 , 3993.33333333 , 4064.61538462 , 4120.51282051 , 4074.35897436 , 4123.58974359 , 4128.71794872 , 4122.05128205 , 4131.28205128 , 4134.35897436 , 4135.8974359 , 4110.76923077 , 4108.71794872 , 4073.33333333 , 4064.61538462 , 2040.0 , 2033.0 , 316.924 , 0.0 , 0.0 , 0.0 , 0.0 , 

100.0 , 4000.51282051 , 4066.15384615 , 4122.05128205 , 4077.43589744 , 4125.64102564 , 4128.71794872 , 4123.07692308 , 4138.46153846 , 4134.35897436 , 4135.8974359 , 4110.76923077 , 4110.25641026 , 4079.48717949 , 4070.25641026 , 2039.0 , 2034.0 , 316.932 , 0.0 , 0.0 , 0.0 , 0.0 , 

101.0 , 4013.84615385 , 4082.56410256 , 4125.12820513 , 4092.30769231 , 4125.12820513 , 4131.28205128 , 4126.15384615 , 4137.43589744 , 4134.35897436 , 4135.8974359 , 4113.84615385 , 4111.28205128 , 4100.51282051 , 4087.17948718 , 2040.0 , 2035.0 , 316.938 , 0.0 , 0.0 , 0.0 , 0.0 , 

102.0 , 4007.17948718 , 4082.05128205 , 4123.07692308 , 4085.12820513 , 4125.12820513 , 4132.30769231 , 4125.64102564 , 4135.38461538 , 4134.35897436 , 4135.8974359 , 4109.23076923 , 4110.76923077 , 4098.46153846 , 4085.12820513 , 2042.0 , 2031.0 , 316.947 , 0.0 , 0.0 , 0.0 , 0.0 , 

103.0 , 4002.05128205 , 4075.38461538 , 4121.02564103 , 4077.43589744 , 4127.17948718 , 4130.25641026 , 4121.02564103 , 4137.43589744 , 4134.35897436 , 4135.8974359 , 4109.23076923 , 4111.79487179 , 4091.79487179 , 4084.61538462 , 2042.0 , 2031.0 , 316.954 , 0.0 , 0.0 , 0.0 , 0.0 , 

104.0 , 4002.56410256 , 4070.76923077 , 4120.0 , 4085.12820513 , 4125.64102564 , 4128.71794872 , 4115.8974359 , 4136.41025641 , 4134.35897436 , 4135.8974359 , 4108.71794872 , 4108.71794872 , 4085.12820513 , 4087.17948718 , 2041.0 , 2031.0 , 316.963 , 0.0 , 0.0 , 0.0 , 0.0 , 

105.0 , 4015.38461538 , 4073.84615385 , 4121.02564103 , 4093.84615385 , 4123.07692308 , 4128.20512821 , 4116.41025641 , 4133.33333333 , 4134.35897436 , 4135.8974359 , 4110.76923077 , 4109.74358974 , 4090.25641026 , 4098.97435897 , 2041.0 , 2032.0 , 316.97 , 0.0 , 0.0 , 0.0 , 0.0 , 

106.0 , 4057.43589744 , 4103.07692308 , 4126.66666667 , 4102.05128205 , 4126.66666667 , 4130.76923077 , 4123.58974359 , 4134.87179487 , 4134.35897436 , 4135.8974359 , 4125.64102564 , 4116.92307692 , 4132.82051282 , 4142.56410256 , 2042.0 , 2033.0 , 316.979 , 0.0 , 0.0 , 0.0 , 0.0 , 

107.0 , 4077.43589744 , 4113.84615385 , 4124.61538462 , 4095.38461538 , 4128.71794872 , 4132.30769231 , 4121.53846154 , 4132.82051282 , 4134.87179487 , 4135.8974359 , 4123.58974359 , 4115.38461538 , 4148.20512821 , 4170.76923077 , 2043.0 , 2032.0 , 316.986 , 0.0 , 0.0 , 0.0 , 0.0 , 

108.0 , 4061.53846154 , 4082.56410256 , 4116.41025641 , 4078.46153846 , 4126.66666667 , 4129.23076923 , 4113.84615385 , 4127.69230769 , 4135.8974359 , 4135.8974359 , 4107.17948718 , 4111.28205128 , 4106.66666667 , 4161.02564103 , 2042.0 , 2030.0 , 316.994 , 0.0 , 0.0 , 0.0 , 0.0 , 

109.0 , 4101.02564103 , 4102.05128205 , 4126.15384615 , 4091.79487179 , 4127.17948718 , 4127.17948718 , 4118.97435897 , 4130.25641026 , 4136.41025641 , 4135.8974359 , 4123.07692308 , 4121.53846154 , 4133.84615385 , 4198.46153846 , 2041.0 , 2028.0 , 317.002 , 0.0 , 0.0 , 0.0 , 0.0 , 

110.0 , 4143.07692308 , 4133.33333333 , 4135.38461538 , 4101.02564103 , 4127.17948718 , 4130.76923077 , 4121.53846154 , 4135.38461538 , 4135.8974359 , 4135.8974359 , 4132.30769231 , 4123.58974359 , 4182.05128205 , 4242.56410256 , 2044.0 , 2028.0 , 317.009 , 0.0 , 0.0 , 0.0 , 0.0 , 

111.0 , 4120.51282051 , 4100.0 , 4123.58974359 , 4082.05128205 , 4124.1025641 , 4131.79487179 , 4113.33333333 , 4132.82051282 , 4134.87179487 , 4135.8974359 , 4114.87179487 , 4109.74358974 , 4148.71794872 , 4224.61538462 , 2043.0 , 2026.0 , 317.018 , 0.0 , 0.0 , 0.0 , 0.0 , 

112.0 , 4118.97435897 , 4094.35897436 , 4119.48717949 , 4085.64102564 , 4124.61538462 , 4128.71794872 , 4115.38461538 , 4132.82051282 , 4135.38461538 , 4135.8974359 , 4118.97435897 , 4111.28205128 , 4138.46153846 , 4224.1025641 , 2043.0 , 2026.0 , 317.025 , 0.0 , 0.0 , 0.0 , 0.0 , 

113.0 , 4151.28205128 , 4138.46153846 , 4129.23076923 , 4110.25641026 , 4126.66666667 , 4127.17948718 , 4122.56410256 , 4137.94871795 , 4135.8974359 , 4135.8974359 , 4133.33333333 , 4123.07692308 , 4186.15384615 , 4256.92307692 , 2043.0 , 2026.0 , 317.034 , 0.0 , 0.0 , 0.0 , 0.0 , 

114.0 , 4126.66666667 , 4125.12820513 , 4126.66666667 , 4101.53846154 , 4124.61538462 , 4129.74358974 , 4116.92307692 , 4132.30769231 , 4135.38461538 , 4135.8974359 , 4122.56410256 , 4116.92307692 , 4174.35897436 , 4235.38461538 , 2041.0 , 2026.0 , 317.041 , 0.0 , 0.0 , 0.0 , 0.0 , 

115.0 , 4079.48717949 , 4089.74358974 , 4119.48717949 , 4084.61538462 , 4122.56410256 , 4131.28205128 , 4112.82051282 , 4124.1025641 , 4134.87179487 , 4135.8974359 , 4112.82051282 , 4106.66666667 , 4129.74358974 , 4184.1025641 , 2042.0 , 2028.0 , 317.05 , 0.0 , 0.0 , 0.0 , 0.0 , 

116.0 , 4057.43589744 , 4090.76923077 , 4123.07692308 , 4085.12820513 , 4123.58974359 , 4130.76923077 , 4114.35897436 , 4126.66666667 , 4134.87179487 , 4135.8974359 , 4114.87179487 , 4105.64102564 , 4119.48717949 , 4157.43589744 , 2043.0 , 2029.0 , 317.057 , 0.0 , 0.0 , 0.0 , 0.0 , 

117.0 , 4041.53846154 , 4087.17948718 , 4123.58974359 , 4087.17948718 , 4126.66666667 , 4130.76923077 , 4114.35897436 , 4131.79487179 , 4135.8974359 , 4135.8974359 , 4112.82051282 , 4108.20512821 , 4118.97435897 , 4141.02564103 , 2041.0 , 2028.0 , 317.065 , 0.0 , 0.0 , 0.0 , 0.0 , 

118.0 , 4025.64102564 , 4076.92307692 , 4121.02564103 , 4085.64102564 , 4127.69230769 , 4131.79487179 , 4116.41025641 , 4130.25641026 , 4134.35897436 , 4135.8974359 , 4109.74358974 , 4107.69230769 , 4111.79487179 , 4121.53846154 , 2042.0 , 2030.0 , 317.073 , 0.0 , 0.0 , 0.0 , 0.0 , 

119.0 , 4011.79487179 , 4074.87179487 , 4122.05128205 , 4082.56410256 , 4124.61538462 , 4131.28205128 , 4121.53846154 , 4127.17948718 , 4131.28205128 , 4135.8974359 , 4109.23076923 , 4106.66666667 , 4096.92307692 , 4101.53846154 , 2042.0 , 2031.0 , 317.081 , 0.0 , 0.0 , 0.0 , 0.0 , 

120.0 , 4001.53846154 , 4070.25641026 , 4122.56410256 , 4078.97435897 , 4124.61538462 , 4131.28205128 , 4117.43589744 , 4131.79487179 , 4132.82051282 , 4135.8974359 , 4106.66666667 , 4105.12820513 , 4083.07692308 , 4090.76923077 , 2041.0 , 2034.0 , 317.089 , 0.0 , 0.0 , 0.0 , 0.0 , 

121.0 , 3993.84615385 , 4069.23076923 , 4120.51282051 , 4078.97435897 , 4126.66666667 , 4131.79487179 , 4114.87179487 , 4136.41025641 , 4134.87179487 , 4135.8974359 , 4104.61538462 , 4105.64102564 , 4082.05128205 , 4084.1025641 , 2042.0 , 2035.0 , 317.096 , 0.0 , 0.0 , 0.0 , 0.0 , 

122.0 , 3990.25641026 , 4075.8974359 , 4118.97435897 , 4082.56410256 , 4124.1025641 , 4130.76923077 , 4120.0 , 4132.30769231 , 4134.35897436 , 4135.8974359 , 4107.69230769 , 4106.66666667 , 4089.23076923 , 4080.0 , 2041.0 , 2032.0 , 317.104 , 0.0 , 0.0 , 0.0 , 0.0 , 

123.0 , 3981.02564103 , 4065.12820513 , 4118.97435897 , 4078.97435897 , 4123.58974359 , 4131.79487179 , 4117.94871795 , 4132.30769231 , 4134.35897436 , 4135.8974359 , 4109.74358974 , 4106.66666667 , 4079.48717949 , 4070.76923077 , 2041.0 , 2032.0 , 317.112 , 0.0 , 0.0 , 0.0 , 0.0 , 

124.0 , 3971.79487179 , 4055.38461538 , 4120.51282051 , 4075.8974359 , 4128.20512821 , 4132.30769231 , 4111.79487179 , 4133.33333333 , 4135.38461538 , 4135.8974359 , 4106.66666667 , 4107.17948718 , 4070.25641026 , 4058.97435897 , 2041.0 , 2032.0 , 317.119 , 0.0 , 0.0 , 0.0 , 0.0 , 

125.0 , 3966.66666667 , 4060.0 , 4121.02564103 , 4077.43589744 , 4128.20512821 , 4131.28205128 , 4114.35897436 , 4129.74358974 , 4134.35897436 , 4135.8974359 , 4102.56410256 , 4106.66666667 , 4067.69230769 , 4049.23076923 , 2040.0 , 2029.0 , 317.128 , 0.0 , 0.0 , 0.0 , 0.0 , 

126.0 , 3970.25641026 , 4068.20512821 , 4118.97435897 , 4078.97435897 , 4124.61538462 , 4128.20512821 , 4119.48717949 , 4130.25641026 , 4135.38461538 , 4135.8974359 , 4104.61538462 , 4106.66666667 , 4072.82051282 , 4051.28205128 , 2039.0 , 2031.0 , 317.136 , 0.0 , 0.0 , 0.0 , 0.0 , 

127.0 , 3965.12820513 , 4063.58974359 , 4117.94871795 , 4074.35897436 , 4125.64102564 , 4129.23076923 , 4117.43589744 , 4135.38461538 , 4136.41025641 , 4135.8974359 , 4104.1025641 , 4106.15384615 , 4071.79487179 , 4052.30769231 , 2041.0 , 2031.0 , 317.144 , 0.0 , 0.0 , 0.0 , 0.0 , 

128.0 , 3957.43589744 , 4057.94871795 , 4118.46153846 , 4073.84615385 , 4126.15384615 , 4131.28205128 , 4114.87179487 , 4133.33333333 , 4135.8974359 , 4135.8974359 , 4103.58974359 , 4104.61538462 , 4068.71794872 , 4053.33333333 , 2040.0 , 2032.0 , 317.152 , 0.0 , 0.0 , 0.0 , 0.0 , 

0.0 , 3954.35897436 , 4054.87179487 , 4117.94871795 , 4074.87179487 , 4124.1025641 , 4129.74358974 , 4115.8974359 , 4132.30769231 , 4135.8974359 , 4135.8974359 , 4104.1025641 , 4103.58974359 , 4064.1025641 , 4050.76923077 , 2040.0 , 2030.0 , 317.158 , 0.0 , 0.0 , 0.0 , 0.0 , 

1.0 , 3947.17948718 , 4047.17948718 , 4115.8974359 , 4068.20512821 , 4123.07692308 , 4128.71794872 , 4116.92307692 , 4135.38461538 , 4135.8974359 , 4135.8974359 , 4100.51282051 , 4102.56410256 , 4053.33333333 , 4037.43589744 , 2041.0 , 2031.0 , 317.168 , 0.0 , 0.0 , 0.0 , 0.0 , 

2.0 , 3942.05128205 , 4042.56410256 , 4117.94871795 , 4066.15384615 , 4124.61538462 , 4130.76923077 , 4116.92307692 , 4134.87179487 , 4135.8974359 , 4135.8974359 , 4100.0 , 4100.0 , 4052.82051282 , 4034.87179487 , 2041.0 , 2031.0 , 317.175 , 0.0 , 0.0 , 0.0 , 0.0 , 

3.0 , 3962.05128205 , 4061.02564103 , 4124.61538462 , 4078.97435897 , 4126.66666667 , 4130.76923077 , 4119.48717949 , 4133.33333333 , 4135.8974359 , 4135.8974359 , 4112.82051282 , 4103.07692308 , 4078.46153846 , 4059.48717949 , 2044.0 , 2032.0 , 317.184 , 0.0 , 0.0 , 0.0 , 0.0 , 

4.0 , 3967.17948718 , 4069.74358974 , 4125.64102564 , 4078.46153846 , 4129.23076923 , 4128.71794872 , 4120.0 , 4131.79487179 , 4135.8974359 , 4135.8974359 , 4111.79487179 , 4107.69230769 , 4081.53846154 , 4063.58974359 , 2043.0 , 2034.0 , 317.191 , 0.0 , 0.0 , 0.0 , 0.0 , 

5.0 , 3938.46153846 , 4047.17948718 , 4118.97435897 , 4063.07692308 , 4126.66666667 , 4128.71794872 , 4113.84615385 , 4130.76923077 , 4136.41025641 , 4135.8974359 , 4095.38461538 , 4102.56410256 , 4048.71794872 , 4035.38461538 , 2043.0 , 2035.0 , 317.199 , 0.0 , 0.0 , 0.0 , 0.0 , 

6.0 , 3935.8974359 , 4045.64102564 , 4116.92307692 , 4069.23076923 , 4123.07692308 , 4128.71794872 , 4114.35897436 , 4131.28205128 , 4135.8974359 , 4135.8974359 , 4098.46153846 , 4099.48717949 , 4048.20512821 , 4036.41025641 , 2046.0 , 2037.0 , 317.207 , 0.0 , 0.0 , 0.0 , 0.0 , 

7.0 , 3958.97435897 , 4064.61538462 , 4121.53846154 , 4084.61538462 , 4125.12820513 , 4128.20512821 , 4120.51282051 , 4129.74358974 , 4135.8974359 , 4135.8974359 , 4109.23076923 , 4099.48717949 , 4073.33333333 , 4059.48717949 , 2046.0 , 2037.0 , 317.215 , 0.0 , 0.0 , 0.0 , 0.0 , 

8.0 , 3946.15384615 , 4049.74358974 , 4120.0 , 4070.76923077 , 4127.17948718 , 4129.23076923 , 4114.35897436 , 4126.15384615 , 4136.41025641 , 4135.8974359 , 4101.02564103 , 4097.43589744 , 4056.92307692 , 4045.12820513 , 2045.0 , 2039.0 , 317.223 , 0.0 , 0.0 , 0.0 , 0.0 , 

9.0 , 3937.43589744 , 4043.07692308 , 4117.43589744 , 4065.64102564 , 4127.17948718 , 4131.28205128 , 4110.76923077 , 4126.66666667 , 4135.38461538 , 4135.8974359 , 4102.56410256 , 4101.53846154 , 4049.23076923 , 4033.33333333 , 2045.0 , 2037.0 , 317.23 , 0.0 , 0.0 , 0.0 , 0.0 , 

10.0 , 3962.56410256 , 4075.38461538 , 4121.02564103 , 4082.05128205 , 4128.20512821 , 4129.74358974 , 4117.94871795 , 4128.71794872 , 4133.84615385 , 4135.8974359 , 4114.87179487 , 4103.58974359 , 4081.53846154 , 4062.05128205 , 2043.0 , 2037.0 , 317.238 , 0.0 , 0.0 , 0.0 , 0.0 , 

11.0 , 3956.92307692 , 4067.69230769 , 4120.51282051 , 4074.35897436 , 4128.71794872 , 4127.69230769 , 4116.92307692 , 4125.12820513 , 4133.84615385 , 4135.8974359 , 4105.12820513 , 4095.38461538 , 4072.82051282 , 4063.58974359 , 2043.0 , 2038.0 , 317.246 , 0.0 , 0.0 , 0.0 , 0.0 , 

12.0 , 3940.0 , 4044.1025641 , 4119.48717949 , 4064.61538462 , 4125.12820513 , 4128.71794872 , 4111.28205128 , 4122.56410256 , 4134.35897436 , 4135.8974359 , 4099.48717949 , 4096.92307692 , 4047.69230769 , 4041.53846154 , 2043.0 , 2035.0 , 317.254 , 0.0 , 0.0 , 0.0 , 0.0 , 

13.0 , 3938.97435897 , 4046.15384615 , 4117.43589744 , 4066.66666667 , 4124.61538462 , 4130.76923077 , 4112.30769231 , 4125.12820513 , 4134.87179487 , 4135.8974359 , 4101.02564103 , 4103.07692308 , 4046.15384615 , 4035.38461538 , 2042.0 , 2034.0 , 317.262 , 0.0 , 0.0 , 0.0 , 0.0 , 

14.0 , 3932.30769231 , 4045.12820513 , 4113.84615385 , 4062.05128205 , 4127.69230769 , 4130.25641026 , 4112.82051282 , 4129.23076923 , 4135.38461538 , 4135.8974359 , 4096.41025641 , 4100.0 , 4041.53846154 , 4035.8974359 , 2042.0 , 2033.0 , 317.27 , 0.0 , 0.0 , 0.0 , 0.0 , 

15.0 , 3941.02564103 , 4048.71794872 , 4116.41025641 , 4062.56410256 , 4127.17948718 , 4128.71794872 , 4114.87179487 , 4129.23076923 , 4135.38461538 , 4135.8974359 , 4105.12820513 , 4102.56410256 , 4052.30769231 , 4046.66666667 , 2043.0 , 2034.0 , 317.278 , 0.0 , 0.0 , 0.0 , 0.0 , 

16.0 , 3961.02564103 , 4067.17948718 , 4120.0 , 4069.23076923 , 4123.58974359 , 4127.69230769 , 4116.92307692 , 4130.25641026 , 4135.38461538 , 4135.8974359 , 4116.92307692 , 4106.15384615 , 4071.28205128 , 4061.53846154 , 2042.0 , 2034.0 , 317.286 , 0.0 , 0.0 , 0.0 , 0.0 , 

17.0 , 3952.30769231 , 4053.84615385 , 4117.43589744 , 4065.64102564 , 4123.07692308 , 4128.71794872 , 4111.79487179 , 4135.8974359 , 4135.38461538 , 4135.8974359 , 4108.20512821 , 4102.56410256 , 4053.33333333 , 4051.79487179 , 2043.0 , 2033.0 , 317.292 , 0.0 , 0.0 , 0.0 , 0.0 , 

18.0 , 3951.79487179 , 4049.23076923 , 4119.48717949 , 4073.33333333 , 4125.12820513 , 4129.74358974 , 4110.76923077 , 4134.35897436 , 4135.38461538 , 4135.8974359 , 4106.15384615 , 4105.64102564 , 4054.35897436 , 4052.82051282 , 2041.0 , 2034.0 , 317.301 , 0.0 , 0.0 , 0.0 , 0.0 , 

19.0 , 3961.02564103 , 4066.15384615 , 4121.53846154 , 4079.48717949 , 4124.1025641 , 4130.76923077 , 4115.8974359 , 4125.64102564 , 4135.38461538 , 4135.8974359 , 4109.74358974 , 4107.69230769 , 4072.30769231 , 4063.07692308 , 2040.0 , 2032.0 , 317.308 , 0.0 , 0.0 , 0.0 , 0.0 , 

20.0 , 3951.28205128 , 4057.94871795 , 4115.8974359 , 4067.69230769 , 4121.53846154 , 4129.74358974 , 4116.92307692 , 4125.64102564 , 4135.38461538 , 4135.8974359 , 4105.12820513 , 4100.51282051 , 4058.97435897 , 4057.43589744 , 2041.0 , 2033.0 , 317.317 , 0.0 , 0.0 , 0.0 , 0.0 , 

21.0 , 3935.38461538 , 4035.8974359 , 4115.38461538 , 4059.48717949 , 4122.56410256 , 4127.17948718 , 4111.79487179 , 4130.25641026 , 4135.38461538 , 4135.8974359 , 4100.0 , 4096.92307692 , 4035.38461538 , 4043.07692308 , 2039.0 , 2033.0 , 317.325 , 0.0 , 0.0 , 0.0 , 0.0 , 

22.0 , 3941.02564103 , 4045.64102564 , 4117.94871795 , 4065.12820513 , 4124.61538462 , 4127.69230769 , 4112.30769231 , 4128.71794872 , 4135.38461538 , 4135.8974359 , 4102.05128205 , 4100.0 , 4042.05128205 , 4044.1025641 , 2040.0 , 2033.0 , 317.333 , 0.0 , 0.0 , 0.0 , 0.0 , 

23.0 , 3961.53846154 , 4069.23076923 , 4117.94871795 , 4075.8974359 , 4124.61538462 , 4131.79487179 , 4118.46153846 , 4127.69230769 , 4135.38461538 , 4135.8974359 , 4110.25641026 , 4103.58974359 , 4065.64102564 , 4060.51282051 , 2042.0 , 2033.0 , 317.34 , 0.0 , 0.0 , 0.0 , 0.0 , 

24.0 , 3981.02564103 , 4083.07692308 , 4121.02564103 , 4086.15384615 , 4124.1025641 , 4131.28205128 , 4122.56410256 , 4129.23076923 , 4135.38461538 , 4135.8974359 , 4118.46153846 , 4105.64102564 , 4087.17948718 , 4078.46153846 , 2041.0 , 2035.0 , 317.35 , 0.0 , 0.0 , 0.0 , 0.0 , 

25.0 , 3967.69230769 , 4067.17948718 , 4122.05128205 , 4075.8974359 , 4125.12820513 , 4128.20512821 , 4117.43589744 , 4129.23076923 , 4135.8974359 , 4135.8974359 , 4106.15384615 , 4101.53846154 , 4070.25641026 , 4065.12820513 , 2041.0 , 2037.0 , 317.355 , 0.0 , 0.0 , 0.0 , 0.0 , 

26.0 , 3941.53846154 , 4039.48717949 , 4117.43589744 , 4062.56410256 , 4126.15384615 , 4128.20512821 , 4111.79487179 , 4131.79487179 , 4135.8974359 , 4135.8974359 , 4096.92307692 , 4101.53846154 , 4039.48717949 , 4037.94871795 , 2042.0 , 2038.0 , 317.364 , 0.0 , 0.0 , 0.0 , 0.0 , 

27.0 , 3953.84615385 , 4050.76923077 , 4118.46153846 , 4072.30769231 , 4125.12820513 , 4130.76923077 , 4117.43589744 , 4131.79487179 , 4134.35897436 , 4135.8974359 , 4108.71794872 , 4106.15384615 , 4057.94871795 , 4050.25641026 , 2044.0 , 2036.0 , 317.372 , 0.0 , 0.0 , 0.0 , 0.0 , 

28.0 , 3973.33333333 , 4078.97435897 , 4122.56410256 , 4085.12820513 , 4125.12820513 , 4131.28205128 , 4124.61538462 , 4126.66666667 , 4134.35897436 , 4135.8974359 , 4112.82051282 , 4106.15384615 , 4085.12820513 , 4075.38461538 , 2044.0 , 2037.0 , 317.381 , 0.0 , 0.0 , 0.0 , 0.0 , 

29.0 , 3967.69230769 , 4076.41025641 , 4120.51282051 , 4084.61538462 , 4125.64102564 , 4129.74358974 , 4123.58974359 , 4131.28205128 , 4134.35897436 , 4135.8974359 , 4107.17948718 , 4106.15384615 , 4079.48717949 , 4074.35897436 , 2044.0 , 2035.0 , 317.387 , 0.0 , 0.0 , 0.0 , 0.0 , 

30.0 , 3955.8974359 , 4054.87179487 , 4118.46153846 , 4078.46153846 , 4125.64102564 , 4127.69230769 , 4117.94871795 , 4138.97435897 , 4134.35897436 , 4135.8974359 , 4104.61538462 , 4106.66666667 , 4059.48717949 , 4055.8974359 , 2045.0 , 2034.0 , 317.396 , 0.0 , 0.0 , 0.0 , 0.0 , 

31.0 , 3962.56410256 , 4058.46153846 , 4121.53846154 , 4081.02564103 , 4125.64102564 , 4128.20512821 , 4115.38461538 , 4132.82051282 , 4134.35897436 , 4135.8974359 , 4106.15384615 , 4104.1025641 , 4064.1025641 , 4053.84615385 , 2045.0 , 2033.0 , 317.403 , 0.0 , 0.0 , 0.0 , 0.0 , 

32.0 , 3960.51282051 , 4064.61538462 , 4122.56410256 , 4083.07692308 , 4124.1025641 , 4131.28205128 , 4114.35897436 , 4124.61538462 , 4134.35897436 , 4135.8974359 , 4104.1025641 , 4104.1025641 , 4065.64102564 , 4054.35897436 , 2044.0 , 2033.0 , 317.412 , 0.0 , 0.0 , 0.0 , 0.0 , 

33.0 , 3955.8974359 , 4066.15384615 , 4118.97435897 , 4083.58974359 , 4123.58974359 , 4131.28205128 , 4116.41025641 , 4129.74358974 , 4134.35897436 , 4135.8974359 , 4105.12820513 , 4105.12820513 , 4062.05128205 , 4052.30769231 , 2044.0 , 2033.0 , 317.42 , 0.0 , 0.0 , 0.0 , 0.0 , 

34.0 , 3972.30769231 , 4074.35897436 , 4120.0 , 4087.17948718 , 4125.12820513 , 4131.28205128 , 4120.51282051 , 4137.94871795 , 4134.35897436 , 4135.8974359 , 4108.71794872 , 4105.12820513 , 4075.38461538 , 4062.56410256 , 2043.0 , 2032.0 , 317.426 , 0.0 , 0.0 , 0.0 , 0.0 , 

35.0 , 3980.0 , 4075.38461538 , 4122.05128205 , 4088.71794872 , 4123.58974359 , 4130.25641026 , 4116.92307692 , 4131.79487179 , 4134.35897436 , 4135.8974359 , 4108.71794872 , 4103.58974359 , 4085.64102564 , 4069.74358974 , 2042.0 , 2032.0 , 317.435 , 0.0 , 0.0 , 0.0 , 0.0 , 

36.0 , 3961.53846154 , 4061.53846154 , 4117.94871795 , 4082.05128205 , 4124.1025641 , 4129.23076923 , 4112.82051282 , 4124.1025641 , 4134.35897436 , 4135.8974359 , 4103.07692308 , 4101.02564103 , 4067.17948718 , 4056.41025641 , 2044.0 , 2030.0 , 317.442 , 0.0 , 0.0 , 0.0 , 0.0 , 

37.0 , 3965.64102564 , 4067.69230769 , 4115.8974359 , 4087.69230769 , 4124.61538462 , 4129.74358974 , 4120.0 , 4129.23076923 , 4134.87179487 , 4135.8974359 , 4107.17948718 , 4101.02564103 , 4068.71794872 , 4058.46153846 , 2043.0 , 2030.0 , 317.451 , 0.0 , 0.0 , 0.0 , 0.0 , 

38.0 , 3977.94871795 , 4074.35897436 , 4118.97435897 , 4091.79487179 , 4125.12820513 , 4130.76923077 , 4120.51282051 , 4132.30769231 , 4135.8974359 , 4135.8974359 , 4110.76923077 , 4102.56410256 , 4080.51282051 , 4065.64102564 , 2042.0 , 2033.0 , 317.458 , 0.0 , 0.0 , 0.0 , 0.0 , 

39.0 , 3980.0 , 4074.35897436 , 4121.53846154 , 4089.74358974 , 4127.17948718 , 4129.23076923 , 4115.38461538 , 4126.66666667 , 4136.41025641 , 4135.8974359 , 4108.20512821 , 4103.07692308 , 4086.15384615 , 4066.15384615 , 2043.0 , 2034.0 , 317.467 , 0.0 , 0.0 , 0.0 , 0.0 , 

