['COUNTER', 'AF3', 'F7', 'F3', 'FC5', 'T7', 'P7', 'O1', 'O2', 'P8', 'T8', 'FC6', 'F4', 'F8', 'AF4', 'GYROX', 'GYROY', 'TIMESTAMP', 'FUNC_ID', 'FUNC_VALUE', 'MARKER', 'SYNC_SIGNAL']
10.0 , 4091.28205128 , 4148.71794872 , 4136.41025641 , 4121.53846154 , 4128.71794872 , 4132.30769231 , 4137.94871795 , 4124.61538462 , 4135.38461538 , 4135.8974359 , 4143.07692308 , 4122.05128205 , 4135.8974359 , 4153.84615385 , 2044.0 , 2037.0 , 278.61 , 0.0 , 0.0 , 0.0 , 0.0 , 

11.0 , 4093.33333333 , 4151.79487179 , 4137.43589744 , 4132.82051282 , 4130.25641026 , 4134.87179487 , 4137.94871795 , 4134.35897436 , 4135.38461538 , 4135.8974359 , 4143.07692308 , 4120.51282051 , 4140.0 , 4152.30769231 , 2044.0 , 2037.0 , 278.617 , 0.0 , 0.0 , 0.0 , 0.0 , 

12.0 , 4101.53846154 , 4158.97435897 , 4136.41025641 , 4138.46153846 , 4130.25641026 , 4132.30769231 , 4137.43589744 , 4140.0 , 4135.38461538 , 4135.8974359 , 4144.61538462 , 4124.61538462 , 4145.12820513 , 4156.41025641 , 2044.0 , 2038.0 , 278.626 , 0.0 , 0.0 , 0.0 , 0.0 , 

13.0 , 4100.0 , 4157.94871795 , 4135.8974359 , 4125.64102564 , 4129.23076923 , 4129.74358974 , 4137.94871795 , 4134.87179487 , 4135.38461538 , 4135.8974359 , 4142.05128205 , 4125.64102564 , 4139.48717949 , 4158.97435897 , 2044.0 , 2039.0 , 278.633 , 0.0 , 0.0 , 0.0 , 0.0 , 

14.0 , 4096.41025641 , 4155.8974359 , 4137.94871795 , 4125.64102564 , 4130.76923077 , 4129.74358974 , 4137.94871795 , 4134.35897436 , 4135.38461538 , 4135.8974359 , 4142.56410256 , 4124.1025641 , 4139.48717949 , 4157.94871795 , 2044.0 , 2038.0 , 278.641 , 0.0 , 0.0 , 0.0 , 0.0 , 

15.0 , 4097.43589744 , 4157.94871795 , 4139.48717949 , 4139.48717949 , 4134.35897436 , 4130.25641026 , 4137.43589744 , 4132.30769231 , 4135.38461538 , 4135.8974359 , 4145.12820513 , 4124.1025641 , 4145.12820513 , 4153.33333333 , 2044.0 , 2039.0 , 278.65 , 0.0 , 0.0 , 0.0 , 0.0 , 

16.0 , 4097.43589744 , 4155.8974359 , 4137.43589744 , 4135.38461538 , 4134.87179487 , 4131.79487179 , 4138.97435897 , 4129.74358974 , 4135.38461538 , 4135.8974359 , 4141.53846154 , 4124.1025641 , 4138.46153846 , 4148.71794872 , 2044.0 , 2040.0 , 278.656 , 0.0 , 0.0 , 0.0 , 0.0 , 

17.0 , 4096.92307692 , 4153.33333333 , 4136.41025641 , 4124.1025641 , 4133.33333333 , 4131.28205128 , 4138.46153846 , 4129.74358974 , 4135.38461538 , 4135.8974359 , 4135.8974359 , 4123.58974359 , 4132.82051282 , 4152.82051282 , 2042.0 , 2037.0 , 278.665 , 0.0 , 0.0 , 0.0 , 0.0 , 

18.0 , 4097.43589744 , 4154.87179487 , 4136.92307692 , 4126.15384615 , 4132.30769231 , 4131.79487179 , 4136.41025641 , 4128.20512821 , 4135.38461538 , 4136.41025641 , 4137.43589744 , 4125.12820513 , 4135.38461538 , 4155.8974359 , 2041.0 , 2035.0 , 278.672 , 0.0 , 0.0 , 0.0 , 0.0 , 

19.0 , 4095.8974359 , 4157.43589744 , 4137.43589744 , 4127.69230769 , 4134.35897436 , 4128.20512821 , 4135.8974359 , 4129.74358974 , 4135.38461538 , 4135.8974359 , 4144.1025641 , 4127.69230769 , 4135.38461538 , 4152.30769231 , 2041.0 , 2032.0 , 278.681 , 0.0 , 0.0 , 0.0 , 0.0 , 

20.0 , 4093.84615385 , 4157.94871795 , 4136.92307692 , 4127.17948718 , 4135.38461538 , 4128.71794872 , 4136.41025641 , 4135.38461538 , 4135.38461538 , 4135.8974359 , 4148.71794872 , 4126.15384615 , 4133.33333333 , 4152.82051282 , 2041.0 , 2033.0 , 278.688 , 0.0 , 0.0 , 0.0 , 0.0 , 

21.0 , 4100.51282051 , 4160.0 , 4137.43589744 , 4130.25641026 , 4132.30769231 , 4131.79487179 , 4138.97435897 , 4134.87179487 , 4135.38461538 , 4136.41025641 , 4147.17948718 , 4125.64102564 , 4137.94871795 , 4153.33333333 , 2040.0 , 2033.0 , 278.697 , 0.0 , 0.0 , 0.0 , 0.0 , 

22.0 , 4102.05128205 , 4155.8974359 , 4137.94871795 , 4126.66666667 , 4129.23076923 , 4128.71794872 , 4138.46153846 , 4130.76923077 , 4135.38461538 , 4135.38461538 , 4140.51282051 , 4128.20512821 , 4134.87179487 , 4148.71794872 , 2041.0 , 2031.0 , 278.704 , 0.0 , 0.0 , 0.0 , 0.0 , 

23.0 , 4102.05128205 , 4153.33333333 , 4137.43589744 , 4127.17948718 , 4130.25641026 , 4129.23076923 , 4135.38461538 , 4132.82051282 , 4135.38461538 , 4134.35897436 , 4141.53846154 , 4127.17948718 , 4131.28205128 , 4155.38461538 , 2040.0 , 2031.0 , 278.713 , 0.0 , 0.0 , 0.0 , 0.0 , 

24.0 , 4105.64102564 , 4157.43589744 , 4136.92307692 , 4132.82051282 , 4131.28205128 , 4134.35897436 , 4134.87179487 , 4136.92307692 , 4135.38461538 , 4135.38461538 , 4144.1025641 , 4122.56410256 , 4135.38461538 , 4158.97435897 , 2040.0 , 2031.0 , 278.719 , 0.0 , 0.0 , 0.0 , 0.0 , 

25.0 , 4108.71794872 , 4163.58974359 , 4137.43589744 , 4129.74358974 , 4131.28205128 , 4135.8974359 , 4135.38461538 , 4136.92307692 , 4135.38461538 , 4136.41025641 , 4142.05128205 , 4124.61538462 , 4135.8974359 , 4157.43589744 , 2041.0 , 2030.0 , 278.728 , 0.0 , 0.0 , 0.0 , 0.0 , 

26.0 , 4104.1025641 , 4163.07692308 , 4137.94871795 , 4123.07692308 , 4136.92307692 , 4133.84615385 , 4134.35897436 , 4134.87179487 , 4135.38461538 , 4135.8974359 , 4141.53846154 , 4129.74358974 , 4129.23076923 , 4162.05128205 , 2042.0 , 2030.0 , 278.735 , 0.0 , 0.0 , 0.0 , 0.0 , 

27.0 , 4103.07692308 , 4161.02564103 , 4137.94871795 , 4125.12820513 , 4135.38461538 , 4134.35897436 , 4136.92307692 , 4133.33333333 , 4135.38461538 , 4135.8974359 , 4141.53846154 , 4126.15384615 , 4126.15384615 , 4158.97435897 , 2043.0 , 2029.0 , 278.744 , 0.0 , 0.0 , 0.0 , 0.0 , 

28.0 , 4104.1025641 , 4158.46153846 , 4138.97435897 , 4126.66666667 , 4127.69230769 , 4135.8974359 , 4140.0 , 4135.38461538 , 4135.38461538 , 4135.8974359 , 4141.53846154 , 4123.58974359 , 4125.12820513 , 4144.1025641 , 2045.0 , 2031.0 , 278.752 , 0.0 , 0.0 , 0.0 , 0.0 , 

29.0 , 4103.58974359 , 4161.02564103 , 4138.97435897 , 4124.1025641 , 4129.23076923 , 4134.87179487 , 4137.94871795 , 4134.35897436 , 4135.38461538 , 4135.8974359 , 4143.07692308 , 4126.15384615 , 4126.66666667 , 4144.61538462 , 2046.0 , 2032.0 , 278.761 , 0.0 , 0.0 , 0.0 , 0.0 , 

30.0 , 4100.0 , 4157.94871795 , 4136.92307692 , 4122.05128205 , 4136.41025641 , 4135.38461538 , 4135.8974359 , 4130.25641026 , 4135.38461538 , 4135.8974359 , 4140.51282051 , 4123.58974359 , 4124.61538462 , 4150.76923077 , 2047.0 , 2031.0 , 278.768 , 0.0 , 0.0 , 0.0 , 0.0 , 

31.0 , 4099.48717949 , 4152.30769231 , 4135.8974359 , 4121.02564103 , 4135.8974359 , 4134.35897436 , 4135.38461538 , 4130.76923077 , 4135.38461538 , 4135.8974359 , 4140.51282051 , 4121.53846154 , 4122.05128205 , 4148.71794872 , 2047.0 , 2032.0 , 278.776 , 0.0 , 0.0 , 0.0 , 0.0 , 

32.0 , 4101.02564103 , 4153.33333333 , 4136.92307692 , 4122.05128205 , 4131.79487179 , 4133.33333333 , 4133.84615385 , 4130.76923077 , 4135.38461538 , 4135.8974359 , 4145.64102564 , 4124.1025641 , 4121.02564103 , 4150.76923077 , 2047.0 , 2033.0 , 278.783 , 0.0 , 0.0 , 0.0 , 0.0 , 

33.0 , 4101.02564103 , 4156.92307692 , 4137.43589744 , 4128.20512821 , 4130.76923077 , 4131.79487179 , 4136.41025641 , 4127.17948718 , 4135.38461538 , 4135.8974359 , 4144.1025641 , 4126.15384615 , 4126.15384615 , 4154.87179487 , 2046.0 , 2033.0 , 278.791 , 0.0 , 0.0 , 0.0 , 0.0 , 

34.0 , 4100.51282051 , 4156.41025641 , 4137.43589744 , 4131.28205128 , 4129.23076923 , 4131.79487179 , 4137.94871795 , 4131.79487179 , 4135.38461538 , 4135.8974359 , 4140.51282051 , 4123.58974359 , 4129.74358974 , 4153.33333333 , 2046.0 , 2032.0 , 278.798 , 0.0 , 0.0 , 0.0 , 0.0 , 

35.0 , 4105.64102564 , 4158.97435897 , 4137.94871795 , 4130.25641026 , 4128.20512821 , 4133.84615385 , 4136.41025641 , 4136.41025641 , 4135.38461538 , 4135.8974359 , 4146.66666667 , 4123.58974359 , 4128.20512821 , 4155.8974359 , 2043.0 , 2032.0 , 278.808 , 0.0 , 0.0 , 0.0 , 0.0 , 

36.0 , 4107.69230769 , 4162.56410256 , 4137.94871795 , 4125.64102564 , 4130.25641026 , 4131.28205128 , 4137.43589744 , 4133.33333333 , 4135.38461538 , 4135.8974359 , 4145.64102564 , 4125.64102564 , 4127.69230769 , 4163.07692308 , 2043.0 , 2033.0 , 278.814 , 0.0 , 0.0 , 0.0 , 0.0 , 

37.0 , 4103.58974359 , 4158.46153846 , 4137.43589744 , 4122.56410256 , 4130.76923077 , 4128.71794872 , 4139.48717949 , 4132.82051282 , 4135.38461538 , 4135.8974359 , 4139.48717949 , 4125.12820513 , 4124.61538462 , 4160.51282051 , 2042.0 , 2032.0 , 278.823 , 0.0 , 0.0 , 0.0 , 0.0 , 

38.0 , 4106.66666667 , 4159.48717949 , 4137.94871795 , 4126.66666667 , 4131.79487179 , 4129.74358974 , 4137.94871795 , 4134.87179487 , 4135.38461538 , 4135.8974359 , 4144.61538462 , 4124.61538462 , 4129.23076923 , 4157.94871795 , 2041.0 , 2031.0 , 278.83 , 0.0 , 0.0 , 0.0 , 0.0 , 

39.0 , 4112.82051282 , 4165.12820513 , 4140.51282051 , 4130.25641026 , 4135.8974359 , 4133.33333333 , 4137.43589744 , 4135.38461538 , 4135.38461538 , 4135.8974359 , 4147.17948718 , 4126.66666667 , 4136.92307692 , 4163.58974359 , 2040.0 , 2031.0 , 278.838 , 0.0 , 0.0 , 0.0 , 0.0 , 

40.0 , 4115.38461538 , 4164.1025641 , 4140.0 , 4128.20512821 , 4133.84615385 , 4132.82051282 , 4137.94871795 , 4134.35897436 , 4135.38461538 , 4135.8974359 , 4141.53846154 , 4130.25641026 , 4137.94871795 , 4165.12820513 , 2040.0 , 2033.0 , 278.846 , 0.0 , 0.0 , 0.0 , 0.0 , 

41.0 , 4107.17948718 , 4153.84615385 , 4136.41025641 , 4124.61538462 , 4126.15384615 , 4130.76923077 , 4135.38461538 , 4130.76923077 , 4135.38461538 , 4135.8974359 , 4140.0 , 4128.20512821 , 4124.1025641 , 4153.84615385 , 2041.0 , 2033.0 , 278.853 , 0.0 , 0.0 , 0.0 , 0.0 , 

42.0 , 4102.56410256 , 4148.71794872 , 4135.38461538 , 4123.07692308 , 4130.25641026 , 4129.74358974 , 4132.82051282 , 4129.74358974 , 4135.38461538 , 4135.8974359 , 4143.58974359 , 4125.12820513 , 4115.38461538 , 4151.79487179 , 2039.0 , 2033.0 , 278.862 , 0.0 , 0.0 , 0.0 , 0.0 , 

43.0 , 4102.05128205 , 4148.71794872 , 4137.43589744 , 4121.53846154 , 4139.48717949 , 4131.79487179 , 4133.33333333 , 4134.87179487 , 4135.38461538 , 4135.8974359 , 4145.64102564 , 4127.17948718 , 4118.46153846 , 4153.33333333 , 2038.0 , 2035.0 , 278.869 , 0.0 , 0.0 , 0.0 , 0.0 , 

44.0 , 4104.61538462 , 4153.84615385 , 4137.94871795 , 4121.53846154 , 4136.41025641 , 4132.82051282 , 4136.92307692 , 4134.87179487 , 4135.38461538 , 4135.8974359 , 4146.66666667 , 4124.61538462 , 4121.02564103 , 4150.76923077 , 2040.0 , 2034.0 , 278.878 , 0.0 , 0.0 , 0.0 , 0.0 , 

45.0 , 4103.58974359 , 4152.30769231 , 4137.94871795 , 4118.46153846 , 4129.74358974 , 4129.74358974 , 4137.43589744 , 4135.38461538 , 4135.38461538 , 4135.8974359 , 4144.61538462 , 4121.02564103 , 4117.43589744 , 4152.30769231 , 2040.0 , 2036.0 , 278.885 , 0.0 , 0.0 , 0.0 , 0.0 , 

46.0 , 4101.53846154 , 4150.25641026 , 4137.43589744 , 4118.46153846 , 4129.23076923 , 4129.74358974 , 4136.92307692 , 4136.41025641 , 4135.38461538 , 4135.8974359 , 4143.58974359 , 4121.53846154 , 4117.94871795 , 4155.38461538 , 2041.0 , 2037.0 , 278.894 , 0.0 , 0.0 , 0.0 , 0.0 , 

47.0 , 4098.97435897 , 4152.82051282 , 4136.92307692 , 4122.56410256 , 4132.82051282 , 4131.79487179 , 4136.41025641 , 4129.23076923 , 4135.38461538 , 4135.8974359 , 4145.12820513 , 4124.1025641 , 4119.48717949 , 4149.74358974 , 2040.0 , 2037.0 , 278.901 , 0.0 , 0.0 , 0.0 , 0.0 , 

48.0 , 4101.53846154 , 4154.87179487 , 4137.43589744 , 4122.56410256 , 4132.30769231 , 4131.28205128 , 4135.8974359 , 4126.15384615 , 4135.38461538 , 4135.8974359 , 4145.12820513 , 4124.61538462 , 4117.43589744 , 4150.25641026 , 2040.0 , 2036.0 , 278.91 , 0.0 , 0.0 , 0.0 , 0.0 , 

49.0 , 4103.07692308 , 4152.82051282 , 4136.92307692 , 4119.48717949 , 4132.82051282 , 4129.74358974 , 4136.41025641 , 4130.25641026 , 4135.38461538 , 4135.8974359 , 4144.61538462 , 4124.1025641 , 4115.38461538 , 4156.92307692 , 2040.0 , 2035.0 , 278.917 , 0.0 , 0.0 , 0.0 , 0.0 , 

50.0 , 4101.02564103 , 4154.35897436 , 4136.92307692 , 4119.48717949 , 4134.35897436 , 4130.76923077 , 4136.92307692 , 4130.76923077 , 4135.38461538 , 4135.8974359 , 4145.12820513 , 4123.07692308 , 4120.0 , 4152.82051282 , 2040.0 , 2033.0 , 278.925 , 0.0 , 0.0 , 0.0 , 0.0 , 

51.0 , 4105.64102564 , 4157.94871795 , 4137.94871795 , 4119.48717949 , 4131.79487179 , 4135.38461538 , 4135.38461538 , 4128.20512821 , 4135.38461538 , 4135.8974359 , 4145.64102564 , 4122.05128205 , 4124.1025641 , 4149.74358974 , 2039.0 , 2033.0 , 278.932 , 0.0 , 0.0 , 0.0 , 0.0 , 

52.0 , 4110.76923077 , 4156.92307692 , 4138.46153846 , 4121.53846154 , 4127.69230769 , 4136.41025641 , 4132.30769231 , 4127.69230769 , 4135.38461538 , 4135.8974359 , 4148.20512821 , 4124.1025641 , 4126.66666667 , 4152.82051282 , 2042.0 , 2032.0 , 278.941 , 0.0 , 0.0 , 0.0 , 0.0 , 

53.0 , 4102.56410256 , 4154.35897436 , 4136.92307692 , 4126.15384615 , 4131.79487179 , 4131.28205128 , 4132.30769231 , 4128.71794872 , 4135.38461538 , 4135.8974359 , 4146.15384615 , 4124.1025641 , 4126.15384615 , 4153.33333333 , 2041.0 , 2031.0 , 278.948 , 0.0 , 0.0 , 0.0 , 0.0 , 

54.0 , 4096.92307692 , 4152.82051282 , 4136.41025641 , 4130.76923077 , 4140.0 , 4130.25641026 , 4133.84615385 , 4133.33333333 , 4135.38461538 , 4135.8974359 , 4142.56410256 , 4123.58974359 , 4125.12820513 , 4154.35897436 , 2044.0 , 2031.0 , 278.958 , 0.0 , 0.0 , 0.0 , 0.0 , 

55.0 , 4103.07692308 , 4153.84615385 , 4137.43589744 , 4131.28205128 , 4135.8974359 , 4133.84615385 , 4132.82051282 , 4133.84615385 , 4135.38461538 , 4135.8974359 , 4143.07692308 , 4124.61538462 , 4130.76923077 , 4155.8974359 , 2044.0 , 2032.0 , 278.964 , 0.0 , 0.0 , 0.0 , 0.0 , 

56.0 , 4102.05128205 , 4154.35897436 , 4136.92307692 , 4127.69230769 , 4126.15384615 , 4131.79487179 , 4132.30769231 , 4128.20512821 , 4135.38461538 , 4135.8974359 , 4143.07692308 , 4123.58974359 , 4130.25641026 , 4150.25641026 , 2044.0 , 2031.0 , 278.974 , 0.0 , 0.0 , 0.0 , 0.0 , 

57.0 , 4098.97435897 , 4153.84615385 , 4136.41025641 , 4124.61538462 , 4131.28205128 , 4130.25641026 , 4135.38461538 , 4130.76923077 , 4135.38461538 , 4135.8974359 , 4140.51282051 , 4124.61538462 , 4126.15384615 , 4146.15384615 , 2043.0 , 2029.0 , 278.98 , 0.0 , 0.0 , 0.0 , 0.0 , 

58.0 , 4103.07692308 , 4153.33333333 , 4137.94871795 , 4125.12820513 , 4138.97435897 , 4131.79487179 , 4133.84615385 , 4136.41025641 , 4135.38461538 , 4135.8974359 , 4140.51282051 , 4125.12820513 , 4127.17948718 , 4147.69230769 , 2044.0 , 2032.0 , 278.987 , 0.0 , 0.0 , 0.0 , 0.0 , 

59.0 , 4103.07692308 , 4151.28205128 , 4138.46153846 , 4124.61538462 , 4131.28205128 , 4131.28205128 , 4130.76923077 , 4132.30769231 , 4135.38461538 , 4135.8974359 , 4142.05128205 , 4121.02564103 , 4128.20512821 , 4147.69230769 , 2044.0 , 2032.0 , 278.996 , 0.0 , 0.0 , 0.0 , 0.0 , 

60.0 , 4096.92307692 , 4148.71794872 , 4136.92307692 , 4125.12820513 , 4126.15384615 , 4128.71794872 , 4136.41025641 , 4130.25641026 , 4135.38461538 , 4135.8974359 , 4143.58974359 , 4120.0 , 4126.15384615 , 4143.58974359 , 2043.0 , 2031.0 , 279.003 , 0.0 , 0.0 , 0.0 , 0.0 , 

61.0 , 4103.07692308 , 4157.94871795 , 4136.92307692 , 4127.69230769 , 4130.76923077 , 4130.25641026 , 4140.0 , 4134.35897436 , 4135.38461538 , 4135.8974359 , 4147.69230769 , 4125.12820513 , 4135.38461538 , 4146.66666667 , 2044.0 , 2032.0 , 279.012 , 0.0 , 0.0 , 0.0 , 0.0 , 

62.0 , 4104.1025641 , 4154.35897436 , 4137.94871795 , 4126.66666667 , 4130.25641026 , 4136.92307692 , 4136.92307692 , 4135.8974359 , 4135.38461538 , 4135.8974359 , 4144.1025641 , 4125.12820513 , 4136.92307692 , 4143.58974359 , 2044.0 , 2032.0 , 279.019 , 0.0 , 0.0 , 0.0 , 0.0 , 

63.0 , 4101.53846154 , 4147.69230769 , 4137.94871795 , 4130.25641026 , 4128.20512821 , 4137.94871795 , 4138.46153846 , 4132.82051282 , 4135.38461538 , 4135.8974359 , 4140.51282051 , 4125.12820513 , 4135.38461538 , 4144.1025641 , 2044.0 , 2031.0 , 279.028 , 0.0 , 0.0 , 0.0 , 0.0 , 

64.0 , 4107.69230769 , 4152.82051282 , 4137.43589744 , 4133.84615385 , 4137.94871795 , 4130.25641026 , 4139.48717949 , 4135.8974359 , 4135.38461538 , 4135.8974359 , 4141.53846154 , 4127.69230769 , 4140.0 , 4151.79487179 , 2043.0 , 2031.0 , 279.035 , 0.0 , 0.0 , 0.0 , 0.0 , 

65.0 , 4117.94871795 , 4161.02564103 , 4137.43589744 , 4131.79487179 , 4137.94871795 , 4127.17948718 , 4134.87179487 , 4135.8974359 , 4135.38461538 , 4135.8974359 , 4138.46153846 , 4127.17948718 , 4135.8974359 , 4159.48717949 , 2043.0 , 2032.0 , 279.043 , 0.0 , 0.0 , 0.0 , 0.0 , 

66.0 , 4127.17948718 , 4164.61538462 , 4138.46153846 , 4132.30769231 , 4128.20512821 , 4136.41025641 , 4134.35897436 , 4132.30769231 , 4135.38461538 , 4135.8974359 , 4135.38461538 , 4126.15384615 , 4125.12820513 , 4169.23076923 , 2042.0 , 2033.0 , 279.051 , 0.0 , 0.0 , 0.0 , 0.0 , 

67.0 , 4150.76923077 , 4181.02564103 , 4139.48717949 , 4141.53846154 , 4129.23076923 , 4138.46153846 , 4140.0 , 4132.30769231 , 4135.38461538 , 4135.8974359 , 4143.58974359 , 4128.20512821 , 4134.35897436 , 4190.25641026 , 2042.0 , 2033.0 , 279.058 , 0.0 , 0.0 , 0.0 , 0.0 , 

68.0 , 4168.20512821 , 4194.87179487 , 4137.94871795 , 4144.1025641 , 4132.82051282 , 4131.79487179 , 4138.97435897 , 4134.87179487 , 4135.38461538 , 4135.8974359 , 4146.66666667 , 4130.25641026 , 4138.97435897 , 4202.56410256 , 2041.0 , 2035.0 , 279.066 , 0.0 , 0.0 , 0.0 , 0.0 , 

69.0 , 4165.64102564 , 4192.82051282 , 4137.94871795 , 4138.97435897 , 4129.23076923 , 4128.71794872 , 4133.84615385 , 4134.87179487 , 4135.38461538 , 4135.8974359 , 4142.05128205 , 4132.30769231 , 4126.15384615 , 4201.02564103 , 2042.0 , 2037.0 , 279.074 , 0.0 , 0.0 , 0.0 , 0.0 , 

70.0 , 4161.53846154 , 4193.33333333 , 4138.46153846 , 4136.92307692 , 4128.20512821 , 4129.23076923 , 4133.84615385 , 4131.79487179 , 4135.38461538 , 4135.8974359 , 4142.56410256 , 4134.35897436 , 4124.1025641 , 4200.51282051 , 2042.0 , 2038.0 , 279.082 , 0.0 , 0.0 , 0.0 , 0.0 , 

71.0 , 4158.46153846 , 4198.46153846 , 4140.0 , 4138.46153846 , 4130.76923077 , 4130.25641026 , 4136.41025641 , 4129.74358974 , 4135.38461538 , 4135.8974359 , 4143.07692308 , 4130.76923077 , 4135.8974359 , 4198.97435897 , 2042.0 , 2038.0 , 279.09 , 0.0 , 0.0 , 0.0 , 0.0 , 

72.0 , 4154.87179487 , 4198.46153846 , 4142.56410256 , 4141.53846154 , 4130.25641026 , 4130.76923077 , 4137.43589744 , 4133.33333333 , 4135.38461538 , 4135.8974359 , 4140.51282051 , 4130.25641026 , 4140.0 , 4195.8974359 , 2042.0 , 2037.0 , 279.098 , 0.0 , 0.0 , 0.0 , 0.0 , 

73.0 , 4154.35897436 , 4194.35897436 , 4141.02564103 , 4140.0 , 4130.76923077 , 4129.23076923 , 4137.43589744 , 4136.92307692 , 4135.38461538 , 4135.8974359 , 4142.56410256 , 4133.33333333 , 4137.43589744 , 4196.41025641 , 2042.0 , 2035.0 , 279.107 , 0.0 , 0.0 , 0.0 , 0.0 , 

74.0 , 4147.69230769 , 4189.23076923 , 4137.94871795 , 4134.35897436 , 4134.35897436 , 4128.71794872 , 4136.41025641 , 4134.87179487 , 4135.38461538 , 4135.8974359 , 4142.05128205 , 4132.82051282 , 4135.38461538 , 4193.84615385 , 2042.0 , 2035.0 , 279.114 , 0.0 , 0.0 , 0.0 , 0.0 , 

75.0 , 4135.8974359 , 4188.20512821 , 4140.0 , 4134.87179487 , 4134.35897436 , 4132.82051282 , 4134.35897436 , 4132.82051282 , 4135.38461538 , 4135.8974359 , 4142.05128205 , 4134.35897436 , 4134.87179487 , 4187.17948718 , 2042.0 , 2034.0 , 279.12 , 0.0 , 0.0 , 0.0 , 0.0 , 

76.0 , 4139.48717949 , 4194.87179487 , 4140.0 , 4140.51282051 , 4133.33333333 , 4131.79487179 , 4136.41025641 , 4135.38461538 , 4135.38461538 , 4135.8974359 , 4145.12820513 , 4134.35897436 , 4138.97435897 , 4187.17948718 , 2043.0 , 2033.0 , 279.129 , 0.0 , 0.0 , 0.0 , 0.0 , 

77.0 , 4142.56410256 , 4192.30769231 , 4137.43589744 , 4136.92307692 , 4134.35897436 , 4126.15384615 , 4137.94871795 , 4135.38461538 , 4135.38461538 , 4135.8974359 , 4145.12820513 , 4131.79487179 , 4138.46153846 , 4188.20512821 , 2042.0 , 2034.0 , 279.137 , 0.0 , 0.0 , 0.0 , 0.0 , 

78.0 , 4133.84615385 , 4183.58974359 , 4140.0 , 4132.30769231 , 4133.33333333 , 4130.76923077 , 4134.35897436 , 4132.30769231 , 4135.38461538 , 4135.8974359 , 4144.1025641 , 4132.30769231 , 4133.33333333 , 4183.07692308 , 2043.0 , 2034.0 , 279.146 , 0.0 , 0.0 , 0.0 , 0.0 , 

79.0 , 4124.61538462 , 4180.0 , 4142.56410256 , 4137.94871795 , 4132.82051282 , 4136.41025641 , 4132.82051282 , 4131.79487179 , 4135.38461538 , 4135.8974359 , 4144.61538462 , 4131.28205128 , 4127.17948718 , 4174.87179487 , 2042.0 , 2036.0 , 279.153 , 0.0 , 0.0 , 0.0 , 0.0 , 

80.0 , 4128.20512821 , 4181.02564103 , 4138.46153846 , 4141.53846154 , 4134.35897436 , 4134.87179487 , 4135.8974359 , 4134.35897436 , 4135.38461538 , 4135.8974359 , 4142.05128205 , 4127.69230769 , 4127.69230769 , 4175.38461538 , 2042.0 , 2038.0 , 279.162 , 0.0 , 0.0 , 0.0 , 0.0 , 

81.0 , 4127.69230769 , 4177.94871795 , 4138.46153846 , 4138.46153846 , 4134.87179487 , 4133.33333333 , 4136.92307692 , 4134.35897436 , 4135.38461538 , 4135.8974359 , 4141.53846154 , 4129.23076923 , 4130.76923077 , 4176.92307692 , 2041.0 , 2039.0 , 279.169 , 0.0 , 0.0 , 0.0 , 0.0 , 

82.0 , 4125.64102564 , 4181.02564103 , 4141.02564103 , 4145.12820513 , 4132.82051282 , 4132.82051282 , 4137.43589744 , 4132.82051282 , 4135.38461538 , 4135.8974359 , 4146.15384615 , 4131.79487179 , 4135.38461538 , 4175.8974359 , 2044.0 , 2041.0 , 279.178 , 0.0 , 0.0 , 0.0 , 0.0 , 

83.0 , 4127.69230769 , 4182.56410256 , 4137.43589744 , 4145.64102564 , 4132.82051282 , 4132.82051282 , 4137.94871795 , 4135.38461538 , 4135.38461538 , 4135.8974359 , 4146.15384615 , 4131.28205128 , 4134.35897436 , 4173.84615385 , 2043.0 , 2041.0 , 279.184 , 0.0 , 0.0 , 0.0 , 0.0 , 

84.0 , 4134.35897436 , 4184.61538462 , 4140.0 , 4140.0 , 4133.33333333 , 4131.28205128 , 4135.38461538 , 4136.92307692 , 4135.38461538 , 4135.8974359 , 4146.15384615 , 4133.33333333 , 4140.0 , 4177.94871795 , 2043.0 , 2043.0 , 279.193 , 0.0 , 0.0 , 0.0 , 0.0 , 

85.0 , 4139.48717949 , 4189.74358974 , 4144.61538462 , 4145.12820513 , 4134.87179487 , 4128.71794872 , 4135.8974359 , 4134.87179487 , 4135.38461538 , 4135.8974359 , 4149.23076923 , 4134.35897436 , 4150.25641026 , 4186.66666667 , 2044.0 , 2044.0 , 279.2 , 0.0 , 0.0 , 0.0 , 0.0 , 

86.0 , 4136.92307692 , 4186.66666667 , 4142.05128205 , 4149.74358974 , 4135.8974359 , 4129.74358974 , 4138.46153846 , 4133.33333333 , 4135.38461538 , 4135.8974359 , 4148.20512821 , 4135.8974359 , 4144.1025641 , 4184.61538462 , 2044.0 , 2042.0 , 279.209 , 0.0 , 0.0 , 0.0 , 0.0 , 

87.0 , 4129.74358974 , 4177.43589744 , 4137.94871795 , 4141.53846154 , 4135.38461538 , 4132.30769231 , 4135.8974359 , 4133.33333333 , 4135.38461538 , 4135.8974359 , 4144.61538462 , 4138.46153846 , 4132.30769231 , 4174.35897436 , 2043.0 , 2041.0 , 279.216 , 0.0 , 0.0 , 0.0 , 0.0 , 

88.0 , 4132.82051282 , 4178.97435897 , 4140.0 , 4134.87179487 , 4136.41025641 , 4129.23076923 , 4135.38461538 , 4133.33333333 , 4135.38461538 , 4135.8974359 , 4146.15384615 , 4134.35897436 , 4140.0 , 4180.0 , 2045.0 , 2039.0 , 279.225 , 0.0 , 0.0 , 0.0 , 0.0 , 

89.0 , 4145.64102564 , 4185.12820513 , 4141.02564103 , 4136.92307692 , 4136.92307692 , 4131.79487179 , 4136.92307692 , 4134.35897436 , 4135.38461538 , 4135.8974359 , 4149.74358974 , 4128.20512821 , 4157.43589744 , 4199.48717949 , 2044.0 , 2038.0 , 279.232 , 0.0 , 0.0 , 0.0 , 0.0 , 

90.0 , 4156.92307692 , 4186.15384615 , 4138.97435897 , 4141.02564103 , 4132.30769231 , 4138.46153846 , 4137.94871795 , 4135.38461538 , 4135.38461538 , 4135.8974359 , 4150.25641026 , 4131.79487179 , 4165.64102564 , 4204.61538462 , 2044.0 , 2038.0 , 279.24 , 0.0 , 0.0 , 0.0 , 0.0 , 

91.0 , 4158.97435897 , 4184.1025641 , 4139.48717949 , 4140.51282051 , 4131.79487179 , 4134.35897436 , 4136.41025641 , 4132.30769231 , 4135.38461538 , 4135.8974359 , 4148.20512821 , 4134.35897436 , 4171.28205128 , 4198.97435897 , 2043.0 , 2035.0 , 279.248 , 0.0 , 0.0 , 0.0 , 0.0 , 

92.0 , 4149.23076923 , 4173.33333333 , 4138.97435897 , 4133.84615385 , 4137.43589744 , 4128.20512821 , 4135.8974359 , 4129.23076923 , 4135.38461538 , 4135.8974359 , 4146.66666667 , 4130.25641026 , 4173.84615385 , 4195.8974359 , 2043.0 , 2034.0 , 279.254 , 0.0 , 0.0 , 0.0 , 0.0 , 

93.0 , 4141.02564103 , 4163.58974359 , 4138.46153846 , 4131.28205128 , 4135.38461538 , 4133.84615385 , 4135.8974359 , 4131.79487179 , 4135.38461538 , 4135.8974359 , 4148.20512821 , 4128.20512821 , 4176.92307692 , 4192.30769231 , 2043.0 , 2032.0 , 279.263 , 0.0 , 0.0 , 0.0 , 0.0 , 

94.0 , 4137.94871795 , 4161.02564103 , 4140.0 , 4132.82051282 , 4130.25641026 , 4136.41025641 , 4135.8974359 , 4134.87179487 , 4135.38461538 , 4135.8974359 , 4148.20512821 , 4128.71794872 , 4184.1025641 , 4179.48717949 , 2044.0 , 2034.0 , 279.27 , 0.0 , 0.0 , 0.0 , 0.0 , 

95.0 , 4128.71794872 , 4153.84615385 , 4138.46153846 , 4128.20512821 , 4128.71794872 , 4134.35897436 , 4137.94871795 , 4134.35897436 , 4135.38461538 , 4135.8974359 , 4146.66666667 , 4127.69230769 , 4186.66666667 , 4168.20512821 , 2043.0 , 2033.0 , 279.279 , 0.0 , 0.0 , 0.0 , 0.0 , 

96.0 , 4113.33333333 , 4143.07692308 , 4138.46153846 , 4123.58974359 , 4129.23076923 , 4135.38461538 , 4136.92307692 , 4134.35897436 , 4135.38461538 , 4135.8974359 , 4145.12820513 , 4125.12820513 , 4178.97435897 , 4163.07692308 , 2042.0 , 2033.0 , 279.286 , 0.0 , 0.0 , 0.0 , 0.0 , 

97.0 , 4110.25641026 , 4143.07692308 , 4139.48717949 , 4124.61538462 , 4132.30769231 , 4133.33333333 , 4135.8974359 , 4136.41025641 , 4135.38461538 , 4135.8974359 , 4144.61538462 , 4127.17948718 , 4176.92307692 , 4160.0 , 2042.0 , 2031.0 , 279.296 , 0.0 , 0.0 , 0.0 , 0.0 , 

98.0 , 4107.69230769 , 4141.02564103 , 4138.97435897 , 4123.07692308 , 4137.94871795 , 4131.79487179 , 4137.43589744 , 4136.41025641 , 4135.38461538 , 4135.8974359 , 4143.07692308 , 4129.23076923 , 4175.8974359 , 4149.74358974 , 2042.0 , 2033.0 , 279.303 , 0.0 , 0.0 , 0.0 , 0.0 , 

99.0 , 4108.71794872 , 4141.53846154 , 4137.94871795 , 4124.1025641 , 4134.35897436 , 4132.30769231 , 4139.48717949 , 4135.8974359 , 4135.38461538 , 4135.8974359 , 4142.56410256 , 4132.30769231 , 4178.46153846 , 4148.71794872 , 2042.0 , 2033.0 , 279.311 , 0.0 , 0.0 , 0.0 , 0.0 , 

100.0 , 4112.30769231 , 4146.15384615 , 4138.46153846 , 4124.61538462 , 4127.69230769 , 4132.30769231 , 4137.94871795 , 4136.41025641 , 4135.38461538 , 4135.8974359 , 4143.58974359 , 4131.79487179 , 4179.48717949 , 4154.87179487 , 2042.0 , 2034.0 , 279.318 , 0.0 , 0.0 , 0.0 , 0.0 , 

101.0 , 4110.25641026 , 4147.69230769 , 4137.94871795 , 4120.51282051 , 4130.76923077 , 4129.74358974 , 4135.38461538 , 4135.38461538 , 4135.38461538 , 4135.8974359 , 4145.64102564 , 4129.23076923 , 4181.02564103 , 4155.8974359 , 2042.0 , 2035.0 , 279.327 , 0.0 , 0.0 , 0.0 , 0.0 , 

102.0 , 4102.56410256 , 4140.0 , 4137.94871795 , 4118.97435897 , 4133.33333333 , 4129.74358974 , 4134.87179487 , 4136.41025641 , 4135.38461538 , 4135.8974359 , 4145.12820513 , 4128.71794872 , 4178.46153846 , 4148.20512821 , 2042.0 , 2035.0 , 279.334 , 0.0 , 0.0 , 0.0 , 0.0 , 

103.0 , 4097.94871795 , 4136.92307692 , 4139.48717949 , 4122.05128205 , 4129.23076923 , 4131.28205128 , 4135.38461538 , 4135.38461538 , 4135.38461538 , 4135.8974359 , 4143.58974359 , 4128.71794872 , 4171.79487179 , 4143.58974359 , 2041.0 , 2035.0 , 279.343 , 0.0 , 0.0 , 0.0 , 0.0 , 

104.0 , 4088.20512821 , 4134.35897436 , 4139.48717949 , 4122.05128205 , 4130.25641026 , 4131.28205128 , 4133.84615385 , 4135.38461538 , 4135.38461538 , 4135.8974359 , 4143.58974359 , 4124.1025641 , 4162.56410256 , 4142.05128205 , 2042.0 , 2034.0 , 279.35 , 0.0 , 0.0 , 0.0 , 0.0 , 

105.0 , 4083.07692308 , 4130.76923077 , 4137.94871795 , 4121.53846154 , 4134.35897436 , 4131.28205128 , 4133.84615385 , 4136.92307692 , 4135.38461538 , 4135.8974359 , 4143.58974359 , 4123.58974359 , 4157.94871795 , 4134.87179487 , 2044.0 , 2032.0 , 279.359 , 0.0 , 0.0 , 0.0 , 0.0 , 

106.0 , 4090.76923077 , 4134.35897436 , 4137.94871795 , 4124.61538462 , 4131.28205128 , 4132.30769231 , 4135.8974359 , 4134.87179487 , 4135.38461538 , 4135.8974359 , 4143.07692308 , 4127.17948718 , 4162.05128205 , 4128.20512821 , 2042.0 , 2029.0 , 279.366 , 0.0 , 0.0 , 0.0 , 0.0 , 

107.0 , 4096.92307692 , 4138.97435897 , 4138.97435897 , 4128.20512821 , 4128.20512821 , 4132.82051282 , 4133.33333333 , 4133.33333333 , 4135.38461538 , 4135.8974359 , 4143.58974359 , 4128.71794872 , 4169.74358974 , 4132.82051282 , 2044.0 , 2030.0 , 279.374 , 0.0 , 0.0 , 0.0 , 0.0 , 

108.0 , 4095.38461538 , 4140.51282051 , 4140.0 , 4127.69230769 , 4130.76923077 , 4131.28205128 , 4129.74358974 , 4133.84615385 , 4135.38461538 , 4135.8974359 , 4142.05128205 , 4128.71794872 , 4173.33333333 , 4138.46153846 , 2044.0 , 2030.0 , 279.381 , 0.0 , 0.0 , 0.0 , 0.0 , 

109.0 , 4096.92307692 , 4142.05128205 , 4138.97435897 , 4127.17948718 , 4133.33333333 , 4130.76923077 , 4137.43589744 , 4132.82051282 , 4135.38461538 , 4135.8974359 , 4143.07692308 , 4128.71794872 , 4172.82051282 , 4140.0 , 2045.0 , 2029.0 , 279.389 , 0.0 , 0.0 , 0.0 , 0.0 , 

110.0 , 4102.05128205 , 4138.97435897 , 4138.46153846 , 4129.23076923 , 4132.30769231 , 4130.25641026 , 4141.53846154 , 4132.82051282 , 4135.38461538 , 4135.8974359 , 4145.64102564 , 4128.71794872 , 4173.84615385 , 4143.58974359 , 2044.0 , 2028.0 , 279.397 , 0.0 , 0.0 , 0.0 , 0.0 , 

111.0 , 4098.46153846 , 4133.33333333 , 4140.0 , 4127.69230769 , 4131.28205128 , 4129.23076923 , 4131.28205128 , 4134.35897436 , 4135.38461538 , 4135.8974359 , 4144.61538462 , 4128.71794872 , 4168.71794872 , 4140.51282051 , 2045.0 , 2031.0 , 279.404 , 0.0 , 0.0 , 0.0 , 0.0 , 

112.0 , 4092.82051282 , 4135.8974359 , 4138.46153846 , 4124.61538462 , 4129.74358974 , 4132.82051282 , 4127.17948718 , 4132.82051282 , 4135.38461538 , 4135.8974359 , 4141.53846154 , 4128.20512821 , 4163.58974359 , 4133.84615385 , 2044.0 , 2030.0 , 279.413 , 0.0 , 0.0 , 0.0 , 0.0 , 

113.0 , 4092.82051282 , 4135.38461538 , 4136.92307692 , 4125.64102564 , 4130.25641026 , 4136.41025641 , 4132.82051282 , 4135.38461538 , 4135.38461538 , 4135.8974359 , 4143.07692308 , 4127.17948718 , 4165.12820513 , 4132.82051282 , 2044.0 , 2030.0 , 279.42 , 0.0 , 0.0 , 0.0 , 0.0 , 

114.0 , 4094.87179487 , 4132.82051282 , 4137.94871795 , 4123.07692308 , 4134.35897436 , 4132.82051282 , 4133.33333333 , 4136.92307692 , 4135.38461538 , 4135.8974359 , 4143.07692308 , 4128.20512821 , 4164.61538462 , 4131.79487179 , 2043.0 , 2031.0 , 279.43 , 0.0 , 0.0 , 0.0 , 0.0 , 

115.0 , 4092.30769231 , 4135.38461538 , 4137.43589744 , 4120.51282051 , 4134.35897436 , 4127.69230769 , 4130.76923077 , 4131.79487179 , 4135.38461538 , 4135.8974359 , 4138.97435897 , 4130.25641026 , 4157.43589744 , 4127.69230769 , 2043.0 , 2031.0 , 279.437 , 0.0 , 0.0 , 0.0 , 0.0 , 

116.0 , 4095.38461538 , 4142.56410256 , 4138.97435897 , 4130.25641026 , 4133.33333333 , 4129.74358974 , 4132.30769231 , 4131.79487179 , 4135.38461538 , 4135.8974359 , 4143.07692308 , 4132.30769231 , 4164.1025641 , 4137.94871795 , 2045.0 , 2033.0 , 279.444 , 0.0 , 0.0 , 0.0 , 0.0 , 

117.0 , 4100.51282051 , 4142.05128205 , 4142.05128205 , 4132.82051282 , 4133.33333333 , 4135.38461538 , 4132.30769231 , 4137.43589744 , 4135.38461538 , 4135.8974359 , 4143.58974359 , 4130.76923077 , 4167.69230769 , 4143.58974359 , 2045.0 , 2034.0 , 279.453 , 0.0 , 0.0 , 0.0 , 0.0 , 

118.0 , 4099.48717949 , 4135.8974359 , 4138.97435897 , 4123.07692308 , 4133.84615385 , 4133.84615385 , 4131.79487179 , 4137.43589744 , 4135.38461538 , 4135.8974359 , 4135.8974359 , 4128.71794872 , 4161.02564103 , 4133.33333333 , 2045.0 , 2033.0 , 279.554 , 0.0 , 0.0 , 0.0 , 0.0 , 

119.0 , 4091.28205128 , 4133.33333333 , 4135.8974359 , 4122.05128205 , 4136.41025641 , 4129.23076923 , 4131.28205128 , 4134.35897436 , 4135.38461538 , 4135.8974359 , 4136.92307692 , 4130.25641026 , 4155.8974359 , 4128.71794872 , 2044.0 , 2034.0 , 279.556 , 0.0 , 0.0 , 0.0 , 0.0 , 

120.0 , 4090.76923077 , 4140.0 , 4137.43589744 , 4125.64102564 , 4136.41025641 , 4128.71794872 , 4128.20512821 , 4131.79487179 , 4135.38461538 , 4135.8974359 , 4146.66666667 , 4127.69230769 , 4162.05128205 , 4133.84615385 , 2044.0 , 2035.0 , 279.556 , 0.0 , 0.0 , 0.0 , 0.0 , 

121.0 , 4086.66666667 , 4131.79487179 , 4138.46153846 , 4117.43589744 , 4135.8974359 , 4132.82051282 , 4130.25641026 , 4134.35897436 , 4135.38461538 , 4135.8974359 , 4144.61538462 , 4121.53846154 , 4158.97435897 , 4127.69230769 , 2042.0 , 2034.0 , 279.556 , 0.0 , 0.0 , 0.0 , 0.0 , 

122.0 , 4082.56410256 , 4125.64102564 , 4137.94871795 , 4114.35897436 , 4136.41025641 , 4133.33333333 , 4136.92307692 , 4136.41025641 , 4135.38461538 , 4135.8974359 , 4140.0 , 4124.1025641 , 4155.38461538 , 4123.58974359 , 2042.0 , 2034.0 , 279.556 , 0.0 , 0.0 , 0.0 , 0.0 , 

123.0 , 4093.84615385 , 4146.15384615 , 4139.48717949 , 4123.58974359 , 4135.38461538 , 4131.28205128 , 4136.41025641 , 4133.33333333 , 4135.38461538 , 4135.8974359 , 4143.58974359 , 4128.20512821 , 4166.15384615 , 4137.43589744 , 2040.0 , 2032.0 , 279.556 , 0.0 , 0.0 , 0.0 , 0.0 , 

124.0 , 4105.12820513 , 4160.51282051 , 4139.48717949 , 4126.15384615 , 4132.82051282 , 4130.76923077 , 4131.28205128 , 4130.76923077 , 4135.38461538 , 4135.8974359 , 4144.1025641 , 4126.66666667 , 4171.28205128 , 4150.25641026 , 2039.0 , 2033.0 , 279.556 , 0.0 , 0.0 , 0.0 , 0.0 , 

125.0 , 4098.46153846 , 4146.66666667 , 4139.48717949 , 4120.0 , 4131.28205128 , 4130.76923077 , 4132.30769231 , 4132.82051282 , 4135.38461538 , 4135.8974359 , 4142.56410256 , 4129.23076923 , 4158.97435897 , 4143.58974359 , 2040.0 , 2035.0 , 279.556 , 0.0 , 0.0 , 0.0 , 0.0 , 

126.0 , 4090.76923077 , 4137.43589744 , 4139.48717949 , 4118.46153846 , 4130.25641026 , 4130.25641026 , 4135.8974359 , 4135.38461538 , 4135.38461538 , 4135.8974359 , 4146.15384615 , 4132.30769231 , 4152.82051282 , 4135.38461538 , 2039.0 , 2035.0 , 279.556 , 0.0 , 0.0 , 0.0 , 0.0 , 

127.0 , 4087.69230769 , 4138.46153846 , 4136.41025641 , 4116.41025641 , 4131.28205128 , 4132.82051282 , 4133.33333333 , 4131.79487179 , 4135.38461538 , 4135.8974359 , 4149.23076923 , 4125.64102564 , 4154.35897436 , 4131.28205128 , 2039.0 , 2035.0 , 279.556 , 0.0 , 0.0 , 0.0 , 0.0 , 

128.0 , 4082.56410256 , 4134.87179487 , 4135.38461538 , 4114.87179487 , 4134.35897436 , 4135.38461538 , 4131.28205128 , 4128.20512821 , 4135.38461538 , 4135.8974359 , 4146.66666667 , 4121.53846154 , 4147.17948718 , 4124.61538462 , 2041.0 , 2034.0 , 279.556 , 0.0 , 0.0 , 0.0 , 0.0 , 

0.0 , 4083.07692308 , 4135.8974359 , 4140.0 , 4118.97435897 , 4132.30769231 , 4135.8974359 , 4131.79487179 , 4130.76923077 , 4135.38461538 , 4135.8974359 , 4143.58974359 , 4125.64102564 , 4145.12820513 , 4126.15384615 , 2041.0 , 2033.0 , 279.556 , 0.0 , 0.0 , 0.0 , 0.0 , 

1.0 , 4081.53846154 , 4134.87179487 , 4140.51282051 , 4119.48717949 , 4130.76923077 , 4135.38461538 , 4132.82051282 , 4134.87179487 , 4135.38461538 , 4135.8974359 , 4144.61538462 , 4127.17948718 , 4148.71794872 , 4130.76923077 , 2041.0 , 2034.0 , 279.556 , 0.0 , 0.0 , 0.0 , 0.0 , 

2.0 , 4081.02564103 , 4132.30769231 , 4137.43589744 , 4117.43589744 , 4132.82051282 , 4133.84615385 , 4133.84615385 , 4133.84615385 , 4135.38461538 , 4135.8974359 , 4146.15384615 , 4127.69230769 , 4150.25641026 , 4132.30769231 , 2043.0 , 2033.0 , 279.563 , 0.0 , 0.0 , 0.0 , 0.0 , 

3.0 , 4086.66666667 , 4136.92307692 , 4136.92307692 , 4119.48717949 , 4135.38461538 , 4132.30769231 , 4133.84615385 , 4133.84615385 , 4135.8974359 , 4135.8974359 , 4143.58974359 , 4129.23076923 , 4152.30769231 , 4134.87179487 , 2043.0 , 2032.0 , 279.57 , 0.0 , 0.0 , 0.0 , 0.0 , 

4.0 , 4092.30769231 , 4143.07692308 , 4137.94871795 , 4121.02564103 , 4134.35897436 , 4131.28205128 , 4132.30769231 , 4134.35897436 , 4135.38461538 , 4135.8974359 , 4144.1025641 , 4128.71794872 , 4158.97435897 , 4138.97435897 , 2042.0 , 2032.0 , 279.578 , 0.0 , 0.0 , 0.0 , 0.0 , 

5.0 , 4089.74358974 , 4136.92307692 , 4138.46153846 , 4116.92307692 , 4130.25641026 , 4129.74358974 , 4131.79487179 , 4129.23076923 , 4135.38461538 , 4135.8974359 , 4146.66666667 , 4126.66666667 , 4151.79487179 , 4129.74358974 , 2042.0 , 2033.0 , 279.585 , 0.0 , 0.0 , 0.0 , 0.0 , 

6.0 , 4086.66666667 , 4130.76923077 , 4138.46153846 , 4114.87179487 , 4131.28205128 , 4130.25641026 , 4133.33333333 , 4130.76923077 , 4136.41025641 , 4135.8974359 , 4145.64102564 , 4125.12820513 , 4141.53846154 , 4121.53846154 , 2042.0 , 2030.0 , 279.595 , 0.0 , 0.0 , 0.0 , 0.0 , 

7.0 , 4085.64102564 , 4131.79487179 , 4139.48717949 , 4117.94871795 , 4133.84615385 , 4132.30769231 , 4132.30769231 , 4137.43589744 , 4133.33333333 , 4135.8974359 , 4145.12820513 , 4125.12820513 , 4145.12820513 , 4129.74358974 , 2043.0 , 2031.0 , 279.601 , 0.0 , 0.0 , 0.0 , 0.0 , 

8.0 , 4090.76923077 , 4136.92307692 , 4138.46153846 , 4122.05128205 , 4130.25641026 , 4130.76923077 , 4130.76923077 , 4136.41025641 , 4128.20512821 , 4135.8974359 , 4146.66666667 , 4125.64102564 , 4155.38461538 , 4137.43589744 , 2044.0 , 2030.0 , 279.61 , 0.0 , 0.0 , 0.0 , 0.0 , 

9.0 , 4089.23076923 , 4135.8974359 , 4137.43589744 , 4124.1025641 , 4132.82051282 , 4128.71794872 , 4131.28205128 , 4135.38461538 , 4128.71794872 , 4135.8974359 , 4143.58974359 , 4125.12820513 , 4146.66666667 , 4130.25641026 , 2043.0 , 2030.0 , 279.618 , 0.0 , 0.0 , 0.0 , 0.0 , 

10.0 , 4083.07692308 , 4134.35897436 , 4137.43589744 , 4130.25641026 , 4136.41025641 , 4131.28205128 , 4131.28205128 , 4136.41025641 , 4130.76923077 , 4135.8974359 , 4142.05128205 , 4125.64102564 , 4142.56410256 , 4130.25641026 , 2042.0 , 2031.0 , 279.626 , 0.0 , 0.0 , 0.0 , 0.0 , 

11.0 , 4089.23076923 , 4138.97435897 , 4138.46153846 , 4129.74358974 , 4129.23076923 , 4136.41025641 , 4132.30769231 , 4135.8974359 , 4130.76923077 , 4135.8974359 , 4145.64102564 , 4128.20512821 , 4153.84615385 , 4135.8974359 , 2042.0 , 2031.0 , 279.634 , 0.0 , 0.0 , 0.0 , 0.0 , 

12.0 , 4097.94871795 , 4144.1025641 , 4138.46153846 , 4123.07692308 , 4127.17948718 , 4134.35897436 , 4136.41025641 , 4135.8974359 , 4130.25641026 , 4135.8974359 , 4146.15384615 , 4129.23076923 , 4156.92307692 , 4133.33333333 , 2042.0 , 2031.0 , 279.641 , 0.0 , 0.0 , 0.0 , 0.0 , 

13.0 , 4089.23076923 , 4140.51282051 , 4136.41025641 , 4121.02564103 , 4137.43589744 , 4132.82051282 , 4136.41025641 , 4136.41025641 , 4130.76923077 , 4135.8974359 , 4144.61538462 , 4128.71794872 , 4148.71794872 , 4131.79487179 , 2040.0 , 2032.0 , 279.649 , 0.0 , 0.0 , 0.0 , 0.0 , 

14.0 , 4087.69230769 , 4141.02564103 , 4136.41025641 , 4123.58974359 , 4138.46153846 , 4134.87179487 , 4133.84615385 , 4132.82051282 , 4131.28205128 , 4135.8974359 , 4145.64102564 , 4128.20512821 , 4152.82051282 , 4138.46153846 , 2042.0 , 2032.0 , 279.658 , 0.0 , 0.0 , 0.0 , 0.0 , 

15.0 , 4098.46153846 , 4144.1025641 , 4138.46153846 , 4124.1025641 , 4134.35897436 , 4132.82051282 , 4133.84615385 , 4132.82051282 , 4131.28205128 , 4135.8974359 , 4145.64102564 , 4127.69230769 , 4158.97435897 , 4139.48717949 , 2043.0 , 2030.0 , 279.665 , 0.0 , 0.0 , 0.0 , 0.0 , 

16.0 , 4100.51282051 , 4141.53846154 , 4138.97435897 , 4124.61538462 , 4135.38461538 , 4127.69230769 , 4136.41025641 , 4137.43589744 , 4130.76923077 , 4135.8974359 , 4144.61538462 , 4127.17948718 , 4153.33333333 , 4134.35897436 , 2043.0 , 2030.0 , 279.674 , 0.0 , 0.0 , 0.0 , 0.0 , 

17.0 , 4100.0 , 4142.05128205 , 4138.97435897 , 4124.1025641 , 4135.8974359 , 4133.33333333 , 4135.38461538 , 4134.87179487 , 4130.76923077 , 4135.8974359 , 4144.61538462 , 4128.20512821 , 4157.94871795 , 4135.8974359 , 2045.0 , 2032.0 , 279.68 , 0.0 , 0.0 , 0.0 , 0.0 , 

18.0 , 4101.53846154 , 4145.12820513 , 4138.97435897 , 4123.07692308 , 4133.33333333 , 4139.48717949 , 4132.82051282 , 4132.30769231 , 4131.79487179 , 4135.8974359 , 4142.56410256 , 4128.20512821 , 4167.69230769 , 4142.56410256 , 2044.0 , 2030.0 , 279.689 , 0.0 , 0.0 , 0.0 , 0.0 , 

19.0 , 4099.48717949 , 4142.05128205 , 4140.0 , 4125.64102564 , 4134.35897436 , 4132.30769231 , 4130.76923077 , 4133.84615385 , 4130.76923077 , 4135.8974359 , 4139.48717949 , 4126.66666667 , 4167.17948718 , 4144.1025641 , 2044.0 , 2029.0 , 279.697 , 0.0 , 0.0 , 0.0 , 0.0 , 

20.0 , 4093.33333333 , 4134.87179487 , 4139.48717949 , 4123.07692308 , 4136.41025641 , 4127.17948718 , 4131.79487179 , 4134.87179487 , 4129.74358974 , 4135.8974359 , 4140.0 , 4126.66666667 , 4157.94871795 , 4132.30769231 , 2047.0 , 2030.0 , 279.704 , 0.0 , 0.0 , 0.0 , 0.0 , 

21.0 , 4090.76923077 , 4133.33333333 , 4139.48717949 , 4125.12820513 , 4135.38461538 , 4130.25641026 , 4133.84615385 , 4133.33333333 , 4130.25641026 , 4135.8974359 , 4141.02564103 , 4128.71794872 , 4156.92307692 , 4131.28205128 , 2045.0 , 2030.0 , 279.712 , 0.0 , 0.0 , 0.0 , 0.0 , 

22.0 , 4090.25641026 , 4132.82051282 , 4138.97435897 , 4134.87179487 , 4136.92307692 , 4133.33333333 , 4132.82051282 , 4135.38461538 , 4130.76923077 , 4135.8974359 , 4142.56410256 , 4128.71794872 , 4159.48717949 , 4139.48717949 , 2045.0 , 2031.0 , 279.721 , 0.0 , 0.0 , 0.0 , 0.0 , 

23.0 , 4096.92307692 , 4138.46153846 , 4138.46153846 , 4136.41025641 , 4135.8974359 , 4131.79487179 , 4133.84615385 , 4133.84615385 , 4129.23076923 , 4135.8974359 , 4144.61538462 , 4127.17948718 , 4163.07692308 , 4139.48717949 , 2045.0 , 2032.0 , 279.73 , 0.0 , 0.0 , 0.0 , 0.0 , 

24.0 , 4098.97435897 , 4140.51282051 , 4137.94871795 , 4127.17948718 , 4132.30769231 , 4130.25641026 , 4134.35897436 , 4126.66666667 , 4129.23076923 , 4135.8974359 , 4142.56410256 , 4128.20512821 , 4160.0 , 4132.82051282 , 2044.0 , 2030.0 , 279.736 , 0.0 , 0.0 , 0.0 , 0.0 , 

25.0 , 4095.38461538 , 4135.38461538 , 4137.43589744 , 4125.12820513 , 4132.30769231 , 4130.25641026 , 4132.82051282 , 4129.23076923 , 4130.76923077 , 4135.8974359 , 4141.53846154 , 4129.23076923 , 4156.92307692 , 4135.38461538 , 2043.0 , 2029.0 , 279.744 , 0.0 , 0.0 , 0.0 , 0.0 , 

26.0 , 4095.8974359 , 4132.30769231 , 4138.46153846 , 4125.64102564 , 4136.92307692 , 4130.25641026 , 4129.74358974 , 4137.43589744 , 4130.76923077 , 4135.8974359 , 4144.1025641 , 4127.17948718 , 4155.8974359 , 4134.35897436 , 2043.0 , 2045.0 , 279.751 , 0.0 , 0.0 , 0.0 , 0.0 , 

27.0 , 4100.0 , 4140.0 , 4137.94871795 , 4124.61538462 , 4136.92307692 , 4132.82051282 , 4129.74358974 , 4135.8974359 , 4130.76923077 , 4135.8974359 , 4146.15384615 , 4126.66666667 , 4161.02564103 , 4130.76923077 , 2041.0 , 2033.0 , 279.76 , 0.0 , 0.0 , 0.0 , 0.0 , 

28.0 , 4100.51282051 , 4141.02564103 , 4136.92307692 , 4124.61538462 , 4133.84615385 , 4132.82051282 , 4128.20512821 , 4133.84615385 , 4130.76923077 , 4135.8974359 , 4143.58974359 , 4128.20512821 , 4162.56410256 , 4132.82051282 , 2041.0 , 2033.0 , 279.767 , 0.0 , 0.0 , 0.0 , 0.0 , 

29.0 , 4098.46153846 , 4135.8974359 , 4136.92307692 , 4125.12820513 , 4134.35897436 , 4129.74358974 , 4128.20512821 , 4136.41025641 , 4130.76923077 , 4135.8974359 , 4142.56410256 , 4128.20512821 , 4155.8974359 , 4135.8974359 , 2041.0 , 2032.0 , 279.775 , 0.0 , 0.0 , 0.0 , 0.0 , 

30.0 , 4092.82051282 , 4132.82051282 , 4137.43589744 , 4124.61538462 , 4133.84615385 , 4129.23076923 , 4131.28205128 , 4134.87179487 , 4130.76923077 , 4135.8974359 , 4142.56410256 , 4126.66666667 , 4146.66666667 , 4135.8974359 , 2040.0 , 2030.0 , 279.782 , 0.0 , 0.0 , 0.0 , 0.0 , 

31.0 , 4092.30769231 , 4135.8974359 , 4138.97435897 , 4129.23076923 , 4132.30769231 , 4130.25641026 , 4131.28205128 , 4131.79487179 , 4130.76923077 , 4135.8974359 , 4146.15384615 , 4125.12820513 , 4151.28205128 , 4137.94871795 , 2041.0 , 2032.0 , 279.791 , 0.0 , 0.0 , 0.0 , 0.0 , 

32.0 , 4096.92307692 , 4139.48717949 , 4139.48717949 , 4130.76923077 , 4133.33333333 , 4130.25641026 , 4126.15384615 , 4134.35897436 , 4130.76923077 , 4135.8974359 , 4147.17948718 , 4126.66666667 , 4154.87179487 , 4134.35897436 , 2042.0 , 2032.0 , 279.798 , 0.0 , 0.0 , 0.0 , 0.0 , 

33.0 , 4098.46153846 , 4140.51282051 , 4137.94871795 , 4126.66666667 , 4136.92307692 , 4131.79487179 , 4127.17948718 , 4133.84615385 , 4130.76923077 , 4135.8974359 , 4141.53846154 , 4131.28205128 , 4152.30769231 , 4129.74358974 , 2042.0 , 2031.0 , 279.807 , 0.0 , 0.0 , 0.0 , 0.0 , 

34.0 , 4095.38461538 , 4135.8974359 , 4137.43589744 , 4124.61538462 , 4135.8974359 , 4131.79487179 , 4129.23076923 , 4130.76923077 , 4130.76923077 , 4135.8974359 , 4138.97435897 , 4126.66666667 , 4151.79487179 , 4132.30769231 , 2044.0 , 2031.0 , 279.815 , 0.0 , 0.0 , 0.0 , 0.0 , 

35.0 , 4094.35897436 , 4132.30769231 , 4137.94871795 , 4126.15384615 , 4131.79487179 , 4128.71794872 , 4126.15384615 , 4133.33333333 , 4130.76923077 , 4135.8974359 , 4143.58974359 , 4120.51282051 , 4149.23076923 , 4133.84615385 , 2045.0 , 2033.0 , 279.824 , 0.0 , 0.0 , 0.0 , 0.0 , 

36.0 , 4095.8974359 , 4135.8974359 , 4137.94871795 , 4126.66666667 , 4133.84615385 , 4132.82051282 , 4125.64102564 , 4134.35897436 , 4130.76923077 , 4135.8974359 , 4144.1025641 , 4125.12820513 , 4147.17948718 , 4128.20512821 , 2043.0 , 2032.0 , 279.831 , 0.0 , 0.0 , 0.0 , 0.0 , 

37.0 , 4095.8974359 , 4137.43589744 , 4137.94871795 , 4126.15384615 , 4137.43589744 , 4137.43589744 , 4128.71794872 , 4131.79487179 , 4130.76923077 , 4135.8974359 , 4143.07692308 , 4130.25641026 , 4148.20512821 , 4130.25641026 , 2044.0 , 2032.0 , 279.838 , 0.0 , 0.0 , 0.0 , 0.0 , 

38.0 , 4098.97435897 , 4139.48717949 , 4139.48717949 , 4126.15384615 , 4136.41025641 , 4133.33333333 , 4130.76923077 , 4131.28205128 , 4130.76923077 , 4135.8974359 , 4146.66666667 , 4125.64102564 , 4152.82051282 , 4143.07692308 , 2044.0 , 2033.0 , 279.847 , 0.0 , 0.0 , 0.0 , 0.0 , 

39.0 , 4103.58974359 , 4144.61538462 , 4140.51282051 , 4126.15384615 , 4134.35897436 , 4130.25641026 , 4132.30769231 , 4133.84615385 , 4130.76923077 , 4135.8974359 , 4148.20512821 , 4124.1025641 , 4157.94871795 , 4146.66666667 , 2044.0 , 2033.0 , 279.854 , 0.0 , 0.0 , 0.0 , 0.0 , 

40.0 , 4108.71794872 , 4146.15384615 , 4137.43589744 , 4128.20512821 , 4135.38461538 , 4132.30769231 , 4130.76923077 , 4132.82051282 , 4130.76923077 , 4135.8974359 , 4145.64102564 , 4127.69230769 , 4162.05128205 , 4142.05128205 , 2044.0 , 2034.0 , 279.863 , 0.0 , 0.0 , 0.0 , 0.0 , 

41.0 , 4104.61538462 , 4141.53846154 , 4134.35897436 , 4127.17948718 , 4136.41025641 , 4131.28205128 , 4129.74358974 , 4131.28205128 , 4130.76923077 , 4135.8974359 , 4144.1025641 , 4126.66666667 , 4153.33333333 , 4133.33333333 , 2045.0 , 2033.0 , 279.87 , 0.0 , 0.0 , 0.0 , 0.0 , 

42.0 , 4101.02564103 , 4144.1025641 , 4134.35897436 , 4124.1025641 , 4135.8974359 , 4128.71794872 , 4130.25641026 , 4131.79487179 , 4130.76923077 , 4135.8974359 , 4145.12820513 , 4124.61538462 , 4149.23076923 , 4133.84615385 , 2045.0 , 2034.0 , 279.879 , 0.0 , 0.0 , 0.0 , 0.0 , 

43.0 , 4098.46153846 , 4144.1025641 , 4134.87179487 , 4122.56410256 , 4135.38461538 , 4130.25641026 , 4129.23076923 , 4133.84615385 , 4130.76923077 , 4135.8974359 , 4144.61538462 , 4126.15384615 , 4150.25641026 , 4131.28205128 , 2045.0 , 2035.0 , 279.885 , 0.0 , 0.0 , 0.0 , 0.0 , 

44.0 , 4098.97435897 , 4140.51282051 , 4133.84615385 , 4130.25641026 , 4135.8974359 , 4129.74358974 , 4127.69230769 , 4136.92307692 , 4130.76923077 , 4135.8974359 , 4145.64102564 , 4125.64102564 , 4150.25641026 , 4127.69230769 , 2045.0 , 2036.0 , 279.896 , 0.0 , 0.0 , 0.0 , 0.0 , 

45.0 , 4100.51282051 , 4138.97435897 , 4134.35897436 , 4133.84615385 , 4136.92307692 , 4129.23076923 , 4128.20512821 , 4135.8974359 , 4130.76923077 , 4135.8974359 , 4147.17948718 , 4122.56410256 , 4149.74358974 , 4132.30769231 , 2042.0 , 2037.0 , 279.902 , 0.0 , 0.0 , 0.0 , 0.0 , 

46.0 , 4100.0 , 4141.53846154 , 4134.87179487 , 4124.1025641 , 4134.87179487 , 4129.23076923 , 4128.20512821 , 4132.30769231 , 4130.76923077 , 4135.8974359 , 4146.66666667 , 4123.07692308 , 4150.76923077 , 4137.94871795 , 2043.0 , 2039.0 , 279.91 , 0.0 , 0.0 , 0.0 , 0.0 , 

47.0 , 4094.87179487 , 4136.92307692 , 4133.84615385 , 4115.38461538 , 4136.41025641 , 4130.25641026 , 4127.69230769 , 4133.33333333 , 4130.76923077 , 4135.8974359 , 4144.1025641 , 4126.15384615 , 4145.12820513 , 4129.74358974 , 2043.0 , 2040.0 , 279.917 , 0.0 , 0.0 , 0.0 , 0.0 , 

48.0 , 4093.84615385 , 4134.87179487 , 4135.38461538 , 4120.0 , 4137.43589744 , 4130.25641026 , 4129.74358974 , 4135.8974359 , 4130.76923077 , 4135.8974359 , 4144.1025641 , 4125.12820513 , 4147.17948718 , 4124.61538462 , 2041.0 , 2038.0 , 279.926 , 0.0 , 0.0 , 0.0 , 0.0 , 

49.0 , 4095.8974359 , 4138.97435897 , 4139.48717949 , 4123.58974359 , 4130.76923077 , 4128.71794872 , 4128.20512821 , 4134.35897436 , 4130.76923077 , 4135.8974359 , 4143.07692308 , 4122.56410256 , 4152.30769231 , 4129.74358974 , 2043.0 , 2037.0 , 279.934 , 0.0 , 0.0 , 0.0 , 0.0 , 

50.0 , 4095.8974359 , 4140.0 , 4139.48717949 , 4120.0 , 4126.66666667 , 4128.71794872 , 4126.66666667 , 4133.84615385 , 4130.76923077 , 4135.8974359 , 4143.07692308 , 4123.07692308 , 4144.61538462 , 4129.74358974 , 2041.0 , 2039.0 , 279.943 , 0.0 , 0.0 , 0.0 , 0.0 , 

51.0 , 4096.92307692 , 4134.87179487 , 4134.87179487 , 4121.02564103 , 4129.74358974 , 4128.71794872 , 4129.23076923 , 4131.79487179 , 4130.76923077 , 4135.8974359 , 4145.64102564 , 4123.58974359 , 4141.53846154 , 4126.15384615 , 2040.0 , 2037.0 , 279.949 , 0.0 , 0.0 , 0.0 , 0.0 , 

52.0 , 4102.56410256 , 4135.8974359 , 4135.8974359 , 4126.66666667 , 4133.33333333 , 4127.69230769 , 4132.30769231 , 4126.66666667 , 4130.76923077 , 4135.8974359 , 4147.17948718 , 4124.61538462 , 4156.41025641 , 4131.28205128 , 2040.0 , 2036.0 , 279.958 , 0.0 , 0.0 , 0.0 , 0.0 , 

53.0 , 4104.61538462 , 4140.51282051 , 4141.02564103 , 4128.71794872 , 4131.79487179 , 4131.28205128 , 4131.79487179 , 4131.28205128 , 4130.76923077 , 4135.8974359 , 4146.66666667 , 4124.61538462 , 4162.05128205 , 4137.43589744 , 2041.0 , 2035.0 , 279.965 , 0.0 , 0.0 , 0.0 , 0.0 , 

54.0 , 4102.05128205 , 4142.05128205 , 4140.51282051 , 4127.69230769 , 4131.79487179 , 4134.35897436 , 4130.25641026 , 4139.48717949 , 4130.76923077 , 4135.8974359 , 4146.15384615 , 4124.1025641 , 4154.35897436 , 4136.41025641 , 2042.0 , 2035.0 , 279.974 , 0.0 , 0.0 , 0.0 , 0.0 , 

55.0 , 4099.48717949 , 4143.58974359 , 4135.8974359 , 4127.17948718 , 4130.76923077 , 4128.20512821 , 4129.23076923 , 4131.79487179 , 4130.76923077 , 4135.8974359 , 4143.07692308 , 4122.05128205 , 4154.87179487 , 4133.33333333 , 2042.0 , 2034.0 , 279.981 , 0.0 , 0.0 , 0.0 , 0.0 , 

56.0 , 4093.33333333 , 4137.94871795 , 4136.41025641 , 4126.15384615 , 4130.76923077 , 4126.15384615 , 4128.20512821 , 4124.61538462 , 4130.76923077 , 4135.8974359 , 4138.97435897 , 4122.05128205 , 4151.28205128 , 4126.15384615 , 2044.0 , 2034.0 , 279.988 , 0.0 , 0.0 , 0.0 , 0.0 , 

57.0 , 4090.25641026 , 4132.82051282 , 4139.48717949 , 4125.12820513 , 4130.76923077 , 4131.28205128 , 4128.20512821 , 4131.79487179 , 4130.76923077 , 4135.8974359 , 4142.05128205 , 4125.12820513 , 4145.64102564 , 4123.58974359 , 2043.0 , 2035.0 , 279.997 , 0.0 , 0.0 , 0.0 , 0.0 , 

58.0 , 4094.87179487 , 4135.8974359 , 4138.46153846 , 4128.20512821 , 4128.71794872 , 4131.28205128 , 4128.71794872 , 4136.41025641 , 4130.76923077 , 4135.8974359 , 4144.1025641 , 4125.12820513 , 4148.71794872 , 4128.20512821 , 2045.0 , 2035.0 , 280.004 , 0.0 , 0.0 , 0.0 , 0.0 , 

59.0 , 4100.51282051 , 4137.43589744 , 4136.92307692 , 4132.82051282 , 4131.28205128 , 4131.28205128 , 4129.74358974 , 4133.33333333 , 4130.76923077 , 4135.8974359 , 4142.05128205 , 4125.12820513 , 4151.79487179 , 4134.35897436 , 2045.0 , 2035.0 , 280.013 , 0.0 , 0.0 , 0.0 , 0.0 , 

60.0 , 4097.43589744 , 4132.82051282 , 4138.46153846 , 4133.33333333 , 4137.43589744 , 4135.8974359 , 4130.25641026 , 4132.30769231 , 4130.76923077 , 4135.8974359 , 4141.53846154 , 4126.66666667 , 4148.71794872 , 4131.79487179 , 2045.0 , 2036.0 , 280.02 , 0.0 , 0.0 , 0.0 , 0.0 , 

61.0 , 4096.92307692 , 4137.94871795 , 4138.97435897 , 4131.79487179 , 4135.8974359 , 4134.35897436 , 4130.25641026 , 4132.82051282 , 4130.76923077 , 4136.41025641 , 4142.56410256 , 4127.69230769 , 4153.84615385 , 4129.74358974 , 2045.0 , 2038.0 , 280.03 , 0.0 , 0.0 , 0.0 , 0.0 , 

62.0 , 4098.46153846 , 4143.07692308 , 4138.97435897 , 4125.64102564 , 4128.71794872 , 4130.25641026 , 4130.76923077 , 4132.30769231 , 4130.76923077 , 4137.43589744 , 4141.02564103 , 4127.69230769 , 4158.97435897 , 4131.79487179 , 2043.0 , 2038.0 , 280.036 , 0.0 , 0.0 , 0.0 , 0.0 , 

63.0 , 4103.07692308 , 4143.07692308 , 4138.46153846 , 4125.12820513 , 4130.76923077 , 4129.23076923 , 4129.74358974 , 4133.33333333 , 4130.25641026 , 4137.94871795 , 4142.05128205 , 4126.15384615 , 4158.97435897 , 4137.43589744 , 2044.0 , 2039.0 , 280.043 , 0.0 , 0.0 , 0.0 , 0.0 , 

64.0 , 4101.02564103 , 4139.48717949 , 4137.94871795 , 4125.64102564 , 4136.41025641 , 4130.25641026 , 4126.66666667 , 4135.8974359 , 4130.76923077 , 4138.46153846 , 4138.97435897 , 4124.1025641 , 4153.84615385 , 4134.35897436 , 2045.0 , 2038.0 , 280.053 , 0.0 , 0.0 , 0.0 , 0.0 , 

65.0 , 4090.25641026 , 4134.87179487 , 4137.43589744 , 4121.02564103 , 4133.84615385 , 4131.79487179 , 4127.69230769 , 4136.41025641 , 4131.28205128 , 4136.41025641 , 4133.84615385 , 4124.1025641 , 4143.07692308 , 4124.61538462 , 2044.0 , 2039.0 , 280.06 , 0.0 , 0.0 , 0.0 , 0.0 , 

66.0 , 4086.15384615 , 4127.69230769 , 4135.8974359 , 4116.41025641 , 4132.82051282 , 4130.76923077 , 4129.74358974 , 4133.84615385 , 4129.74358974 , 4134.87179487 , 4135.38461538 , 4124.61538462 , 4134.35897436 , 4121.02564103 , 2041.0 , 2037.0 , 280.068 , 0.0 , 0.0 , 0.0 , 0.0 , 

67.0 , 4093.84615385 , 4127.69230769 , 4136.92307692 , 4118.97435897 , 4134.35897436 , 4129.23076923 , 4128.20512821 , 4131.79487179 , 4130.76923077 , 4135.8974359 , 4142.56410256 , 4123.07692308 , 4141.53846154 , 4125.12820513 , 2041.0 , 2036.0 , 280.076 , 0.0 , 0.0 , 0.0 , 0.0 , 

68.0 , 4096.41025641 , 4132.30769231 , 4138.97435897 , 4122.56410256 , 4133.33333333 , 4135.8974359 , 4128.71794872 , 4132.30769231 , 4135.8974359 , 4137.43589744 , 4144.61538462 , 4122.05128205 , 4151.28205128 , 4127.69230769 , 2042.0 , 2033.0 , 280.084 , 0.0 , 0.0 , 0.0 , 0.0 , 

69.0 , 4091.79487179 , 4135.8974359 , 4137.43589744 , 4124.1025641 , 4132.82051282 , 4138.97435897 , 4130.76923077 , 4132.30769231 , 4136.92307692 , 4136.41025641 , 4144.61538462 , 4123.07692308 , 4150.76923077 , 4128.71794872 , 2042.0 , 2032.0 , 280.092 , 0.0 , 0.0 , 0.0 , 0.0 , 

70.0 , 4093.33333333 , 4135.8974359 , 4134.35897436 , 4123.07692308 , 4135.38461538 , 4129.23076923 , 4128.71794872 , 4131.28205128 , 4134.87179487 , 4135.38461538 , 4140.0 , 4124.61538462 , 4144.1025641 , 4125.12820513 , 2041.0 , 2032.0 , 280.1 , 0.0 , 0.0 , 0.0 , 0.0 , 

71.0 , 4100.0 , 4137.94871795 , 4135.8974359 , 4122.05128205 , 4134.35897436 , 4125.12820513 , 4126.66666667 , 4133.84615385 , 4135.38461538 , 4136.41025641 , 4135.38461538 , 4125.64102564 , 4142.05128205 , 4123.58974359 , 2043.0 , 2030.0 , 280.107 , 0.0 , 0.0 , 0.0 , 0.0 , 

72.0 , 4100.0 , 4140.51282051 , 4138.46153846 , 4125.64102564 , 4131.28205128 , 4131.79487179 , 4127.17948718 , 4132.30769231 , 4135.8974359 , 4136.41025641 , 4139.48717949 , 4123.07692308 , 4147.69230769 , 4129.74358974 , 2043.0 , 2030.0 , 280.115 , 0.0 , 0.0 , 0.0 , 0.0 , 

73.0 , 4095.38461538 , 4135.8974359 , 4138.46153846 , 4126.15384615 , 4133.84615385 , 4133.33333333 , 4128.71794872 , 4125.64102564 , 4134.35897436 , 4135.8974359 , 4144.1025641 , 4121.02564103 , 4149.23076923 , 4132.82051282 , 2043.0 , 2031.0 , 280.123 , 0.0 , 0.0 , 0.0 , 0.0 , 

74.0 , 4093.84615385 , 4131.79487179 , 4137.94871795 , 4119.48717949 , 4135.38461538 , 4127.69230769 , 4129.23076923 , 4129.23076923 , 4134.35897436 , 4135.8974359 , 4143.58974359 , 4123.07692308 , 4146.15384615 , 4129.74358974 , 2043.0 , 2031.0 , 280.13 , 0.0 , 0.0 , 0.0 , 0.0 , 

75.0 , 4097.43589744 , 4134.35897436 , 4138.46153846 , 4117.94871795 , 4133.33333333 , 4128.20512821 , 4129.23076923 , 4139.48717949 , 4134.35897436 , 4135.8974359 , 4142.05128205 , 4124.61538462 , 4143.58974359 , 4126.66666667 , 2042.0 , 2030.0 , 280.139 , 0.0 , 0.0 , 0.0 , 0.0 , 

76.0 , 4106.66666667 , 4140.51282051 , 4138.46153846 , 4123.07692308 , 4134.35897436 , 4131.28205128 , 4131.28205128 , 4138.46153846 , 4134.35897436 , 4135.8974359 , 4143.07692308 , 4123.58974359 , 4149.23076923 , 4132.30769231 , 2044.0 , 2032.0 , 280.146 , 0.0 , 0.0 , 0.0 , 0.0 , 

77.0 , 4105.12820513 , 4134.87179487 , 4137.94871795 , 4122.56410256 , 4137.43589744 , 4132.30769231 , 4132.30769231 , 4132.82051282 , 4134.35897436 , 4135.8974359 , 4144.1025641 , 4123.58974359 , 4147.69230769 , 4131.79487179 , 2045.0 , 2031.0 , 280.155 , 0.0 , 0.0 , 0.0 , 0.0 , 

78.0 , 4098.97435897 , 4131.28205128 , 4137.43589744 , 4119.48717949 , 4135.8974359 , 4132.82051282 , 4130.25641026 , 4133.33333333 , 4134.35897436 , 4135.8974359 , 4146.66666667 , 4123.07692308 , 4145.64102564 , 4125.12820513 , 2046.0 , 2033.0 , 280.163 , 0.0 , 0.0 , 0.0 , 0.0 , 

79.0 , 4097.94871795 , 4133.84615385 , 4137.94871795 , 4119.48717949 , 4131.79487179 , 4130.76923077 , 4128.71794872 , 4134.35897436 , 4134.35897436 , 4135.8974359 , 4146.66666667 , 4122.05128205 , 4143.07692308 , 4123.58974359 , 2046.0 , 2034.0 , 280.169 , 0.0 , 0.0 , 0.0 , 0.0 , 

80.0 , 4101.02564103 , 4132.82051282 , 4137.94871795 , 4123.07692308 , 4132.30769231 , 4127.69230769 , 4128.20512821 , 4130.76923077 , 4134.35897436 , 4135.8974359 , 4145.64102564 , 4122.05128205 , 4143.07692308 , 4125.64102564 , 2046.0 , 2036.0 , 280.178 , 0.0 , 0.0 , 0.0 , 0.0 , 

81.0 , 4097.43589744 , 4125.64102564 , 4136.41025641 , 4122.56410256 , 4134.87179487 , 4129.74358974 , 4125.12820513 , 4132.30769231 , 4134.35897436 , 4135.8974359 , 4144.1025641 , 4122.05128205 , 4141.02564103 , 4118.46153846 , 2046.0 , 2037.0 , 280.185 , 0.0 , 0.0 , 0.0 , 0.0 , 

82.0 , 4096.41025641 , 4126.66666667 , 4135.8974359 , 4121.02564103 , 4132.82051282 , 4131.28205128 , 4126.66666667 , 4133.84615385 , 4134.35897436 , 4135.8974359 , 4145.12820513 , 4122.56410256 , 4140.51282051 , 4120.0 , 2046.0 , 2038.0 , 280.194 , 0.0 , 0.0 , 0.0 , 0.0 , 

83.0 , 4099.48717949 , 4128.71794872 , 4138.46153846 , 4124.1025641 , 4131.28205128 , 4128.20512821 , 4128.71794872 , 4127.17948718 , 4134.35897436 , 4135.8974359 , 4145.64102564 , 4122.56410256 , 4141.02564103 , 4129.23076923 , 2045.0 , 2039.0 , 280.201 , 0.0 , 0.0 , 0.0 , 0.0 , 

84.0 , 4101.02564103 , 4128.20512821 , 4138.97435897 , 4127.17948718 , 4131.79487179 , 4128.20512821 , 4128.71794872 , 4124.61538462 , 4133.33333333 , 4135.8974359 , 4142.56410256 , 4121.53846154 , 4145.12820513 , 4127.17948718 , 2044.0 , 2037.0 , 280.211 , 0.0 , 0.0 , 0.0 , 0.0 , 

85.0 , 4097.94871795 , 4126.66666667 , 4136.41025641 , 4119.48717949 , 4129.74358974 , 4131.28205128 , 4129.23076923 , 4135.8974359 , 4133.33333333 , 4135.8974359 , 4140.0 , 4123.07692308 , 4144.1025641 , 4123.58974359 , 2044.0 , 2037.0 , 280.218 , 0.0 , 0.0 , 0.0 , 0.0 , 

86.0 , 4096.41025641 , 4126.15384615 , 4137.43589744 , 4116.41025641 , 4130.25641026 , 4130.76923077 , 4128.71794872 , 4140.51282051 , 4133.33333333 , 4135.8974359 , 4145.64102564 , 4125.64102564 , 4141.53846154 , 4130.76923077 , 2042.0 , 2037.0 , 280.225 , 0.0 , 0.0 , 0.0 , 0.0 , 

87.0 , 4096.92307692 , 4125.12820513 , 4140.0 , 4126.15384615 , 4131.28205128 , 4131.28205128 , 4127.69230769 , 4132.82051282 , 4133.33333333 , 4135.8974359 , 4146.66666667 , 4122.56410256 , 4142.56410256 , 4130.25641026 , 2041.0 , 2036.0 , 280.233 , 0.0 , 0.0 , 0.0 , 0.0 , 

88.0 , 4097.94871795 , 4126.66666667 , 4136.92307692 , 4126.15384615 , 4130.25641026 , 4130.76923077 , 4129.74358974 , 4131.28205128 , 4133.33333333 , 4135.8974359 , 4141.02564103 , 4121.02564103 , 4143.07692308 , 4122.56410256 , 2042.0 , 2036.0 , 280.24 , 0.0 , 0.0 , 0.0 , 0.0 , 

89.0 , 4097.94871795 , 4128.20512821 , 4135.38461538 , 4118.46153846 , 4129.74358974 , 4126.15384615 , 4130.25641026 , 4131.79487179 , 4133.33333333 , 4135.8974359 , 4142.56410256 , 4124.1025641 , 4143.07692308 , 4126.15384615 , 2041.0 , 2035.0 , 280.249 , 0.0 , 0.0 , 0.0 , 0.0 , 

90.0 , 4094.35897436 , 4123.58974359 , 4138.46153846 , 4120.51282051 , 4132.30769231 , 4125.64102564 , 4129.23076923 , 4127.69230769 , 4133.33333333 , 4135.8974359 , 4144.61538462 , 4122.05128205 , 4143.07692308 , 4128.71794872 , 2041.0 , 2035.0 , 280.256 , 0.0 , 0.0 , 0.0 , 0.0 , 

91.0 , 4088.20512821 , 4117.43589744 , 4138.46153846 , 4122.05128205 , 4130.76923077 , 4132.30769231 , 4127.69230769 , 4130.25641026 , 4133.33333333 , 4135.8974359 , 4140.0 , 4120.51282051 , 4139.48717949 , 4120.51282051 , 2039.0 , 2033.0 , 280.265 , 0.0 , 0.0 , 0.0 , 0.0 , 

92.0 , 4087.17948718 , 4116.92307692 , 4135.38461538 , 4118.46153846 , 4126.66666667 , 4132.82051282 , 4126.15384615 , 4135.38461538 , 4133.33333333 , 4135.8974359 , 4136.92307692 , 4122.05128205 , 4134.35897436 , 4118.46153846 , 2039.0 , 2033.0 , 280.272 , 0.0 , 0.0 , 0.0 , 0.0 , 

93.0 , 4091.79487179 , 4123.07692308 , 4136.92307692 , 4120.51282051 , 4129.23076923 , 4127.69230769 , 4127.17948718 , 4131.28205128 , 4133.33333333 , 4135.8974359 , 4138.46153846 , 4120.51282051 , 4135.38461538 , 4126.66666667 , 2039.0 , 2032.0 , 280.281 , 0.0 , 0.0 , 0.0 , 0.0 , 

94.0 , 4090.25641026 , 4122.05128205 , 4137.94871795 , 4120.51282051 , 4132.82051282 , 4128.71794872 , 4127.69230769 , 4126.66666667 , 4133.84615385 , 4135.8974359 , 4141.02564103 , 4118.97435897 , 4134.35897436 , 4129.23076923 , 2039.0 , 2033.0 , 280.288 , 0.0 , 0.0 , 0.0 , 0.0 , 

95.0 , 4089.74358974 , 4121.02564103 , 4136.41025641 , 4117.94871795 , 4134.35897436 , 4131.79487179 , 4127.17948718 , 4132.30769231 , 4133.33333333 , 4135.8974359 , 4144.61538462 , 4121.53846154 , 4134.35897436 , 4125.64102564 , 2038.0 , 2032.0 , 280.297 , 0.0 , 0.0 , 0.0 , 0.0 , 

96.0 , 4089.74358974 , 4118.97435897 , 4136.92307692 , 4118.97435897 , 4134.87179487 , 4130.76923077 , 4129.23076923 , 4138.46153846 , 4133.33333333 , 4135.38461538 , 4142.05128205 , 4122.05128205 , 4132.30769231 , 4114.87179487 , 2041.0 , 2033.0 , 280.303 , 0.0 , 0.0 , 0.0 , 0.0 , 

97.0 , 4088.20512821 , 4117.43589744 , 4137.43589744 , 4120.51282051 , 4133.33333333 , 4128.20512821 , 4131.28205128 , 4135.8974359 , 4134.87179487 , 4135.8974359 , 4135.38461538 , 4122.05128205 , 4130.76923077 , 4110.25641026 , 2042.0 , 2034.0 , 280.312 , 0.0 , 0.0 , 0.0 , 0.0 , 

98.0 , 4088.71794872 , 4118.97435897 , 4137.43589744 , 4120.0 , 4132.82051282 , 4129.23076923 , 4129.23076923 , 4131.79487179 , 4135.8974359 , 4135.8974359 , 4135.38461538 , 4123.07692308 , 4131.79487179 , 4117.94871795 , 2044.0 , 2034.0 , 280.319 , 0.0 , 0.0 , 0.0 , 0.0 , 

99.0 , 4089.23076923 , 4122.05128205 , 4137.43589744 , 4121.02564103 , 4131.28205128 , 4129.74358974 , 4128.20512821 , 4133.84615385 , 4134.35897436 , 4135.8974359 , 4136.92307692 , 4121.02564103 , 4132.30769231 , 4121.02564103 , 2045.0 , 2033.0 , 280.328 , 0.0 , 0.0 , 0.0 , 0.0 , 

100.0 , 4081.02564103 , 4114.35897436 , 4137.43589744 , 4118.97435897 , 4128.71794872 , 4130.25641026 , 4128.71794872 , 4134.87179487 , 4134.35897436 , 4135.8974359 , 4133.33333333 , 4119.48717949 , 4124.1025641 , 4111.79487179 , 2046.0 , 2035.0 , 280.335 , 0.0 , 0.0 , 0.0 , 0.0 , 

101.0 , 4086.66666667 , 4115.8974359 , 4136.41025641 , 4121.02564103 , 4129.23076923 , 4129.74358974 , 4128.20512821 , 4133.33333333 , 4134.35897436 , 4135.8974359 , 4132.30769231 , 4122.05128205 , 4128.71794872 , 4116.41025641 , 2047.0 , 2036.0 , 280.344 , 0.0 , 0.0 , 0.0 , 0.0 , 

102.0 , 4101.53846154 , 4125.64102564 , 4136.41025641 , 4124.61538462 , 4130.76923077 , 4129.23076923 , 4128.20512821 , 4133.33333333 , 4134.35897436 , 4135.8974359 , 4135.38461538 , 4122.56410256 , 4141.02564103 , 4127.69230769 , 2047.0 , 2035.0 , 280.351 , 0.0 , 0.0 , 0.0 , 0.0 , 

103.0 , 4102.56410256 , 4127.69230769 , 4135.8974359 , 4124.1025641 , 4129.23076923 , 4130.76923077 , 4128.20512821 , 4132.30769231 , 4134.87179487 , 4135.8974359 , 4137.43589744 , 4122.05128205 , 4146.15384615 , 4129.23076923 , 2048.0 , 2036.0 , 280.359 , 0.0 , 0.0 , 0.0 , 0.0 , 

104.0 , 4093.33333333 , 4117.94871795 , 4135.8974359 , 4121.02564103 , 4130.76923077 , 4130.76923077 , 4128.71794872 , 4129.74358974 , 4135.38461538 , 4135.8974359 , 4133.84615385 , 4122.05128205 , 4143.07692308 , 4125.64102564 , 2046.0 , 2036.0 , 280.368 , 0.0 , 0.0 , 0.0 , 0.0 , 

105.0 , 4095.38461538 , 4112.30769231 , 4136.41025641 , 4120.0 , 4134.87179487 , 4128.71794872 , 4129.74358974 , 4130.76923077 , 4134.87179487 , 4135.8974359 , 4134.35897436 , 4123.07692308 , 4134.87179487 , 4125.64102564 , 2047.0 , 2033.0 , 280.374 , 0.0 , 0.0 , 0.0 , 0.0 , 

106.0 , 4099.48717949 , 4115.38461538 , 4136.41025641 , 4120.0 , 4131.79487179 , 4128.71794872 , 4129.23076923 , 4129.23076923 , 4134.35897436 , 4135.8974359 , 4136.92307692 , 4122.05128205 , 4130.25641026 , 4125.12820513 , 2045.0 , 2033.0 , 280.383 , 0.0 , 0.0 , 0.0 , 0.0 , 

107.0 , 4096.41025641 , 4121.02564103 , 4136.92307692 , 4121.53846154 , 4128.71794872 , 4129.74358974 , 4129.23076923 , 4126.66666667 , 4134.35897436 , 4135.8974359 , 4134.87179487 , 4121.02564103 , 4135.38461538 , 4125.64102564 , 2043.0 , 2034.0 , 280.39 , 0.0 , 0.0 , 0.0 , 0.0 , 

108.0 , 4098.97435897 , 4124.1025641 , 4137.94871795 , 4125.64102564 , 4129.74358974 , 4130.25641026 , 4128.71794872 , 4131.79487179 , 4134.87179487 , 4135.8974359 , 4133.33333333 , 4121.53846154 , 4139.48717949 , 4130.25641026 , 2044.0 , 2034.0 , 280.4 , 0.0 , 0.0 , 0.0 , 0.0 , 

109.0 , 4105.64102564 , 4122.05128205 , 4137.94871795 , 4126.66666667 , 4129.74358974 , 4130.76923077 , 4126.66666667 , 4135.8974359 , 4134.35897436 , 4135.8974359 , 4137.43589744 , 4122.56410256 , 4136.92307692 , 4128.20512821 , 2042.0 , 2033.0 , 280.406 , 0.0 , 0.0 , 0.0 , 0.0 , 

110.0 , 4103.58974359 , 4123.07692308 , 4137.43589744 , 4120.0 , 4130.25641026 , 4129.74358974 , 4126.15384615 , 4133.84615385 , 4134.35897436 , 4135.8974359 , 4137.94871795 , 4124.1025641 , 4135.8974359 , 4120.51282051 , 2040.0 , 2032.0 , 280.415 , 0.0 , 0.0 , 0.0 , 0.0 , 

111.0 , 4098.97435897 , 4124.61538462 , 4137.94871795 , 4116.92307692 , 4129.74358974 , 4127.69230769 , 4128.71794872 , 4132.82051282 , 4134.35897436 , 4135.8974359 , 4132.30769231 , 4122.05128205 , 4131.79487179 , 4121.02564103 , 2040.0 , 2032.0 , 280.422 , 0.0 , 0.0 , 0.0 , 0.0 , 

112.0 , 4097.94871795 , 4121.02564103 , 4139.48717949 , 4121.53846154 , 4128.20512821 , 4128.20512821 , 4128.20512821 , 4132.82051282 , 4134.35897436 , 4135.8974359 , 4133.33333333 , 4118.46153846 , 4130.76923077 , 4128.71794872 , 2041.0 , 2032.0 , 280.43 , 0.0 , 0.0 , 0.0 , 0.0 , 

113.0 , 4095.8974359 , 4116.92307692 , 4138.97435897 , 4123.58974359 , 4129.23076923 , 4129.23076923 , 4125.12820513 , 4132.82051282 , 4134.35897436 , 4135.8974359 , 4138.97435897 , 4120.51282051 , 4133.84615385 , 4124.1025641 , 2041.0 , 2031.0 , 280.437 , 0.0 , 0.0 , 0.0 , 0.0 , 

114.0 , 4102.05128205 , 4123.07692308 , 4137.43589744 , 4123.58974359 , 4132.82051282 , 4130.25641026 , 4125.12820513 , 4133.33333333 , 4134.35897436 , 4135.8974359 , 4138.97435897 , 4124.1025641 , 4139.48717949 , 4122.56410256 , 2040.0 , 2031.0 , 280.446 , 0.0 , 0.0 , 0.0 , 0.0 , 

115.0 , 4110.76923077 , 4129.74358974 , 4137.43589744 , 4126.15384615 , 4131.28205128 , 4132.82051282 , 4130.25641026 , 4132.30769231 , 4134.35897436 , 4135.8974359 , 4138.97435897 , 4123.58974359 , 4141.02564103 , 4129.23076923 , 2040.0 , 2032.0 , 280.452 , 0.0 , 0.0 , 0.0 , 0.0 , 

116.0 , 4112.82051282 , 4131.28205128 , 4138.97435897 , 4129.23076923 , 4130.76923077 , 4132.30769231 , 4133.33333333 , 4130.76923077 , 4134.35897436 , 4135.8974359 , 4144.1025641 , 4122.56410256 , 4145.64102564 , 4134.35897436 , 2040.0 , 2032.0 , 280.462 , 0.0 , 0.0 , 0.0 , 0.0 , 

117.0 , 4111.28205128 , 4131.79487179 , 4138.97435897 , 4125.64102564 , 4136.41025641 , 4130.76923077 , 4130.76923077 , 4135.38461538 , 4134.35897436 , 4135.8974359 , 4145.12820513 , 4123.58974359 , 4148.20512821 , 4137.43589744 , 2042.0 , 2032.0 , 280.469 , 0.0 , 0.0 , 0.0 , 0.0 , 

118.0 , 4114.87179487 , 4136.41025641 , 4137.94871795 , 4124.1025641 , 4137.43589744 , 4130.76923077 , 4130.25641026 , 4137.94871795 , 4134.35897436 , 4135.8974359 , 4142.56410256 , 4122.56410256 , 4151.28205128 , 4143.58974359 , 2041.0 , 2032.0 , 280.478 , 0.0 , 0.0 , 0.0 , 0.0 , 

119.0 , 4116.41025641 , 4138.46153846 , 4137.94871795 , 4125.64102564 , 4133.84615385 , 4129.23076923 , 4131.28205128 , 4134.35897436 , 4134.87179487 , 4135.8974359 , 4141.53846154 , 4120.0 , 4149.74358974 , 4138.97435897 , 2045.0 , 2033.0 , 280.485 , 0.0 , 0.0 , 0.0 , 0.0 , 

120.0 , 4117.94871795 , 4140.51282051 , 4137.94871795 , 4130.76923077 , 4132.82051282 , 4129.23076923 , 4129.74358974 , 4131.79487179 , 4134.35897436 , 4135.8974359 , 4142.05128205 , 4121.53846154 , 4149.23076923 , 4134.35897436 , 2045.0 , 2032.0 , 280.494 , 0.0 , 0.0 , 0.0 , 0.0 , 

121.0 , 4116.92307692 , 4141.53846154 , 4137.94871795 , 4134.87179487 , 4135.38461538 , 4135.38461538 , 4126.66666667 , 4135.8974359 , 4134.35897436 , 4135.8974359 , 4139.48717949 , 4125.12820513 , 4150.25641026 , 4139.48717949 , 2045.0 , 2033.0 , 280.5 , 0.0 , 0.0 , 0.0 , 0.0 , 

122.0 , 4112.82051282 , 4141.02564103 , 4138.46153846 , 4134.87179487 , 4135.8974359 , 4134.35897436 , 4126.15384615 , 4137.94871795 , 4135.38461538 , 4135.8974359 , 4139.48717949 , 4124.61538462 , 4152.30769231 , 4136.92307692 , 2046.0 , 2033.0 , 280.508 , 0.0 , 0.0 , 0.0 , 0.0 , 

123.0 , 4110.25641026 , 4134.35897436 , 4136.92307692 , 4128.71794872 , 4132.82051282 , 4127.69230769 , 4128.20512821 , 4129.74358974 , 4136.41025641 , 4135.8974359 , 4140.51282051 , 4122.56410256 , 4150.25641026 , 4129.74358974 , 2045.0 , 2034.0 , 280.516 , 0.0 , 0.0 , 0.0 , 0.0 , 

124.0 , 4111.28205128 , 4129.74358974 , 4136.41025641 , 4122.56410256 , 4130.76923077 , 4129.74358974 , 4131.28205128 , 4125.64102564 , 4135.38461538 , 4135.8974359 , 4138.46153846 , 4123.07692308 , 4144.1025641 , 4133.33333333 , 2046.0 , 2033.0 , 280.525 , 0.0 , 0.0 , 0.0 , 0.0 , 

125.0 , 4110.76923077 , 4129.23076923 , 4137.43589744 , 4124.1025641 , 4135.38461538 , 4133.84615385 , 4131.79487179 , 4132.82051282 , 4134.35897436 , 4135.8974359 , 4135.38461538 , 4122.05128205 , 4139.48717949 , 4134.35897436 , 2046.0 , 2033.0 , 280.532 , 0.0 , 0.0 , 0.0 , 0.0 , 

126.0 , 4110.76923077 , 4129.23076923 , 4137.94871795 , 4131.28205128 , 4136.41025641 , 4129.23076923 , 4131.28205128 , 4135.38461538 , 4134.35897436 , 4135.8974359 , 4138.46153846 , 4122.05128205 , 4141.53846154 , 4130.76923077 , 2045.0 , 2035.0 , 280.541 , 0.0 , 0.0 , 0.0 , 0.0 , 

127.0 , 4113.33333333 , 4130.76923077 , 4138.46153846 , 4134.87179487 , 4127.69230769 , 4128.71794872 , 4131.79487179 , 4133.84615385 , 4134.35897436 , 4135.8974359 , 4140.51282051 , 4124.1025641 , 4144.61538462 , 4134.35897436 , 2044.0 , 2034.0 , 280.548 , 0.0 , 0.0 , 0.0 , 0.0 , 

128.0 , 4109.23076923 , 4129.74358974 , 4138.46153846 , 4132.82051282 , 4128.71794872 , 4132.82051282 , 4131.28205128 , 4136.92307692 , 4134.35897436 , 4135.8974359 , 4134.87179487 , 4121.02564103 , 4140.51282051 , 4134.87179487 , 2043.0 , 2034.0 , 280.556 , 0.0 , 0.0 , 0.0 , 0.0 , 

0.0 , 4105.12820513 , 4130.76923077 , 4140.0 , 4129.23076923 , 4134.87179487 , 4132.30769231 , 4131.28205128 , 4134.87179487 , 4134.35897436 , 4135.8974359 , 4134.87179487 , 4120.0 , 4141.02564103 , 4134.87179487 , 2042.0 , 2033.0 , 280.563 , 0.0 , 0.0 , 0.0 , 0.0 , 

1.0 , 4107.69230769 , 4135.8974359 , 4142.05128205 , 4126.66666667 , 4130.76923077 , 4129.74358974 , 4133.33333333 , 4132.30769231 , 4134.35897436 , 4135.8974359 , 4139.48717949 , 4124.1025641 , 4146.66666667 , 4142.56410256 , 2042.0 , 2034.0 , 280.571 , 0.0 , 0.0 , 0.0 , 0.0 , 

2.0 , 4111.79487179 , 4137.94871795 , 4140.0 , 4127.69230769 , 4128.20512821 , 4130.76923077 , 4132.82051282 , 4132.30769231 , 4134.35897436 , 4135.8974359 , 4137.94871795 , 4125.12820513 , 4147.17948718 , 4142.05128205 , 2042.0 , 2036.0 , 280.58 , 0.0 , 0.0 , 0.0 , 0.0 , 

3.0 , 4106.66666667 , 4131.79487179 , 4136.41025641 , 4127.69230769 , 4133.84615385 , 4133.84615385 , 4129.74358974 , 4128.71794872 , 4134.35897436 , 4135.8974359 , 4132.82051282 , 4122.05128205 , 4138.46153846 , 4129.74358974 , 2042.0 , 2036.0 , 280.587 , 0.0 , 0.0 , 0.0 , 0.0 , 

4.0 , 4104.61538462 , 4131.79487179 , 4136.92307692 , 4127.17948718 , 4136.41025641 , 4132.30769231 , 4128.71794872 , 4129.74358974 , 4134.35897436 , 4135.8974359 , 4132.30769231 , 4120.51282051 , 4136.41025641 , 4130.25641026 , 2042.0 , 2037.0 , 280.596 , 0.0 , 0.0 , 0.0 , 0.0 , 

5.0 , 4104.1025641 , 4131.28205128 , 4138.46153846 , 4124.1025641 , 4135.8974359 , 4128.71794872 , 4129.23076923 , 4134.87179487 , 4134.35897436 , 4135.8974359 , 4131.28205128 , 4121.53846154 , 4136.41025641 , 4134.35897436 , 2042.0 , 2038.0 , 280.603 , 0.0 , 0.0 , 0.0 , 0.0 , 

6.0 , 4103.07692308 , 4127.69230769 , 4137.94871795 , 4122.56410256 , 4136.92307692 , 4130.25641026 , 4129.23076923 , 4134.35897436 , 4134.35897436 , 4135.8974359 , 4130.76923077 , 4122.56410256 , 4136.41025641 , 4133.84615385 , 2042.0 , 2038.0 , 280.613 , 0.0 , 0.0 , 0.0 , 0.0 , 

7.0 , 4101.53846154 , 4125.64102564 , 4137.94871795 , 4121.53846154 , 4134.87179487 , 4136.92307692 , 4128.20512821 , 4133.33333333 , 4134.35897436 , 4135.8974359 , 4132.30769231 , 4123.07692308 , 4135.38461538 , 4132.30769231 , 2042.0 , 2038.0 , 280.619 , 0.0 , 0.0 , 0.0 , 0.0 , 

8.0 , 4103.07692308 , 4129.23076923 , 4137.94871795 , 4122.56410256 , 4132.82051282 , 4135.38461538 , 4128.71794872 , 4135.8974359 , 4134.35897436 , 4135.8974359 , 4131.28205128 , 4121.53846154 , 4137.43589744 , 4133.84615385 , 2043.0 , 2039.0 , 280.627 , 0.0 , 0.0 , 0.0 , 0.0 , 

9.0 , 4105.64102564 , 4130.25641026 , 4137.94871795 , 4123.58974359 , 4135.8974359 , 4129.23076923 , 4129.23076923 , 4136.92307692 , 4134.35897436 , 4136.41025641 , 4129.23076923 , 4123.58974359 , 4139.48717949 , 4133.33333333 , 2042.0 , 2038.0 , 280.634 , 0.0 , 0.0 , 0.0 , 0.0 , 

10.0 , 4110.76923077 , 4134.35897436 , 4138.46153846 , 4127.69230769 , 4134.87179487 , 4129.74358974 , 4129.74358974 , 4134.87179487 , 4134.35897436 , 4135.38461538 , 4134.35897436 , 4126.15384615 , 4144.1025641 , 4134.87179487 , 2042.0 , 2037.0 , 280.643 , 0.0 , 0.0 , 0.0 , 0.0 , 

11.0 , 4112.30769231 , 4135.8974359 , 4139.48717949 , 4127.69230769 , 4132.82051282 , 4131.79487179 , 4130.25641026 , 4136.41025641 , 4134.35897436 , 4134.35897436 , 4134.87179487 , 4122.05128205 , 4141.53846154 , 4133.84615385 , 2044.0 , 2038.0 , 280.651 , 0.0 , 0.0 , 0.0 , 0.0 , 

12.0 , 4112.30769231 , 4133.84615385 , 4137.94871795 , 4124.1025641 , 4134.35897436 , 4130.76923077 , 4128.20512821 , 4136.92307692 , 4134.35897436 , 4135.38461538 , 4131.79487179 , 4122.05128205 , 4138.97435897 , 4131.79487179 , 2044.0 , 2037.0 , 280.659 , 0.0 , 0.0 , 0.0 , 0.0 , 

13.0 , 4114.35897436 , 4136.41025641 , 4137.43589744 , 4128.71794872 , 4135.38461538 , 4130.76923077 , 4128.20512821 , 4131.79487179 , 4134.35897436 , 4135.8974359 , 4134.87179487 , 4124.61538462 , 4144.1025641 , 4135.8974359 , 2045.0 , 2038.0 , 280.667 , 0.0 , 0.0 , 0.0 , 0.0 , 

14.0 , 4115.38461538 , 4138.46153846 , 4138.46153846 , 4132.30769231 , 4135.8974359 , 4131.28205128 , 4131.28205128 , 4129.23076923 , 4134.87179487 , 4134.87179487 , 4137.94871795 , 4125.12820513 , 4145.64102564 , 4140.0 , 2045.0 , 2038.0 , 280.675 , 0.0 , 0.0 , 0.0 , 0.0 , 

15.0 , 4112.82051282 , 4134.87179487 , 4136.92307692 , 4129.23076923 , 4131.28205128 , 4130.25641026 , 4129.74358974 , 4131.79487179 , 4135.8974359 , 4134.87179487 , 4137.94871795 , 4126.66666667 , 4140.0 , 4140.0 , 2045.0 , 2036.0 , 280.682 , 0.0 , 0.0 , 0.0 , 0.0 , 

16.0 , 4112.82051282 , 4132.82051282 , 4136.92307692 , 4131.79487179 , 4126.66666667 , 4131.28205128 , 4129.74358974 , 4129.74358974 , 4136.41025641 , 4135.38461538 , 4139.48717949 , 4127.17948718 , 4140.51282051 , 4138.46153846 , 2045.0 , 2037.0 , 280.692 , 0.0 , 0.0 , 0.0 , 0.0 , 

17.0 , 4113.84615385 , 4132.82051282 , 4137.43589744 , 4133.84615385 , 4131.28205128 , 4131.79487179 , 4132.82051282 , 4128.71794872 , 4135.8974359 , 4134.87179487 , 4141.02564103 , 4123.07692308 , 4144.61538462 , 4134.87179487 , 2045.0 , 2036.0 , 280.699 , 0.0 , 0.0 , 0.0 , 0.0 , 

18.0 , 4110.25641026 , 4130.25641026 , 4138.46153846 , 4129.74358974 , 4138.46153846 , 4130.25641026 , 4131.79487179 , 4137.43589744 , 4134.87179487 , 4134.87179487 , 4137.94871795 , 4122.05128205 , 4144.1025641 , 4130.25641026 , 2044.0 , 2034.0 , 280.706 , 0.0 , 0.0 , 0.0 , 0.0 , 

19.0 , 4106.66666667 , 4134.87179487 , 4137.94871795 , 4126.15384615 , 4136.41025641 , 4132.30769231 , 4130.25641026 , 4136.92307692 , 4134.35897436 , 4134.87179487 , 4136.92307692 , 4122.05128205 , 4143.58974359 , 4130.76923077 , 2042.0 , 2037.0 , 280.715 , 0.0 , 0.0 , 0.0 , 0.0 , 

20.0 , 4106.15384615 , 4137.43589744 , 4137.43589744 , 4126.66666667 , 4132.30769231 , 4135.38461538 , 4131.28205128 , 4131.28205128 , 4134.35897436 , 4134.87179487 , 4138.46153846 , 4120.0 , 4140.51282051 , 4129.74358974 , 2042.0 , 2038.0 , 280.721 , 0.0 , 0.0 , 0.0 , 0.0 , 

21.0 , 4112.30769231 , 4135.8974359 , 4138.46153846 , 4126.66666667 , 4132.30769231 , 4134.87179487 , 4129.23076923 , 4134.35897436 , 4134.35897436 , 4134.87179487 , 4137.94871795 , 4121.02564103 , 4138.97435897 , 4130.25641026 , 2042.0 , 2038.0 , 280.73 , 0.0 , 0.0 , 0.0 , 0.0 , 

22.0 , 4109.23076923 , 4130.25641026 , 4138.46153846 , 4126.15384615 , 4132.82051282 , 4133.33333333 , 4129.23076923 , 4133.33333333 , 4134.35897436 , 4134.87179487 , 4136.92307692 , 4121.02564103 , 4132.82051282 , 4125.64102564 , 2040.0 , 2035.0 , 280.737 , 0.0 , 0.0 , 0.0 , 0.0 , 

23.0 , 4107.17948718 , 4129.23076923 , 4138.46153846 , 4129.23076923 , 4133.33333333 , 4130.76923077 , 4131.79487179 , 4131.28205128 , 4134.35897436 , 4134.87179487 , 4138.46153846 , 4118.46153846 , 4132.30769231 , 4126.15384615 , 2041.0 , 2035.0 , 280.746 , 0.0 , 0.0 , 0.0 , 0.0 , 

24.0 , 4121.53846154 , 4133.84615385 , 4140.51282051 , 4133.33333333 , 4132.82051282 , 4129.74358974 , 4133.33333333 , 4135.8974359 , 4134.35897436 , 4134.87179487 , 4145.64102564 , 4120.0 , 4145.64102564 , 4139.48717949 , 2041.0 , 2035.0 , 280.753 , 0.0 , 0.0 , 0.0 , 0.0 , 

25.0 , 4140.0 , 4139.48717949 , 4140.51282051 , 4133.84615385 , 4132.82051282 , 4129.23076923 , 4133.33333333 , 4136.41025641 , 4134.35897436 , 4134.87179487 , 4148.71794872 , 4124.61538462 , 4164.1025641 , 4149.23076923 , 2042.0 , 2034.0 , 280.762 , 0.0 , 0.0 , 0.0 , 0.0 , 

26.0 , 4144.61538462 , 4134.35897436 , 4135.8974359 , 4128.20512821 , 4135.8974359 , 4129.74358974 , 4135.38461538 , 4134.35897436 , 4134.35897436 , 4134.87179487 , 4145.64102564 , 4124.1025641 , 4168.20512821 , 4153.33333333 , 2043.0 , 2034.0 , 280.768 , 0.0 , 0.0 , 0.0 , 0.0 , 

27.0 , 4156.92307692 , 4133.33333333 , 4137.94871795 , 4132.82051282 , 4137.43589744 , 4128.71794872 , 4136.41025641 , 4136.41025641 , 4134.35897436 , 4135.38461538 , 4146.15384615 , 4125.64102564 , 4177.94871795 , 4181.02564103 , 2043.0 , 2034.0 , 280.777 , 0.0 , 0.0 , 0.0 , 0.0 , 

28.0 , 4175.38461538 , 4139.48717949 , 4141.53846154 , 4137.43589744 , 4135.8974359 , 4128.20512821 , 4135.38461538 , 4136.41025641 , 4133.84615385 , 4135.8974359 , 4146.66666667 , 4128.20512821 , 4194.87179487 , 4207.17948718 , 2043.0 , 2034.0 , 280.784 , 0.0 , 0.0 , 0.0 , 0.0 , 

29.0 , 4183.07692308 , 4141.02564103 , 4139.48717949 , 4136.41025641 , 4134.35897436 , 4127.69230769 , 4136.41025641 , 4131.28205128 , 4134.87179487 , 4135.8974359 , 4148.71794872 , 4129.23076923 , 4201.02564103 , 4201.02564103 , 2043.0 , 2032.0 , 280.792 , 0.0 , 0.0 , 0.0 , 0.0 , 

30.0 , 4181.02564103 , 4137.94871795 , 4138.97435897 , 4135.38461538 , 4134.87179487 , 4127.17948718 , 4136.41025641 , 4131.79487179 , 4136.41025641 , 4135.8974359 , 4148.20512821 , 4128.71794872 , 4195.38461538 , 4188.20512821 , 2043.0 , 2032.0 , 280.801 , 0.0 , 0.0 , 0.0 , 0.0 , 

31.0 , 4174.35897436 , 4136.92307692 , 4141.53846154 , 4138.46153846 , 4132.82051282 , 4127.69230769 , 4138.46153846 , 4137.43589744 , 4135.8974359 , 4135.8974359 , 4146.15384615 , 4127.17948718 , 4192.30769231 , 4193.84615385 , 2044.0 , 2033.0 , 280.809 , 0.0 , 0.0 , 0.0 , 0.0 , 

32.0 , 4165.64102564 , 4136.41025641 , 4140.51282051 , 4136.92307692 , 4129.23076923 , 4134.87179487 , 4138.46153846 , 4134.87179487 , 4134.87179487 , 4135.8974359 , 4145.64102564 , 4127.17948718 , 4193.84615385 , 4195.8974359 , 2043.0 , 2032.0 , 280.816 , 0.0 , 0.0 , 0.0 , 0.0 , 

33.0 , 4162.05128205 , 4136.92307692 , 4138.97435897 , 4133.33333333 , 4129.23076923 , 4138.97435897 , 4136.41025641 , 4129.23076923 , 4135.38461538 , 4135.8974359 , 4141.53846154 , 4127.69230769 , 4190.76923077 , 4180.51282051 , 2045.0 , 2032.0 , 280.828 , 0.0 , 0.0 , 0.0 , 0.0 , 

34.0 , 4151.79487179 , 4132.30769231 , 4139.48717949 , 4129.74358974 , 4132.30769231 , 4135.38461538 , 4133.33333333 , 4131.28205128 , 4135.38461538 , 4135.8974359 , 4135.8974359 , 4124.61538462 , 4176.92307692 , 4163.07692308 , 2047.0 , 2035.0 , 280.831 , 0.0 , 0.0 , 0.0 , 0.0 , 

35.0 , 4139.48717949 , 4123.58974359 , 4137.43589744 , 4127.69230769 , 4133.84615385 , 4130.25641026 , 4132.82051282 , 4134.87179487 , 4133.84615385 , 4135.8974359 , 4137.43589744 , 4120.51282051 , 4167.69230769 , 4158.97435897 , 2046.0 , 2036.0 , 280.839 , 0.0 , 0.0 , 0.0 , 0.0 , 

36.0 , 4143.07692308 , 4124.61538462 , 4136.92307692 , 4130.25641026 , 4132.30769231 , 4129.23076923 , 4132.82051282 , 4133.33333333 , 4134.35897436 , 4135.8974359 , 4141.53846154 , 4124.1025641 , 4173.84615385 , 4162.05128205 , 2047.0 , 2040.0 , 280.847 , 0.0 , 0.0 , 0.0 , 0.0 , 

37.0 , 4146.15384615 , 4127.17948718 , 4138.97435897 , 4134.87179487 , 4135.38461538 , 4130.76923077 , 4131.28205128 , 4130.76923077 , 4134.35897436 , 4135.8974359 , 4143.07692308 , 4128.20512821 , 4173.84615385 , 4164.1025641 , 2048.0 , 2039.0 , 280.855 , 0.0 , 0.0 , 0.0 , 0.0 , 

38.0 , 4141.02564103 , 4124.1025641 , 4139.48717949 , 4132.82051282 , 4135.38461538 , 4130.76923077 , 4131.28205128 , 4132.82051282 , 4134.35897436 , 4135.8974359 , 4144.1025641 , 4126.15384615 , 4166.66666667 , 4162.05128205 , 2047.0 , 2038.0 , 280.864 , 0.0 , 0.0 , 0.0 , 0.0 , 

39.0 , 4137.43589744 , 4121.53846154 , 4138.97435897 , 4127.17948718 , 4130.76923077 , 4128.71794872 , 4130.76923077 , 4136.92307692 , 4134.35897436 , 4135.8974359 , 4141.53846154 , 4126.15384615 , 4163.07692308 , 4153.33333333 , 2045.0 , 2036.0 , 280.871 , 0.0 , 0.0 , 0.0 , 0.0 , 

40.0 , 4140.0 , 4125.64102564 , 4138.46153846 , 4129.74358974 , 4132.82051282 , 4129.74358974 , 4131.79487179 , 4133.33333333 , 4134.35897436 , 4135.8974359 , 4136.92307692 , 4127.17948718 , 4163.07692308 , 4154.35897436 , 2045.0 , 2035.0 , 280.88 , 0.0 , 0.0 , 0.0 , 0.0 , 

41.0 , 4136.41025641 , 4125.64102564 , 4137.94871795 , 4136.41025641 , 4136.92307692 , 4135.8974359 , 4132.82051282 , 4130.76923077 , 4134.35897436 , 4135.8974359 , 4135.38461538 , 4127.17948718 , 4161.53846154 , 4161.02564103 , 2044.0 , 2034.0 , 280.887 , 0.0 , 0.0 , 0.0 , 0.0 , 

42.0 , 4136.92307692 , 4126.15384615 , 4138.46153846 , 4137.94871795 , 4133.84615385 , 4133.84615385 , 4134.35897436 , 4134.87179487 , 4134.35897436 , 4135.8974359 , 4135.38461538 , 4123.58974359 , 4167.17948718 , 4163.58974359 , 2043.0 , 2034.0 , 280.895 , 0.0 , 0.0 , 0.0 , 0.0 , 

43.0 , 4137.43589744 , 4126.66666667 , 4138.46153846 , 4133.33333333 , 4133.84615385 , 4128.20512821 , 4134.35897436 , 4133.84615385 , 4134.35897436 , 4135.8974359 , 4135.8974359 , 4121.53846154 , 4168.20512821 , 4156.41025641 , 2042.0 , 2032.0 , 280.903 , 0.0 , 0.0 , 0.0 , 0.0 , 

44.0 , 4134.35897436 , 4127.69230769 , 4137.43589744 , 4131.28205128 , 4134.87179487 , 4131.28205128 , 4132.30769231 , 4129.74358974 , 4134.35897436 , 4135.8974359 , 4138.97435897 , 4122.56410256 , 4164.61538462 , 4154.35897436 , 2042.0 , 2031.0 , 280.912 , 0.0 , 0.0 , 0.0 , 0.0 , 

45.0 , 4132.82051282 , 4129.23076923 , 4137.43589744 , 4130.25641026 , 4131.79487179 , 4131.28205128 , 4133.84615385 , 4133.84615385 , 4134.35897436 , 4135.8974359 , 4142.05128205 , 4123.07692308 , 4163.58974359 , 4154.87179487 , 2042.0 , 2030.0 , 280.918 , 0.0 , 0.0 , 0.0 , 0.0 , 

46.0 , 4136.92307692 , 4126.66666667 , 4137.94871795 , 4128.71794872 , 4130.76923077 , 4128.71794872 , 4133.33333333 , 4138.46153846 , 4134.35897436 , 4135.8974359 , 4143.07692308 , 4120.51282051 , 4166.66666667 , 4160.0 , 2042.0 , 2030.0 , 280.927 , 0.0 , 0.0 , 0.0 , 0.0 , 

47.0 , 4134.35897436 , 4117.94871795 , 4137.94871795 , 4124.61538462 , 4130.25641026 , 4134.87179487 , 4131.28205128 , 4135.8974359 , 4134.35897436 , 4135.8974359 , 4143.07692308 , 4122.56410256 , 4163.07692308 , 4160.51282051 , 2040.0 , 2028.0 , 280.934 , 0.0 , 0.0 , 0.0 , 0.0 , 

48.0 , 4130.76923077 , 4121.02564103 , 4137.43589744 , 4121.53846154 , 4128.20512821 , 4136.41025641 , 4134.87179487 , 4133.33333333 , 4134.35897436 , 4135.8974359 , 4144.61538462 , 4125.12820513 , 4163.07692308 , 4155.38461538 , 2042.0 , 2028.0 , 280.942 , 0.0 , 0.0 , 0.0 , 0.0 , 

49.0 , 4130.76923077 , 4125.64102564 , 4137.94871795 , 4119.48717949 , 4132.82051282 , 4132.30769231 , 4137.43589744 , 4135.38461538 , 4134.35897436 , 4135.8974359 , 4143.07692308 , 4121.02564103 , 4164.61538462 , 4155.38461538 , 2041.0 , 2030.0 , 280.95 , 0.0 , 0.0 , 0.0 , 0.0 , 

50.0 , 4130.25641026 , 4120.51282051 , 4137.94871795 , 4120.51282051 , 4137.43589744 , 4131.79487179 , 4134.87179487 , 4137.43589744 , 4134.35897436 , 4135.8974359 , 4142.05128205 , 4119.48717949 , 4160.0 , 4154.35897436 , 2043.0 , 2031.0 , 280.958 , 0.0 , 0.0 , 0.0 , 0.0 , 

51.0 , 4127.69230769 , 4121.53846154 , 4137.94871795 , 4123.07692308 , 4134.35897436 , 4132.30769231 , 4133.33333333 , 4134.87179487 , 4134.35897436 , 4135.8974359 , 4143.07692308 , 4123.07692308 , 4155.38461538 , 4147.69230769 , 2043.0 , 2031.0 , 280.965 , 0.0 , 0.0 , 0.0 , 0.0 , 

52.0 , 4131.28205128 , 4129.74358974 , 4137.94871795 , 4124.61538462 , 4131.79487179 , 4130.25641026 , 4134.35897436 , 4131.79487179 , 4134.35897436 , 4135.8974359 , 4142.56410256 , 4124.1025641 , 4155.38461538 , 4150.76923077 , 2043.0 , 2034.0 , 280.973 , 0.0 , 0.0 , 0.0 , 0.0 , 

53.0 , 4133.84615385 , 4128.71794872 , 4138.97435897 , 4124.1025641 , 4130.25641026 , 4130.76923077 , 4134.87179487 , 4133.33333333 , 4134.35897436 , 4135.8974359 , 4142.05128205 , 4120.51282051 , 4152.30769231 , 4153.33333333 , 2045.0 , 2034.0 , 280.982 , 0.0 , 0.0 , 0.0 , 0.0 , 

54.0 , 4126.66666667 , 4125.12820513 , 4139.48717949 , 4128.20512821 , 4129.74358974 , 4132.82051282 , 4135.8974359 , 4134.35897436 , 4134.35897436 , 4135.8974359 , 4143.07692308 , 4121.02564103 , 4145.12820513 , 4143.07692308 , 2044.0 , 2035.0 , 280.989 , 0.0 , 0.0 , 0.0 , 0.0 , 

55.0 , 4118.97435897 , 4127.17948718 , 4136.92307692 , 4133.84615385 , 4130.76923077 , 4131.79487179 , 4135.8974359 , 4131.79487179 , 4134.35897436 , 4135.8974359 , 4141.02564103 , 4123.07692308 , 4144.61538462 , 4140.0 , 2043.0 , 2038.0 , 280.998 , 0.0 , 0.0 , 0.0 , 0.0 , 

56.0 , 4121.02564103 , 4128.71794872 , 4136.41025641 , 4134.87179487 , 4131.28205128 , 4129.74358974 , 4134.87179487 , 4131.79487179 , 4134.35897436 , 4135.8974359 , 4137.43589744 , 4121.02564103 , 4149.74358974 , 4148.20512821 , 2043.0 , 2039.0 , 281.005 , 0.0 , 0.0 , 0.0 , 0.0 , 

57.0 , 4129.74358974 , 4132.82051282 , 4138.97435897 , 4132.82051282 , 4132.30769231 , 4129.23076923 , 4135.38461538 , 4133.33333333 , 4134.35897436 , 4135.8974359 , 4138.97435897 , 4121.53846154 , 4154.87179487 , 4149.74358974 , 2044.0 , 2040.0 , 281.014 , 0.0 , 0.0 , 0.0 , 0.0 , 

58.0 , 4127.17948718 , 4131.28205128 , 4138.97435897 , 4126.66666667 , 4134.35897436 , 4132.82051282 , 4135.8974359 , 4135.8974359 , 4134.35897436 , 4135.8974359 , 4138.46153846 , 4125.64102564 , 4150.76923077 , 4143.07692308 , 2045.0 , 2038.0 , 281.021 , 0.0 , 0.0 , 0.0 , 0.0 , 

59.0 , 4121.02564103 , 4127.69230769 , 4137.43589744 , 4123.58974359 , 4133.84615385 , 4133.84615385 , 4135.38461538 , 4136.92307692 , 4133.84615385 , 4135.8974359 , 4136.41025641 , 4124.61538462 , 4148.20512821 , 4143.58974359 , 2043.0 , 2035.0 , 281.029 , 0.0 , 0.0 , 0.0 , 0.0 , 

60.0 , 4120.51282051 , 4127.69230769 , 4137.43589744 , 4128.20512821 , 4133.33333333 , 4130.76923077 , 4133.33333333 , 4134.35897436 , 4134.35897436 , 4135.8974359 , 4135.8974359 , 4121.53846154 , 4146.66666667 , 4143.58974359 , 2043.0 , 2035.0 , 281.036 , 0.0 , 0.0 , 0.0 , 0.0 , 

61.0 , 4123.58974359 , 4129.74358974 , 4137.43589744 , 4130.25641026 , 4133.84615385 , 4131.28205128 , 4133.33333333 , 4132.30769231 , 4134.35897436 , 4135.8974359 , 4135.8974359 , 4122.56410256 , 4146.66666667 , 4143.58974359 , 2043.0 , 2033.0 , 281.044 , 0.0 , 0.0 , 0.0 , 0.0 , 

62.0 , 4123.07692308 , 4126.66666667 , 4136.41025641 , 4126.15384615 , 4133.33333333 , 4131.79487179 , 4134.87179487 , 4131.79487179 , 4133.84615385 , 4135.8974359 , 4134.87179487 , 4123.58974359 , 4146.15384615 , 4140.51282051 , 2044.0 , 2032.0 , 281.052 , 0.0 , 0.0 , 0.0 , 0.0 , 

63.0 , 4126.66666667 , 4125.12820513 , 4136.92307692 , 4129.23076923 , 4131.28205128 , 4129.23076923 , 4134.35897436 , 4132.30769231 , 4135.38461538 , 4135.8974359 , 4132.30769231 , 4121.53846154 , 4148.71794872 , 4140.51282051 , 2043.0 , 2031.0 , 281.06 , 0.0 , 0.0 , 0.0 , 0.0 , 

64.0 , 4125.64102564 , 4123.07692308 , 4137.43589744 , 4131.28205128 , 4132.30769231 , 4129.74358974 , 4134.87179487 , 4132.82051282 , 4137.43589744 , 4135.8974359 , 4133.84615385 , 4121.53846154 , 4145.64102564 , 4140.51282051 , 2043.0 , 2030.0 , 281.068 , 0.0 , 0.0 , 0.0 , 0.0 , 

65.0 , 4123.07692308 , 4123.58974359 , 4136.92307692 , 4127.17948718 , 4134.87179487 , 4131.79487179 , 4135.8974359 , 4131.79487179 , 4136.92307692 , 4135.8974359 , 4141.02564103 , 4122.05128205 , 4145.12820513 , 4140.51282051 , 2043.0 , 2031.0 , 281.076 , 0.0 , 0.0 , 0.0 , 0.0 , 

66.0 , 4121.02564103 , 4123.58974359 , 4136.41025641 , 4125.12820513 , 4131.79487179 , 4129.23076923 , 4134.35897436 , 4132.82051282 , 4135.8974359 , 4135.8974359 , 4144.1025641 , 4122.05128205 , 4145.64102564 , 4137.94871795 , 2043.0 , 2030.0 , 281.084 , 0.0 , 0.0 , 0.0 , 0.0 , 

67.0 , 4121.02564103 , 4119.48717949 , 4137.43589744 , 4126.66666667 , 4128.20512821 , 4127.69230769 , 4133.84615385 , 4135.8974359 , 4135.8974359 , 4135.8974359 , 4141.53846154 , 4123.07692308 , 4143.07692308 , 4133.84615385 , 2043.0 , 2031.0 , 281.092 , 0.0 , 0.0 , 0.0 , 0.0 , 

68.0 , 4123.58974359 , 4118.46153846 , 4138.97435897 , 4125.64102564 , 4134.35897436 , 4128.71794872 , 4134.35897436 , 4134.87179487 , 4136.41025641 , 4135.8974359 , 4137.94871795 , 4123.07692308 , 4142.56410256 , 4136.92307692 , 2043.0 , 2030.0 , 281.099 , 0.0 , 0.0 , 0.0 , 0.0 , 

69.0 , 4125.64102564 , 4123.58974359 , 4138.97435897 , 4125.64102564 , 4138.97435897 , 4128.71794872 , 4133.33333333 , 4131.28205128 , 4135.8974359 , 4135.8974359 , 4140.0 , 4122.56410256 , 4146.15384615 , 4146.66666667 , 2042.0 , 2030.0 , 281.108 , 0.0 , 0.0 , 0.0 , 0.0 , 

70.0 , 4121.53846154 , 4124.61538462 , 4138.46153846 , 4125.64102564 , 4134.87179487 , 4131.79487179 , 4133.84615385 , 4133.33333333 , 4135.8974359 , 4135.8974359 , 4143.58974359 , 4124.1025641 , 4149.23076923 , 4146.15384615 , 2042.0 , 2030.0 , 281.115 , 0.0 , 0.0 , 0.0 , 0.0 , 

71.0 , 4122.56410256 , 4123.07692308 , 4138.97435897 , 4124.1025641 , 4132.82051282 , 4133.33333333 , 4135.8974359 , 4135.38461538 , 4135.8974359 , 4135.8974359 , 4142.56410256 , 4123.58974359 , 4147.69230769 , 4134.35897436 , 2042.0 , 2029.0 , 281.123 , 0.0 , 0.0 , 0.0 , 0.0 , 

72.0 , 4129.23076923 , 4128.71794872 , 4140.51282051 , 4128.20512821 , 4134.87179487 , 4129.23076923 , 4135.8974359 , 4132.82051282 , 4134.87179487 , 4135.8974359 , 4138.46153846 , 4122.56410256 , 4149.23076923 , 4134.87179487 , 2044.0 , 2030.0 , 281.132 , 0.0 , 0.0 , 0.0 , 0.0 , 

73.0 , 4130.76923077 , 4136.41025641 , 4140.0 , 4134.87179487 , 4133.33333333 , 4128.71794872 , 4136.92307692 , 4132.82051282 , 4133.84615385 , 4135.8974359 , 4140.0 , 4124.61538462 , 4156.41025641 , 4147.17948718 , 2042.0 , 2030.0 , 281.139 , 0.0 , 0.0 , 0.0 , 0.0 , 

74.0 , 4131.79487179 , 4136.92307692 , 4137.94871795 , 4135.38461538 , 4132.82051282 , 4132.82051282 , 4137.94871795 , 4133.33333333 , 4134.35897436 , 4135.8974359 , 4144.61538462 , 4125.12820513 , 4160.0 , 4150.76923077 , 2043.0 , 2030.0 , 281.147 , 0.0 , 0.0 , 0.0 , 0.0 , 

75.0 , 4126.66666667 , 4129.23076923 , 4137.43589744 , 4130.25641026 , 4134.87179487 , 4130.76923077 , 4134.87179487 , 4133.84615385 , 4135.38461538 , 4135.8974359 , 4139.48717949 , 4121.02564103 , 4146.15384615 , 4137.94871795 , 2044.0 , 2034.0 , 281.155 , 0.0 , 0.0 , 0.0 , 0.0 , 

76.0 , 4118.97435897 , 4126.66666667 , 4137.94871795 , 4126.66666667 , 4133.84615385 , 4130.25641026 , 4132.30769231 , 4133.33333333 , 4134.87179487 , 4135.8974359 , 4136.41025641 , 4122.05128205 , 4138.46153846 , 4131.28205128 , 2044.0 , 2034.0 , 281.163 , 0.0 , 0.0 , 0.0 , 0.0 , 

77.0 , 4120.0 , 4129.23076923 , 4137.43589744 , 4124.61538462 , 4132.82051282 , 4133.84615385 , 4131.28205128 , 4133.33333333 , 4134.35897436 , 4135.8974359 , 4138.46153846 , 4125.12820513 , 4147.17948718 , 4137.43589744 , 2044.0 , 2034.0 , 281.171 , 0.0 , 0.0 , 0.0 , 0.0 , 

78.0 , 4125.12820513 , 4131.28205128 , 4137.94871795 , 4124.1025641 , 4131.79487179 , 4134.35897436 , 4131.79487179 , 4132.82051282 , 4134.35897436 , 4135.8974359 , 4137.94871795 , 4124.61538462 , 4151.79487179 , 4140.0 , 2046.0 , 2033.0 , 281.18 , 0.0 , 0.0 , 0.0 , 0.0 , 

79.0 , 4118.97435897 , 4125.12820513 , 4137.94871795 , 4126.15384615 , 4131.28205128 , 4135.38461538 , 4131.79487179 , 4131.79487179 , 4134.87179487 , 4135.8974359 , 4135.38461538 , 4124.1025641 , 4140.0 , 4135.38461538 , 2046.0 , 2034.0 , 281.186 , 0.0 , 0.0 , 0.0 , 0.0 , 

80.0 , 4115.8974359 , 4123.58974359 , 4136.41025641 , 4130.25641026 , 4130.25641026 , 4134.87179487 , 4128.71794872 , 4131.28205128 , 4134.35897436 , 4135.8974359 , 4135.38461538 , 4124.1025641 , 4137.94871795 , 4138.46153846 , 2045.0 , 2032.0 , 281.194 , 0.0 , 0.0 , 0.0 , 0.0 , 

81.0 , 4120.0 , 4123.07692308 , 4135.8974359 , 4126.66666667 , 4130.25641026 , 4130.25641026 , 4130.25641026 , 4133.33333333 , 4134.35897436 , 4135.8974359 , 4136.41025641 , 4123.07692308 , 4142.56410256 , 4135.38461538 , 2044.0 , 2033.0 , 281.202 , 0.0 , 0.0 , 0.0 , 0.0 , 

82.0 , 4123.58974359 , 4127.17948718 , 4135.8974359 , 4124.1025641 , 4132.82051282 , 4129.74358974 , 4137.43589744 , 4134.87179487 , 4134.87179487 , 4135.8974359 , 4142.56410256 , 4123.58974359 , 4145.64102564 , 4132.82051282 , 2044.0 , 2031.0 , 281.21 , 0.0 , 0.0 , 0.0 , 0.0 , 

83.0 , 4125.12820513 , 4133.33333333 , 4134.87179487 , 4127.17948718 , 4134.87179487 , 4133.33333333 , 4137.94871795 , 4133.84615385 , 4135.8974359 , 4135.8974359 , 4144.1025641 , 4123.07692308 , 4145.64102564 , 4138.97435897 , 2044.0 , 2030.0 , 281.218 , 0.0 , 0.0 , 0.0 , 0.0 , 

84.0 , 4127.17948718 , 4131.79487179 , 4135.38461538 , 4127.17948718 , 4134.87179487 , 4130.25641026 , 4130.25641026 , 4133.84615385 , 4135.8974359 , 4135.8974359 , 4140.0 , 4121.53846154 , 4144.61538462 , 4138.97435897 , 2043.0 , 2031.0 , 281.225 , 0.0 , 0.0 , 0.0 , 0.0 , 

85.0 , 4124.61538462 , 4125.64102564 , 4138.46153846 , 4123.58974359 , 4133.33333333 , 4128.20512821 , 4130.25641026 , 4134.87179487 , 4135.8974359 , 4135.8974359 , 4140.51282051 , 4123.58974359 , 4143.58974359 , 4132.30769231 , 2044.0 , 2032.0 , 281.232 , 0.0 , 0.0 , 0.0 , 0.0 , 

86.0 , 4123.07692308 , 4125.12820513 , 4138.46153846 , 4126.66666667 , 4132.30769231 , 4131.79487179 , 4137.43589744 , 4132.82051282 , 4135.8974359 , 4135.8974359 , 4143.07692308 , 4125.12820513 , 4145.64102564 , 4139.48717949 , 2044.0 , 2032.0 , 281.241 , 0.0 , 0.0 , 0.0 , 0.0 , 

87.0 , 4119.48717949 , 4117.94871795 , 4137.94871795 , 4125.12820513 , 4133.33333333 , 4129.74358974 , 4139.48717949 , 4128.20512821 , 4135.8974359 , 4135.8974359 , 4138.97435897 , 4122.05128205 , 4137.43589744 , 4143.07692308 , 2043.0 , 2033.0 , 281.248 , 0.0 , 0.0 , 0.0 , 0.0 , 

88.0 , 4114.87179487 , 4110.25641026 , 4138.46153846 , 4120.51282051 , 4133.84615385 , 4128.20512821 , 4136.92307692 , 4126.66666667 , 4135.8974359 , 4135.8974359 , 4138.46153846 , 4122.05128205 , 4131.28205128 , 4134.35897436 , 2042.0 , 2035.0 , 281.258 , 0.0 , 0.0 , 0.0 , 0.0 , 

89.0 , 4118.46153846 , 4116.92307692 , 4138.46153846 , 4123.58974359 , 4130.76923077 , 4131.79487179 , 4134.87179487 , 4132.82051282 , 4135.8974359 , 4135.8974359 , 4140.51282051 , 4124.1025641 , 4139.48717949 , 4132.30769231 , 2043.0 , 2035.0 , 281.265 , 0.0 , 0.0 , 0.0 , 0.0 , 

90.0 , 4124.61538462 , 4123.07692308 , 4137.94871795 , 4127.69230769 , 4129.74358974 , 4132.82051282 , 4136.41025641 , 4136.41025641 , 4135.8974359 , 4135.8974359 , 4140.51282051 , 4122.56410256 , 4142.05128205 , 4132.82051282 , 2042.0 , 2036.0 , 281.273 , 0.0 , 0.0 , 0.0 , 0.0 , 

91.0 , 4123.07692308 , 4114.35897436 , 4136.92307692 , 4126.15384615 , 4133.84615385 , 4129.23076923 , 4136.41025641 , 4132.30769231 , 4135.8974359 , 4135.8974359 , 4140.51282051 , 4118.46153846 , 4134.35897436 , 4129.74358974 , 2043.0 , 2036.0 , 281.281 , 0.0 , 0.0 , 0.0 , 0.0 , 

92.0 , 4114.35897436 , 4105.64102564 , 4135.8974359 , 4125.12820513 , 4135.8974359 , 4127.17948718 , 4134.35897436 , 4131.28205128 , 4135.8974359 , 4135.8974359 , 4138.46153846 , 4116.41025641 , 4125.12820513 , 4129.23076923 , 2043.0 , 2038.0 , 281.287 , 0.0 , 0.0 , 0.0 , 0.0 , 

93.0 , 4112.82051282 , 4110.25641026 , 4135.8974359 , 4125.12820513 , 4130.76923077 , 4128.71794872 , 4132.30769231 , 4135.38461538 , 4135.8974359 , 4135.8974359 , 4137.43589744 , 4119.48717949 , 4126.66666667 , 4131.28205128 , 2042.0 , 2037.0 , 281.297 , 0.0 , 0.0 , 0.0 , 0.0 , 

94.0 , 4118.46153846 , 4114.87179487 , 4137.94871795 , 4124.1025641 , 4127.17948718 , 4130.25641026 , 4129.74358974 , 4136.41025641 , 4135.8974359 , 4135.8974359 , 4138.97435897 , 4123.58974359 , 4130.25641026 , 4129.74358974 , 2044.0 , 2038.0 , 281.304 , 0.0 , 0.0 , 0.0 , 0.0 , 

95.0 , 4122.05128205 , 4118.46153846 , 4139.48717949 , 4124.61538462 , 4131.28205128 , 4131.79487179 , 4132.30769231 , 4132.82051282 , 4135.8974359 , 4135.8974359 , 4140.51282051 , 4121.53846154 , 4130.25641026 , 4129.74358974 , 2044.0 , 2039.0 , 281.313 , 0.0 , 0.0 , 0.0 , 0.0 , 

96.0 , 4113.84615385 , 4121.02564103 , 4137.94871795 , 4124.1025641 , 4134.87179487 , 4132.30769231 , 4142.05128205 , 4131.79487179 , 4135.8974359 , 4135.8974359 , 4136.92307692 , 4118.97435897 , 4126.15384615 , 4129.74358974 , 2043.0 , 2039.0 , 281.32 , 0.0 , 0.0 , 0.0 , 0.0 , 

97.0 , 4115.38461538 , 4124.61538462 , 4137.43589744 , 4126.15384615 , 4132.30769231 , 4129.74358974 , 4144.61538462 , 4132.82051282 , 4135.8974359 , 4135.8974359 , 4134.87179487 , 4121.53846154 , 4130.25641026 , 4133.84615385 , 2044.0 , 2038.0 , 281.328 , 0.0 , 0.0 , 0.0 , 0.0 , 

98.0 , 4119.48717949 , 4122.56410256 , 4137.94871795 , 4128.20512821 , 4127.69230769 , 4131.28205128 , 4138.46153846 , 4134.87179487 , 4135.8974359 , 4135.8974359 , 4135.8974359 , 4122.56410256 , 4129.74358974 , 4136.41025641 , 2046.0 , 2037.0 , 281.336 , 0.0 , 0.0 , 0.0 , 0.0 , 

99.0 , 4119.48717949 , 4121.02564103 , 4137.94871795 , 4129.74358974 , 4131.28205128 , 4130.76923077 , 4135.8974359 , 4134.87179487 , 4135.8974359 , 4135.8974359 , 4138.46153846 , 4122.56410256 , 4131.28205128 , 4133.84615385 , 2043.0 , 2037.0 , 281.344 , 0.0 , 0.0 , 0.0 , 0.0 , 

100.0 , 4121.02564103 , 4123.07692308 , 4138.46153846 , 4130.25641026 , 4138.97435897 , 4127.17948718 , 4137.94871795 , 4128.20512821 , 4135.8974359 , 4135.8974359 , 4137.43589744 , 4126.15384615 , 4132.82051282 , 4131.28205128 , 2042.0 , 2035.0 , 281.351 , 0.0 , 0.0 , 0.0 , 0.0 , 

101.0 , 4120.51282051 , 4126.15384615 , 4137.94871795 , 4126.66666667 , 4136.41025641 , 4128.71794872 , 4136.92307692 , 4126.66666667 , 4135.8974359 , 4135.8974359 , 4133.33333333 , 4125.12820513 , 4124.1025641 , 4134.35897436 , 2042.0 , 2036.0 , 281.359 , 0.0 , 0.0 , 0.0 , 0.0 , 

102.0 , 4113.84615385 , 4118.97435897 , 4136.41025641 , 4120.51282051 , 4129.23076923 , 4132.30769231 , 4137.43589744 , 4130.25641026 , 4135.8974359 , 4135.8974359 , 4134.35897436 , 4121.02564103 , 4111.28205128 , 4135.8974359 , 2042.0 , 2035.0 , 281.367 , 0.0 , 0.0 , 0.0 , 0.0 , 

103.0 , 4116.41025641 , 4113.33333333 , 4137.94871795 , 4123.58974359 , 4129.23076923 , 4130.25641026 , 4138.97435897 , 4131.28205128 , 4135.8974359 , 4135.8974359 , 4140.0 , 4122.56410256 , 4112.30769231 , 4133.84615385 , 2042.0 , 2037.0 , 281.375 , 0.0 , 0.0 , 0.0 , 0.0 , 

104.0 , 4122.56410256 , 4117.94871795 , 4137.94871795 , 4127.69230769 , 4135.8974359 , 4131.28205128 , 4135.38461538 , 4128.20512821 , 4135.8974359 , 4135.8974359 , 4139.48717949 , 4123.07692308 , 4117.94871795 , 4127.17948718 , 2042.0 , 2037.0 , 281.382 , 0.0 , 0.0 , 0.0 , 0.0 , 

105.0 , 4126.66666667 , 4124.61538462 , 4136.41025641 , 4124.61538462 , 4135.38461538 , 4132.82051282 , 4134.87179487 , 4130.25641026 , 4135.8974359 , 4135.8974359 , 4138.97435897 , 4122.05128205 , 4121.02564103 , 4127.69230769 , 2043.0 , 2036.0 , 281.392 , 0.0 , 0.0 , 0.0 , 0.0 , 

106.0 , 4128.20512821 , 4124.61538462 , 4138.46153846 , 4122.56410256 , 4130.25641026 , 4128.71794872 , 4135.8974359 , 4134.35897436 , 4135.8974359 , 4135.8974359 , 4142.05128205 , 4124.1025641 , 4122.05128205 , 4133.84615385 , 2040.0 , 2037.0 , 281.399 , 0.0 , 0.0 , 0.0 , 0.0 , 

107.0 , 4125.12820513 , 4122.05128205 , 4138.97435897 , 4126.15384615 , 4130.76923077 , 4129.74358974 , 4133.84615385 , 4133.33333333 , 4135.8974359 , 4135.8974359 , 4146.15384615 , 4124.1025641 , 4122.05128205 , 4135.38461538 , 2042.0 , 2036.0 , 281.407 , 0.0 , 0.0 , 0.0 , 0.0 , 

108.0 , 4122.56410256 , 4121.53846154 , 4137.43589744 , 4127.17948718 , 4130.25641026 , 4131.28205128 , 4132.30769231 , 4128.71794872 , 4135.8974359 , 4135.8974359 , 4146.15384615 , 4122.56410256 , 4123.07692308 , 4133.84615385 , 2041.0 , 2035.0 , 281.414 , 0.0 , 0.0 , 0.0 , 0.0 , 

109.0 , 4127.17948718 , 4122.05128205 , 4140.51282051 , 4127.69230769 , 4129.23076923 , 4128.20512821 , 4133.84615385 , 4128.20512821 , 4135.8974359 , 4135.8974359 , 4144.1025641 , 4122.56410256 , 4122.05128205 , 4134.35897436 , 2041.0 , 2036.0 , 281.422 , 0.0 , 0.0 , 0.0 , 0.0 , 

110.0 , 4128.71794872 , 4127.17948718 , 4142.05128205 , 4127.69230769 , 4130.25641026 , 4128.20512821 , 4135.38461538 , 4131.79487179 , 4135.8974359 , 4135.8974359 , 4144.61538462 , 4123.58974359 , 4120.51282051 , 4134.35897436 , 2042.0 , 2036.0 , 281.43 , 0.0 , 0.0 , 0.0 , 0.0 , 

111.0 , 4121.02564103 , 4126.66666667 , 4137.94871795 , 4123.58974359 , 4129.23076923 , 4128.20512821 , 4131.79487179 , 4130.76923077 , 4135.8974359 , 4135.8974359 , 4148.20512821 , 4125.12820513 , 4120.0 , 4132.82051282 , 2043.0 , 2034.0 , 281.437 , 0.0 , 0.0 , 0.0 , 0.0 , 

112.0 , 4118.46153846 , 4122.56410256 , 4135.8974359 , 4123.58974359 , 4131.79487179 , 4128.20512821 , 4131.79487179 , 4130.25641026 , 4135.8974359 , 4135.8974359 , 4144.61538462 , 4124.61538462 , 4118.97435897 , 4134.35897436 , 2042.0 , 2033.0 , 281.446 , 0.0 , 0.0 , 0.0 , 0.0 , 

113.0 , 4117.43589744 , 4115.8974359 , 4137.43589744 , 4129.23076923 , 4138.97435897 , 4132.82051282 , 4137.94871795 , 4136.41025641 , 4135.8974359 , 4135.8974359 , 4138.97435897 , 4119.48717949 , 4111.79487179 , 4126.66666667 , 2044.0 , 2032.0 , 281.453 , 0.0 , 0.0 , 0.0 , 0.0 , 

114.0 , 4116.92307692 , 4114.87179487 , 4137.94871795 , 4133.84615385 , 4136.92307692 , 4131.28205128 , 4140.0 , 4134.35897436 , 4135.8974359 , 4135.8974359 , 4143.07692308 , 4117.43589744 , 4112.82051282 , 4121.53846154 , 2043.0 , 2031.0 , 281.463 , 0.0 , 0.0 , 0.0 , 0.0 , 

115.0 , 4118.46153846 , 4118.97435897 , 4137.43589744 , 4130.25641026 , 4129.74358974 , 4126.66666667 , 4135.38461538 , 4127.69230769 , 4135.8974359 , 4135.8974359 , 4146.15384615 , 4121.02564103 , 4118.97435897 , 4127.17948718 , 2045.0 , 2033.0 , 281.47 , 0.0 , 0.0 , 0.0 , 0.0 , 

116.0 , 4124.1025641 , 4124.1025641 , 4137.94871795 , 4125.12820513 , 4131.79487179 , 4129.23076923 , 4132.82051282 , 4129.74358974 , 4135.8974359 , 4135.8974359 , 4144.61538462 , 4122.05128205 , 4120.51282051 , 4134.35897436 , 2046.0 , 2033.0 , 281.478 , 0.0 , 0.0 , 0.0 , 0.0 , 

117.0 , 4122.56410256 , 4120.0 , 4137.94871795 , 4123.58974359 , 4136.41025641 , 4132.30769231 , 4137.43589744 , 4133.84615385 , 4135.8974359 , 4135.8974359 , 4144.61538462 , 4121.02564103 , 4114.35897436 , 4129.23076923 , 2047.0 , 2035.0 , 281.486 , 0.0 , 0.0 , 0.0 , 0.0 , 

118.0 , 4118.46153846 , 4117.94871795 , 4135.38461538 , 4127.17948718 , 4132.82051282 , 4130.76923077 , 4139.48717949 , 4133.33333333 , 4136.41025641 , 4135.8974359 , 4144.61538462 , 4120.51282051 , 4115.38461538 , 4128.20512821 , 2046.0 , 2036.0 , 281.494 , 0.0 , 0.0 , 0.0 , 0.0 , 

119.0 , 4118.97435897 , 4119.48717949 , 4134.87179487 , 4127.17948718 , 4131.79487179 , 4133.84615385 , 4138.46153846 , 4134.87179487 , 4134.87179487 , 4135.8974359 , 4141.02564103 , 4121.53846154 , 4117.94871795 , 4132.30769231 , 2044.0 , 2036.0 , 281.501 , 0.0 , 0.0 , 0.0 , 0.0 , 

120.0 , 4125.64102564 , 4122.56410256 , 4137.43589744 , 4127.17948718 , 4135.8974359 , 4135.38461538 , 4139.48717949 , 4135.8974359 , 4134.35897436 , 4135.8974359 , 4143.58974359 , 4124.61538462 , 4117.94871795 , 4131.79487179 , 2043.0 , 2036.0 , 281.509 , 0.0 , 0.0 , 0.0 , 0.0 , 

121.0 , 4125.64102564 , 4120.0 , 4138.97435897 , 4128.71794872 , 4136.41025641 , 4130.76923077 , 4140.0 , 4135.8974359 , 4134.87179487 , 4135.8974359 , 4142.05128205 , 4125.12820513 , 4115.38461538 , 4131.79487179 , 2042.0 , 2033.0 , 281.516 , 0.0 , 0.0 , 0.0 , 0.0 , 

122.0 , 4122.05128205 , 4120.51282051 , 4137.43589744 , 4127.17948718 , 4133.33333333 , 4129.74358974 , 4139.48717949 , 4134.35897436 , 4135.38461538 , 4135.8974359 , 4138.97435897 , 4124.1025641 , 4116.92307692 , 4137.43589744 , 2043.0 , 2033.0 , 281.525 , 0.0 , 0.0 , 0.0 , 0.0 , 

123.0 , 4125.64102564 , 4127.17948718 , 4137.43589744 , 4123.58974359 , 4133.33333333 , 4132.82051282 , 4138.46153846 , 4133.84615385 , 4134.87179487 , 4135.8974359 , 4143.07692308 , 4125.12820513 , 4121.02564103 , 4138.97435897 , 2042.0 , 2034.0 , 281.532 , 0.0 , 0.0 , 0.0 , 0.0 , 

124.0 , 4129.23076923 , 4129.23076923 , 4137.94871795 , 4126.66666667 , 4134.87179487 , 4130.76923077 , 4140.0 , 4133.33333333 , 4135.38461538 , 4135.8974359 , 4141.53846154 , 4125.12820513 , 4124.61538462 , 4137.43589744 , 2042.0 , 2035.0 , 281.542 , 0.0 , 0.0 , 0.0 , 0.0 , 

125.0 , 4123.58974359 , 4124.1025641 , 4138.46153846 , 4130.76923077 , 4130.76923077 , 4128.71794872 , 4141.02564103 , 4130.25641026 , 4136.41025641 , 4135.8974359 , 4134.35897436 , 4125.64102564 , 4122.05128205 , 4143.07692308 , 2041.0 , 2036.0 , 281.548 , 0.0 , 0.0 , 0.0 , 0.0 , 

126.0 , 4120.0 , 4123.58974359 , 4138.97435897 , 4133.33333333 , 4129.23076923 , 4131.28205128 , 4139.48717949 , 4128.71794872 , 4135.8974359 , 4135.8974359 , 4135.38461538 , 4128.20512821 , 4117.43589744 , 4145.12820513 , 2040.0 , 2036.0 , 281.555 , 0.0 , 0.0 , 0.0 , 0.0 , 

127.0 , 4125.12820513 , 4125.64102564 , 4137.94871795 , 4133.33333333 , 4129.74358974 , 4131.28205128 , 4137.43589744 , 4130.76923077 , 4135.8974359 , 4135.8974359 , 4139.48717949 , 4129.23076923 , 4117.94871795 , 4137.43589744 , 2041.0 , 2037.0 , 281.565 , 0.0 , 0.0 , 0.0 , 0.0 , 

128.0 , 4125.64102564 , 4123.58974359 , 4137.94871795 , 4129.74358974 , 4128.20512821 , 4130.25641026 , 4137.43589744 , 4131.79487179 , 4135.8974359 , 4135.8974359 , 4140.0 , 4124.61538462 , 4119.48717949 , 4137.43589744 , 2043.0 , 2036.0 , 281.572 , 0.0 , 0.0 , 0.0 , 0.0 , 

0.0 , 4124.1025641 , 4122.56410256 , 4138.97435897 , 4127.69230769 , 4129.74358974 , 4130.25641026 , 4137.43589744 , 4131.28205128 , 4135.8974359 , 4135.8974359 , 4141.53846154 , 4123.07692308 , 4119.48717949 , 4143.07692308 , 2041.0 , 2035.0 , 281.582 , 0.0 , 0.0 , 0.0 , 0.0 , 

1.0 , 4122.05128205 , 4121.53846154 , 4137.94871795 , 4126.66666667 , 4135.38461538 , 4130.76923077 , 4136.92307692 , 4133.84615385 , 4135.8974359 , 4135.8974359 , 4141.53846154 , 4123.07692308 , 4118.46153846 , 4140.51282051 , 2041.0 , 2034.0 , 281.588 , 0.0 , 0.0 , 0.0 , 0.0 , 

2.0 , 4123.58974359 , 4123.58974359 , 4137.94871795 , 4125.64102564 , 4134.35897436 , 4130.76923077 , 4136.92307692 , 4134.35897436 , 4135.8974359 , 4135.8974359 , 4141.53846154 , 4124.1025641 , 4121.53846154 , 4142.05128205 , 2041.0 , 2033.0 , 281.598 , 0.0 , 0.0 , 0.0 , 0.0 , 

3.0 , 4125.12820513 , 4123.58974359 , 4138.46153846 , 4126.15384615 , 4128.20512821 , 4129.23076923 , 4135.38461538 , 4131.28205128 , 4135.8974359 , 4135.8974359 , 4143.07692308 , 4126.15384615 , 4122.56410256 , 4148.71794872 , 2041.0 , 2034.0 , 281.604 , 0.0 , 0.0 , 0.0 , 0.0 , 

4.0 , 4124.1025641 , 4122.05128205 , 4136.92307692 , 4126.66666667 , 4130.76923077 , 4129.23076923 , 4134.35897436 , 4133.84615385 , 4135.8974359 , 4135.8974359 , 4142.56410256 , 4123.07692308 , 4118.97435897 , 4144.61538462 , 2041.0 , 2034.0 , 281.613 , 0.0 , 0.0 , 0.0 , 0.0 , 

5.0 , 4120.0 , 4120.0 , 4136.92307692 , 4124.1025641 , 4137.43589744 , 4134.35897436 , 4136.92307692 , 4135.8974359 , 4135.8974359 , 4135.8974359 , 4139.48717949 , 4121.02564103 , 4113.33333333 , 4135.38461538 , 2041.0 , 2034.0 , 281.619 , 0.0 , 0.0 , 0.0 , 0.0 , 

6.0 , 4121.53846154 , 4121.53846154 , 4138.46153846 , 4124.1025641 , 4135.38461538 , 4133.33333333 , 4137.43589744 , 4134.87179487 , 4135.8974359 , 4135.8974359 , 4140.0 , 4123.58974359 , 4117.94871795 , 4140.51282051 , 2041.0 , 2032.0 , 281.628 , 0.0 , 0.0 , 0.0 , 0.0 , 

7.0 , 4120.0 , 4118.97435897 , 4137.94871795 , 4123.07692308 , 4132.82051282 , 4128.20512821 , 4135.8974359 , 4135.8974359 , 4134.87179487 , 4135.8974359 , 4139.48717949 , 4124.1025641 , 4118.97435897 , 4140.0 , 2042.0 , 2033.0 , 281.635 , 0.0 , 0.0 , 0.0 , 0.0 , 

8.0 , 4117.94871795 , 4117.43589744 , 4137.43589744 , 4122.05128205 , 4133.84615385 , 4129.23076923 , 4137.94871795 , 4135.8974359 , 4134.35897436 , 4135.8974359 , 4139.48717949 , 4121.53846154 , 4116.41025641 , 4135.38461538 , 2042.0 , 2034.0 , 281.644 , 0.0 , 0.0 , 0.0 , 0.0 , 

9.0 , 4118.97435897 , 4122.56410256 , 4137.94871795 , 4124.1025641 , 4134.87179487 , 4132.82051282 , 4137.94871795 , 4134.35897436 , 4133.84615385 , 4135.8974359 , 4141.02564103 , 4123.07692308 , 4117.94871795 , 4134.35897436 , 2043.0 , 2035.0 , 281.652 , 0.0 , 0.0 , 0.0 , 0.0 , 

10.0 , 4123.07692308 , 4131.28205128 , 4137.94871795 , 4127.17948718 , 4133.84615385 , 4133.33333333 , 4137.43589744 , 4134.35897436 , 4134.35897436 , 4135.8974359 , 4143.07692308 , 4124.61538462 , 4122.56410256 , 4137.43589744 , 2043.0 , 2035.0 , 281.661 , 0.0 , 0.0 , 0.0 , 0.0 , 

11.0 , 4118.46153846 , 4124.61538462 , 4136.92307692 , 4125.12820513 , 4135.38461538 , 4132.30769231 , 4137.94871795 , 4134.87179487 , 4135.8974359 , 4135.8974359 , 4142.05128205 , 4123.07692308 , 4118.97435897 , 4136.92307692 , 2042.0 , 2034.0 , 281.668 , 0.0 , 0.0 , 0.0 , 0.0 , 

12.0 , 4113.33333333 , 4112.82051282 , 4137.94871795 , 4123.58974359 , 4135.38461538 , 4130.25641026 , 4136.41025641 , 4133.33333333 , 4137.43589744 , 4135.8974359 , 4138.97435897 , 4123.07692308 , 4115.38461538 , 4133.84615385 , 2042.0 , 2035.0 , 281.676 , 0.0 , 0.0 , 0.0 , 0.0 , 

13.0 , 4115.8974359 , 4114.87179487 , 4139.48717949 , 4122.05128205 , 4131.79487179 , 4134.35897436 , 4134.87179487 , 4132.30769231 , 4136.92307692 , 4135.8974359 , 4140.51282051 , 4120.0 , 4117.43589744 , 4133.33333333 , 2041.0 , 2033.0 , 281.682 , 0.0 , 0.0 , 0.0 , 0.0 , 

14.0 , 4117.94871795 , 4121.53846154 , 4138.46153846 , 4121.02564103 , 4131.28205128 , 4137.43589744 , 4136.92307692 , 4134.35897436 , 4136.92307692 , 4135.8974359 , 4143.58974359 , 4118.46153846 , 4121.02564103 , 4133.33333333 , 2042.0 , 2032.0 , 281.69 , 0.0 , 0.0 , 0.0 , 0.0 , 

15.0 , 4121.02564103 , 4122.56410256 , 4138.97435897 , 4122.56410256 , 4132.30769231 , 4131.28205128 , 4141.53846154 , 4136.41025641 , 4137.43589744 , 4135.8974359 , 4146.15384615 , 4121.02564103 , 4126.15384615 , 4136.41025641 , 2043.0 , 2031.0 , 281.699 , 0.0 , 0.0 , 0.0 , 0.0 , 

16.0 , 4128.20512821 , 4126.15384615 , 4140.0 , 4124.1025641 , 4132.82051282 , 4128.20512821 , 4143.07692308 , 4134.87179487 , 4136.92307692 , 4135.8974359 , 4147.17948718 , 4123.58974359 , 4130.76923077 , 4141.02564103 , 2043.0 , 2032.0 , 281.706 , 0.0 , 0.0 , 0.0 , 0.0 , 

17.0 , 4127.69230769 , 4129.74358974 , 4139.48717949 , 4122.05128205 , 4132.82051282 , 4131.79487179 , 4139.48717949 , 4133.33333333 , 4136.92307692 , 4135.8974359 , 4144.1025641 , 4124.1025641 , 4135.38461538 , 4143.07692308 , 2045.0 , 2032.0 , 281.715 , 0.0 , 0.0 , 0.0 , 0.0 , 

18.0 , 4119.48717949 , 4126.15384615 , 4138.46153846 , 4125.12820513 , 4135.38461538 , 4131.79487179 , 4134.87179487 , 4135.38461538 , 4137.43589744 , 4135.8974359 , 4140.51282051 , 4123.07692308 , 4134.35897436 , 4140.0 , 2044.0 , 2030.0 , 281.722 , 0.0 , 0.0 , 0.0 , 0.0 , 

19.0 , 4120.0 , 4126.15384615 , 4140.51282051 , 4128.71794872 , 4131.28205128 , 4132.30769231 , 4135.8974359 , 4136.92307692 , 4136.92307692 , 4135.8974359 , 4140.51282051 , 4121.53846154 , 4129.74358974 , 4137.43589744 , 2044.0 , 2032.0 , 281.731 , 0.0 , 0.0 , 0.0 , 0.0 , 

20.0 , 4120.0 , 4125.12820513 , 4140.0 , 4125.12820513 , 4128.20512821 , 4133.84615385 , 4133.84615385 , 4131.79487179 , 4134.87179487 , 4135.8974359 , 4140.0 , 4123.07692308 , 4125.64102564 , 4134.35897436 , 2044.0 , 2033.0 , 281.738 , 0.0 , 0.0 , 0.0 , 0.0 , 

21.0 , 4119.48717949 , 4123.58974359 , 4137.43589744 , 4123.58974359 , 4129.23076923 , 4130.25641026 , 4130.76923077 , 4130.76923077 , 4134.87179487 , 4136.41025641 , 4140.0 , 4123.58974359 , 4130.25641026 , 4135.8974359 , 2044.0 , 2034.0 , 281.747 , 0.0 , 0.0 , 0.0 , 0.0 , 

22.0 , 4124.61538462 , 4123.07692308 , 4135.8974359 , 4125.12820513 , 4129.23076923 , 4129.74358974 , 4134.87179487 , 4136.41025641 , 4135.38461538 , 4137.94871795 , 4138.97435897 , 4120.0 , 4132.82051282 , 4139.48717949 , 2043.0 , 2033.0 , 281.753 , 0.0 , 0.0 , 0.0 , 0.0 , 

23.0 , 4123.07692308 , 4124.1025641 , 4136.41025641 , 4124.1025641 , 4129.23076923 , 4131.28205128 , 4135.8974359 , 4135.38461538 , 4134.35897436 , 4137.94871795 , 4137.43589744 , 4120.51282051 , 4127.69230769 , 4134.87179487 , 2043.0 , 2033.0 , 281.761 , 0.0 , 0.0 , 0.0 , 0.0 , 

24.0 , 4112.30769231 , 4120.51282051 , 4137.43589744 , 4120.51282051 , 4136.41025641 , 4131.28205128 , 4132.82051282 , 4131.79487179 , 4134.35897436 , 4137.43589744 , 4136.41025641 , 4122.56410256 , 4118.46153846 , 4126.15384615 , 2043.0 , 2033.0 , 281.769 , 0.0 , 0.0 , 0.0 , 0.0 , 

25.0 , 4113.84615385 , 4122.56410256 , 4137.43589744 , 4121.53846154 , 4132.82051282 , 4132.30769231 , 4136.41025641 , 4132.82051282 , 4134.35897436 , 4137.94871795 , 4137.43589744 , 4122.05128205 , 4122.05128205 , 4130.25641026 , 2042.0 , 2034.0 , 281.777 , 0.0 , 0.0 , 0.0 , 0.0 , 

26.0 , 4119.48717949 , 4123.58974359 , 4136.92307692 , 4122.56410256 , 4125.12820513 , 4131.79487179 , 4140.0 , 4134.35897436 , 4134.35897436 , 4137.94871795 , 4136.92307692 , 4123.07692308 , 4125.64102564 , 4130.76923077 , 2042.0 , 2034.0 , 281.785 , 0.0 , 0.0 , 0.0 , 0.0 , 

27.0 , 4122.56410256 , 4123.58974359 , 4136.92307692 , 4122.56410256 , 4129.74358974 , 4129.74358974 , 4136.92307692 , 4133.84615385 , 4135.38461538 , 4137.94871795 , 4137.43589744 , 4124.1025641 , 4123.07692308 , 4125.64102564 , 2041.0 , 2034.0 , 281.793 , 0.0 , 0.0 , 0.0 , 0.0 , 

28.0 , 4117.94871795 , 4123.07692308 , 4136.41025641 , 4121.02564103 , 4133.84615385 , 4129.74358974 , 4136.41025641 , 4133.33333333 , 4136.41025641 , 4137.94871795 , 4136.92307692 , 4119.48717949 , 4118.46153846 , 4125.12820513 , 2041.0 , 2033.0 , 281.801 , 0.0 , 0.0 , 0.0 , 0.0 , 

29.0 , 4110.76923077 , 4118.97435897 , 4136.92307692 , 4121.02564103 , 4129.23076923 , 4130.25641026 , 4138.97435897 , 4133.84615385 , 4135.8974359 , 4137.94871795 , 4135.8974359 , 4119.48717949 , 4117.43589744 , 4123.58974359 , 2040.0 , 2034.0 , 281.809 , 0.0 , 0.0 , 0.0 , 0.0 , 

30.0 , 4108.20512821 , 4114.35897436 , 4137.43589744 , 4122.05128205 , 4134.35897436 , 4132.30769231 , 4136.92307692 , 4130.76923077 , 4135.8974359 , 4137.94871795 , 4136.92307692 , 4121.53846154 , 4115.8974359 , 4121.02564103 , 2040.0 , 2034.0 , 281.816 , 0.0 , 0.0 , 0.0 , 0.0 , 

31.0 , 4116.41025641 , 4120.0 , 4138.97435897 , 4122.56410256 , 4140.0 , 4136.92307692 , 4136.41025641 , 4129.23076923 , 4135.8974359 , 4137.94871795 , 4137.43589744 , 4118.97435897 , 4119.48717949 , 4127.17948718 , 2041.0 , 2034.0 , 281.824 , 0.0 , 0.0 , 0.0 , 0.0 , 

32.0 , 4119.48717949 , 4127.17948718 , 4138.97435897 , 4122.56410256 , 4132.30769231 , 4132.82051282 , 4137.43589744 , 4132.30769231 , 4135.8974359 , 4137.94871795 , 4136.92307692 , 4118.46153846 , 4123.07692308 , 4131.28205128 , 2041.0 , 2035.0 , 281.832 , 0.0 , 0.0 , 0.0 , 0.0 , 

33.0 , 4112.82051282 , 4122.56410256 , 4137.94871795 , 4123.07692308 , 4127.17948718 , 4127.17948718 , 4136.41025641 , 4135.8974359 , 4135.8974359 , 4137.94871795 , 4135.38461538 , 4121.53846154 , 4115.8974359 , 4127.17948718 , 2042.0 , 2034.0 , 281.841 , 0.0 , 0.0 , 0.0 , 0.0 , 

34.0 , 4109.23076923 , 4117.94871795 , 4136.92307692 , 4122.05128205 , 4134.35897436 , 4133.84615385 , 4134.87179487 , 4132.82051282 , 4135.8974359 , 4137.94871795 , 4133.84615385 , 4123.07692308 , 4107.69230769 , 4123.07692308 , 2041.0 , 2033.0 , 281.848 , 0.0 , 0.0 , 0.0 , 0.0 , 

35.0 , 4113.84615385 , 4123.58974359 , 4138.46153846 , 4122.56410256 , 4136.41025641 , 4138.46153846 , 4135.38461538 , 4129.74358974 , 4135.8974359 , 4137.94871795 , 4136.41025641 , 4121.53846154 , 4114.87179487 , 4125.64102564 , 2042.0 , 2033.0 , 281.86 , 0.0 , 0.0 , 0.0 , 0.0 , 

36.0 , 4119.48717949 , 4127.17948718 , 4140.51282051 , 4127.17948718 , 4130.76923077 , 4131.28205128 , 4135.38461538 , 4131.79487179 , 4135.8974359 , 4137.43589744 , 4138.46153846 , 4120.51282051 , 4125.64102564 , 4131.79487179 , 2044.0 , 2032.0 , 281.865 , 0.0 , 0.0 , 0.0 , 0.0 , 

37.0 , 4116.41025641 , 4123.58974359 , 4138.46153846 , 4128.71794872 , 4128.20512821 , 4128.20512821 , 4133.84615385 , 4130.76923077 , 4135.38461538 , 4137.94871795 , 4138.46153846 , 4120.0 , 4123.07692308 , 4130.76923077 , 2043.0 , 2031.0 , 281.872 , 0.0 , 0.0 , 0.0 , 0.0 , 

38.0 , 4114.35897436 , 4121.02564103 , 4136.41025641 , 4125.12820513 , 4128.71794872 , 4133.84615385 , 4135.8974359 , 4130.25641026 , 4134.35897436 , 4137.94871795 , 4137.94871795 , 4118.46153846 , 4120.51282051 , 4128.20512821 , 2043.0 , 2031.0 , 281.879 , 0.0 , 0.0 , 0.0 , 0.0 , 

39.0 , 4118.97435897 , 4120.0 , 4138.46153846 , 4125.12820513 , 4127.17948718 , 4131.28205128 , 4138.46153846 , 4136.41025641 , 4134.35897436 , 4134.87179487 , 4137.43589744 , 4118.97435897 , 4123.58974359 , 4125.64102564 , 2043.0 , 2033.0 , 281.886 , 0.0 , 0.0 , 0.0 , 0.0 , 

40.0 , 4123.58974359 , 4123.07692308 , 4140.51282051 , 4126.66666667 , 4132.30769231 , 4129.23076923 , 4138.46153846 , 4136.41025641 , 4134.35897436 , 4134.35897436 , 4138.97435897 , 4121.53846154 , 4129.74358974 , 4128.20512821 , 2044.0 , 2033.0 , 281.895 , 0.0 , 0.0 , 0.0 , 0.0 , 

41.0 , 4122.05128205 , 4126.66666667 , 4138.97435897 , 4122.05128205 , 4136.92307692 , 4136.92307692 , 4138.46153846 , 4130.76923077 , 4134.35897436 , 4136.92307692 , 4143.07692308 , 4122.05128205 , 4132.82051282 , 4133.84615385 , 2043.0 , 2035.0 , 281.903 , 0.0 , 0.0 , 0.0 , 0.0 , 

42.0 , 4121.02564103 , 4129.23076923 , 4138.97435897 , 4121.02564103 , 4134.87179487 , 4135.8974359 , 4137.94871795 , 4131.28205128 , 4134.35897436 , 4136.92307692 , 4142.05128205 , 4120.0 , 4132.82051282 , 4134.35897436 , 2043.0 , 2033.0 , 281.912 , 0.0 , 0.0 , 0.0 , 0.0 , 

43.0 , 4120.0 , 4123.58974359 , 4139.48717949 , 4121.02564103 , 4133.84615385 , 4129.23076923 , 4137.43589744 , 4136.92307692 , 4134.35897436 , 4134.35897436 , 4137.43589744 , 4121.53846154 , 4127.17948718 , 4125.12820513 , 2043.0 , 2034.0 , 281.919 , 0.0 , 0.0 , 0.0 , 0.0 , 

44.0 , 4124.61538462 , 4124.1025641 , 4137.94871795 , 4122.56410256 , 4136.41025641 , 4130.25641026 , 4137.43589744 , 4135.38461538 , 4134.35897436 , 4134.87179487 , 4138.46153846 , 4123.07692308 , 4127.17948718 , 4121.53846154 , 2043.0 , 2036.0 , 281.928 , 0.0 , 0.0 , 0.0 , 0.0 , 

45.0 , 4128.71794872 , 4129.23076923 , 4137.94871795 , 4124.61538462 , 4136.41025641 , 4134.35897436 , 4138.46153846 , 4133.33333333 , 4134.35897436 , 4136.41025641 , 4142.05128205 , 4121.53846154 , 4126.66666667 , 4120.0 , 2043.0 , 2037.0 , 281.935 , 0.0 , 0.0 , 0.0 , 0.0 , 

46.0 , 4124.61538462 , 4129.23076923 , 4139.48717949 , 4126.15384615 , 4132.82051282 , 4131.28205128 , 4136.92307692 , 4134.87179487 , 4134.35897436 , 4135.8974359 , 4144.61538462 , 4121.02564103 , 4126.15384615 , 4121.02564103 , 2043.0 , 2034.0 , 281.943 , 0.0 , 0.0 , 0.0 , 0.0 , 

47.0 , 4118.46153846 , 4124.1025641 , 4139.48717949 , 4122.56410256 , 4135.8974359 , 4130.25641026 , 4134.35897436 , 4135.8974359 , 4134.35897436 , 4135.8974359 , 4143.58974359 , 4122.05128205 , 4125.64102564 , 4124.61538462 , 2043.0 , 2034.0 , 281.95 , 0.0 , 0.0 , 0.0 , 0.0 , 

