['COUNTER', 'AF3', 'F7', 'F3', 'FC5', 'T7', 'P7', 'O1', 'O2', 'P8', 'T8', 'FC6', 'F4', 'F8', 'AF4', 'GYROX', 'GYROY', 'TIMESTAMP', 'FUNC_ID', 'FUNC_VALUE', 'MARKER', 'SYNC_SIGNAL']
87.0 , 4128.20512821 , 4132.30769231 , 4123.58974359 , 4133.84615385 , 4130.76923077 , 4134.35897436 , 4129.23076923 , 4136.41025641 , 4135.38461538 , 4140.51282051 , 4165.64102564 , 4583.58974359 , 4126.15384615 , 4137.94871795 , 2043.0 , 2029.0 , 6.024 , 0.0 , 0.0 , 0.0 , 0.0 , 

88.0 , 4130.76923077 , 4130.25641026 , 4118.97435897 , 4134.35897436 , 4132.30769231 , 4135.38461538 , 4128.20512821 , 4135.8974359 , 4134.87179487 , 4145.12820513 , 4165.64102564 , 4582.05128205 , 4129.23076923 , 4136.92307692 , 2044.0 , 2028.0 , 6.033 , 0.0 , 0.0 , 0.0 , 0.0 , 

89.0 , 4131.28205128 , 4129.23076923 , 4144.61538462 , 4133.33333333 , 4130.76923077 , 4132.82051282 , 4129.23076923 , 4136.92307692 , 4135.38461538 , 4147.17948718 , 4166.66666667 , 4582.05128205 , 4132.82051282 , 4137.43589744 , 2043.0 , 2031.0 , 6.041 , 0.0 , 0.0 , 0.0 , 0.0 , 

90.0 , 4129.74358974 , 4129.74358974 , 4144.1025641 , 4130.76923077 , 4131.28205128 , 4131.79487179 , 4129.23076923 , 4133.33333333 , 4136.41025641 , 4142.56410256 , 4165.12820513 , 4580.51282051 , 4128.71794872 , 4137.94871795 , 2044.0 , 2031.0 , 6.048 , 0.0 , 0.0 , 0.0 , 0.0 , 

91.0 , 4130.76923077 , 4130.25641026 , 4138.97435897 , 4133.84615385 , 4131.28205128 , 4134.87179487 , 4129.74358974 , 4131.28205128 , 4136.92307692 , 4140.0 , 4168.71794872 , 4583.58974359 , 4129.74358974 , 4138.97435897 , 2044.0 , 2032.0 , 6.056 , 0.0 , 0.0 , 0.0 , 0.0 , 

92.0 , 4130.76923077 , 4130.76923077 , 4124.1025641 , 4135.38461538 , 4129.74358974 , 4133.84615385 , 4130.76923077 , 4131.28205128 , 4133.84615385 , 4137.43589744 , 4167.69230769 , 4586.15384615 , 4129.23076923 , 4136.41025641 , 2043.0 , 2032.0 , 6.064 , 0.0 , 0.0 , 0.0 , 0.0 , 

93.0 , 4127.69230769 , 4129.23076923 , 4118.46153846 , 4133.84615385 , 4129.74358974 , 4132.30769231 , 4129.23076923 , 4134.87179487 , 4133.84615385 , 4140.0 , 4160.51282051 , 4584.1025641 , 4128.20512821 , 4133.84615385 , 2043.0 , 2032.0 , 6.073 , 0.0 , 0.0 , 0.0 , 0.0 , 

94.0 , 4129.23076923 , 4128.71794872 , 4106.15384615 , 4134.35897436 , 4131.28205128 , 4133.84615385 , 4128.20512821 , 4132.82051282 , 4133.33333333 , 4140.51282051 , 4160.0 , 4580.51282051 , 4130.25641026 , 4132.82051282 , 2043.0 , 2032.0 , 6.081 , 0.0 , 0.0 , 0.0 , 0.0 , 

95.0 , 4128.71794872 , 4130.25641026 , 4117.94871795 , 4134.35897436 , 4129.23076923 , 4129.74358974 , 4128.71794872 , 4130.25641026 , 4131.79487179 , 4140.51282051 , 4166.15384615 , 4583.07692308 , 4132.30769231 , 4132.82051282 , 2044.0 , 2032.0 , 6.088 , 0.0 , 0.0 , 0.0 , 0.0 , 

96.0 , 4128.71794872 , 4130.76923077 , 4111.28205128 , 4132.82051282 , 4128.71794872 , 4127.17948718 , 4130.25641026 , 4131.28205128 , 4131.79487179 , 4139.48717949 , 4164.1025641 , 4583.58974359 , 4129.74358974 , 4134.35897436 , 2047.0 , 2034.0 , 6.097 , 0.0 , 0.0 , 0.0 , 0.0 , 

97.0 , 4129.74358974 , 4129.74358974 , 4109.74358974 , 4132.82051282 , 4130.76923077 , 4130.76923077 , 4130.76923077 , 4134.35897436 , 4133.84615385 , 4138.46153846 , 4162.05128205 , 4580.51282051 , 4130.76923077 , 4134.87179487 , 2046.0 , 2035.0 , 6.104 , 0.0 , 0.0 , 0.0 , 0.0 , 

98.0 , 4131.79487179 , 4130.25641026 , 4111.79487179 , 4132.30769231 , 4130.76923077 , 4132.30769231 , 4129.74358974 , 4132.30769231 , 4132.30769231 , 4140.0 , 4165.64102564 , 4581.02564103 , 4132.82051282 , 4133.84615385 , 2046.0 , 2036.0 , 6.112 , 0.0 , 0.0 , 0.0 , 0.0 , 

99.0 , 4130.25641026 , 4130.76923077 , 4126.66666667 , 4130.25641026 , 4129.74358974 , 4129.23076923 , 4127.17948718 , 4132.82051282 , 4134.35897436 , 4143.58974359 , 4168.20512821 , 4580.51282051 , 4129.23076923 , 4135.38461538 , 2045.0 , 2036.0 , 6.119 , 0.0 , 0.0 , 0.0 , 0.0 , 

100.0 , 4128.71794872 , 4130.25641026 , 4121.02564103 , 4131.28205128 , 4130.25641026 , 4127.69230769 , 4128.20512821 , 4138.46153846 , 4136.41025641 , 4143.58974359 , 4166.66666667 , 4580.51282051 , 4128.71794872 , 4137.94871795 , 2045.0 , 2037.0 , 6.127 , 0.0 , 0.0 , 0.0 , 0.0 , 

101.0 , 4128.71794872 , 4129.74358974 , 4120.51282051 , 4130.25641026 , 4129.23076923 , 4127.17948718 , 4129.74358974 , 4137.94871795 , 4135.38461538 , 4140.0 , 4163.58974359 , 4582.05128205 , 4130.76923077 , 4135.8974359 , 2045.0 , 2036.0 , 6.135 , 0.0 , 0.0 , 0.0 , 0.0 , 

102.0 , 4131.79487179 , 4130.25641026 , 4126.66666667 , 4130.25641026 , 4128.20512821 , 4126.66666667 , 4129.74358974 , 4133.33333333 , 4136.41025641 , 4141.53846154 , 4164.1025641 , 4583.07692308 , 4131.28205128 , 4134.35897436 , 2045.0 , 2036.0 , 6.142 , 0.0 , 0.0 , 0.0 , 0.0 , 

103.0 , 4130.25641026 , 4129.74358974 , 4136.92307692 , 4132.82051282 , 4130.25641026 , 4128.20512821 , 4127.69230769 , 4132.82051282 , 4138.46153846 , 4143.07692308 , 4165.64102564 , 4580.0 , 4131.28205128 , 4135.38461538 , 2042.0 , 2038.0 , 6.151 , 0.0 , 0.0 , 0.0 , 0.0 , 

104.0 , 4128.71794872 , 4131.28205128 , 4135.8974359 , 4133.33333333 , 4131.79487179 , 4126.15384615 , 4127.69230769 , 4134.87179487 , 4135.8974359 , 4142.56410256 , 4167.69230769 , 4582.56410256 , 4132.30769231 , 4135.38461538 , 2043.0 , 2038.0 , 6.159 , 0.0 , 0.0 , 0.0 , 0.0 , 

105.0 , 4129.23076923 , 4131.79487179 , 4131.79487179 , 4130.25641026 , 4131.28205128 , 4127.17948718 , 4129.23076923 , 4134.87179487 , 4130.25641026 , 4142.05128205 , 4168.20512821 , 4584.61538462 , 4130.76923077 , 4133.84615385 , 2042.0 , 2038.0 , 6.167 , 0.0 , 0.0 , 0.0 , 0.0 , 

106.0 , 4132.30769231 , 4128.20512821 , 4142.05128205 , 4131.79487179 , 4131.28205128 , 4130.25641026 , 4129.74358974 , 4136.41025641 , 4131.79487179 , 4143.58974359 , 4168.20512821 , 4583.07692308 , 4130.25641026 , 4136.41025641 , 2039.0 , 2039.0 , 6.175 , 0.0 , 0.0 , 0.0 , 0.0 , 

107.0 , 4131.79487179 , 4127.69230769 , 4131.28205128 , 4133.84615385 , 4130.76923077 , 4127.17948718 , 4129.74358974 , 4133.84615385 , 4135.8974359 , 4141.02564103 , 4164.61538462 , 4577.94871795 , 4128.20512821 , 4136.41025641 , 2041.0 , 2039.0 , 6.182 , 0.0 , 0.0 , 0.0 , 0.0 , 

108.0 , 4132.82051282 , 4132.82051282 , 4125.12820513 , 4133.33333333 , 4132.82051282 , 4130.25641026 , 4129.74358974 , 4133.33333333 , 4137.43589744 , 4143.07692308 , 4163.58974359 , 4579.48717949 , 4129.74358974 , 4135.8974359 , 2041.0 , 2038.0 , 6.189 , 0.0 , 0.0 , 0.0 , 0.0 , 

109.0 , 4132.30769231 , 4132.30769231 , 4118.97435897 , 4133.33333333 , 4132.30769231 , 4136.92307692 , 4129.23076923 , 4134.87179487 , 4133.33333333 , 4142.56410256 , 4165.64102564 , 4580.0 , 4131.28205128 , 4135.8974359 , 2041.0 , 2039.0 , 6.198 , 0.0 , 0.0 , 0.0 , 0.0 , 

110.0 , 4130.76923077 , 4127.17948718 , 4141.02564103 , 4131.79487179 , 4128.20512821 , 4131.79487179 , 4128.20512821 , 4137.43589744 , 4135.8974359 , 4140.51282051 , 4169.23076923 , 4580.51282051 , 4132.82051282 , 4137.43589744 , 2040.0 , 2039.0 , 6.206 , 0.0 , 0.0 , 0.0 , 0.0 , 

111.0 , 4130.25641026 , 4130.25641026 , 4130.25641026 , 4130.76923077 , 4128.20512821 , 4125.12820513 , 4128.71794872 , 4132.82051282 , 4138.46153846 , 4138.46153846 , 4166.66666667 , 4579.48717949 , 4129.74358974 , 4136.41025641 , 2041.0 , 2038.0 , 6.213 , 0.0 , 0.0 , 0.0 , 0.0 , 

112.0 , 4131.28205128 , 4134.35897436 , 4129.74358974 , 4133.33333333 , 4130.76923077 , 4131.28205128 , 4130.76923077 , 4130.25641026 , 4136.41025641 , 4143.58974359 , 4163.07692308 , 4579.48717949 , 4129.74358974 , 4134.87179487 , 2042.0 , 2035.0 , 6.222 , 0.0 , 0.0 , 0.0 , 0.0 , 

113.0 , 4131.79487179 , 4131.28205128 , 4126.15384615 , 4132.82051282 , 4129.74358974 , 4133.33333333 , 4131.79487179 , 4130.76923077 , 4133.84615385 , 4142.05128205 , 4164.61538462 , 4577.43589744 , 4128.20512821 , 4134.87179487 , 2041.0 , 2034.0 , 6.229 , 0.0 , 0.0 , 0.0 , 0.0 , 

114.0 , 4128.20512821 , 4129.23076923 , 4129.23076923 , 4129.23076923 , 4129.74358974 , 4130.25641026 , 4130.25641026 , 4133.33333333 , 4137.43589744 , 4138.46153846 , 4166.66666667 , 4577.43589744 , 4127.17948718 , 4134.87179487 , 2042.0 , 2031.0 , 6.238 , 0.0 , 0.0 , 0.0 , 0.0 , 

115.0 , 4128.71794872 , 4130.25641026 , 4116.41025641 , 4130.76923077 , 4133.33333333 , 4131.79487179 , 4130.25641026 , 4133.84615385 , 4137.94871795 , 4140.0 , 4163.07692308 , 4577.94871795 , 4126.66666667 , 4134.87179487 , 2043.0 , 2030.0 , 6.245 , 0.0 , 0.0 , 0.0 , 0.0 , 

116.0 , 4132.30769231 , 4129.23076923 , 4132.30769231 , 4133.33333333 , 4132.30769231 , 4134.35897436 , 4130.25641026 , 4133.84615385 , 4136.41025641 , 4144.1025641 , 4163.07692308 , 4579.48717949 , 4131.28205128 , 4134.35897436 , 2043.0 , 2030.0 , 6.252 , 0.0 , 0.0 , 0.0 , 0.0 , 

117.0 , 4132.82051282 , 4130.25641026 , 4133.84615385 , 4133.33333333 , 4130.76923077 , 4132.30769231 , 4128.20512821 , 4133.84615385 , 4136.41025641 , 4142.05128205 , 4167.69230769 , 4580.51282051 , 4131.79487179 , 4134.35897436 , 2043.0 , 2030.0 , 6.261 , 0.0 , 0.0 , 0.0 , 0.0 , 

118.0 , 4129.74358974 , 4130.76923077 , 4130.76923077 , 4130.76923077 , 4131.79487179 , 4132.30769231 , 4128.20512821 , 4133.84615385 , 4136.92307692 , 4139.48717949 , 4167.17948718 , 4577.43589744 , 4129.23076923 , 4135.8974359 , 2043.0 , 2030.0 , 6.268 , 0.0 , 0.0 , 0.0 , 0.0 , 

119.0 , 4130.76923077 , 4128.71794872 , 4121.02564103 , 4131.79487179 , 4132.82051282 , 4133.33333333 , 4129.23076923 , 4133.33333333 , 4135.38461538 , 4142.56410256 , 4164.1025641 , 4575.8974359 , 4131.79487179 , 4136.92307692 , 2042.0 , 2031.0 , 6.277 , 0.0 , 0.0 , 0.0 , 0.0 , 

120.0 , 4131.79487179 , 4129.74358974 , 4133.33333333 , 4134.35897436 , 4132.30769231 , 4132.30769231 , 4127.17948718 , 4132.30769231 , 4134.87179487 , 4144.1025641 , 4165.64102564 , 4576.92307692 , 4132.82051282 , 4133.84615385 , 2042.0 , 2030.0 , 6.286 , 0.0 , 0.0 , 0.0 , 0.0 , 

121.0 , 4130.25641026 , 4130.76923077 , 4142.05128205 , 4133.84615385 , 4132.30769231 , 4136.41025641 , 4127.69230769 , 4133.33333333 , 4133.84615385 , 4143.58974359 , 4168.71794872 , 4575.8974359 , 4131.79487179 , 4135.38461538 , 2042.0 , 2033.0 , 6.292 , 0.0 , 0.0 , 0.0 , 0.0 , 

122.0 , 4130.76923077 , 4129.23076923 , 4137.43589744 , 4130.76923077 , 4131.79487179 , 4137.43589744 , 4129.23076923 , 4133.84615385 , 4132.30769231 , 4140.51282051 , 4166.66666667 , 4575.8974359 , 4133.84615385 , 4138.97435897 , 2042.0 , 2034.0 , 6.301 , 0.0 , 0.0 , 0.0 , 0.0 , 

123.0 , 4132.30769231 , 4130.76923077 , 4129.23076923 , 4131.28205128 , 4131.28205128 , 4127.69230769 , 4130.76923077 , 4130.76923077 , 4134.87179487 , 4139.48717949 , 4162.05128205 , 4579.48717949 , 4133.84615385 , 4136.92307692 , 2042.0 , 2033.0 , 6.309 , 0.0 , 0.0 , 0.0 , 0.0 , 

124.0 , 4130.76923077 , 4131.79487179 , 4135.38461538 , 4131.79487179 , 4131.79487179 , 4121.53846154 , 4129.74358974 , 4129.23076923 , 4140.0 , 4141.53846154 , 4163.58974359 , 4576.92307692 , 4126.66666667 , 4133.33333333 , 2045.0 , 2033.0 , 6.317 , 0.0 , 0.0 , 0.0 , 0.0 , 

125.0 , 4130.25641026 , 4130.25641026 , 4152.82051282 , 4131.79487179 , 4132.30769231 , 4132.30769231 , 4129.23076923 , 4135.38461538 , 4138.46153846 , 4146.15384615 , 4170.25641026 , 4575.8974359 , 4128.71794872 , 4135.8974359 , 2045.0 , 2034.0 , 6.325 , 0.0 , 0.0 , 0.0 , 0.0 , 

126.0 , 4131.79487179 , 4130.25641026 , 4137.43589744 , 4130.76923077 , 4131.79487179 , 4141.02564103 , 4130.25641026 , 4134.35897436 , 4132.30769231 , 4143.07692308 , 4168.71794872 , 4578.46153846 , 4131.79487179 , 4135.38461538 , 2045.0 , 2034.0 , 6.332 , 0.0 , 0.0 , 0.0 , 0.0 , 

127.0 , 4131.28205128 , 4131.79487179 , 4143.58974359 , 4130.25641026 , 4131.28205128 , 4130.76923077 , 4130.25641026 , 4130.76923077 , 4134.35897436 , 4141.02564103 , 4165.12820513 , 4581.02564103 , 4129.23076923 , 4131.79487179 , 2044.0 , 2034.0 , 6.34 , 0.0 , 0.0 , 0.0 , 0.0 , 

128.0 , 4128.71794872 , 4130.25641026 , 4140.51282051 , 4133.33333333 , 4131.28205128 , 4120.51282051 , 4129.23076923 , 4129.23076923 , 4135.38461538 , 4139.48717949 , 4165.12820513 , 4576.92307692 , 4125.64102564 , 4131.28205128 , 2044.0 , 2034.0 , 6.347 , 0.0 , 0.0 , 0.0 , 0.0 , 

0.0 , 4129.74358974 , 4130.76923077 , 4133.33333333 , 4134.35897436 , 4131.28205128 , 4128.71794872 , 4128.20512821 , 4132.30769231 , 4133.33333333 , 4140.51282051 , 4167.69230769 , 4574.35897436 , 4128.71794872 , 4137.43589744 , 2043.0 , 2032.0 , 6.355 , 0.0 , 0.0 , 0.0 , 0.0 , 

1.0 , 4132.82051282 , 4132.30769231 , 4122.56410256 , 4130.76923077 , 4131.79487179 , 4140.51282051 , 4128.71794872 , 4131.79487179 , 4134.35897436 , 4138.46153846 , 4166.66666667 , 4575.38461538 , 4129.74358974 , 4136.41025641 , 2044.0 , 2032.0 , 6.364 , 0.0 , 0.0 , 0.0 , 0.0 , 

2.0 , 4130.25641026 , 4129.74358974 , 4160.0 , 4129.74358974 , 4131.28205128 , 4132.30769231 , 4128.71794872 , 4131.79487179 , 4137.43589744 , 4140.0 , 4164.61538462 , 4580.0 , 4131.28205128 , 4131.79487179 , 2044.0 , 2033.0 , 6.37 , 0.0 , 0.0 , 0.0 , 0.0 , 

3.0 , 4126.66666667 , 4128.71794872 , 4150.76923077 , 4132.30769231 , 4130.25641026 , 4124.61538462 , 4129.74358974 , 4130.76923077 , 4133.33333333 , 4142.05128205 , 4163.07692308 , 4581.02564103 , 4129.23076923 , 4133.33333333 , 2044.0 , 2032.0 , 6.378 , 0.0 , 0.0 , 0.0 , 0.0 , 

4.0 , 4128.20512821 , 4128.20512821 , 4138.46153846 , 4133.33333333 , 4128.71794872 , 4129.23076923 , 4129.23076923 , 4133.84615385 , 4133.33333333 , 4144.1025641 , 4165.64102564 , 4578.97435897 , 4127.69230769 , 4136.41025641 , 2044.0 , 2033.0 , 6.386 , 0.0 , 0.0 , 0.0 , 0.0 , 

5.0 , 4132.30769231 , 4128.20512821 , 4134.87179487 , 4133.33333333 , 4128.20512821 , 4129.23076923 , 4127.69230769 , 4133.33333333 , 4136.41025641 , 4141.02564103 , 4166.15384615 , 4577.43589744 , 4129.23076923 , 4133.84615385 , 2045.0 , 2033.0 , 6.395 , 0.0 , 0.0 , 0.0 , 0.0 , 

6.0 , 4130.25641026 , 4129.74358974 , 4142.05128205 , 4130.76923077 , 4130.25641026 , 4127.69230769 , 4128.20512821 , 4130.25641026 , 4137.94871795 , 4140.0 , 4162.05128205 , 4577.43589744 , 4131.79487179 , 4134.35897436 , 2043.0 , 2036.0 , 6.403 , 0.0 , 0.0 , 0.0 , 0.0 , 

7.0 , 4128.71794872 , 4132.30769231 , 4130.76923077 , 4128.71794872 , 4131.28205128 , 4137.94871795 , 4129.23076923 , 4130.76923077 , 4135.8974359 , 4139.48717949 , 4160.0 , 4576.92307692 , 4131.28205128 , 4135.8974359 , 2041.0 , 2036.0 , 6.411 , 0.0 , 0.0 , 0.0 , 0.0 , 

8.0 , 4129.74358974 , 4131.28205128 , 4145.64102564 , 4128.71794872 , 4130.25641026 , 4138.46153846 , 4128.71794872 , 4133.33333333 , 4136.92307692 , 4139.48717949 , 4164.1025641 , 4577.94871795 , 4133.84615385 , 4135.38461538 , 2041.0 , 2036.0 , 6.419 , 0.0 , 0.0 , 0.0 , 0.0 , 

9.0 , 4132.30769231 , 4130.25641026 , 4151.79487179 , 4131.28205128 , 4130.76923077 , 4124.1025641 , 4127.69230769 , 4132.82051282 , 4138.97435897 , 4142.05128205 , 4169.23076923 , 4580.51282051 , 4135.38461538 , 4137.43589744 , 2041.0 , 2035.0 , 6.426 , 0.0 , 0.0 , 0.0 , 0.0 , 

10.0 , 4131.28205128 , 4130.76923077 , 4140.51282051 , 4132.30769231 , 4130.76923077 , 4123.58974359 , 4128.20512821 , 4131.79487179 , 4136.92307692 , 4142.05128205 , 4168.20512821 , 4577.43589744 , 4132.30769231 , 4136.41025641 , 2040.0 , 2035.0 , 6.435 , 0.0 , 0.0 , 0.0 , 0.0 , 

11.0 , 4132.82051282 , 4131.28205128 , 4137.43589744 , 4132.82051282 , 4130.25641026 , 4135.8974359 , 4130.25641026 , 4133.84615385 , 4136.41025641 , 4141.02564103 , 4166.66666667 , 4576.41025641 , 4131.28205128 , 4134.87179487 , 2039.0 , 2034.0 , 6.442 , 0.0 , 0.0 , 0.0 , 0.0 , 

12.0 , 4133.33333333 , 4131.28205128 , 4137.43589744 , 4132.82051282 , 4132.30769231 , 4135.8974359 , 4129.74358974 , 4132.82051282 , 4137.94871795 , 4140.51282051 , 4166.66666667 , 4578.97435897 , 4129.74358974 , 4133.33333333 , 2040.0 , 2034.0 , 6.45 , 0.0 , 0.0 , 0.0 , 0.0 , 

13.0 , 4131.28205128 , 4132.82051282 , 4140.51282051 , 4134.35897436 , 4131.79487179 , 4130.25641026 , 4127.17948718 , 4134.35897436 , 4137.94871795 , 4140.51282051 , 4168.20512821 , 4582.56410256 , 4131.28205128 , 4133.84615385 , 2040.0 , 2032.0 , 6.458 , 0.0 , 0.0 , 0.0 , 0.0 , 

14.0 , 4130.76923077 , 4131.28205128 , 4134.35897436 , 4134.87179487 , 4129.74358974 , 4132.82051282 , 4127.17948718 , 4132.82051282 , 4133.84615385 , 4135.8974359 , 4166.15384615 , 4577.43589744 , 4130.76923077 , 4135.8974359 , 2039.0 , 2031.0 , 6.466 , 0.0 , 0.0 , 0.0 , 0.0 , 

15.0 , 4131.79487179 , 4130.25641026 , 4135.8974359 , 4132.30769231 , 4130.25641026 , 4132.82051282 , 4129.74358974 , 4132.82051282 , 4136.92307692 , 4138.46153846 , 4164.61538462 , 4575.8974359 , 4130.25641026 , 4136.92307692 , 2040.0 , 2031.0 , 6.473 , 0.0 , 0.0 , 0.0 , 0.0 , 

16.0 , 4129.23076923 , 4130.76923077 , 4132.30769231 , 4131.79487179 , 4130.25641026 , 4127.17948718 , 4128.71794872 , 4132.82051282 , 4141.02564103 , 4143.07692308 , 4164.61538462 , 4578.97435897 , 4129.23076923 , 4132.30769231 , 2041.0 , 2032.0 , 6.482 , 0.0 , 0.0 , 0.0 , 0.0 , 

17.0 , 4130.25641026 , 4129.23076923 , 4137.94871795 , 4133.84615385 , 4131.28205128 , 4131.79487179 , 4126.66666667 , 4132.30769231 , 4137.43589744 , 4144.1025641 , 4166.15384615 , 4581.53846154 , 4130.76923077 , 4132.82051282 , 2039.0 , 2033.0 , 6.489 , 0.0 , 0.0 , 0.0 , 0.0 , 

18.0 , 4132.82051282 , 4126.66666667 , 4130.25641026 , 4133.33333333 , 4133.33333333 , 4134.87179487 , 4127.69230769 , 4128.71794872 , 4131.79487179 , 4138.97435897 , 4165.64102564 , 4577.94871795 , 4130.25641026 , 4136.92307692 , 2040.0 , 2032.0 , 6.497 , 0.0 , 0.0 , 0.0 , 0.0 , 

19.0 , 4131.79487179 , 4127.17948718 , 4139.48717949 , 4130.76923077 , 4130.25641026 , 4125.12820513 , 4130.25641026 , 4133.33333333 , 4133.33333333 , 4138.46153846 , 4167.69230769 , 4575.8974359 , 4130.76923077 , 4135.8974359 , 2040.0 , 2034.0 , 6.505 , 0.0 , 0.0 , 0.0 , 0.0 , 

20.0 , 4130.76923077 , 4130.76923077 , 4132.82051282 , 4132.30769231 , 4128.20512821 , 4124.1025641 , 4129.23076923 , 4136.41025641 , 4133.84615385 , 4140.51282051 , 4168.71794872 , 4579.48717949 , 4129.23076923 , 4134.35897436 , 2039.0 , 2034.0 , 6.513 , 0.0 , 0.0 , 0.0 , 0.0 , 

21.0 , 4131.79487179 , 4128.71794872 , 4137.43589744 , 4132.82051282 , 4131.28205128 , 4134.35897436 , 4126.66666667 , 4132.30769231 , 4133.33333333 , 4142.56410256 , 4167.17948718 , 4583.07692308 , 4127.69230769 , 4135.8974359 , 2040.0 , 2035.0 , 6.521 , 0.0 , 0.0 , 0.0 , 0.0 , 

22.0 , 4131.79487179 , 4127.17948718 , 4129.23076923 , 4133.33333333 , 4132.30769231 , 4136.41025641 , 4127.69230769 , 4130.25641026 , 4135.38461538 , 4140.0 , 4165.12820513 , 4580.0 , 4130.76923077 , 4136.41025641 , 2040.0 , 2037.0 , 6.529 , 0.0 , 0.0 , 0.0 , 0.0 , 

23.0 , 4129.23076923 , 4130.25641026 , 4134.87179487 , 4133.84615385 , 4128.71794872 , 4131.28205128 , 4129.74358974 , 4133.33333333 , 4136.92307692 , 4140.0 , 4165.12820513 , 4577.43589744 , 4133.84615385 , 4133.84615385 , 2040.0 , 2035.0 , 6.537 , 0.0 , 0.0 , 0.0 , 0.0 , 

24.0 , 4130.25641026 , 4131.79487179 , 4133.33333333 , 4132.30769231 , 4128.20512821 , 4132.82051282 , 4130.76923077 , 4131.79487179 , 4134.35897436 , 4141.02564103 , 4164.61538462 , 4576.92307692 , 4129.23076923 , 4131.79487179 , 2042.0 , 2033.0 , 6.545 , 0.0 , 0.0 , 0.0 , 0.0 , 

25.0 , 4131.79487179 , 4129.23076923 , 4143.07692308 , 4130.76923077 , 4130.25641026 , 4130.76923077 , 4129.23076923 , 4134.35897436 , 4135.8974359 , 4141.02564103 , 4166.15384615 , 4580.0 , 4128.20512821 , 4137.43589744 , 2042.0 , 2033.0 , 6.552 , 0.0 , 0.0 , 0.0 , 0.0 , 

26.0 , 4134.35897436 , 4130.25641026 , 4129.74358974 , 4133.33333333 , 4132.30769231 , 4126.66666667 , 4128.71794872 , 4135.38461538 , 4135.8974359 , 4137.94871795 , 4165.64102564 , 4580.51282051 , 4131.79487179 , 4141.02564103 , 2042.0 , 2033.0 , 6.562 , 0.0 , 0.0 , 0.0 , 0.0 , 

27.0 , 4132.82051282 , 4130.76923077 , 4145.12820513 , 4131.79487179 , 4131.79487179 , 4128.20512821 , 4130.25641026 , 4133.33333333 , 4136.92307692 , 4139.48717949 , 4164.1025641 , 4577.43589744 , 4133.84615385 , 4135.8974359 , 2042.0 , 2035.0 , 6.568 , 0.0 , 0.0 , 0.0 , 0.0 , 

28.0 , 4130.25641026 , 4126.66666667 , 4163.58974359 , 4130.25641026 , 4130.76923077 , 4129.23076923 , 4130.25641026 , 4135.38461538 , 4138.46153846 , 4143.07692308 , 4164.1025641 , 4581.53846154 , 4134.87179487 , 4135.38461538 , 2042.0 , 2037.0 , 6.576 , 0.0 , 0.0 , 0.0 , 0.0 , 

29.0 , 4129.23076923 , 4126.15384615 , 4166.15384615 , 4132.82051282 , 4130.25641026 , 4128.71794872 , 4128.71794872 , 4137.43589744 , 4136.92307692 , 4142.56410256 , 4166.66666667 , 4584.1025641 , 4135.8974359 , 4138.46153846 , 2043.0 , 2038.0 , 6.585 , 0.0 , 0.0 , 0.0 , 0.0 , 

30.0 , 4131.28205128 , 4131.28205128 , 4154.87179487 , 4136.41025641 , 4129.23076923 , 4127.69230769 , 4128.71794872 , 4132.82051282 , 4134.35897436 , 4140.51282051 , 4168.20512821 , 4582.56410256 , 4134.87179487 , 4137.43589744 , 2044.0 , 2041.0 , 6.593 , 0.0 , 0.0 , 0.0 , 0.0 , 

31.0 , 4129.74358974 , 4131.79487179 , 4150.25641026 , 4134.35897436 , 4127.17948718 , 4128.20512821 , 4127.69230769 , 4130.76923077 , 4134.35897436 , 4138.46153846 , 4165.64102564 , 4581.02564103 , 4133.33333333 , 4132.30769231 , 2043.0 , 2040.0 , 6.6 , 0.0 , 0.0 , 0.0 , 0.0 , 

32.0 , 4128.71794872 , 4130.25641026 , 4156.41025641 , 4131.79487179 , 4127.69230769 , 4127.69230769 , 4126.15384615 , 4136.92307692 , 4135.38461538 , 4142.05128205 , 4166.66666667 , 4583.58974359 , 4134.87179487 , 4133.84615385 , 2044.0 , 2039.0 , 6.608 , 0.0 , 0.0 , 0.0 , 0.0 , 

33.0 , 4128.71794872 , 4129.74358974 , 4141.53846154 , 4132.30769231 , 4130.25641026 , 4127.69230769 , 4126.66666667 , 4137.43589744 , 4134.87179487 , 4144.1025641 , 4167.17948718 , 4581.02564103 , 4131.28205128 , 4135.8974359 , 2045.0 , 2037.0 , 6.616 , 0.0 , 0.0 , 0.0 , 0.0 , 

34.0 , 4130.76923077 , 4129.74358974 , 4140.51282051 , 4133.33333333 , 4131.79487179 , 4131.79487179 , 4129.23076923 , 4133.33333333 , 4135.8974359 , 4144.1025641 , 4165.64102564 , 4580.51282051 , 4128.20512821 , 4135.38461538 , 2045.0 , 2038.0 , 6.624 , 0.0 , 0.0 , 0.0 , 0.0 , 

35.0 , 4134.35897436 , 4130.25641026 , 4131.79487179 , 4131.79487179 , 4131.28205128 , 4135.8974359 , 4130.25641026 , 4129.74358974 , 4134.35897436 , 4139.48717949 , 4164.1025641 , 4579.48717949 , 4128.20512821 , 4134.35897436 , 2045.0 , 2038.0 , 6.632 , 0.0 , 0.0 , 0.0 , 0.0 , 

36.0 , 4134.35897436 , 4131.28205128 , 4149.74358974 , 4130.76923077 , 4130.76923077 , 4130.76923077 , 4128.71794872 , 4133.84615385 , 4134.35897436 , 4141.53846154 , 4167.17948718 , 4580.0 , 4132.30769231 , 4135.8974359 , 2045.0 , 2039.0 , 6.639 , 0.0 , 0.0 , 0.0 , 0.0 , 

37.0 , 4130.25641026 , 4129.23076923 , 4132.30769231 , 4133.84615385 , 4132.30769231 , 4125.12820513 , 4127.69230769 , 4130.25641026 , 4133.84615385 , 4138.46153846 , 4165.64102564 , 4580.51282051 , 4129.23076923 , 4134.35897436 , 2044.0 , 2040.0 , 6.646 , 0.0 , 0.0 , 0.0 , 0.0 , 

38.0 , 4130.76923077 , 4129.23076923 , 4123.07692308 , 4134.35897436 , 4133.84615385 , 4128.71794872 , 4129.74358974 , 4129.23076923 , 4133.84615385 , 4136.41025641 , 4164.61538462 , 4582.05128205 , 4129.74358974 , 4132.30769231 , 2045.0 , 2040.0 , 6.654 , 0.0 , 0.0 , 0.0 , 0.0 , 

39.0 , 4132.82051282 , 4131.79487179 , 4111.79487179 , 4131.28205128 , 4131.28205128 , 4128.71794872 , 4131.28205128 , 4132.30769231 , 4132.82051282 , 4138.46153846 , 4167.17948718 , 4581.53846154 , 4132.30769231 , 4133.33333333 , 2044.0 , 2041.0 , 6.663 , 0.0 , 0.0 , 0.0 , 0.0 , 

40.0 , 4130.76923077 , 4129.74358974 , 4116.92307692 , 4131.28205128 , 4130.76923077 , 4127.17948718 , 4129.23076923 , 4133.84615385 , 4134.87179487 , 4141.02564103 , 4167.69230769 , 4582.56410256 , 4132.30769231 , 4135.8974359 , 2043.0 , 2041.0 , 6.671 , 0.0 , 0.0 , 0.0 , 0.0 , 

41.0 , 4131.79487179 , 4127.69230769 , 4122.56410256 , 4131.79487179 , 4132.30769231 , 4128.20512821 , 4129.23076923 , 4134.35897436 , 4137.43589744 , 4137.94871795 , 4166.66666667 , 4583.58974359 , 4128.71794872 , 4134.87179487 , 2043.0 , 2040.0 , 6.679 , 0.0 , 0.0 , 0.0 , 0.0 , 

42.0 , 4131.28205128 , 4128.20512821 , 4136.41025641 , 4129.74358974 , 4130.76923077 , 4125.64102564 , 4132.30769231 , 4135.38461538 , 4134.87179487 , 4136.41025641 , 4168.71794872 , 4584.1025641 , 4129.74358974 , 4133.84615385 , 2042.0 , 2041.0 , 6.687 , 0.0 , 0.0 , 0.0 , 0.0 , 

43.0 , 4130.25641026 , 4129.74358974 , 4126.15384615 , 4129.74358974 , 4130.25641026 , 4123.58974359 , 4131.28205128 , 4133.33333333 , 4132.82051282 , 4141.02564103 , 4167.69230769 , 4585.12820513 , 4131.28205128 , 4135.8974359 , 2042.0 , 2040.0 , 6.695 , 0.0 , 0.0 , 0.0 , 0.0 , 

44.0 , 4130.25641026 , 4128.20512821 , 4115.38461538 , 4131.28205128 , 4129.23076923 , 4125.12820513 , 4128.20512821 , 4131.79487179 , 4136.92307692 , 4143.58974359 , 4164.1025641 , 4580.0 , 4128.71794872 , 4134.87179487 , 2041.0 , 2040.0 , 6.702 , 0.0 , 0.0 , 0.0 , 0.0 , 

45.0 , 4133.33333333 , 4127.69230769 , 4122.56410256 , 4132.30769231 , 4127.17948718 , 4126.66666667 , 4128.20512821 , 4135.8974359 , 4135.8974359 , 4144.1025641 , 4165.64102564 , 4578.46153846 , 4130.76923077 , 4134.87179487 , 2041.0 , 2039.0 , 6.71 , 0.0 , 0.0 , 0.0 , 0.0 , 

46.0 , 4129.23076923 , 4128.71794872 , 4136.92307692 , 4131.28205128 , 4128.20512821 , 4129.23076923 , 4128.71794872 , 4137.94871795 , 4130.25641026 , 4143.07692308 , 4168.71794872 , 4582.56410256 , 4133.33333333 , 4135.8974359 , 2041.0 , 2037.0 , 6.718 , 0.0 , 0.0 , 0.0 , 0.0 , 

47.0 , 4128.71794872 , 4129.74358974 , 4123.07692308 , 4132.30769231 , 4132.30769231 , 4135.38461538 , 4130.25641026 , 4135.8974359 , 4131.28205128 , 4144.1025641 , 4168.20512821 , 4584.1025641 , 4132.82051282 , 4136.41025641 , 2041.0 , 2037.0 , 6.726 , 0.0 , 0.0 , 0.0 , 0.0 , 

48.0 , 4132.82051282 , 4129.23076923 , 4117.94871795 , 4134.35897436 , 4131.28205128 , 4134.87179487 , 4129.23076923 , 4130.25641026 , 4133.84615385 , 4144.61538462 , 4164.1025641 , 4578.46153846 , 4128.20512821 , 4135.8974359 , 2042.0 , 2037.0 , 6.733 , 0.0 , 0.0 , 0.0 , 0.0 , 

49.0 , 4134.35897436 , 4129.23076923 , 4128.20512821 , 4133.84615385 , 4128.71794872 , 4132.82051282 , 4128.71794872 , 4131.28205128 , 4136.92307692 , 4144.61538462 , 4164.1025641 , 4578.97435897 , 4128.71794872 , 4135.38461538 , 2041.0 , 2037.0 , 6.741 , 0.0 , 0.0 , 0.0 , 0.0 , 

50.0 , 4129.74358974 , 4129.74358974 , 4138.97435897 , 4129.74358974 , 4129.74358974 , 4132.30769231 , 4130.76923077 , 4135.38461538 , 4139.48717949 , 4143.07692308 , 4168.20512821 , 4581.53846154 , 4133.84615385 , 4135.38461538 , 2042.0 , 2038.0 , 6.75 , 0.0 , 0.0 , 0.0 , 0.0 , 

51.0 , 4128.71794872 , 4130.25641026 , 4139.48717949 , 4130.25641026 , 4131.28205128 , 4129.23076923 , 4132.30769231 , 4136.41025641 , 4140.0 , 4147.17948718 , 4170.25641026 , 4581.02564103 , 4134.87179487 , 4136.92307692 , 2041.0 , 2036.0 , 6.758 , 0.0 , 0.0 , 0.0 , 0.0 , 

52.0 , 4131.28205128 , 4129.74358974 , 4133.84615385 , 4133.33333333 , 4130.76923077 , 4126.15384615 , 4129.74358974 , 4133.33333333 , 4138.46153846 , 4146.15384615 , 4166.66666667 , 4579.48717949 , 4131.79487179 , 4135.38461538 , 2041.0 , 2037.0 , 6.766 , 0.0 , 0.0 , 0.0 , 0.0 , 

53.0 , 4132.82051282 , 4131.79487179 , 4151.79487179 , 4130.76923077 , 4130.25641026 , 4127.17948718 , 4128.71794872 , 4135.8974359 , 4139.48717949 , 4142.56410256 , 4168.20512821 , 4580.51282051 , 4131.79487179 , 4133.84615385 , 2041.0 , 2035.0 , 6.773 , 0.0 , 0.0 , 0.0 , 0.0 , 

54.0 , 4131.28205128 , 4130.76923077 , 4145.12820513 , 4128.20512821 , 4128.20512821 , 4128.20512821 , 4130.76923077 , 4134.35897436 , 4137.43589744 , 4141.02564103 , 4166.66666667 , 4579.48717949 , 4129.23076923 , 4134.35897436 , 2041.0 , 2036.0 , 6.782 , 0.0 , 0.0 , 0.0 , 0.0 , 

55.0 , 4130.76923077 , 4130.25641026 , 4136.41025641 , 4131.79487179 , 4127.69230769 , 4127.17948718 , 4130.25641026 , 4132.30769231 , 4137.43589744 , 4142.56410256 , 4162.05128205 , 4580.0 , 4129.23076923 , 4135.8974359 , 2041.0 , 2039.0 , 6.789 , 0.0 , 0.0 , 0.0 , 0.0 , 

56.0 , 4131.79487179 , 4131.28205128 , 4117.43589744 , 4133.84615385 , 4129.74358974 , 4129.74358974 , 4129.74358974 , 4129.74358974 , 4133.33333333 , 4137.43589744 , 4161.53846154 , 4578.46153846 , 4127.69230769 , 4132.82051282 , 2041.0 , 2039.0 , 6.803 , 0.0 , 0.0 , 0.0 , 0.0 , 

57.0 , 4131.79487179 , 4129.23076923 , 4132.82051282 , 4130.25641026 , 4130.76923077 , 4130.25641026 , 4130.25641026 , 4132.82051282 , 4131.28205128 , 4137.94871795 , 4167.17948718 , 4579.48717949 , 4127.17948718 , 4134.87179487 , 2042.0 , 2038.0 , 6.806 , 0.0 , 0.0 , 0.0 , 0.0 , 

58.0 , 4132.30769231 , 4125.64102564 , 4125.12820513 , 4130.25641026 , 4129.74358974 , 4126.66666667 , 4130.25641026 , 4135.38461538 , 4135.8974359 , 4143.07692308 , 4167.17948718 , 4579.48717949 , 4126.66666667 , 4137.94871795 , 2042.0 , 2038.0 , 6.814 , 0.0 , 0.0 , 0.0 , 0.0 , 

59.0 , 4132.82051282 , 4127.69230769 , 4125.64102564 , 4133.84615385 , 4128.20512821 , 4127.17948718 , 4130.25641026 , 4134.35897436 , 4140.51282051 , 4145.12820513 , 4165.12820513 , 4578.97435897 , 4132.30769231 , 4135.8974359 , 2042.0 , 2038.0 , 6.822 , 0.0 , 0.0 , 0.0 , 0.0 , 

60.0 , 4133.33333333 , 4132.30769231 , 4125.64102564 , 4133.33333333 , 4130.76923077 , 4132.30769231 , 4129.74358974 , 4131.79487179 , 4135.8974359 , 4138.97435897 , 4165.64102564 , 4578.97435897 , 4134.35897436 , 4133.84615385 , 2041.0 , 2037.0 , 6.829 , 0.0 , 0.0 , 0.0 , 0.0 , 

61.0 , 4131.79487179 , 4130.76923077 , 4143.58974359 , 4129.74358974 , 4132.30769231 , 4134.87179487 , 4128.71794872 , 4134.35897436 , 4134.87179487 , 4140.51282051 , 4167.17948718 , 4578.46153846 , 4132.82051282 , 4133.33333333 , 2041.0 , 2036.0 , 6.835 , 0.0 , 0.0 , 0.0 , 0.0 , 

62.0 , 4131.28205128 , 4129.74358974 , 4136.92307692 , 4130.25641026 , 4129.74358974 , 4126.15384615 , 4129.74358974 , 4134.87179487 , 4140.51282051 , 4144.1025641 , 4168.71794872 , 4579.48717949 , 4130.25641026 , 4134.35897436 , 2043.0 , 2035.0 , 6.843 , 0.0 , 0.0 , 0.0 , 0.0 , 

63.0 , 4130.25641026 , 4130.76923077 , 4142.56410256 , 4132.30769231 , 4126.66666667 , 4123.07692308 , 4130.25641026 , 4134.87179487 , 4143.07692308 , 4142.05128205 , 4168.20512821 , 4581.53846154 , 4132.82051282 , 4134.87179487 , 2042.0 , 2034.0 , 6.852 , 0.0 , 0.0 , 0.0 , 0.0 , 

64.0 , 4131.28205128 , 4131.28205128 , 4145.64102564 , 4132.82051282 , 4129.74358974 , 4135.38461538 , 4130.25641026 , 4136.41025641 , 4137.43589744 , 4140.0 , 4167.17948718 , 4581.02564103 , 4135.38461538 , 4134.87179487 , 2045.0 , 2035.0 , 6.859 , 0.0 , 0.0 , 0.0 , 0.0 , 

65.0 , 4130.25641026 , 4128.20512821 , 4146.15384615 , 4130.25641026 , 4130.76923077 , 4141.02564103 , 4129.74358974 , 4132.82051282 , 4136.41025641 , 4141.53846154 , 4164.61538462 , 4575.8974359 , 4131.79487179 , 4131.79487179 , 2044.0 , 2034.0 , 6.867 , 0.0 , 0.0 , 0.0 , 0.0 , 

66.0 , 4130.76923077 , 4128.71794872 , 4142.56410256 , 4129.74358974 , 4128.20512821 , 4130.76923077 , 4130.76923077 , 4131.28205128 , 4138.46153846 , 4141.53846154 , 4165.12820513 , 4579.48717949 , 4129.74358974 , 4131.79487179 , 2043.0 , 2033.0 , 6.876 , 0.0 , 0.0 , 0.0 , 0.0 , 

67.0 , 4131.28205128 , 4131.28205128 , 4130.76923077 , 4130.25641026 , 4128.71794872 , 4127.17948718 , 4130.25641026 , 4133.84615385 , 4134.35897436 , 4137.43589744 , 4168.20512821 , 4583.58974359 , 4129.74358974 , 4132.82051282 , 2044.0 , 2034.0 , 6.884 , 0.0 , 0.0 , 0.0 , 0.0 , 

68.0 , 4131.79487179 , 4128.71794872 , 4127.69230769 , 4129.74358974 , 4130.76923077 , 4135.8974359 , 4129.23076923 , 4133.33333333 , 4133.33333333 , 4139.48717949 , 4166.15384615 , 4580.51282051 , 4132.30769231 , 4133.84615385 , 2043.0 , 2035.0 , 6.892 , 0.0 , 0.0 , 0.0 , 0.0 , 

69.0 , 4131.28205128 , 4125.12820513 , 4128.71794872 , 4131.28205128 , 4130.76923077 , 4135.8974359 , 4128.20512821 , 4130.76923077 , 4138.46153846 , 4140.0 , 4162.05128205 , 4578.46153846 , 4131.28205128 , 4133.33333333 , 2041.0 , 2037.0 , 6.899 , 0.0 , 0.0 , 0.0 , 0.0 , 

70.0 , 4133.33333333 , 4129.23076923 , 4132.82051282 , 4133.33333333 , 4130.25641026 , 4132.82051282 , 4129.23076923 , 4134.87179487 , 4136.41025641 , 4142.56410256 , 4165.64102564 , 4584.61538462 , 4130.76923077 , 4132.82051282 , 2041.0 , 2037.0 , 6.907 , 0.0 , 0.0 , 0.0 , 0.0 , 

71.0 , 4133.84615385 , 4133.84615385 , 4109.23076923 , 4132.30769231 , 4130.25641026 , 4132.30769231 , 4132.30769231 , 4133.84615385 , 4130.76923077 , 4143.07692308 , 4165.64102564 , 4584.61538462 , 4127.69230769 , 4133.84615385 , 2040.0 , 2033.0 , 6.915 , 0.0 , 0.0 , 0.0 , 0.0 , 

72.0 , 4132.82051282 , 4132.30769231 , 4122.05128205 , 4133.33333333 , 4129.74358974 , 4134.35897436 , 4131.79487179 , 4132.30769231 , 4136.41025641 , 4143.07692308 , 4163.07692308 , 4582.56410256 , 4130.25641026 , 4137.43589744 , 2042.0 , 2033.0 , 6.923 , 0.0 , 0.0 , 0.0 , 0.0 , 

73.0 , 4132.30769231 , 4130.25641026 , 4132.82051282 , 4132.30769231 , 4129.23076923 , 4136.41025641 , 4129.23076923 , 4133.33333333 , 4137.43589744 , 4138.97435897 , 4164.61538462 , 4580.51282051 , 4130.25641026 , 4136.41025641 , 2041.0 , 2033.0 , 6.93 , 0.0 , 0.0 , 0.0 , 0.0 , 

74.0 , 4132.82051282 , 4130.25641026 , 4135.8974359 , 4130.25641026 , 4129.23076923 , 4135.8974359 , 4129.23076923 , 4134.87179487 , 4134.87179487 , 4138.97435897 , 4168.20512821 , 4584.1025641 , 4131.28205128 , 4134.87179487 , 2041.0 , 2033.0 , 6.939 , 0.0 , 0.0 , 0.0 , 0.0 , 

75.0 , 4132.30769231 , 4131.28205128 , 4120.0 , 4132.82051282 , 4129.74358974 , 4133.84615385 , 4130.25641026 , 4130.76923077 , 4131.79487179 , 4138.46153846 , 4166.15384615 , 4581.53846154 , 4130.76923077 , 4134.87179487 , 2044.0 , 2035.0 , 6.947 , 0.0 , 0.0 , 0.0 , 0.0 , 

76.0 , 4132.30769231 , 4132.30769231 , 4127.17948718 , 4133.84615385 , 4130.25641026 , 4130.76923077 , 4128.71794872 , 4128.71794872 , 4130.25641026 , 4138.97435897 , 4165.12820513 , 4576.41025641 , 4128.71794872 , 4133.33333333 , 2044.0 , 2034.0 , 6.955 , 0.0 , 0.0 , 0.0 , 0.0 , 

77.0 , 4133.84615385 , 4130.76923077 , 4127.69230769 , 4131.79487179 , 4130.25641026 , 4128.20512821 , 4128.71794872 , 4128.20512821 , 4132.30769231 , 4137.94871795 , 4163.07692308 , 4578.46153846 , 4127.17948718 , 4131.79487179 , 2045.0 , 2033.0 , 6.962 , 0.0 , 0.0 , 0.0 , 0.0 , 

78.0 , 4131.28205128 , 4128.71794872 , 4133.33333333 , 4132.30769231 , 4129.74358974 , 4126.15384615 , 4129.23076923 , 4132.82051282 , 4140.0 , 4137.94871795 , 4162.05128205 , 4583.58974359 , 4128.71794872 , 4132.30769231 , 2047.0 , 2032.0 , 6.97 , 0.0 , 0.0 , 0.0 , 0.0 , 

79.0 , 4129.74358974 , 4130.76923077 , 4124.61538462 , 4132.82051282 , 4129.23076923 , 4130.25641026 , 4129.74358974 , 4135.38461538 , 4140.51282051 , 4142.05128205 , 4165.64102564 , 4578.97435897 , 4129.74358974 , 4131.79487179 , 2047.0 , 2032.0 , 6.978 , 0.0 , 0.0 , 0.0 , 0.0 , 

80.0 , 4128.20512821 , 4131.28205128 , 4133.84615385 , 4129.74358974 , 4128.71794872 , 4131.79487179 , 4128.20512821 , 4135.38461538 , 4135.8974359 , 4145.64102564 , 4168.71794872 , 4575.38461538 , 4130.76923077 , 4132.82051282 , 2047.0 , 2032.0 , 6.986 , 0.0 , 0.0 , 0.0 , 0.0 , 

81.0 , 4130.25641026 , 4127.69230769 , 4130.76923077 , 4130.76923077 , 4129.23076923 , 4131.28205128 , 4128.71794872 , 4135.38461538 , 4135.8974359 , 4144.1025641 , 4166.15384615 , 4584.1025641 , 4130.76923077 , 4135.38461538 , 2047.0 , 2033.0 , 6.993 , 0.0 , 0.0 , 0.0 , 0.0 , 

82.0 , 4131.28205128 , 4126.66666667 , 4130.25641026 , 4130.76923077 , 4129.23076923 , 4130.25641026 , 4129.74358974 , 4135.8974359 , 4138.46153846 , 4142.56410256 , 4163.58974359 , 4585.12820513 , 4130.76923077 , 4133.33333333 , 2049.0 , 2033.0 , 7.002 , 0.0 , 0.0 , 0.0 , 0.0 , 

83.0 , 4132.82051282 , 4129.74358974 , 4127.17948718 , 4129.23076923 , 4129.23076923 , 4128.20512821 , 4129.74358974 , 4135.8974359 , 4138.46153846 , 4142.56410256 , 4165.12820513 , 4580.0 , 4129.74358974 , 4131.79487179 , 2046.0 , 2031.0 , 7.009 , 0.0 , 0.0 , 0.0 , 0.0 , 

84.0 , 4132.30769231 , 4128.20512821 , 4130.25641026 , 4129.74358974 , 4130.76923077 , 4126.66666667 , 4128.20512821 , 4132.82051282 , 4137.43589744 , 4141.02564103 , 4165.12820513 , 4580.51282051 , 4129.74358974 , 4133.84615385 , 2046.0 , 2032.0 , 7.018 , 0.0 , 0.0 , 0.0 , 0.0 , 

85.0 , 4130.76923077 , 4128.71794872 , 4125.12820513 , 4132.30769231 , 4131.28205128 , 4129.23076923 , 4129.74358974 , 4131.28205128 , 4138.97435897 , 4140.51282051 , 4164.61538462 , 4582.05128205 , 4131.79487179 , 4136.41025641 , 2046.0 , 2030.0 , 7.026 , 0.0 , 0.0 , 0.0 , 0.0 , 

86.0 , 4128.71794872 , 4133.84615385 , 4123.58974359 , 4131.28205128 , 4128.71794872 , 4129.74358974 , 4130.25641026 , 4134.35897436 , 4138.97435897 , 4139.48717949 , 4164.1025641 , 4578.46153846 , 4132.30769231 , 4133.33333333 , 2043.0 , 2030.0 , 7.033 , 0.0 , 0.0 , 0.0 , 0.0 , 

87.0 , 4130.76923077 , 4134.35897436 , 4132.82051282 , 4130.76923077 , 4127.17948718 , 4129.74358974 , 4128.20512821 , 4139.48717949 , 4136.92307692 , 4140.51282051 , 4163.07692308 , 4578.97435897 , 4130.76923077 , 4132.30769231 , 2042.0 , 2031.0 , 7.042 , 0.0 , 0.0 , 0.0 , 0.0 , 

88.0 , 4132.82051282 , 4129.74358974 , 4131.79487179 , 4135.38461538 , 4128.20512821 , 4131.79487179 , 4128.20512821 , 4135.38461538 , 4134.87179487 , 4141.02564103 , 4163.07692308 , 4577.43589744 , 4129.23076923 , 4134.87179487 , 2042.0 , 2032.0 , 7.049 , 0.0 , 0.0 , 0.0 , 0.0 , 

89.0 , 4130.76923077 , 4127.69230769 , 4134.87179487 , 4137.43589744 , 4130.25641026 , 4130.25641026 , 4130.25641026 , 4131.79487179 , 4135.38461538 , 4144.61538462 , 4166.66666667 , 4577.94871795 , 4130.76923077 , 4137.43589744 , 2043.0 , 2032.0 , 7.056 , 0.0 , 0.0 , 0.0 , 0.0 , 

90.0 , 4127.69230769 , 4128.71794872 , 4126.66666667 , 4131.79487179 , 4130.25641026 , 4128.71794872 , 4130.25641026 , 4132.82051282 , 4136.41025641 , 4145.12820513 , 4166.66666667 , 4580.0 , 4130.76923077 , 4135.38461538 , 2040.0 , 2030.0 , 7.066 , 0.0 , 0.0 , 0.0 , 0.0 , 

91.0 , 4129.74358974 , 4128.71794872 , 4139.48717949 , 4130.25641026 , 4130.76923077 , 4129.23076923 , 4128.71794872 , 4134.87179487 , 4137.94871795 , 4144.61538462 , 4166.15384615 , 4579.48717949 , 4130.25641026 , 4133.84615385 , 2040.0 , 2030.0 , 7.074 , 0.0 , 0.0 , 0.0 , 0.0 , 

92.0 , 4132.30769231 , 4127.69230769 , 4140.0 , 4133.33333333 , 4131.79487179 , 4128.71794872 , 4128.71794872 , 4133.33333333 , 4135.8974359 , 4144.61538462 , 4165.64102564 , 4575.38461538 , 4126.15384615 , 4134.35897436 , 2041.0 , 2030.0 , 7.082 , 0.0 , 0.0 , 0.0 , 0.0 , 

93.0 , 4129.74358974 , 4128.20512821 , 4144.61538462 , 4133.84615385 , 4130.76923077 , 4128.71794872 , 4128.71794872 , 4135.38461538 , 4135.38461538 , 4146.66666667 , 4165.64102564 , 4573.84615385 , 4128.71794872 , 4135.38461538 , 2041.0 , 2031.0 , 7.089 , 0.0 , 0.0 , 0.0 , 0.0 , 

94.0 , 4128.71794872 , 4132.30769231 , 4133.33333333 , 4134.35897436 , 4129.74358974 , 4128.20512821 , 4128.20512821 , 4133.33333333 , 4134.35897436 , 4143.07692308 , 4164.61538462 , 4574.87179487 , 4132.30769231 , 4135.8974359 , 2041.0 , 2033.0 , 7.096 , 0.0 , 0.0 , 0.0 , 0.0 , 

95.0 , 4130.76923077 , 4130.76923077 , 4161.53846154 , 4134.87179487 , 4128.71794872 , 4127.17948718 , 4128.20512821 , 4131.79487179 , 4135.38461538 , 4140.51282051 , 4166.66666667 , 4580.51282051 , 4132.82051282 , 4135.8974359 , 2040.0 , 2032.0 , 7.104 , 0.0 , 0.0 , 0.0 , 0.0 , 

96.0 , 4133.84615385 , 4125.64102564 , 4149.74358974 , 4132.82051282 , 4128.20512821 , 4127.17948718 , 4128.71794872 , 4131.28205128 , 4133.33333333 , 4137.94871795 , 4164.61538462 , 4580.51282051 , 4129.23076923 , 4134.35897436 , 2042.0 , 2034.0 , 7.114 , 0.0 , 0.0 , 0.0 , 0.0 , 

97.0 , 4131.28205128 , 4128.20512821 , 4135.8974359 , 4131.28205128 , 4129.74358974 , 4132.30769231 , 4128.71794872 , 4133.84615385 , 4131.79487179 , 4140.51282051 , 4165.12820513 , 4578.97435897 , 4130.25641026 , 4134.35897436 , 2044.0 , 2038.0 , 7.119 , 0.0 , 0.0 , 0.0 , 0.0 , 

98.0 , 4129.74358974 , 4131.28205128 , 4126.66666667 , 4133.33333333 , 4131.28205128 , 4136.41025641 , 4128.20512821 , 4133.33333333 , 4129.74358974 , 4141.53846154 , 4168.20512821 , 4578.97435897 , 4129.23076923 , 4134.35897436 , 2043.0 , 2039.0 , 7.128 , 0.0 , 0.0 , 0.0 , 0.0 , 

99.0 , 4130.25641026 , 4129.23076923 , 4123.58974359 , 4132.30769231 , 4129.23076923 , 4133.84615385 , 4128.71794872 , 4132.82051282 , 4131.79487179 , 4140.0 , 4165.64102564 , 4577.94871795 , 4126.15384615 , 4134.35897436 , 2044.0 , 2039.0 , 7.136 , 0.0 , 0.0 , 0.0 , 0.0 , 

100.0 , 4131.79487179 , 4129.23076923 , 4112.30769231 , 4132.30769231 , 4130.25641026 , 4125.12820513 , 4129.23076923 , 4132.82051282 , 4135.8974359 , 4141.02564103 , 4162.05128205 , 4578.46153846 , 4126.15384615 , 4134.87179487 , 2044.0 , 2038.0 , 7.144 , 0.0 , 0.0 , 0.0 , 0.0 , 

101.0 , 4130.76923077 , 4130.25641026 , 4114.35897436 , 4132.82051282 , 4131.79487179 , 4126.15384615 , 4126.66666667 , 4132.82051282 , 4137.94871795 , 4144.1025641 , 4165.64102564 , 4579.48717949 , 4128.20512821 , 4135.8974359 , 2041.0 , 2039.0 , 7.151 , 0.0 , 0.0 , 0.0 , 0.0 , 

102.0 , 4130.25641026 , 4130.76923077 , 4112.82051282 , 4131.79487179 , 4131.28205128 , 4136.41025641 , 4126.15384615 , 4132.30769231 , 4137.43589744 , 4142.05128205 , 4166.15384615 , 4578.97435897 , 4127.69230769 , 4137.94871795 , 2041.0 , 2038.0 , 7.16 , 0.0 , 0.0 , 0.0 , 0.0 , 

103.0 , 4129.74358974 , 4131.28205128 , 4135.8974359 , 4132.30769231 , 4130.76923077 , 4134.87179487 , 4129.74358974 , 4134.35897436 , 4139.48717949 , 4140.51282051 , 4164.1025641 , 4579.48717949 , 4127.17948718 , 4136.92307692 , 2039.0 , 2038.0 , 7.167 , 0.0 , 0.0 , 0.0 , 0.0 , 

104.0 , 4130.76923077 , 4132.30769231 , 4166.15384615 , 4134.35897436 , 4130.76923077 , 4131.28205128 , 4130.25641026 , 4137.94871795 , 4140.51282051 , 4145.64102564 , 4168.71794872 , 4584.61538462 , 4133.33333333 , 4136.41025641 , 2036.0 , 2035.0 , 7.174 , 0.0 , 0.0 , 0.0 , 0.0 , 

105.0 , 4131.28205128 , 4129.74358974 , 4147.69230769 , 4132.30769231 , 4129.74358974 , 4133.33333333 , 4125.64102564 , 4133.84615385 , 4135.8974359 , 4145.64102564 , 4166.66666667 , 4581.02564103 , 4132.82051282 , 4136.41025641 , 2036.0 , 2036.0 , 7.183 , 0.0 , 0.0 , 0.0 , 0.0 , 

106.0 , 4132.82051282 , 4130.25641026 , 4134.35897436 , 4130.25641026 , 4129.23076923 , 4131.28205128 , 4125.64102564 , 4131.28205128 , 4134.87179487 , 4142.05128205 , 4161.02564103 , 4577.43589744 , 4129.23076923 , 4136.92307692 , 2035.0 , 2034.0 , 7.19 , 0.0 , 0.0 , 0.0 , 0.0 , 

107.0 , 4132.82051282 , 4130.25641026 , 4146.15384615 , 4131.28205128 , 4129.74358974 , 4126.66666667 , 4129.74358974 , 4132.82051282 , 4133.33333333 , 4137.94871795 , 4163.58974359 , 4578.97435897 , 4129.74358974 , 4134.35897436 , 2036.0 , 2033.0 , 7.198 , 0.0 , 0.0 , 0.0 , 0.0 , 

108.0 , 4130.76923077 , 4129.74358974 , 4150.76923077 , 4133.33333333 , 4129.74358974 , 4131.79487179 , 4130.76923077 , 4133.33333333 , 4130.76923077 , 4138.97435897 , 4168.20512821 , 4581.53846154 , 4133.33333333 , 4135.8974359 , 2034.0 , 2028.0 , 7.207 , 0.0 , 0.0 , 0.0 , 0.0 , 

109.0 , 4130.25641026 , 4128.20512821 , 4132.82051282 , 4133.84615385 , 4129.74358974 , 4137.43589744 , 4130.25641026 , 4132.82051282 , 4131.79487179 , 4139.48717949 , 4165.12820513 , 4577.94871795 , 4128.20512821 , 4137.43589744 , 2036.0 , 2028.0 , 7.215 , 0.0 , 0.0 , 0.0 , 0.0 , 

110.0 , 4132.30769231 , 4128.71794872 , 4150.25641026 , 4132.82051282 , 4129.74358974 , 4131.28205128 , 4130.76923077 , 4133.84615385 , 4135.38461538 , 4141.02564103 , 4163.58974359 , 4576.92307692 , 4126.66666667 , 4135.8974359 , 2036.0 , 2026.0 , 7.223 , 0.0 , 0.0 , 0.0 , 0.0 , 

111.0 , 4131.28205128 , 4131.79487179 , 4145.64102564 , 4130.25641026 , 4131.28205128 , 4128.20512821 , 4130.76923077 , 4129.74358974 , 4133.33333333 , 4141.02564103 , 4164.61538462 , 4579.48717949 , 4127.69230769 , 4134.87179487 , 2037.0 , 2025.0 , 7.231 , 0.0 , 0.0 , 0.0 , 0.0 , 

112.0 , 4130.76923077 , 4131.79487179 , 4152.30769231 , 4129.74358974 , 4132.82051282 , 4130.76923077 , 4127.17948718 , 4133.84615385 , 4133.33333333 , 4144.1025641 , 4169.74358974 , 4582.56410256 , 4130.76923077 , 4136.92307692 , 2039.0 , 2025.0 , 7.237 , 0.0 , 0.0 , 0.0 , 0.0 , 

113.0 , 4133.33333333 , 4129.74358974 , 4134.87179487 , 4132.30769231 , 4132.30769231 , 4131.28205128 , 4126.15384615 , 4136.41025641 , 4133.84615385 , 4141.02564103 , 4168.20512821 , 4580.51282051 , 4128.71794872 , 4136.92307692 , 2040.0 , 2028.0 , 7.246 , 0.0 , 0.0 , 0.0 , 0.0 , 

114.0 , 4132.82051282 , 4130.25641026 , 4138.97435897 , 4132.82051282 , 4130.76923077 , 4131.79487179 , 4128.71794872 , 4134.87179487 , 4135.38461538 , 4141.02564103 , 4162.56410256 , 4580.0 , 4129.23076923 , 4136.41025641 , 2041.0 , 2029.0 , 7.254 , 0.0 , 0.0 , 0.0 , 0.0 , 

115.0 , 4130.25641026 , 4131.79487179 , 4132.30769231 , 4132.30769231 , 4130.25641026 , 4131.28205128 , 4129.74358974 , 4131.79487179 , 4131.79487179 , 4143.07692308 , 4162.56410256 , 4579.48717949 , 4129.74358974 , 4135.38461538 , 2042.0 , 2031.0 , 7.263 , 0.0 , 0.0 , 0.0 , 0.0 , 

116.0 , 4130.25641026 , 4130.25641026 , 4112.82051282 , 4131.79487179 , 4131.28205128 , 4130.76923077 , 4127.17948718 , 4131.28205128 , 4129.23076923 , 4142.05128205 , 4164.61538462 , 4577.94871795 , 4128.20512821 , 4133.33333333 , 2043.0 , 2030.0 , 7.27 , 0.0 , 0.0 , 0.0 , 0.0 , 

117.0 , 4132.30769231 , 4129.23076923 , 4093.33333333 , 4132.30769231 , 4132.82051282 , 4135.38461538 , 4127.17948718 , 4129.74358974 , 4130.76923077 , 4138.46153846 , 4162.05128205 , 4579.48717949 , 4128.20512821 , 4132.82051282 , 2045.0 , 2030.0 , 7.279 , 0.0 , 0.0 , 0.0 , 0.0 , 

118.0 , 4131.28205128 , 4128.20512821 , 4113.33333333 , 4132.30769231 , 4131.28205128 , 4133.84615385 , 4128.71794872 , 4131.28205128 , 4132.82051282 , 4138.46153846 , 4162.05128205 , 4579.48717949 , 4130.25641026 , 4134.87179487 , 2046.0 , 2031.0 , 7.286 , 0.0 , 0.0 , 0.0 , 0.0 , 

119.0 , 4132.30769231 , 4128.20512821 , 4127.69230769 , 4132.30769231 , 4130.25641026 , 4126.15384615 , 4130.76923077 , 4135.38461538 , 4135.8974359 , 4143.58974359 , 4164.61538462 , 4579.48717949 , 4132.82051282 , 4135.38461538 , 2046.0 , 2031.0 , 7.295 , 0.0 , 0.0 , 0.0 , 0.0 , 

120.0 , 4131.28205128 , 4130.25641026 , 4118.97435897 , 4130.25641026 , 4129.23076923 , 4125.64102564 , 4130.25641026 , 4132.30769231 , 4135.38461538 , 4142.56410256 , 4164.1025641 , 4578.46153846 , 4131.79487179 , 4133.33333333 , 2046.0 , 2033.0 , 7.301 , 0.0 , 0.0 , 0.0 , 0.0 , 

121.0 , 4130.25641026 , 4129.23076923 , 4111.79487179 , 4130.76923077 , 4129.74358974 , 4131.79487179 , 4129.23076923 , 4130.76923077 , 4132.30769231 , 4140.51282051 , 4167.17948718 , 4581.02564103 , 4130.25641026 , 4136.92307692 , 2045.0 , 2034.0 , 7.308 , 0.0 , 0.0 , 0.0 , 0.0 , 

122.0 , 4129.74358974 , 4128.20512821 , 4114.87179487 , 4132.82051282 , 4130.25641026 , 4131.28205128 , 4129.23076923 , 4132.82051282 , 4130.76923077 , 4139.48717949 , 4166.15384615 , 4577.94871795 , 4127.17948718 , 4136.92307692 , 2045.0 , 2034.0 , 7.317 , 0.0 , 0.0 , 0.0 , 0.0 , 

123.0 , 4131.28205128 , 4132.82051282 , 4114.35897436 , 4132.82051282 , 4130.76923077 , 4126.66666667 , 4130.25641026 , 4134.35897436 , 4136.41025641 , 4142.56410256 , 4163.58974359 , 4574.87179487 , 4128.71794872 , 4132.82051282 , 2047.0 , 2033.0 , 7.325 , 0.0 , 0.0 , 0.0 , 0.0 , 

124.0 , 4130.76923077 , 4132.82051282 , 4122.56410256 , 4131.28205128 , 4130.25641026 , 4126.15384615 , 4130.76923077 , 4131.28205128 , 4136.92307692 , 4143.07692308 , 4166.66666667 , 4576.41025641 , 4131.28205128 , 4133.33333333 , 2046.0 , 2033.0 , 7.333 , 0.0 , 0.0 , 0.0 , 0.0 , 

125.0 , 4129.74358974 , 4129.74358974 , 4124.1025641 , 4131.28205128 , 4129.23076923 , 4132.30769231 , 4130.25641026 , 4132.30769231 , 4132.30769231 , 4142.56410256 , 4167.69230769 , 4580.51282051 , 4130.76923077 , 4136.92307692 , 2046.0 , 2034.0 , 7.341 , 0.0 , 0.0 , 0.0 , 0.0 , 

126.0 , 4128.20512821 , 4129.23076923 , 4130.76923077 , 4129.74358974 , 4129.23076923 , 4135.38461538 , 4129.74358974 , 4135.8974359 , 4135.38461538 , 4144.61538462 , 4166.15384615 , 4581.53846154 , 4130.76923077 , 4135.38461538 , 2045.0 , 2032.0 , 7.349 , 0.0 , 0.0 , 0.0 , 0.0 , 

127.0 , 4129.74358974 , 4128.20512821 , 4171.28205128 , 4129.23076923 , 4129.23076923 , 4132.30769231 , 4129.74358974 , 4137.43589744 , 4141.53846154 , 4149.23076923 , 4168.20512821 , 4581.02564103 , 4132.82051282 , 4135.8974359 , 2042.0 , 2031.0 , 7.357 , 0.0 , 0.0 , 0.0 , 0.0 , 

128.0 , 4130.76923077 , 4126.15384615 , 4161.53846154 , 4131.79487179 , 4129.74358974 , 4133.33333333 , 4129.23076923 , 4134.35897436 , 4137.94871795 , 4145.12820513 , 4166.15384615 , 4578.97435897 , 4130.76923077 , 4136.41025641 , 2041.0 , 2030.0 , 7.364 , 0.0 , 0.0 , 0.0 , 0.0 , 

0.0 , 4128.20512821 , 4127.69230769 , 4147.69230769 , 4134.35897436 , 4130.76923077 , 4134.35897436 , 4128.71794872 , 4136.41025641 , 4136.41025641 , 4142.05128205 , 4164.61538462 , 4578.46153846 , 4132.30769231 , 4131.28205128 , 2041.0 , 2031.0 , 7.372 , 0.0 , 0.0 , 0.0 , 0.0 , 

1.0 , 4129.23076923 , 4132.30769231 , 4135.8974359 , 4134.35897436 , 4131.28205128 , 4123.58974359 , 4129.74358974 , 4135.38461538 , 4137.43589744 , 4143.07692308 , 4167.17948718 , 4579.48717949 , 4131.79487179 , 4130.25641026 , 2040.0 , 2030.0 , 7.38 , 0.0 , 0.0 , 0.0 , 0.0 , 

2.0 , 4132.30769231 , 4130.76923077 , 4143.07692308 , 4134.35897436 , 4130.76923077 , 4124.1025641 , 4129.23076923 , 4133.33333333 , 4136.41025641 , 4145.64102564 , 4166.15384615 , 4576.41025641 , 4127.69230769 , 4134.87179487 , 2038.0 , 2027.0 , 7.388 , 0.0 , 0.0 , 0.0 , 0.0 , 

3.0 , 4131.79487179 , 4126.15384615 , 4123.07692308 , 4132.82051282 , 4130.25641026 , 4135.8974359 , 4128.20512821 , 4130.76923077 , 4131.28205128 , 4139.48717949 , 4161.53846154 , 4573.84615385 , 4127.69230769 , 4136.41025641 , 2040.0 , 2027.0 , 7.395 , 0.0 , 0.0 , 0.0 , 0.0 , 

4.0 , 4130.25641026 , 4127.69230769 , 4138.97435897 , 4130.25641026 , 4130.25641026 , 4135.8974359 , 4128.71794872 , 4135.38461538 , 4133.84615385 , 4139.48717949 , 4167.17948718 , 4580.51282051 , 4134.35897436 , 4134.87179487 , 2040.0 , 2025.0 , 7.404 , 0.0 , 0.0 , 0.0 , 0.0 , 

5.0 , 4131.79487179 , 4131.79487179 , 4133.33333333 , 4131.79487179 , 4130.76923077 , 4129.74358974 , 4129.74358974 , 4136.41025641 , 4134.87179487 , 4144.1025641 , 4169.23076923 , 4581.02564103 , 4129.74358974 , 4131.28205128 , 2042.0 , 2025.0 , 7.412 , 0.0 , 0.0 , 0.0 , 0.0 , 

6.0 , 4130.76923077 , 4130.76923077 , 4121.02564103 , 4133.84615385 , 4131.28205128 , 4127.69230769 , 4129.23076923 , 4132.82051282 , 4135.8974359 , 4143.58974359 , 4160.51282051 , 4575.8974359 , 4126.15384615 , 4132.30769231 , 2041.0 , 2023.0 , 7.419 , 0.0 , 0.0 , 0.0 , 0.0 , 

7.0 , 4131.79487179 , 4129.74358974 , 4123.07692308 , 4133.84615385 , 4132.30769231 , 4128.71794872 , 4128.71794872 , 4132.30769231 , 4136.41025641 , 4141.02564103 , 4160.0 , 4575.8974359 , 4131.79487179 , 4136.41025641 , 2041.0 , 2021.0 , 7.427 , 0.0 , 0.0 , 0.0 , 0.0 , 

8.0 , 4131.79487179 , 4132.30769231 , 4136.92307692 , 4131.79487179 , 4130.25641026 , 4128.71794872 , 4127.69230769 , 4134.87179487 , 4133.84615385 , 4143.07692308 , 4167.69230769 , 4576.92307692 , 4132.82051282 , 4136.92307692 , 2041.0 , 2023.0 , 7.435 , 0.0 , 0.0 , 0.0 , 0.0 , 

9.0 , 4131.28205128 , 4130.76923077 , 4130.25641026 , 4131.28205128 , 4130.25641026 , 4129.74358974 , 4129.74358974 , 4133.33333333 , 4132.30769231 , 4143.58974359 , 4167.69230769 , 4575.38461538 , 4128.71794872 , 4136.41025641 , 2041.0 , 2025.0 , 7.443 , 0.0 , 0.0 , 0.0 , 0.0 , 

10.0 , 4130.25641026 , 4128.20512821 , 4124.61538462 , 4131.28205128 , 4130.25641026 , 4129.23076923 , 4130.76923077 , 4129.23076923 , 4133.33333333 , 4137.94871795 , 4162.05128205 , 4574.87179487 , 4126.66666667 , 4135.8974359 , 2041.0 , 2024.0 , 7.451 , 0.0 , 0.0 , 0.0 , 0.0 , 

11.0 , 4132.30769231 , 4131.79487179 , 4120.51282051 , 4131.28205128 , 4129.74358974 , 4130.76923077 , 4128.71794872 , 4130.76923077 , 4132.82051282 , 4138.46153846 , 4163.07692308 , 4576.92307692 , 4128.71794872 , 4134.87179487 , 2039.0 , 2024.0 , 7.458 , 0.0 , 0.0 , 0.0 , 0.0 , 

12.0 , 4130.76923077 , 4130.76923077 , 4127.69230769 , 4129.74358974 , 4129.74358974 , 4132.30769231 , 4127.17948718 , 4133.84615385 , 4132.82051282 , 4143.07692308 , 4165.64102564 , 4577.43589744 , 4129.23076923 , 4132.82051282 , 2036.0 , 2026.0 , 7.467 , 0.0 , 0.0 , 0.0 , 0.0 , 

13.0 , 4130.76923077 , 4128.71794872 , 4142.05128205 , 4131.28205128 , 4132.30769231 , 4126.15384615 , 4129.23076923 , 4135.8974359 , 4136.41025641 , 4142.56410256 , 4167.17948718 , 4578.46153846 , 4131.79487179 , 4134.87179487 , 2038.0 , 2026.0 , 7.475 , 0.0 , 0.0 , 0.0 , 0.0 , 

14.0 , 4130.76923077 , 4130.76923077 , 4133.33333333 , 4133.84615385 , 4133.33333333 , 4126.15384615 , 4129.74358974 , 4135.38461538 , 4137.94871795 , 4136.92307692 , 4168.71794872 , 4577.94871795 , 4131.79487179 , 4135.8974359 , 2036.0 , 2026.0 , 7.483 , 0.0 , 0.0 , 0.0 , 0.0 , 

15.0 , 4132.30769231 , 4132.30769231 , 4123.07692308 , 4133.84615385 , 4129.23076923 , 4133.84615385 , 4128.71794872 , 4135.38461538 , 4138.46153846 , 4140.0 , 4168.20512821 , 4579.48717949 , 4129.23076923 , 4136.41025641 , 2036.0 , 2025.0 , 7.489 , 0.0 , 0.0 , 0.0 , 0.0 , 

16.0 , 4132.82051282 , 4129.74358974 , 4133.84615385 , 4131.79487179 , 4128.20512821 , 4134.87179487 , 4127.69230769 , 4135.38461538 , 4138.46153846 , 4142.56410256 , 4164.61538462 , 4576.92307692 , 4127.69230769 , 4133.84615385 , 2037.0 , 2022.0 , 7.498 , 0.0 , 0.0 , 0.0 , 0.0 , 

17.0 , 4132.82051282 , 4130.25641026 , 4157.94871795 , 4129.74358974 , 4134.35897436 , 4129.23076923 , 4128.71794872 , 4137.94871795 , 4137.43589744 , 4143.58974359 , 4165.12820513 , 4577.43589744 , 4132.30769231 , 4132.82051282 , 2037.0 , 2021.0 , 7.506 , 0.0 , 0.0 , 0.0 , 0.0 , 

18.0 , 4131.79487179 , 4131.79487179 , 4132.30769231 , 4131.79487179 , 4135.38461538 , 4125.64102564 , 4128.71794872 , 4134.87179487 , 4135.38461538 , 4141.53846154 , 4162.56410256 , 4577.43589744 , 4131.79487179 , 4134.87179487 , 2037.0 , 2022.0 , 7.513 , 0.0 , 0.0 , 0.0 , 0.0 , 

19.0 , 4131.79487179 , 4129.74358974 , 4137.94871795 , 4133.84615385 , 4129.74358974 , 4126.66666667 , 4128.71794872 , 4134.87179487 , 4136.92307692 , 4144.61538462 , 4160.51282051 , 4575.38461538 , 4131.28205128 , 4137.94871795 , 2040.0 , 2021.0 , 7.521 , 0.0 , 0.0 , 0.0 , 0.0 , 

20.0 , 4131.79487179 , 4127.69230769 , 4143.58974359 , 4132.30769231 , 4128.71794872 , 4126.66666667 , 4129.23076923 , 4134.87179487 , 4134.35897436 , 4145.12820513 , 4162.05128205 , 4574.87179487 , 4131.79487179 , 4135.8974359 , 2041.0 , 2022.0 , 7.531 , 0.0 , 0.0 , 0.0 , 0.0 , 

21.0 , 4129.74358974 , 4129.74358974 , 4145.12820513 , 4132.30769231 , 4132.82051282 , 4127.69230769 , 4128.71794872 , 4136.41025641 , 4132.82051282 , 4143.07692308 , 4166.66666667 , 4577.43589744 , 4131.28205128 , 4134.35897436 , 2045.0 , 2022.0 , 7.537 , 0.0 , 0.0 , 0.0 , 0.0 , 

22.0 , 4129.74358974 , 4132.30769231 , 4122.56410256 , 4135.38461538 , 4131.79487179 , 4129.74358974 , 4127.17948718 , 4133.84615385 , 4130.25641026 , 4140.0 , 4166.66666667 , 4577.43589744 , 4127.17948718 , 4134.87179487 , 2046.0 , 2021.0 , 7.546 , 0.0 , 0.0 , 0.0 , 0.0 , 

23.0 , 4131.79487179 , 4131.79487179 , 4121.53846154 , 4132.82051282 , 4129.74358974 , 4129.74358974 , 4127.69230769 , 4132.82051282 , 4132.30769231 , 4141.02564103 , 4165.64102564 , 4576.41025641 , 4127.17948718 , 4134.87179487 , 2048.0 , 2022.0 , 7.555 , 0.0 , 0.0 , 0.0 , 0.0 , 

24.0 , 4132.82051282 , 4131.28205128 , 4114.35897436 , 4129.23076923 , 4131.28205128 , 4129.23076923 , 4128.20512821 , 4132.30769231 , 4133.33333333 , 4139.48717949 , 4163.58974359 , 4578.97435897 , 4129.23076923 , 4133.33333333 , 2050.0 , 2022.0 , 7.562 , 0.0 , 0.0 , 0.0 , 0.0 , 

25.0 , 4130.25641026 , 4130.25641026 , 4118.97435897 , 4132.82051282 , 4129.74358974 , 4130.25641026 , 4126.15384615 , 4133.33333333 , 4132.82051282 , 4137.43589744 , 4164.61538462 , 4576.92307692 , 4130.25641026 , 4133.33333333 , 2053.0 , 2022.0 , 7.569 , 0.0 , 0.0 , 0.0 , 0.0 , 

26.0 , 4131.79487179 , 4129.74358974 , 4111.28205128 , 4135.38461538 , 4128.20512821 , 4133.33333333 , 4127.69230769 , 4134.87179487 , 4131.79487179 , 4140.0 , 4166.66666667 , 4574.35897436 , 4129.23076923 , 4136.41025641 , 2058.0 , 2021.0 , 7.577 , 0.0 , 0.0 , 0.0 , 0.0 , 

27.0 , 4132.30769231 , 4130.25641026 , 4106.66666667 , 4130.76923077 , 4129.23076923 , 4132.30769231 , 4129.23076923 , 4133.33333333 , 4133.84615385 , 4140.0 , 4165.64102564 , 4575.38461538 , 4128.20512821 , 4136.41025641 , 2062.0 , 2019.0 , 7.585 , 0.0 , 0.0 , 0.0 , 0.0 , 

28.0 , 4132.30769231 , 4130.76923077 , 4111.28205128 , 4130.76923077 , 4131.79487179 , 4127.69230769 , 4130.25641026 , 4134.35897436 , 4135.38461538 , 4137.94871795 , 4163.07692308 , 4577.43589744 , 4130.76923077 , 4134.35897436 , 2066.0 , 2020.0 , 7.593 , 0.0 , 0.0 , 0.0 , 0.0 , 

29.0 , 4130.25641026 , 4129.23076923 , 4136.92307692 , 4132.30769231 , 4130.76923077 , 4127.17948718 , 4127.17948718 , 4135.8974359 , 4133.33333333 , 4141.53846154 , 4165.64102564 , 4576.41025641 , 4132.82051282 , 4132.82051282 , 2067.0 , 2020.0 , 7.6 , 0.0 , 0.0 , 0.0 , 0.0 , 

30.0 , 4130.25641026 , 4130.76923077 , 4148.71794872 , 4132.30769231 , 4129.74358974 , 4128.20512821 , 4124.1025641 , 4135.38461538 , 4135.38461538 , 4144.1025641 , 4169.74358974 , 4580.0 , 4134.87179487 , 4134.35897436 , 2067.0 , 2023.0 , 7.609 , 0.0 , 0.0 , 0.0 , 0.0 , 

31.0 , 4129.74358974 , 4131.28205128 , 4157.94871795 , 4130.25641026 , 4130.76923077 , 4128.20512821 , 4126.66666667 , 4133.33333333 , 4138.46153846 , 4141.53846154 , 4168.20512821 , 4582.05128205 , 4136.92307692 , 4134.87179487 , 2065.0 , 2025.0 , 7.616 , 0.0 , 0.0 , 0.0 , 0.0 , 

32.0 , 4130.76923077 , 4127.69230769 , 4174.87179487 , 4131.28205128 , 4129.23076923 , 4127.17948718 , 4130.25641026 , 4134.35897436 , 4137.94871795 , 4143.07692308 , 4165.12820513 , 4581.02564103 , 4135.38461538 , 4135.8974359 , 2066.0 , 2026.0 , 7.624 , 0.0 , 0.0 , 0.0 , 0.0 , 

33.0 , 4131.79487179 , 4126.15384615 , 4146.15384615 , 4134.87179487 , 4128.20512821 , 4126.66666667 , 4128.20512821 , 4133.33333333 , 4133.33333333 , 4141.02564103 , 4166.15384615 , 4578.46153846 , 4131.79487179 , 4136.41025641 , 2065.0 , 2026.0 , 7.632 , 0.0 , 0.0 , 0.0 , 0.0 , 

34.0 , 4131.79487179 , 4129.23076923 , 4125.12820513 , 4136.41025641 , 4129.23076923 , 4128.71794872 , 4126.15384615 , 4136.41025641 , 4132.82051282 , 4140.0 , 4170.25641026 , 4578.97435897 , 4134.35897436 , 4137.43589744 , 2064.0 , 2023.0 , 7.639 , 0.0 , 0.0 , 0.0 , 0.0 , 

35.0 , 4130.76923077 , 4131.28205128 , 4125.64102564 , 4133.84615385 , 4129.74358974 , 4129.74358974 , 4128.71794872 , 4136.92307692 , 4132.82051282 , 4137.94871795 , 4167.69230769 , 4577.94871795 , 4132.82051282 , 4135.8974359 , 2063.0 , 2024.0 , 7.648 , 0.0 , 0.0 , 0.0 , 0.0 , 

36.0 , 4131.28205128 , 4131.79487179 , 4136.41025641 , 4133.33333333 , 4131.28205128 , 4127.17948718 , 4130.76923077 , 4134.35897436 , 4134.87179487 , 4136.41025641 , 4166.15384615 , 4579.48717949 , 4127.17948718 , 4134.87179487 , 2062.0 , 2023.0 , 7.656 , 0.0 , 0.0 , 0.0 , 0.0 , 

37.0 , 4131.79487179 , 4132.30769231 , 4091.28205128 , 4133.84615385 , 4130.76923077 , 4125.64102564 , 4128.71794872 , 4130.76923077 , 4133.33333333 , 4134.87179487 , 4163.07692308 , 4574.87179487 , 4121.53846154 , 4133.84615385 , 2062.0 , 2021.0 , 7.663 , 0.0 , 0.0 , 0.0 , 0.0 , 

38.0 , 4130.25641026 , 4130.76923077 , 4095.38461538 , 4131.28205128 , 4129.23076923 , 4128.20512821 , 4125.12820513 , 4132.30769231 , 4132.82051282 , 4140.0 , 4163.07692308 , 4574.35897436 , 4127.17948718 , 4132.82051282 , 2060.0 , 2021.0 , 7.672 , 0.0 , 0.0 , 0.0 , 0.0 , 

39.0 , 4131.28205128 , 4132.30769231 , 4123.58974359 , 4131.79487179 , 4130.76923077 , 4128.71794872 , 4125.64102564 , 4132.30769231 , 4134.35897436 , 4141.53846154 , 4165.64102564 , 4580.51282051 , 4132.82051282 , 4133.84615385 , 2061.0 , 2019.0 , 7.679 , 0.0 , 0.0 , 0.0 , 0.0 , 

40.0 , 4134.87179487 , 4133.84615385 , 4121.02564103 , 4132.82051282 , 4133.33333333 , 4127.17948718 , 4128.20512821 , 4133.84615385 , 4136.41025641 , 4142.05128205 , 4165.64102564 , 4581.02564103 , 4132.82051282 , 4134.35897436 , 2061.0 , 2020.0 , 7.688 , 0.0 , 0.0 , 0.0 , 0.0 , 

41.0 , 4134.35897436 , 4132.30769231 , 4097.43589744 , 4131.28205128 , 4131.79487179 , 4127.17948718 , 4128.71794872 , 4135.38461538 , 4133.84615385 , 4142.05128205 , 4162.56410256 , 4574.35897436 , 4129.23076923 , 4131.79487179 , 2060.0 , 2021.0 , 7.695 , 0.0 , 0.0 , 0.0 , 0.0 , 

42.0 , 4129.23076923 , 4132.82051282 , 4116.92307692 , 4131.28205128 , 4130.25641026 , 4129.23076923 , 4128.71794872 , 4135.38461538 , 4133.84615385 , 4143.07692308 , 4165.12820513 , 4575.38461538 , 4129.23076923 , 4132.82051282 , 2060.0 , 2026.0 , 7.702 , 0.0 , 0.0 , 0.0 , 0.0 , 

43.0 , 4129.74358974 , 4133.33333333 , 4124.61538462 , 4131.79487179 , 4131.28205128 , 4135.38461538 , 4130.76923077 , 4132.30769231 , 4135.8974359 , 4143.07692308 , 4168.71794872 , 4578.97435897 , 4133.33333333 , 4137.94871795 , 2057.0 , 2027.0 , 7.711 , 0.0 , 0.0 , 0.0 , 0.0 , 

44.0 , 4130.25641026 , 4128.71794872 , 4129.74358974 , 4130.25641026 , 4130.25641026 , 4133.84615385 , 4130.76923077 , 4133.84615385 , 4135.38461538 , 4143.58974359 , 4165.64102564 , 4574.35897436 , 4134.35897436 , 4136.92307692 , 2054.0 , 2035.0 , 7.719 , 0.0 , 0.0 , 0.0 , 0.0 , 

45.0 , 4129.74358974 , 4130.25641026 , 4135.8974359 , 4131.79487179 , 4128.71794872 , 4125.64102564 , 4128.71794872 , 4136.41025641 , 4135.8974359 , 4145.64102564 , 4163.58974359 , 4573.33333333 , 4131.79487179 , 4134.35897436 , 2051.0 , 2038.0 , 7.727 , 0.0 , 0.0 , 0.0 , 0.0 , 

46.0 , 4130.25641026 , 4132.82051282 , 4147.69230769 , 4133.33333333 , 4129.23076923 , 4124.61538462 , 4127.69230769 , 4135.38461538 , 4138.97435897 , 4145.12820513 , 4163.58974359 , 4576.92307692 , 4131.28205128 , 4134.87179487 , 2045.0 , 2039.0 , 7.735 , 0.0 , 0.0 , 0.0 , 0.0 , 

47.0 , 4134.87179487 , 4127.69230769 , 4129.74358974 , 4134.35897436 , 4130.76923077 , 4129.74358974 , 4130.76923077 , 4134.87179487 , 4136.41025641 , 4141.53846154 , 4164.61538462 , 4578.46153846 , 4132.30769231 , 4136.92307692 , 2043.0 , 2039.0 , 7.743 , 0.0 , 0.0 , 0.0 , 0.0 , 

48.0 , 4132.30769231 , 4126.15384615 , 4111.79487179 , 4133.84615385 , 4131.79487179 , 4131.28205128 , 4130.76923077 , 4134.87179487 , 4131.79487179 , 4136.41025641 , 4163.07692308 , 4575.38461538 , 4127.69230769 , 4136.41025641 , 2041.0 , 2039.0 , 7.75 , 0.0 , 0.0 , 0.0 , 0.0 , 

49.0 , 4130.76923077 , 4133.33333333 , 4113.33333333 , 4133.33333333 , 4133.33333333 , 4132.30769231 , 4128.71794872 , 4133.33333333 , 4134.87179487 , 4137.94871795 , 4161.53846154 , 4574.87179487 , 4127.17948718 , 4136.41025641 , 2039.0 , 2036.0 , 7.758 , 0.0 , 0.0 , 0.0 , 0.0 , 

50.0 , 4131.79487179 , 4131.79487179 , 4108.71794872 , 4132.30769231 , 4131.28205128 , 4131.28205128 , 4127.69230769 , 4129.74358974 , 4136.41025641 , 4140.51282051 , 4161.53846154 , 4574.35897436 , 4128.20512821 , 4134.87179487 , 2038.0 , 2037.0 , 7.767 , 0.0 , 0.0 , 0.0 , 0.0 , 

51.0 , 4130.76923077 , 4129.74358974 , 4096.41025641 , 4132.82051282 , 4127.69230769 , 4131.79487179 , 4127.69230769 , 4131.79487179 , 4132.30769231 , 4141.02564103 , 4164.1025641 , 4577.94871795 , 4129.23076923 , 4133.33333333 , 2037.0 , 2037.0 , 7.775 , 0.0 , 0.0 , 0.0 , 0.0 , 

52.0 , 4128.20512821 , 4132.82051282 , 4092.82051282 , 4133.84615385 , 4129.23076923 , 4132.30769231 , 4125.12820513 , 4132.30769231 , 4130.25641026 , 4137.43589744 , 4164.1025641 , 4578.46153846 , 4129.23076923 , 4132.82051282 , 2036.0 , 2037.0 , 7.783 , 0.0 , 0.0 , 0.0 , 0.0 , 

53.0 , 4131.28205128 , 4131.28205128 , 4118.97435897 , 4132.30769231 , 4132.82051282 , 4127.17948718 , 4125.64102564 , 4134.35897436 , 4137.43589744 , 4140.51282051 , 4164.1025641 , 4574.35897436 , 4130.76923077 , 4134.87179487 , 2036.0 , 2037.0 , 7.789 , 0.0 , 0.0 , 0.0 , 0.0 , 

54.0 , 4133.84615385 , 4127.17948718 , 4109.23076923 , 4129.74358974 , 4131.79487179 , 4122.05128205 , 4127.69230769 , 4133.84615385 , 4137.94871795 , 4142.56410256 , 4163.07692308 , 4571.79487179 , 4128.71794872 , 4135.8974359 , 2035.0 , 2035.0 , 7.798 , 0.0 , 0.0 , 0.0 , 0.0 , 

55.0 , 4131.79487179 , 4130.76923077 , 4107.17948718 , 4129.74358974 , 4129.74358974 , 4131.79487179 , 4130.76923077 , 4133.33333333 , 4135.8974359 , 4143.07692308 , 4164.1025641 , 4575.38461538 , 4131.79487179 , 4135.8974359 , 2036.0 , 2035.0 , 7.806 , 0.0 , 0.0 , 0.0 , 0.0 , 

56.0 , 4131.28205128 , 4133.84615385 , 4108.20512821 , 4131.28205128 , 4129.74358974 , 4140.0 , 4132.30769231 , 4133.84615385 , 4134.35897436 , 4140.51282051 , 4163.58974359 , 4573.84615385 , 4132.30769231 , 4134.87179487 , 2037.0 , 2030.0 , 7.814 , 0.0 , 0.0 , 0.0 , 0.0 , 

57.0 , 4132.82051282 , 4131.79487179 , 4115.8974359 , 4130.25641026 , 4131.79487179 , 4133.84615385 , 4129.23076923 , 4137.43589744 , 4135.38461538 , 4141.02564103 , 4162.05128205 , 4571.28205128 , 4130.25641026 , 4135.38461538 , 2037.0 , 2030.0 , 7.822 , 0.0 , 0.0 , 0.0 , 0.0 , 

58.0 , 4131.79487179 , 4131.79487179 , 4113.33333333 , 4129.23076923 , 4132.30769231 , 4129.74358974 , 4127.69230769 , 4138.46153846 , 4135.8974359 , 4143.07692308 , 4163.07692308 , 4572.82051282 , 4129.74358974 , 4135.38461538 , 2037.0 , 2030.0 , 7.829 , 0.0 , 0.0 , 0.0 , 0.0 , 

59.0 , 4130.76923077 , 4130.76923077 , 4123.07692308 , 4132.30769231 , 4130.76923077 , 4128.20512821 , 4129.23076923 , 4135.8974359 , 4136.92307692 , 4144.61538462 , 4165.64102564 , 4575.38461538 , 4130.76923077 , 4135.8974359 , 2035.0 , 2031.0 , 7.837 , 0.0 , 0.0 , 0.0 , 0.0 , 

60.0 , 4132.30769231 , 4127.17948718 , 4114.35897436 , 4133.33333333 , 4130.25641026 , 4127.69230769 , 4129.74358974 , 4130.76923077 , 4137.43589744 , 4141.02564103 , 4166.15384615 , 4574.35897436 , 4129.74358974 , 4135.38461538 , 2036.0 , 2030.0 , 7.844 , 0.0 , 0.0 , 0.0 , 0.0 , 

61.0 , 4130.76923077 , 4127.69230769 , 4123.58974359 , 4130.76923077 , 4130.25641026 , 4127.69230769 , 4127.69230769 , 4133.33333333 , 4138.97435897 , 4141.53846154 , 4164.61538462 , 4572.82051282 , 4129.23076923 , 4134.87179487 , 2036.0 , 2031.0 , 7.853 , 0.0 , 0.0 , 0.0 , 0.0 , 

62.0 , 4132.30769231 , 4132.30769231 , 4110.25641026 , 4131.79487179 , 4130.76923077 , 4129.23076923 , 4127.69230769 , 4135.8974359 , 4137.94871795 , 4143.07692308 , 4162.05128205 , 4570.25641026 , 4127.17948718 , 4135.8974359 , 2034.0 , 2026.0 , 7.86 , 0.0 , 0.0 , 0.0 , 0.0 , 

63.0 , 4132.30769231 , 4129.74358974 , 4104.61538462 , 4133.33333333 , 4130.76923077 , 4127.69230769 , 4129.74358974 , 4135.38461538 , 4133.33333333 , 4141.02564103 , 4162.56410256 , 4567.17948718 , 4126.66666667 , 4133.84615385 , 2033.0 , 2027.0 , 7.869 , 0.0 , 0.0 , 0.0 , 0.0 , 

64.0 , 4130.76923077 , 4127.17948718 , 4106.66666667 , 4132.30769231 , 4131.28205128 , 4129.23076923 , 4129.23076923 , 4134.87179487 , 4129.74358974 , 4141.02564103 , 4165.12820513 , 4569.74358974 , 4129.23076923 , 4132.30769231 , 2032.0 , 2027.0 , 7.876 , 0.0 , 0.0 , 0.0 , 0.0 , 

65.0 , 4128.20512821 , 4130.25641026 , 4130.25641026 , 4130.25641026 , 4130.25641026 , 4131.28205128 , 4128.20512821 , 4136.41025641 , 4134.87179487 , 4143.58974359 , 4165.64102564 , 4571.28205128 , 4132.30769231 , 4134.35897436 , 2032.0 , 2026.0 , 7.884 , 0.0 , 0.0 , 0.0 , 0.0 , 

66.0 , 4130.76923077 , 4132.82051282 , 4138.97435897 , 4130.25641026 , 4129.74358974 , 4129.23076923 , 4129.23076923 , 4134.87179487 , 4139.48717949 , 4144.1025641 , 4164.1025641 , 4571.28205128 , 4134.35897436 , 4137.94871795 , 2032.0 , 2026.0 , 7.892 , 0.0 , 0.0 , 0.0 , 0.0 , 

67.0 , 4131.79487179 , 4131.28205128 , 4125.64102564 , 4129.23076923 , 4131.28205128 , 4129.23076923 , 4128.71794872 , 4133.84615385 , 4134.35897436 , 4142.05128205 , 4164.1025641 , 4569.74358974 , 4132.30769231 , 4135.38461538 , 2033.0 , 2024.0 , 7.9 , 0.0 , 0.0 , 0.0 , 0.0 , 

68.0 , 4132.82051282 , 4133.33333333 , 4127.69230769 , 4130.25641026 , 4132.82051282 , 4128.71794872 , 4128.71794872 , 4138.46153846 , 4131.79487179 , 4142.56410256 , 4168.20512821 , 4572.30769231 , 4132.30769231 , 4134.87179487 , 2033.0 , 2024.0 , 7.908 , 0.0 , 0.0 , 0.0 , 0.0 , 

69.0 , 4132.82051282 , 4133.33333333 , 4123.58974359 , 4132.30769231 , 4131.79487179 , 4128.71794872 , 4130.25641026 , 4134.87179487 , 4134.87179487 , 4139.48717949 , 4167.17948718 , 4570.76923077 , 4130.76923077 , 4134.87179487 , 2034.0 , 2025.0 , 7.916 , 0.0 , 0.0 , 0.0 , 0.0 , 

70.0 , 4133.84615385 , 4130.76923077 , 4120.51282051 , 4132.82051282 , 4129.74358974 , 4133.84615385 , 4131.79487179 , 4131.28205128 , 4136.41025641 , 4141.53846154 , 4165.12820513 , 4568.71794872 , 4130.76923077 , 4133.84615385 , 2034.0 , 2025.0 , 7.924 , 0.0 , 0.0 , 0.0 , 0.0 , 

71.0 , 4133.84615385 , 4131.79487179 , 4106.15384615 , 4133.33333333 , 4128.71794872 , 4134.35897436 , 4130.76923077 , 4132.30769231 , 4131.79487179 , 4142.05128205 , 4163.58974359 , 4568.71794872 , 4130.25641026 , 4134.87179487 , 2034.0 , 2025.0 , 7.932 , 0.0 , 0.0 , 0.0 , 0.0 , 

72.0 , 4131.79487179 , 4132.82051282 , 4109.23076923 , 4133.84615385 , 4130.25641026 , 4132.82051282 , 4130.76923077 , 4134.35897436 , 4132.30769231 , 4141.02564103 , 4163.58974359 , 4570.25641026 , 4129.74358974 , 4136.41025641 , 2036.0 , 2024.0 , 7.94 , 0.0 , 0.0 , 0.0 , 0.0 , 

73.0 , 4127.69230769 , 4131.79487179 , 4113.84615385 , 4132.82051282 , 4130.76923077 , 4132.82051282 , 4130.25641026 , 4133.84615385 , 4134.87179487 , 4141.53846154 , 4163.58974359 , 4568.20512821 , 4126.66666667 , 4133.33333333 , 2038.0 , 2025.0 , 7.948 , 0.0 , 0.0 , 0.0 , 0.0 , 

74.0 , 4128.20512821 , 4130.76923077 , 4134.35897436 , 4131.79487179 , 4128.71794872 , 4130.25641026 , 4128.71794872 , 4136.41025641 , 4134.87179487 , 4147.17948718 , 4167.17948718 , 4568.71794872 , 4131.28205128 , 4133.84615385 , 2036.0 , 2026.0 , 7.954 , 0.0 , 0.0 , 0.0 , 0.0 , 

75.0 , 4133.33333333 , 4131.28205128 , 4121.02564103 , 4132.30769231 , 4130.25641026 , 4126.66666667 , 4129.74358974 , 4133.84615385 , 4130.25641026 , 4143.07692308 , 4166.66666667 , 4567.17948718 , 4131.79487179 , 4135.8974359 , 2036.0 , 2026.0 , 7.963 , 0.0 , 0.0 , 0.0 , 0.0 , 

76.0 , 4134.87179487 , 4132.82051282 , 4130.25641026 , 4131.28205128 , 4132.30769231 , 4131.79487179 , 4130.76923077 , 4131.79487179 , 4132.82051282 , 4138.97435897 , 4165.12820513 , 4566.66666667 , 4129.74358974 , 4135.8974359 , 2038.0 , 2026.0 , 7.971 , 0.0 , 0.0 , 0.0 , 0.0 , 

77.0 , 4132.30769231 , 4132.82051282 , 4141.02564103 , 4130.25641026 , 4130.76923077 , 4136.92307692 , 4129.74358974 , 4133.84615385 , 4136.92307692 , 4141.53846154 , 4165.64102564 , 4567.69230769 , 4129.74358974 , 4134.87179487 , 2039.0 , 2027.0 , 7.979 , 0.0 , 0.0 , 0.0 , 0.0 , 

78.0 , 4129.23076923 , 4129.74358974 , 4151.28205128 , 4132.30769231 , 4130.25641026 , 4131.79487179 , 4128.20512821 , 4135.8974359 , 4136.41025641 , 4146.15384615 , 4165.64102564 , 4569.23076923 , 4134.35897436 , 4134.87179487 , 2039.0 , 2027.0 , 7.987 , 0.0 , 0.0 , 0.0 , 0.0 , 

79.0 , 4130.25641026 , 4128.71794872 , 4134.87179487 , 4131.79487179 , 4131.79487179 , 4126.15384615 , 4128.20512821 , 4133.84615385 , 4135.8974359 , 4144.61538462 , 4162.56410256 , 4568.20512821 , 4134.35897436 , 4134.87179487 , 2040.0 , 2029.0 , 7.994 , 0.0 , 0.0 , 0.0 , 0.0 , 

80.0 , 4130.25641026 , 4130.76923077 , 4151.28205128 , 4130.76923077 , 4131.79487179 , 4128.71794872 , 4129.23076923 , 4135.38461538 , 4137.43589744 , 4143.07692308 , 4166.15384615 , 4568.20512821 , 4131.79487179 , 4135.8974359 , 2040.0 , 2029.0 , 8.002 , 0.0 , 0.0 , 0.0 , 0.0 , 

81.0 , 4130.76923077 , 4132.30769231 , 4149.74358974 , 4132.30769231 , 4131.79487179 , 4135.8974359 , 4129.23076923 , 4136.41025641 , 4136.41025641 , 4141.53846154 , 4169.23076923 , 4567.17948718 , 4130.25641026 , 4134.87179487 , 2038.0 , 2029.0 , 8.011 , 0.0 , 0.0 , 0.0 , 0.0 , 

82.0 , 4131.28205128 , 4131.79487179 , 4154.35897436 , 4133.33333333 , 4131.79487179 , 4134.35897436 , 4128.20512821 , 4136.92307692 , 4140.51282051 , 4144.1025641 , 4167.17948718 , 4567.69230769 , 4133.33333333 , 4135.8974359 , 2037.0 , 2031.0 , 8.018 , 0.0 , 0.0 , 0.0 , 0.0 , 

83.0 , 4133.33333333 , 4132.30769231 , 4144.61538462 , 4132.82051282 , 4132.30769231 , 4128.20512821 , 4128.71794872 , 4134.87179487 , 4141.02564103 , 4142.56410256 , 4164.61538462 , 4571.28205128 , 4131.79487179 , 4138.46153846 , 2038.0 , 2029.0 , 8.025 , 0.0 , 0.0 , 0.0 , 0.0 , 

84.0 , 4131.79487179 , 4130.76923077 , 4153.84615385 , 4130.76923077 , 4132.82051282 , 4132.30769231 , 4129.74358974 , 4134.87179487 , 4138.46153846 , 4138.97435897 , 4167.17948718 , 4572.82051282 , 4128.71794872 , 4138.46153846 , 2037.0 , 2029.0 , 8.035 , 0.0 , 0.0 , 0.0 , 0.0 , 

85.0 , 4130.25641026 , 4128.71794872 , 4170.25641026 , 4129.74358974 , 4130.76923077 , 4131.28205128 , 4130.25641026 , 4135.8974359 , 4139.48717949 , 4143.07692308 , 4166.66666667 , 4572.82051282 , 4131.79487179 , 4138.97435897 , 2035.0 , 2029.0 , 8.043 , 0.0 , 0.0 , 0.0 , 0.0 , 

86.0 , 4131.28205128 , 4130.76923077 , 4167.17948718 , 4131.79487179 , 4130.25641026 , 4126.66666667 , 4131.28205128 , 4132.82051282 , 4139.48717949 , 4147.69230769 , 4164.61538462 , 4571.79487179 , 4133.84615385 , 4137.94871795 , 2034.0 , 2027.0 , 8.051 , 0.0 , 0.0 , 0.0 , 0.0 , 

87.0 , 4133.33333333 , 4133.33333333 , 4153.33333333 , 4133.33333333 , 4131.79487179 , 4128.71794872 , 4129.23076923 , 4128.71794872 , 4134.87179487 , 4143.58974359 , 4167.69230769 , 4570.76923077 , 4132.82051282 , 4135.38461538 , 2035.0 , 2026.0 , 8.058 , 0.0 , 0.0 , 0.0 , 0.0 , 

88.0 , 4131.28205128 , 4131.79487179 , 4150.76923077 , 4132.30769231 , 4131.79487179 , 4131.28205128 , 4128.20512821 , 4129.23076923 , 4132.82051282 , 4139.48717949 , 4169.74358974 , 4571.79487179 , 4132.82051282 , 4135.38461538 , 2033.0 , 2027.0 , 8.066 , 0.0 , 0.0 , 0.0 , 0.0 , 

89.0 , 4130.76923077 , 4130.25641026 , 4174.35897436 , 4131.79487179 , 4131.28205128 , 4127.69230769 , 4129.23076923 , 4134.87179487 , 4135.8974359 , 4145.64102564 , 4169.23076923 , 4576.41025641 , 4132.82051282 , 4138.97435897 , 2032.0 , 2028.0 , 8.074 , 0.0 , 0.0 , 0.0 , 0.0 , 

90.0 , 4130.76923077 , 4130.76923077 , 4162.05128205 , 4132.30769231 , 4130.25641026 , 4128.71794872 , 4128.20512821 , 4133.33333333 , 4135.38461538 , 4144.1025641 , 4167.69230769 , 4573.33333333 , 4129.23076923 , 4137.43589744 , 2031.0 , 2031.0 , 8.082 , 0.0 , 0.0 , 0.0 , 0.0 , 

91.0 , 4131.28205128 , 4130.76923077 , 4150.76923077 , 4133.33333333 , 4129.23076923 , 4130.25641026 , 4127.69230769 , 4132.30769231 , 4133.84615385 , 4140.0 , 4168.71794872 , 4572.30769231 , 4130.76923077 , 4134.35897436 , 2031.0 , 2032.0 , 8.089 , 0.0 , 0.0 , 0.0 , 0.0 , 

92.0 , 4131.28205128 , 4130.76923077 , 4152.30769231 , 4134.35897436 , 4130.25641026 , 4129.74358974 , 4130.25641026 , 4134.87179487 , 4134.35897436 , 4141.02564103 , 4168.20512821 , 4573.84615385 , 4131.79487179 , 4133.84615385 , 2032.0 , 2030.0 , 8.097 , 0.0 , 0.0 , 0.0 , 0.0 , 

93.0 , 4129.74358974 , 4131.28205128 , 4186.15384615 , 4132.82051282 , 4131.79487179 , 4128.71794872 , 4131.79487179 , 4136.92307692 , 4137.94871795 , 4145.12820513 , 4167.17948718 , 4575.8974359 , 4132.30769231 , 4136.92307692 , 2031.0 , 2031.0 , 8.105 , 0.0 , 0.0 , 0.0 , 0.0 , 

94.0 , 4129.74358974 , 4130.25641026 , 4170.25641026 , 4131.28205128 , 4130.25641026 , 4129.74358974 , 4129.74358974 , 4131.28205128 , 4135.38461538 , 4141.53846154 , 4166.66666667 , 4572.82051282 , 4130.76923077 , 4137.43589744 , 2032.0 , 2031.0 , 8.113 , 0.0 , 0.0 , 0.0 , 0.0 , 

95.0 , 4130.25641026 , 4130.25641026 , 4176.92307692 , 4130.76923077 , 4129.23076923 , 4130.25641026 , 4127.69230769 , 4131.28205128 , 4132.82051282 , 4142.56410256 , 4167.69230769 , 4574.87179487 , 4131.79487179 , 4135.8974359 , 2032.0 , 2032.0 , 8.121 , 0.0 , 0.0 , 0.0 , 0.0 , 

96.0 , 4131.28205128 , 4130.25641026 , 4168.71794872 , 4131.28205128 , 4131.79487179 , 4129.23076923 , 4128.20512821 , 4132.82051282 , 4132.82051282 , 4140.51282051 , 4165.12820513 , 4575.38461538 , 4130.25641026 , 4134.35897436 , 2032.0 , 2033.0 , 8.129 , 0.0 , 0.0 , 0.0 , 0.0 , 

97.0 , 4129.74358974 , 4128.20512821 , 4172.82051282 , 4132.82051282 , 4132.30769231 , 4129.23076923 , 4129.23076923 , 4133.84615385 , 4136.92307692 , 4141.53846154 , 4164.61538462 , 4574.87179487 , 4132.30769231 , 4135.8974359 , 2035.0 , 2034.0 , 8.137 , 0.0 , 0.0 , 0.0 , 0.0 , 

98.0 , 4128.20512821 , 4128.71794872 , 4161.53846154 , 4134.87179487 , 4129.74358974 , 4132.30769231 , 4129.74358974 , 4130.25641026 , 4135.8974359 , 4143.07692308 , 4164.61538462 , 4574.35897436 , 4132.30769231 , 4137.43589744 , 2036.0 , 2037.0 , 8.145 , 0.0 , 0.0 , 0.0 , 0.0 , 

99.0 , 4129.74358974 , 4130.25641026 , 4160.51282051 , 4132.82051282 , 4128.20512821 , 4132.30769231 , 4127.69230769 , 4129.23076923 , 4131.79487179 , 4142.05128205 , 4165.64102564 , 4574.35897436 , 4131.28205128 , 4134.87179487 , 2035.0 , 2039.0 , 8.152 , 0.0 , 0.0 , 0.0 , 0.0 , 

100.0 , 4133.84615385 , 4130.25641026 , 4154.35897436 , 4131.79487179 , 4129.74358974 , 4127.69230769 , 4127.69230769 , 4132.82051282 , 4130.25641026 , 4138.97435897 , 4164.61538462 , 4574.35897436 , 4129.23076923 , 4133.33333333 , 2037.0 , 2040.0 , 8.16 , 0.0 , 0.0 , 0.0 , 0.0 , 

101.0 , 4130.76923077 , 4128.71794872 , 4155.8974359 , 4133.84615385 , 4132.82051282 , 4127.17948718 , 4128.20512821 , 4134.87179487 , 4133.33333333 , 4140.51282051 , 4165.12820513 , 4575.8974359 , 4128.71794872 , 4136.41025641 , 2037.0 , 2040.0 , 8.168 , 0.0 , 0.0 , 0.0 , 0.0 , 

102.0 , 4128.71794872 , 4130.76923077 , 4141.53846154 , 4133.33333333 , 4133.33333333 , 4130.25641026 , 4129.23076923 , 4133.33333333 , 4134.35897436 , 4140.0 , 4166.66666667 , 4578.97435897 , 4131.28205128 , 4139.48717949 , 2039.0 , 2039.0 , 8.175 , 0.0 , 0.0 , 0.0 , 0.0 , 

103.0 , 4130.25641026 , 4131.79487179 , 4147.69230769 , 4129.74358974 , 4129.74358974 , 4129.74358974 , 4127.69230769 , 4133.33333333 , 4132.82051282 , 4138.46153846 , 4166.66666667 , 4576.92307692 , 4131.28205128 , 4135.38461538 , 2039.0 , 2040.0 , 8.184 , 0.0 , 0.0 , 0.0 , 0.0 , 

104.0 , 4131.79487179 , 4129.23076923 , 4179.48717949 , 4131.79487179 , 4128.71794872 , 4126.66666667 , 4127.17948718 , 4137.94871795 , 4135.38461538 , 4143.07692308 , 4165.64102564 , 4578.46153846 , 4130.25641026 , 4132.82051282 , 2042.0 , 2038.0 , 8.191 , 0.0 , 0.0 , 0.0 , 0.0 , 

105.0 , 4130.76923077 , 4130.76923077 , 4169.23076923 , 4134.35897436 , 4130.25641026 , 4127.17948718 , 4129.23076923 , 4136.92307692 , 4135.8974359 , 4142.05128205 , 4166.15384615 , 4580.51282051 , 4128.71794872 , 4135.8974359 , 2042.0 , 2037.0 , 8.2 , 0.0 , 0.0 , 0.0 , 0.0 , 

106.0 , 4132.82051282 , 4131.79487179 , 4143.58974359 , 4132.82051282 , 4129.23076923 , 4130.76923077 , 4128.20512821 , 4135.38461538 , 4131.28205128 , 4137.94871795 , 4167.69230769 , 4581.02564103 , 4131.28205128 , 4138.97435897 , 2044.0 , 2039.0 , 8.207 , 0.0 , 0.0 , 0.0 , 0.0 , 

107.0 , 4132.82051282 , 4128.20512821 , 4170.76923077 , 4131.28205128 , 4128.20512821 , 4132.30769231 , 4125.64102564 , 4136.92307692 , 4130.76923077 , 4141.53846154 , 4166.66666667 , 4581.02564103 , 4132.82051282 , 4135.8974359 , 2045.0 , 2041.0 , 8.215 , 0.0 , 0.0 , 0.0 , 0.0 , 

108.0 , 4132.82051282 , 4129.23076923 , 4206.15384615 , 4132.82051282 , 4130.76923077 , 4129.74358974 , 4128.20512821 , 4137.43589744 , 4136.41025641 , 4147.69230769 , 4166.15384615 , 4583.58974359 , 4132.30769231 , 4135.38461538 , 2046.0 , 2040.0 , 8.224 , 0.0 , 0.0 , 0.0 , 0.0 , 

109.0 , 4133.33333333 , 4133.33333333 , 4165.64102564 , 4132.82051282 , 4130.76923077 , 4127.17948718 , 4129.23076923 , 4131.28205128 , 4134.35897436 , 4141.53846154 , 4164.61538462 , 4582.05128205 , 4129.74358974 , 4134.87179487 , 2048.0 , 2039.0 , 8.231 , 0.0 , 0.0 , 0.0 , 0.0 , 

110.0 , 4132.82051282 , 4130.76923077 , 4148.20512821 , 4133.33333333 , 4128.71794872 , 4129.74358974 , 4126.66666667 , 4129.23076923 , 4131.28205128 , 4135.38461538 , 4166.15384615 , 4582.56410256 , 4131.28205128 , 4133.84615385 , 2049.0 , 2039.0 , 8.24 , 0.0 , 0.0 , 0.0 , 0.0 , 

118.0 , 4136.92307692 , 4130.76923077 , 4167.69230769 , 4130.25641026 , 4130.76923077 , 4129.74358974 , 4125.64102564 , 4130.76923077 , 4135.8974359 , 4144.1025641 , 4166.66666667 , 4583.07692308 , 4132.30769231 , 4138.97435897 , 2057.0 , 2034.0 , 8.249 , 0.0 , 0.0 , 0.0 , 0.0 , 

119.0 , 4135.8974359 , 4131.28205128 , 4173.33333333 , 4130.76923077 , 4131.28205128 , 4132.30769231 , 4127.69230769 , 4129.74358974 , 4134.87179487 , 4144.1025641 , 4165.12820513 , 4586.66666667 , 4132.82051282 , 4136.92307692 , 2058.0 , 2033.0 , 8.255 , 0.0 , 0.0 , 0.0 , 0.0 , 

120.0 , 4129.74358974 , 4129.23076923 , 4174.35897436 , 4132.30769231 , 4129.23076923 , 4130.76923077 , 4129.23076923 , 4131.28205128 , 4134.87179487 , 4144.1025641 , 4166.15384615 , 4588.71794872 , 4129.74358974 , 4135.38461538 , 2058.0 , 2034.0 , 8.262 , 0.0 , 0.0 , 0.0 , 0.0 , 

121.0 , 4130.25641026 , 4129.74358974 , 4165.12820513 , 4132.30769231 , 4128.20512821 , 4129.23076923 , 4128.20512821 , 4132.30769231 , 4133.84615385 , 4144.61538462 , 4167.69230769 , 4589.74358974 , 4131.79487179 , 4136.41025641 , 2059.0 , 2035.0 , 8.271 , 0.0 , 0.0 , 0.0 , 0.0 , 

122.0 , 4131.28205128 , 4130.25641026 , 4173.84615385 , 4131.79487179 , 4129.74358974 , 4129.74358974 , 4128.20512821 , 4132.30769231 , 4131.79487179 , 4143.58974359 , 4164.61538462 , 4588.20512821 , 4132.82051282 , 4135.38461538 , 2059.0 , 2037.0 , 8.279 , 0.0 , 0.0 , 0.0 , 0.0 , 

123.0 , 4131.28205128 , 4130.25641026 , 4174.35897436 , 4132.30769231 , 4131.79487179 , 4127.17948718 , 4129.74358974 , 4131.28205128 , 4132.30769231 , 4142.05128205 , 4163.58974359 , 4588.71794872 , 4130.25641026 , 4134.87179487 , 2059.0 , 2037.0 , 8.286 , 0.0 , 0.0 , 0.0 , 0.0 , 

124.0 , 4130.25641026 , 4131.28205128 , 4164.61538462 , 4132.30769231 , 4130.76923077 , 4127.69230769 , 4129.74358974 , 4130.25641026 , 4133.33333333 , 4142.05128205 , 4165.12820513 , 4589.23076923 , 4129.74358974 , 4133.84615385 , 2059.0 , 2037.0 , 8.293 , 0.0 , 0.0 , 0.0 , 0.0 , 

125.0 , 4130.76923077 , 4132.82051282 , 4163.07692308 , 4132.30769231 , 4128.71794872 , 4128.20512821 , 4129.23076923 , 4131.79487179 , 4134.87179487 , 4145.64102564 , 4167.17948718 , 4589.74358974 , 4132.82051282 , 4134.35897436 , 2056.0 , 2038.0 , 8.302 , 0.0 , 0.0 , 0.0 , 0.0 , 

126.0 , 4130.76923077 , 4130.76923077 , 4152.30769231 , 4133.33333333 , 4130.76923077 , 4126.66666667 , 4128.71794872 , 4131.79487179 , 4134.35897436 , 4142.05128205 , 4167.17948718 , 4589.74358974 , 4130.25641026 , 4134.35897436 , 2056.0 , 2040.0 , 8.31 , 0.0 , 0.0 , 0.0 , 0.0 , 

127.0 , 4131.28205128 , 4128.20512821 , 4153.84615385 , 4134.35897436 , 4131.28205128 , 4132.30769231 , 4128.71794872 , 4132.30769231 , 4134.87179487 , 4138.97435897 , 4166.15384615 , 4590.76923077 , 4128.71794872 , 4134.87179487 , 2054.0 , 2043.0 , 8.319 , 0.0 , 0.0 , 0.0 , 0.0 , 

128.0 , 4130.25641026 , 4129.23076923 , 4149.74358974 , 4131.79487179 , 4128.71794872 , 4135.8974359 , 4129.23076923 , 4133.33333333 , 4134.35897436 , 4140.0 , 4164.1025641 , 4589.23076923 , 4129.74358974 , 4133.84615385 , 2052.0 , 2045.0 , 8.326 , 0.0 , 0.0 , 0.0 , 0.0 , 

0.0 , 4128.71794872 , 4130.25641026 , 4176.41025641 , 4130.25641026 , 4130.76923077 , 4129.23076923 , 4129.23076923 , 4135.8974359 , 4137.43589744 , 4143.58974359 , 4166.15384615 , 4591.28205128 , 4132.82051282 , 4136.92307692 , 2052.0 , 2044.0 , 8.334 , 0.0 , 0.0 , 0.0 , 0.0 , 

1.0 , 4130.76923077 , 4130.76923077 , 4155.38461538 , 4133.33333333 , 4133.84615385 , 4126.15384615 , 4129.23076923 , 4131.79487179 , 4136.41025641 , 4140.51282051 , 4166.66666667 , 4590.76923077 , 4130.25641026 , 4137.94871795 , 2048.0 , 2044.0 , 8.342 , 0.0 , 0.0 , 0.0 , 0.0 , 

2.0 , 4132.82051282 , 4130.76923077 , 4143.07692308 , 4133.84615385 , 4133.33333333 , 4129.74358974 , 4128.71794872 , 4131.28205128 , 4134.35897436 , 4140.51282051 , 4164.61538462 , 4589.23076923 , 4128.20512821 , 4135.38461538 , 2049.0 , 2043.0 , 8.348 , 0.0 , 0.0 , 0.0 , 0.0 , 

3.0 , 4134.35897436 , 4129.23076923 , 4151.28205128 , 4132.30769231 , 4132.82051282 , 4129.23076923 , 4129.23076923 , 4130.76923077 , 4134.35897436 , 4141.53846154 , 4165.64102564 , 4588.71794872 , 4128.71794872 , 4133.84615385 , 2047.0 , 2041.0 , 8.357 , 0.0 , 0.0 , 0.0 , 0.0 , 

4.0 , 4133.33333333 , 4127.69230769 , 4161.02564103 , 4133.84615385 , 4132.30769231 , 4126.66666667 , 4130.25641026 , 4129.74358974 , 4136.92307692 , 4141.02564103 , 4169.23076923 , 4591.79487179 , 4130.76923077 , 4135.8974359 , 2046.0 , 2040.0 , 8.365 , 0.0 , 0.0 , 0.0 , 0.0 , 

5.0 , 4133.84615385 , 4129.74358974 , 4133.84615385 , 4133.84615385 , 4131.79487179 , 4131.28205128 , 4129.23076923 , 4130.25641026 , 4134.35897436 , 4140.51282051 , 4168.71794872 , 4595.38461538 , 4128.71794872 , 4136.92307692 , 2043.0 , 2040.0 , 8.373 , 0.0 , 0.0 , 0.0 , 0.0 , 

6.0 , 4133.84615385 , 4130.76923077 , 4157.43589744 , 4127.69230769 , 4132.30769231 , 4133.33333333 , 4128.20512821 , 4134.87179487 , 4133.84615385 , 4142.56410256 , 4168.20512821 , 4595.8974359 , 4130.76923077 , 4137.43589744 , 2042.0 , 2041.0 , 8.38 , 0.0 , 0.0 , 0.0 , 0.0 , 

7.0 , 4132.30769231 , 4130.25641026 , 4179.48717949 , 4128.20512821 , 4132.82051282 , 4130.25641026 , 4130.76923077 , 4135.38461538 , 4136.92307692 , 4142.05128205 , 4169.23076923 , 4593.84615385 , 4132.30769231 , 4139.48717949 , 2041.0 , 2041.0 , 8.388 , 0.0 , 0.0 , 0.0 , 0.0 , 

8.0 , 4130.76923077 , 4130.25641026 , 4155.38461538 , 4134.35897436 , 4130.76923077 , 4127.69230769 , 4131.28205128 , 4132.30769231 , 4135.8974359 , 4141.53846154 , 4167.17948718 , 4592.30769231 , 4130.25641026 , 4136.92307692 , 2041.0 , 2043.0 , 8.397 , 0.0 , 0.0 , 0.0 , 0.0 , 

9.0 , 4131.28205128 , 4130.25641026 , 4134.35897436 , 4135.8974359 , 4130.25641026 , 4129.74358974 , 4129.74358974 , 4130.76923077 , 4132.30769231 , 4141.53846154 , 4165.64102564 , 4594.35897436 , 4129.74358974 , 4133.84615385 , 2039.0 , 2044.0 , 8.404 , 0.0 , 0.0 , 0.0 , 0.0 , 

10.0 , 4129.74358974 , 4130.76923077 , 4145.12820513 , 4133.33333333 , 4130.25641026 , 4131.28205128 , 4129.23076923 , 4129.74358974 , 4133.33333333 , 4137.94871795 , 4164.1025641 , 4592.30769231 , 4129.23076923 , 4135.38461538 , 2038.0 , 2045.0 , 8.412 , 0.0 , 0.0 , 0.0 , 0.0 , 

11.0 , 4130.76923077 , 4132.30769231 , 4140.0 , 4134.87179487 , 4129.23076923 , 4130.25641026 , 4130.76923077 , 4131.79487179 , 4134.87179487 , 4138.46153846 , 4163.58974359 , 4592.30769231 , 4130.25641026 , 4137.94871795 , 2040.0 , 2046.0 , 8.42 , 0.0 , 0.0 , 0.0 , 0.0 , 

12.0 , 4131.79487179 , 4129.74358974 , 4131.28205128 , 4134.35897436 , 4128.20512821 , 4128.20512821 , 4128.71794872 , 4129.23076923 , 4132.30769231 , 4138.97435897 , 4164.61538462 , 4593.84615385 , 4128.71794872 , 4134.87179487 , 2041.0 , 2043.0 , 8.428 , 0.0 , 0.0 , 0.0 , 0.0 , 

13.0 , 4132.30769231 , 4129.74358974 , 4136.92307692 , 4131.28205128 , 4130.25641026 , 4126.15384615 , 4126.15384615 , 4130.25641026 , 4133.84615385 , 4138.46153846 , 4166.66666667 , 4597.94871795 , 4129.74358974 , 4134.87179487 , 2042.0 , 2043.0 , 8.436 , 0.0 , 0.0 , 0.0 , 0.0 , 

14.0 , 4131.28205128 , 4131.28205128 , 4136.92307692 , 4130.76923077 , 4130.76923077 , 4128.20512821 , 4126.66666667 , 4133.84615385 , 4133.84615385 , 4137.43589744 , 4165.12820513 , 4597.43589744 , 4129.74358974 , 4134.87179487 , 2042.0 , 2043.0 , 8.444 , 0.0 , 0.0 , 0.0 , 0.0 , 

15.0 , 4133.33333333 , 4131.28205128 , 4149.23076923 , 4132.82051282 , 4128.71794872 , 4130.25641026 , 4129.23076923 , 4135.8974359 , 4132.82051282 , 4142.56410256 , 4166.66666667 , 4596.92307692 , 4132.82051282 , 4134.35897436 , 2043.0 , 2042.0 , 8.452 , 0.0 , 0.0 , 0.0 , 0.0 , 

16.0 , 4132.30769231 , 4129.23076923 , 4143.58974359 , 4131.79487179 , 4129.23076923 , 4126.15384615 , 4128.20512821 , 4128.20512821 , 4132.82051282 , 4140.51282051 , 4165.12820513 , 4593.33333333 , 4129.23076923 , 4133.33333333 , 2044.0 , 2043.0 , 8.46 , 0.0 , 0.0 , 0.0 , 0.0 , 

17.0 , 4130.25641026 , 4130.76923077 , 4116.92307692 , 4131.79487179 , 4130.76923077 , 4129.23076923 , 4126.66666667 , 4128.20512821 , 4135.38461538 , 4137.43589744 , 4164.1025641 , 4591.79487179 , 4125.64102564 , 4133.33333333 , 2043.0 , 2040.0 , 8.468 , 0.0 , 0.0 , 0.0 , 0.0 , 

18.0 , 4130.76923077 , 4132.82051282 , 4111.79487179 , 4133.33333333 , 4130.25641026 , 4136.92307692 , 4129.74358974 , 4135.8974359 , 4135.8974359 , 4140.51282051 , 4166.15384615 , 4592.30769231 , 4128.20512821 , 4133.33333333 , 2043.0 , 2040.0 , 8.475 , 0.0 , 0.0 , 0.0 , 0.0 , 

19.0 , 4131.79487179 , 4132.30769231 , 4136.41025641 , 4132.30769231 , 4131.79487179 , 4131.28205128 , 4131.28205128 , 4135.38461538 , 4135.38461538 , 4143.58974359 , 4167.69230769 , 4593.84615385 , 4130.25641026 , 4134.87179487 , 2045.0 , 2040.0 , 8.482 , 0.0 , 0.0 , 0.0 , 0.0 , 

20.0 , 4130.76923077 , 4130.76923077 , 4131.79487179 , 4131.79487179 , 4132.30769231 , 4121.53846154 , 4128.20512821 , 4130.76923077 , 4135.8974359 , 4141.53846154 , 4166.15384615 , 4593.33333333 , 4127.69230769 , 4136.41025641 , 2045.0 , 2040.0 , 8.492 , 0.0 , 0.0 , 0.0 , 0.0 , 

21.0 , 4130.25641026 , 4130.25641026 , 4130.76923077 , 4131.28205128 , 4130.76923077 , 4130.25641026 , 4127.17948718 , 4133.33333333 , 4135.8974359 , 4141.02564103 , 4166.66666667 , 4594.87179487 , 4129.23076923 , 4136.41025641 , 2045.0 , 2040.0 , 8.5 , 0.0 , 0.0 , 0.0 , 0.0 , 

22.0 , 4131.79487179 , 4130.76923077 , 4126.66666667 , 4130.76923077 , 4130.25641026 , 4142.05128205 , 4130.76923077 , 4134.35897436 , 4133.84615385 , 4139.48717949 , 4167.69230769 , 4596.92307692 , 4129.74358974 , 4137.43589744 , 2045.0 , 2041.0 , 8.507 , 0.0 , 0.0 , 0.0 , 0.0 , 

23.0 , 4131.28205128 , 4130.76923077 , 4140.51282051 , 4131.28205128 , 4129.74358974 , 4132.82051282 , 4131.28205128 , 4130.76923077 , 4135.38461538 , 4138.97435897 , 4166.15384615 , 4595.38461538 , 4130.76923077 , 4135.38461538 , 2046.0 , 2041.0 , 8.515 , 0.0 , 0.0 , 0.0 , 0.0 , 

24.0 , 4133.84615385 , 4131.79487179 , 4141.02564103 , 4132.30769231 , 4128.71794872 , 4125.64102564 , 4129.23076923 , 4131.79487179 , 4137.94871795 , 4139.48717949 , 4164.61538462 , 4595.38461538 , 4134.35897436 , 4134.35897436 , 2045.0 , 2042.0 , 8.524 , 0.0 , 0.0 , 0.0 , 0.0 , 

25.0 , 4133.84615385 , 4130.76923077 , 4138.46153846 , 4132.30769231 , 4128.71794872 , 4130.76923077 , 4127.17948718 , 4134.87179487 , 4136.92307692 , 4141.53846154 , 4165.12820513 , 4596.92307692 , 4133.33333333 , 4135.8974359 , 2047.0 , 2042.0 , 8.531 , 0.0 , 0.0 , 0.0 , 0.0 , 

26.0 , 4129.74358974 , 4130.25641026 , 4123.58974359 , 4132.82051282 , 4129.23076923 , 4131.79487179 , 4128.20512821 , 4135.38461538 , 4132.30769231 , 4140.51282051 , 4168.20512821 , 4594.87179487 , 4127.69230769 , 4137.43589744 , 2047.0 , 2044.0 , 8.538 , 0.0 , 0.0 , 0.0 , 0.0 , 

27.0 , 4126.66666667 , 4130.76923077 , 4138.97435897 , 4131.79487179 , 4128.71794872 , 4125.64102564 , 4128.20512821 , 4134.35897436 , 4131.79487179 , 4138.97435897 , 4170.25641026 , 4593.33333333 , 4129.74358974 , 4136.41025641 , 2047.0 , 2043.0 , 8.547 , 0.0 , 0.0 , 0.0 , 0.0 , 

28.0 , 4129.23076923 , 4131.79487179 , 4141.02564103 , 4130.76923077 , 4129.23076923 , 4127.69230769 , 4128.20512821 , 4133.33333333 , 4134.87179487 , 4142.05128205 , 4167.17948718 , 4596.41025641 , 4133.33333333 , 4137.43589744 , 2048.0 , 2044.0 , 8.554 , 0.0 , 0.0 , 0.0 , 0.0 , 

29.0 , 4129.74358974 , 4129.74358974 , 4124.1025641 , 4129.74358974 , 4130.25641026 , 4130.25641026 , 4127.69230769 , 4132.82051282 , 4135.8974359 , 4142.56410256 , 4162.56410256 , 4595.38461538 , 4126.66666667 , 4135.8974359 , 2048.0 , 2042.0 , 8.562 , 0.0 , 0.0 , 0.0 , 0.0 , 

30.0 , 4131.79487179 , 4129.23076923 , 4117.94871795 , 4130.25641026 , 4129.23076923 , 4126.66666667 , 4127.69230769 , 4132.30769231 , 4133.84615385 , 4139.48717949 , 4166.15384615 , 4595.38461538 , 4123.07692308 , 4133.84615385 , 2049.0 , 2040.0 , 8.57 , 0.0 , 0.0 , 0.0 , 0.0 , 

31.0 , 4132.82051282 , 4128.20512821 , 4134.87179487 , 4130.76923077 , 4129.23076923 , 4127.17948718 , 4129.74358974 , 4129.23076923 , 4134.35897436 , 4138.97435897 , 4168.71794872 , 4596.41025641 , 4125.64102564 , 4134.87179487 , 2049.0 , 2039.0 , 8.578 , 0.0 , 0.0 , 0.0 , 0.0 , 

32.0 , 4133.33333333 , 4128.20512821 , 4151.28205128 , 4132.30769231 , 4131.79487179 , 4127.17948718 , 4131.28205128 , 4131.28205128 , 4140.0 , 4144.61538462 , 4167.17948718 , 4597.43589744 , 4128.71794872 , 4139.48717949 , 2049.0 , 2038.0 , 8.586 , 0.0 , 0.0 , 0.0 , 0.0 , 

33.0 , 4132.30769231 , 4129.74358974 , 4131.28205128 , 4132.30769231 , 4132.82051282 , 4127.17948718 , 4128.71794872 , 4132.30769231 , 4136.92307692 , 4141.53846154 , 4166.66666667 , 4596.41025641 , 4127.17948718 , 4135.38461538 , 2049.0 , 2040.0 , 8.594 , 0.0 , 0.0 , 0.0 , 0.0 , 

34.0 , 4132.82051282 , 4130.25641026 , 4127.69230769 , 4132.82051282 , 4131.79487179 , 4129.23076923 , 4127.17948718 , 4130.76923077 , 4133.33333333 , 4138.46153846 , 4168.20512821 , 4594.87179487 , 4128.71794872 , 4130.25641026 , 2049.0 , 2040.0 , 8.601 , 0.0 , 0.0 , 0.0 , 0.0 , 

35.0 , 4132.82051282 , 4130.76923077 , 4130.76923077 , 4134.87179487 , 4129.74358974 , 4127.69230769 , 4129.74358974 , 4131.79487179 , 4134.35897436 , 4138.97435897 , 4166.15384615 , 4592.30769231 , 4130.25641026 , 4133.84615385 , 2049.0 , 2038.0 , 8.609 , 0.0 , 0.0 , 0.0 , 0.0 , 

36.0 , 4133.84615385 , 4130.76923077 , 4141.53846154 , 4134.35897436 , 4130.76923077 , 4131.79487179 , 4128.71794872 , 4137.43589744 , 4136.92307692 , 4140.51282051 , 4167.17948718 , 4594.87179487 , 4132.82051282 , 4138.97435897 , 2047.0 , 2038.0 , 8.617 , 0.0 , 0.0 , 0.0 , 0.0 , 

37.0 , 4132.30769231 , 4130.25641026 , 4129.23076923 , 4131.79487179 , 4131.79487179 , 4134.35897436 , 4126.66666667 , 4132.82051282 , 4136.92307692 , 4140.0 , 4167.17948718 , 4594.87179487 , 4132.30769231 , 4135.38461538 , 2047.0 , 2037.0 , 8.628 , 0.0 , 0.0 , 0.0 , 0.0 , 

38.0 , 4130.25641026 , 4130.76923077 , 4134.35897436 , 4132.30769231 , 4130.76923077 , 4131.79487179 , 4128.71794872 , 4130.76923077 , 4136.41025641 , 4142.56410256 , 4164.61538462 , 4594.35897436 , 4130.76923077 , 4135.38461538 , 2047.0 , 2036.0 , 8.633 , 0.0 , 0.0 , 0.0 , 0.0 , 

39.0 , 4131.79487179 , 4131.79487179 , 4125.12820513 , 4134.35897436 , 4129.23076923 , 4127.69230769 , 4129.74358974 , 4130.76923077 , 4132.82051282 , 4140.51282051 , 4164.61538462 , 4596.41025641 , 4128.20512821 , 4138.46153846 , 2046.0 , 2037.0 , 8.641 , 0.0 , 0.0 , 0.0 , 0.0 , 

40.0 , 4132.30769231 , 4132.30769231 , 4122.56410256 , 4132.30769231 , 4130.76923077 , 4129.74358974 , 4128.71794872 , 4131.79487179 , 4133.33333333 , 4138.97435897 , 4166.66666667 , 4596.92307692 , 4129.74358974 , 4136.41025641 , 2046.0 , 2037.0 , 8.649 , 0.0 , 0.0 , 0.0 , 0.0 , 

41.0 , 4131.79487179 , 4132.30769231 , 4114.87179487 , 4131.28205128 , 4131.28205128 , 4132.82051282 , 4128.20512821 , 4132.30769231 , 4134.35897436 , 4140.51282051 , 4166.15384615 , 4596.41025641 , 4130.25641026 , 4133.33333333 , 2046.0 , 2038.0 , 8.657 , 0.0 , 0.0 , 0.0 , 0.0 , 

42.0 , 4129.74358974 , 4129.23076923 , 4130.25641026 , 4132.82051282 , 4128.71794872 , 4128.20512821 , 4128.20512821 , 4132.30769231 , 4132.30769231 , 4141.53846154 , 4167.17948718 , 4598.97435897 , 4127.17948718 , 4132.82051282 , 2046.0 , 2037.0 , 8.665 , 0.0 , 0.0 , 0.0 , 0.0 , 

43.0 , 4131.79487179 , 4128.20512821 , 4129.74358974 , 4132.82051282 , 4129.23076923 , 4124.1025641 , 4129.23076923 , 4133.84615385 , 4133.84615385 , 4139.48717949 , 4164.61538462 , 4597.43589744 , 4128.20512821 , 4133.33333333 , 2046.0 , 2036.0 , 8.673 , 0.0 , 0.0 , 0.0 , 0.0 , 

44.0 , 4133.33333333 , 4129.23076923 , 4138.97435897 , 4131.79487179 , 4132.30769231 , 4129.74358974 , 4131.28205128 , 4138.46153846 , 4137.43589744 , 4142.05128205 , 4163.58974359 , 4593.84615385 , 4133.84615385 , 4135.8974359 , 2047.0 , 2037.0 , 8.679 , 0.0 , 0.0 , 0.0 , 0.0 , 

45.0 , 4133.84615385 , 4128.20512821 , 4137.43589744 , 4131.79487179 , 4132.30769231 , 4137.94871795 , 4131.79487179 , 4136.92307692 , 4134.35897436 , 4142.56410256 , 4167.17948718 , 4594.87179487 , 4133.84615385 , 4136.41025641 , 2047.0 , 2035.0 , 8.687 , 0.0 , 0.0 , 0.0 , 0.0 , 

46.0 , 4131.28205128 , 4127.69230769 , 4129.74358974 , 4131.79487179 , 4128.71794872 , 4133.33333333 , 4128.71794872 , 4130.76923077 , 4133.33333333 , 4137.43589744 , 4166.15384615 , 4593.84615385 , 4127.69230769 , 4135.38461538 , 2048.0 , 2035.0 , 8.696 , 0.0 , 0.0 , 0.0 , 0.0 , 

47.0 , 4132.30769231 , 4131.28205128 , 4114.87179487 , 4132.82051282 , 4130.25641026 , 4131.79487179 , 4130.25641026 , 4130.76923077 , 4133.33333333 , 4137.43589744 , 4163.07692308 , 4591.79487179 , 4127.17948718 , 4136.92307692 , 2047.0 , 2034.0 , 8.704 , 0.0 , 0.0 , 0.0 , 0.0 , 

48.0 , 4132.30769231 , 4131.28205128 , 4126.15384615 , 4133.33333333 , 4131.28205128 , 4135.38461538 , 4131.28205128 , 4133.33333333 , 4130.76923077 , 4140.51282051 , 4166.15384615 , 4591.28205128 , 4129.23076923 , 4134.35897436 , 2044.0 , 2034.0 , 8.712 , 0.0 , 0.0 , 0.0 , 0.0 , 

49.0 , 4132.82051282 , 4129.23076923 , 4141.02564103 , 4133.33333333 , 4128.71794872 , 4129.74358974 , 4130.25641026 , 4134.87179487 , 4134.87179487 , 4143.58974359 , 4170.76923077 , 4593.84615385 , 4130.76923077 , 4134.87179487 , 2046.0 , 2034.0 , 8.72 , 0.0 , 0.0 , 0.0 , 0.0 , 

50.0 , 4132.30769231 , 4130.25641026 , 4128.20512821 , 4131.79487179 , 4127.69230769 , 4124.1025641 , 4129.23076923 , 4134.35897436 , 4138.46153846 , 4143.07692308 , 4164.61538462 , 4594.35897436 , 4130.25641026 , 4136.92307692 , 2045.0 , 2034.0 , 8.729 , 0.0 , 0.0 , 0.0 , 0.0 , 

51.0 , 4132.30769231 , 4131.79487179 , 4118.97435897 , 4131.79487179 , 4129.23076923 , 4122.56410256 , 4129.23076923 , 4131.79487179 , 4134.87179487 , 4141.02564103 , 4162.05128205 , 4596.92307692 , 4130.76923077 , 4135.38461538 , 2044.0 , 2038.0 , 8.736 , 0.0 , 0.0 , 0.0 , 0.0 , 

52.0 , 4132.82051282 , 4130.76923077 , 4134.87179487 , 4132.82051282 , 4128.20512821 , 4126.66666667 , 4129.74358974 , 4131.28205128 , 4133.33333333 , 4139.48717949 , 4166.66666667 , 4595.38461538 , 4130.25641026 , 4134.35897436 , 2045.0 , 2038.0 , 8.744 , 0.0 , 0.0 , 0.0 , 0.0 , 

53.0 , 4134.35897436 , 4130.25641026 , 4156.41025641 , 4131.28205128 , 4129.23076923 , 4129.74358974 , 4129.23076923 , 4136.41025641 , 4136.92307692 , 4142.56410256 , 4166.66666667 , 4595.38461538 , 4131.28205128 , 4138.97435897 , 2044.0 , 2038.0 , 8.751 , 0.0 , 0.0 , 0.0 , 0.0 , 

54.0 , 4132.82051282 , 4129.74358974 , 4133.33333333 , 4129.23076923 , 4131.28205128 , 4127.69230769 , 4128.71794872 , 4134.35897436 , 4134.87179487 , 4141.53846154 , 4162.56410256 , 4596.41025641 , 4128.71794872 , 4136.41025641 , 2045.0 , 2041.0 , 8.758 , 0.0 , 0.0 , 0.0 , 0.0 , 

55.0 , 4131.79487179 , 4130.25641026 , 4137.43589744 , 4131.28205128 , 4130.76923077 , 4126.15384615 , 4131.28205128 , 4134.35897436 , 4136.41025641 , 4141.02564103 , 4167.17948718 , 4596.41025641 , 4128.20512821 , 4133.33333333 , 2045.0 , 2041.0 , 8.767 , 0.0 , 0.0 , 0.0 , 0.0 , 

56.0 , 4132.82051282 , 4131.28205128 , 4135.8974359 , 4134.35897436 , 4131.28205128 , 4129.74358974 , 4132.82051282 , 4135.38461538 , 4136.92307692 , 4138.97435897 , 4168.71794872 , 4591.79487179 , 4127.69230769 , 4135.38461538 , 2045.0 , 2041.0 , 8.774 , 0.0 , 0.0 , 0.0 , 0.0 , 

57.0 , 4132.82051282 , 4130.76923077 , 4124.1025641 , 4134.87179487 , 4131.79487179 , 4130.76923077 , 4129.74358974 , 4135.8974359 , 4135.8974359 , 4137.94871795 , 4163.58974359 , 4590.25641026 , 4128.20512821 , 4132.82051282 , 2043.0 , 2039.0 , 8.782 , 0.0 , 0.0 , 0.0 , 0.0 , 

58.0 , 4133.84615385 , 4129.23076923 , 4116.41025641 , 4134.35897436 , 4130.76923077 , 4128.20512821 , 4128.71794872 , 4133.84615385 , 4138.46153846 , 4141.02564103 , 4163.07692308 , 4591.28205128 , 4127.69230769 , 4130.76923077 , 2042.0 , 2037.0 , 8.791 , 0.0 , 0.0 , 0.0 , 0.0 , 

59.0 , 4133.33333333 , 4129.23076923 , 4146.66666667 , 4133.84615385 , 4131.79487179 , 4129.74358974 , 4130.25641026 , 4136.92307692 , 4140.51282051 , 4146.66666667 , 4169.23076923 , 4594.35897436 , 4129.74358974 , 4135.38461538 , 2042.0 , 2037.0 , 8.799 , 0.0 , 0.0 , 0.0 , 0.0 , 

60.0 , 4130.76923077 , 4131.79487179 , 4135.38461538 , 4133.84615385 , 4132.30769231 , 4132.82051282 , 4129.23076923 , 4134.87179487 , 4134.87179487 , 4143.07692308 , 4167.69230769 , 4595.38461538 , 4128.20512821 , 4136.41025641 , 2043.0 , 2035.0 , 8.805 , 0.0 , 0.0 , 0.0 , 0.0 , 

61.0 , 4129.74358974 , 4130.25641026 , 4128.71794872 , 4131.79487179 , 4129.74358974 , 4131.28205128 , 4127.69230769 , 4131.28205128 , 4132.82051282 , 4139.48717949 , 4165.64102564 , 4594.35897436 , 4127.69230769 , 4134.35897436 , 2041.0 , 2035.0 , 8.814 , 0.0 , 0.0 , 0.0 , 0.0 , 

62.0 , 4132.30769231 , 4126.66666667 , 4121.53846154 , 4132.30769231 , 4129.74358974 , 4126.66666667 , 4128.71794872 , 4131.28205128 , 4133.84615385 , 4138.97435897 , 4167.17948718 , 4593.84615385 , 4129.23076923 , 4137.94871795 , 2042.0 , 2034.0 , 8.822 , 0.0 , 0.0 , 0.0 , 0.0 , 

63.0 , 4131.79487179 , 4127.17948718 , 4128.20512821 , 4133.33333333 , 4131.79487179 , 4126.66666667 , 4129.23076923 , 4133.33333333 , 4133.84615385 , 4142.05128205 , 4166.66666667 , 4591.28205128 , 4129.23076923 , 4138.46153846 , 2042.0 , 2035.0 , 8.831 , 0.0 , 0.0 , 0.0 , 0.0 , 

64.0 , 4131.79487179 , 4131.79487179 , 4134.87179487 , 4134.87179487 , 4131.28205128 , 4128.71794872 , 4130.76923077 , 4135.38461538 , 4132.30769231 , 4142.05128205 , 4166.15384615 , 4591.28205128 , 4129.74358974 , 4134.87179487 , 2042.0 , 2037.0 , 8.838 , 0.0 , 0.0 , 0.0 , 0.0 , 

65.0 , 4130.76923077 , 4130.76923077 , 4141.53846154 , 4132.30769231 , 4129.23076923 , 4127.69230769 , 4129.23076923 , 4135.38461538 , 4132.82051282 , 4137.94871795 , 4165.64102564 , 4594.35897436 , 4128.71794872 , 4132.30769231 , 2042.0 , 2039.0 , 8.846 , 0.0 , 0.0 , 0.0 , 0.0 , 

66.0 , 4131.28205128 , 4130.25641026 , 4132.82051282 , 4130.25641026 , 4131.28205128 , 4128.71794872 , 4126.15384615 , 4134.35897436 , 4135.38461538 , 4140.0 , 4166.15384615 , 4596.41025641 , 4128.71794872 , 4133.33333333 , 2042.0 , 2040.0 , 8.854 , 0.0 , 0.0 , 0.0 , 0.0 , 

67.0 , 4130.76923077 , 4130.76923077 , 4131.79487179 , 4130.76923077 , 4132.30769231 , 4132.82051282 , 4127.69230769 , 4131.79487179 , 4136.92307692 , 4144.61538462 , 4164.61538462 , 4591.79487179 , 4132.82051282 , 4132.82051282 , 2043.0 , 2040.0 , 8.862 , 0.0 , 0.0 , 0.0 , 0.0 , 

68.0 , 4130.76923077 , 4129.74358974 , 4142.56410256 , 4132.30769231 , 4130.25641026 , 4133.33333333 , 4129.74358974 , 4132.30769231 , 4133.84615385 , 4147.69230769 , 4165.64102564 , 4591.79487179 , 4135.8974359 , 4133.33333333 , 2043.0 , 2040.0 , 8.87 , 0.0 , 0.0 , 0.0 , 0.0 , 

69.0 , 4131.79487179 , 4130.76923077 , 4118.97435897 , 4130.76923077 , 4129.74358974 , 4130.25641026 , 4128.20512821 , 4132.82051282 , 4129.74358974 , 4142.56410256 , 4163.58974359 , 4592.82051282 , 4125.12820513 , 4132.82051282 , 2044.0 , 2040.0 , 8.876 , 0.0 , 0.0 , 0.0 , 0.0 , 

70.0 , 4134.35897436 , 4134.35897436 , 4107.17948718 , 4131.28205128 , 4132.30769231 , 4133.33333333 , 4129.23076923 , 4135.8974359 , 4132.82051282 , 4142.56410256 , 4163.07692308 , 4592.82051282 , 4119.48717949 , 4134.35897436 , 2042.0 , 2038.0 , 8.885 , 0.0 , 0.0 , 0.0 , 0.0 , 

71.0 , 4133.84615385 , 4130.76923077 , 4107.17948718 , 4132.82051282 , 4131.79487179 , 4135.8974359 , 4131.28205128 , 4133.33333333 , 4134.35897436 , 4141.53846154 , 4165.64102564 , 4593.84615385 , 4125.12820513 , 4137.43589744 , 2042.0 , 2039.0 , 8.893 , 0.0 , 0.0 , 0.0 , 0.0 , 

72.0 , 4133.84615385 , 4127.17948718 , 4118.46153846 , 4132.30769231 , 4130.25641026 , 4130.76923077 , 4130.25641026 , 4131.79487179 , 4134.87179487 , 4141.53846154 , 4168.20512821 , 4596.41025641 , 4128.71794872 , 4136.41025641 , 2042.0 , 2040.0 , 8.901 , 0.0 , 0.0 , 0.0 , 0.0 , 

73.0 , 4134.35897436 , 4129.74358974 , 4116.92307692 , 4131.79487179 , 4131.28205128 , 4126.66666667 , 4128.20512821 , 4132.30769231 , 4134.87179487 , 4143.58974359 , 4167.69230769 , 4591.79487179 , 4125.64102564 , 4132.30769231 , 2042.0 , 2040.0 , 8.909 , 0.0 , 0.0 , 0.0 , 0.0 , 

74.0 , 4132.30769231 , 4131.79487179 , 4126.66666667 , 4130.25641026 , 4131.79487179 , 4129.23076923 , 4129.23076923 , 4135.38461538 , 4136.41025641 , 4148.71794872 , 4169.74358974 , 4590.25641026 , 4130.76923077 , 4134.87179487 , 2042.0 , 2041.0 , 8.916 , 0.0 , 0.0 , 0.0 , 0.0 , 

75.0 , 4132.30769231 , 4129.23076923 , 4123.07692308 , 4131.28205128 , 4129.74358974 , 4126.66666667 , 4129.74358974 , 4135.8974359 , 4134.87179487 , 4145.64102564 , 4169.23076923 , 4593.33333333 , 4134.35897436 , 4136.92307692 , 2041.0 , 2042.0 , 8.925 , 0.0 , 0.0 , 0.0 , 0.0 , 

76.0 , 4132.82051282 , 4128.71794872 , 4137.94871795 , 4133.33333333 , 4130.25641026 , 4126.15384615 , 4128.71794872 , 4135.8974359 , 4133.33333333 , 4141.53846154 , 4166.15384615 , 4593.84615385 , 4132.30769231 , 4134.87179487 , 2042.0 , 2043.0 , 8.933 , 0.0 , 0.0 , 0.0 , 0.0 , 

77.0 , 4131.28205128 , 4132.30769231 , 4137.94871795 , 4133.33333333 , 4132.82051282 , 4134.87179487 , 4128.20512821 , 4133.33333333 , 4135.38461538 , 4144.1025641 , 4166.66666667 , 4591.79487179 , 4130.76923077 , 4133.33333333 , 2042.0 , 2043.0 , 8.94 , 0.0 , 0.0 , 0.0 , 0.0 , 

78.0 , 4129.74358974 , 4131.79487179 , 4140.0 , 4131.28205128 , 4131.28205128 , 4134.87179487 , 4127.17948718 , 4133.84615385 , 4139.48717949 , 4145.12820513 , 4168.71794872 , 4591.79487179 , 4131.28205128 , 4135.38461538 , 2042.0 , 2041.0 , 8.948 , 0.0 , 0.0 , 0.0 , 0.0 , 

79.0 , 4132.82051282 , 4129.23076923 , 4128.71794872 , 4132.30769231 , 4129.23076923 , 4127.17948718 , 4127.69230769 , 4134.35897436 , 4139.48717949 , 4140.0 , 4165.64102564 , 4588.20512821 , 4128.71794872 , 4134.87179487 , 2042.0 , 2038.0 , 8.956 , 0.0 , 0.0 , 0.0 , 0.0 , 

80.0 , 4132.30769231 , 4128.71794872 , 4144.1025641 , 4134.35897436 , 4129.74358974 , 4127.69230769 , 4128.20512821 , 4135.8974359 , 4137.43589744 , 4141.53846154 , 4166.66666667 , 4588.20512821 , 4127.17948718 , 4134.87179487 , 2041.0 , 2036.0 , 8.964 , 0.0 , 0.0 , 0.0 , 0.0 , 

81.0 , 4130.25641026 , 4131.28205128 , 4134.87179487 , 4133.33333333 , 4129.74358974 , 4132.30769231 , 4129.23076923 , 4134.35897436 , 4136.92307692 , 4142.05128205 , 4169.23076923 , 4591.28205128 , 4129.23076923 , 4137.43589744 , 2041.0 , 2037.0 , 8.971 , 0.0 , 0.0 , 0.0 , 0.0 , 

82.0 , 4130.76923077 , 4131.28205128 , 4137.94871795 , 4131.28205128 , 4130.25641026 , 4130.25641026 , 4129.23076923 , 4133.33333333 , 4137.94871795 , 4142.56410256 , 4168.20512821 , 4591.28205128 , 4134.87179487 , 4137.43589744 , 2041.0 , 2036.0 , 8.981 , 0.0 , 0.0 , 0.0 , 0.0 , 

83.0 , 4134.35897436 , 4130.76923077 , 4140.0 , 4132.30769231 , 4131.79487179 , 4128.20512821 , 4127.69230769 , 4133.84615385 , 4134.87179487 , 4142.56410256 , 4166.66666667 , 4591.79487179 , 4133.84615385 , 4137.43589744 , 2040.0 , 2037.0 , 8.989 , 0.0 , 0.0 , 0.0 , 0.0 , 

84.0 , 4132.82051282 , 4129.74358974 , 4138.97435897 , 4133.84615385 , 4130.25641026 , 4127.17948718 , 4128.71794872 , 4133.33333333 , 4134.87179487 , 4142.05128205 , 4167.17948718 , 4593.84615385 , 4129.23076923 , 4135.38461538 , 2038.0 , 2037.0 , 8.996 , 0.0 , 0.0 , 0.0 , 0.0 , 

85.0 , 4132.82051282 , 4130.25641026 , 4131.28205128 , 4133.84615385 , 4128.71794872 , 4128.71794872 , 4130.25641026 , 4134.87179487 , 4139.48717949 , 4141.02564103 , 4168.20512821 , 4595.38461538 , 4131.79487179 , 4136.92307692 , 2039.0 , 2038.0 , 9.004 , 0.0 , 0.0 , 0.0 , 0.0 , 

86.0 , 4133.33333333 , 4130.76923077 , 4113.84615385 , 4132.82051282 , 4128.20512821 , 4130.76923077 , 4129.74358974 , 4132.30769231 , 4136.92307692 , 4138.46153846 , 4166.66666667 , 4591.28205128 , 4129.23076923 , 4136.41025641 , 2039.0 , 2038.0 , 9.011 , 0.0 , 0.0 , 0.0 , 0.0 , 

87.0 , 4133.33333333 , 4130.76923077 , 4106.15384615 , 4133.84615385 , 4128.20512821 , 4126.66666667 , 4130.25641026 , 4130.76923077 , 4133.84615385 , 4139.48717949 , 4164.61538462 , 4592.30769231 , 4122.56410256 , 4135.8974359 , 2040.0 , 2037.0 , 9.018 , 0.0 , 0.0 , 0.0 , 0.0 , 

88.0 , 4131.79487179 , 4129.23076923 , 4104.61538462 , 4133.84615385 , 4129.23076923 , 4127.69230769 , 4129.23076923 , 4131.28205128 , 4136.92307692 , 4140.51282051 , 4162.56410256 , 4592.30769231 , 4123.07692308 , 4133.84615385 , 2039.0 , 2036.0 , 9.026 , 0.0 , 0.0 , 0.0 , 0.0 , 

89.0 , 4133.33333333 , 4128.20512821 , 4122.05128205 , 4132.30769231 , 4130.76923077 , 4135.8974359 , 4127.69230769 , 4134.35897436 , 4140.0 , 4144.61538462 , 4165.64102564 , 4590.76923077 , 4132.82051282 , 4134.87179487 , 2040.0 , 2035.0 , 9.039 , 0.0 , 0.0 , 0.0 , 0.0 , 

90.0 , 4133.33333333 , 4127.17948718 , 4125.12820513 , 4130.25641026 , 4130.25641026 , 4134.87179487 , 4127.17948718 , 4132.30769231 , 4137.94871795 , 4144.1025641 , 4167.17948718 , 4588.71794872 , 4132.82051282 , 4136.41025641 , 2040.0 , 2034.0 , 9.043 , 0.0 , 0.0 , 0.0 , 0.0 , 

91.0 , 4131.79487179 , 4129.23076923 , 4132.82051282 , 4131.79487179 , 4130.25641026 , 4133.33333333 , 4129.23076923 , 4133.84615385 , 4139.48717949 , 4144.61538462 , 4165.64102564 , 4591.79487179 , 4130.25641026 , 4136.92307692 , 2042.0 , 2030.0 , 9.051 , 0.0 , 0.0 , 0.0 , 0.0 , 

92.0 , 4131.28205128 , 4130.76923077 , 4132.82051282 , 4133.33333333 , 4131.28205128 , 4134.35897436 , 4127.69230769 , 4135.38461538 , 4137.43589744 , 4144.61538462 , 4163.07692308 , 4591.28205128 , 4130.76923077 , 4135.8974359 , 2042.0 , 2031.0 , 9.059 , 0.0 , 0.0 , 0.0 , 0.0 , 

93.0 , 4131.28205128 , 4130.76923077 , 4138.97435897 , 4130.76923077 , 4130.76923077 , 4127.69230769 , 4127.69230769 , 4137.43589744 , 4134.87179487 , 4142.56410256 , 4168.20512821 , 4588.20512821 , 4133.33333333 , 4135.38461538 , 2042.0 , 2030.0 , 9.067 , 0.0 , 0.0 , 0.0 , 0.0 , 

94.0 , 4131.28205128 , 4130.76923077 , 4131.28205128 , 4129.23076923 , 4130.25641026 , 4125.12820513 , 4129.23076923 , 4137.94871795 , 4134.87179487 , 4138.46153846 , 4171.79487179 , 4587.17948718 , 4130.76923077 , 4135.38461538 , 2043.0 , 2032.0 , 9.074 , 0.0 , 0.0 , 0.0 , 0.0 , 

95.0 , 4131.28205128 , 4128.71794872 , 4144.1025641 , 4129.74358974 , 4130.76923077 , 4129.23076923 , 4126.66666667 , 4135.38461538 , 4136.92307692 , 4140.51282051 , 4167.69230769 , 4590.25641026 , 4128.71794872 , 4134.87179487 , 2043.0 , 2033.0 , 9.082 , 0.0 , 0.0 , 0.0 , 0.0 , 

96.0 , 4131.79487179 , 4129.23076923 , 4139.48717949 , 4130.76923077 , 4133.33333333 , 4127.17948718 , 4124.61538462 , 4132.30769231 , 4136.41025641 , 4141.02564103 , 4165.64102564 , 4593.33333333 , 4129.74358974 , 4133.33333333 , 2044.0 , 2035.0 , 9.09 , 0.0 , 0.0 , 0.0 , 0.0 , 

97.0 , 4129.23076923 , 4129.74358974 , 4164.1025641 , 4131.28205128 , 4131.79487179 , 4127.17948718 , 4127.69230769 , 4138.46153846 , 4138.46153846 , 4142.05128205 , 4168.71794872 , 4594.87179487 , 4133.84615385 , 4134.35897436 , 2043.0 , 2037.0 , 9.098 , 0.0 , 0.0 , 0.0 , 0.0 , 

98.0 , 4130.76923077 , 4128.71794872 , 4152.82051282 , 4131.79487179 , 4128.20512821 , 4134.35897436 , 4131.28205128 , 4138.46153846 , 4137.94871795 , 4141.02564103 , 4166.15384615 , 4593.84615385 , 4129.74358974 , 4134.87179487 , 2045.0 , 2038.0 , 9.106 , 0.0 , 0.0 , 0.0 , 0.0 , 

99.0 , 4132.82051282 , 4128.71794872 , 4128.71794872 , 4130.25641026 , 4129.74358974 , 4135.38461538 , 4128.71794872 , 4134.87179487 , 4136.92307692 , 4140.0 , 4164.1025641 , 4591.79487179 , 4127.69230769 , 4134.87179487 , 2046.0 , 2040.0 , 9.114 , 0.0 , 0.0 , 0.0 , 0.0 , 

100.0 , 4129.74358974 , 4131.28205128 , 4116.92307692 , 4131.79487179 , 4132.82051282 , 4126.66666667 , 4127.69230769 , 4135.38461538 , 4136.41025641 , 4137.94871795 , 4165.64102564 , 4588.20512821 , 4131.79487179 , 4135.8974359 , 2045.0 , 2040.0 , 9.122 , 0.0 , 0.0 , 0.0 , 0.0 , 

101.0 , 4126.66666667 , 4129.74358974 , 4139.48717949 , 4134.87179487 , 4130.76923077 , 4124.61538462 , 4128.20512821 , 4135.8974359 , 4138.97435897 , 4139.48717949 , 4165.64102564 , 4589.23076923 , 4133.84615385 , 4134.35897436 , 2046.0 , 2039.0 , 9.129 , 0.0 , 0.0 , 0.0 , 0.0 , 

102.0 , 4133.84615385 , 4128.71794872 , 4136.92307692 , 4134.87179487 , 4129.23076923 , 4132.30769231 , 4128.71794872 , 4133.84615385 , 4137.94871795 , 4139.48717949 , 4166.15384615 , 4594.87179487 , 4131.79487179 , 4135.38461538 , 2047.0 , 2038.0 , 9.138 , 0.0 , 0.0 , 0.0 , 0.0 , 

103.0 , 4135.38461538 , 4130.76923077 , 4118.97435897 , 4130.25641026 , 4129.74358974 , 4136.41025641 , 4129.74358974 , 4133.33333333 , 4133.33333333 , 4137.94871795 , 4167.69230769 , 4591.28205128 , 4131.28205128 , 4136.41025641 , 2047.0 , 2036.0 , 9.145 , 0.0 , 0.0 , 0.0 , 0.0 , 

104.0 , 4130.76923077 , 4129.74358974 , 4127.17948718 , 4131.28205128 , 4128.71794872 , 4127.17948718 , 4131.28205128 , 4133.33333333 , 4134.87179487 , 4142.05128205 , 4165.64102564 , 4587.69230769 , 4131.79487179 , 4135.8974359 , 2046.0 , 2036.0 , 9.153 , 0.0 , 0.0 , 0.0 , 0.0 , 

105.0 , 4127.17948718 , 4127.17948718 , 4137.43589744 , 4134.35897436 , 4129.74358974 , 4123.58974359 , 4130.76923077 , 4129.74358974 , 4138.46153846 , 4143.07692308 , 4164.61538462 , 4588.71794872 , 4130.76923077 , 4134.87179487 , 2045.0 , 2037.0 , 9.161 , 0.0 , 0.0 , 0.0 , 0.0 , 

106.0 , 4128.20512821 , 4129.74358974 , 4142.56410256 , 4133.84615385 , 4131.79487179 , 4134.87179487 , 4127.69230769 , 4133.33333333 , 4138.97435897 , 4143.07692308 , 4168.20512821 , 4591.28205128 , 4131.79487179 , 4135.38461538 , 2045.0 , 2035.0 , 9.169 , 0.0 , 0.0 , 0.0 , 0.0 , 

107.0 , 4129.74358974 , 4132.30769231 , 4140.0 , 4134.35897436 , 4129.23076923 , 4136.92307692 , 4128.20512821 , 4133.84615385 , 4137.43589744 , 4142.05128205 , 4167.69230769 , 4590.25641026 , 4131.28205128 , 4134.87179487 , 2043.0 , 2036.0 , 9.176 , 0.0 , 0.0 , 0.0 , 0.0 , 

108.0 , 4130.76923077 , 4131.79487179 , 4147.17948718 , 4134.35897436 , 4127.69230769 , 4128.20512821 , 4130.76923077 , 4132.82051282 , 4137.43589744 , 4143.58974359 , 4167.69230769 , 4593.84615385 , 4130.25641026 , 4134.87179487 , 2043.0 , 2038.0 , 9.185 , 0.0 , 0.0 , 0.0 , 0.0 , 

109.0 , 4130.76923077 , 4129.74358974 , 4137.43589744 , 4131.28205128 , 4130.76923077 , 4128.20512821 , 4129.23076923 , 4133.84615385 , 4135.38461538 , 4142.05128205 , 4168.20512821 , 4593.84615385 , 4128.20512821 , 4133.84615385 , 2043.0 , 2041.0 , 9.193 , 0.0 , 0.0 , 0.0 , 0.0 , 

110.0 , 4132.82051282 , 4131.28205128 , 4135.8974359 , 4131.28205128 , 4131.28205128 , 4132.30769231 , 4126.15384615 , 4135.8974359 , 4137.94871795 , 4140.51282051 , 4168.20512821 , 4593.33333333 , 4130.25641026 , 4135.8974359 , 2041.0 , 2041.0 , 9.201 , 0.0 , 0.0 , 0.0 , 0.0 , 

111.0 , 4134.87179487 , 4130.76923077 , 4132.30769231 , 4133.84615385 , 4128.71794872 , 4129.23076923 , 4127.17948718 , 4132.30769231 , 4140.0 , 4138.97435897 , 4165.64102564 , 4591.28205128 , 4132.30769231 , 4137.43589744 , 2042.0 , 2041.0 , 9.208 , 0.0 , 0.0 , 0.0 , 0.0 , 

112.0 , 4132.30769231 , 4129.74358974 , 4136.92307692 , 4133.84615385 , 4128.71794872 , 4125.64102564 , 4129.74358974 , 4130.76923077 , 4136.92307692 , 4139.48717949 , 4164.61538462 , 4590.25641026 , 4130.76923077 , 4136.92307692 , 2040.0 , 2039.0 , 9.216 , 0.0 , 0.0 , 0.0 , 0.0 , 

113.0 , 4131.28205128 , 4130.25641026 , 4115.8974359 , 4130.76923077 , 4130.25641026 , 4127.17948718 , 4129.23076923 , 4130.25641026 , 4132.30769231 , 4140.0 , 4163.07692308 , 4590.25641026 , 4125.64102564 , 4134.35897436 , 2041.0 , 2039.0 , 9.224 , 0.0 , 0.0 , 0.0 , 0.0 , 

114.0 , 4129.74358974 , 4130.76923077 , 4127.69230769 , 4129.74358974 , 4129.74358974 , 4132.30769231 , 4127.17948718 , 4131.79487179 , 4134.35897436 , 4142.56410256 , 4165.12820513 , 4591.28205128 , 4129.23076923 , 4134.35897436 , 2039.0 , 2038.0 , 9.231 , 0.0 , 0.0 , 0.0 , 0.0 , 

115.0 , 4130.25641026 , 4131.79487179 , 4133.84615385 , 4133.33333333 , 4128.20512821 , 4138.46153846 , 4128.20512821 , 4130.76923077 , 4134.87179487 , 4141.53846154 , 4169.23076923 , 4591.28205128 , 4132.82051282 , 4135.38461538 , 2039.0 , 2038.0 , 9.241 , 0.0 , 0.0 , 0.0 , 0.0 , 

116.0 , 4133.33333333 , 4131.28205128 , 4145.12820513 , 4134.35897436 , 4130.25641026 , 4134.87179487 , 4130.76923077 , 4133.33333333 , 4136.41025641 , 4141.53846154 , 4170.25641026 , 4589.74358974 , 4131.28205128 , 4135.8974359 , 2040.0 , 2038.0 , 9.248 , 0.0 , 0.0 , 0.0 , 0.0 , 

117.0 , 4135.8974359 , 4131.28205128 , 4133.33333333 , 4130.76923077 , 4132.30769231 , 4127.69230769 , 4130.25641026 , 4136.92307692 , 4135.38461538 , 4141.53846154 , 4168.20512821 , 4589.74358974 , 4129.23076923 , 4134.35897436 , 2041.0 , 2040.0 , 9.255 , 0.0 , 0.0 , 0.0 , 0.0 , 

118.0 , 4130.76923077 , 4131.28205128 , 4141.53846154 , 4130.76923077 , 4130.25641026 , 4127.69230769 , 4126.66666667 , 4138.97435897 , 4132.82051282 , 4142.05128205 , 4167.69230769 , 4590.25641026 , 4131.79487179 , 4133.33333333 , 2041.0 , 2039.0 , 9.264 , 0.0 , 0.0 , 0.0 , 0.0 , 

119.0 , 4129.74358974 , 4130.76923077 , 4145.64102564 , 4133.33333333 , 4129.74358974 , 4127.17948718 , 4127.69230769 , 4138.46153846 , 4133.84615385 , 4141.53846154 , 4169.23076923 , 4590.76923077 , 4131.79487179 , 4135.8974359 , 2041.0 , 2040.0 , 9.27 , 0.0 , 0.0 , 0.0 , 0.0 , 

120.0 , 4130.25641026 , 4130.25641026 , 4145.12820513 , 4132.30769231 , 4131.79487179 , 4126.15384615 , 4129.74358974 , 4136.92307692 , 4139.48717949 , 4140.51282051 , 4168.71794872 , 4590.76923077 , 4129.74358974 , 4134.87179487 , 2041.0 , 2040.0 , 9.278 , 0.0 , 0.0 , 0.0 , 0.0 , 

121.0 , 4130.25641026 , 4130.76923077 , 4129.23076923 , 4132.82051282 , 4133.33333333 , 4129.74358974 , 4129.23076923 , 4134.35897436 , 4138.46153846 , 4139.48717949 , 4166.66666667 , 4591.79487179 , 4131.28205128 , 4132.82051282 , 2041.0 , 2040.0 , 9.286 , 0.0 , 0.0 , 0.0 , 0.0 , 

122.0 , 4129.23076923 , 4132.30769231 , 4137.94871795 , 4131.28205128 , 4130.25641026 , 4131.79487179 , 4128.71794872 , 4135.8974359 , 4134.35897436 , 4141.02564103 , 4166.66666667 , 4590.76923077 , 4131.79487179 , 4134.87179487 , 2042.0 , 2039.0 , 9.295 , 0.0 , 0.0 , 0.0 , 0.0 , 

123.0 , 4131.79487179 , 4132.82051282 , 4156.92307692 , 4130.25641026 , 4128.20512821 , 4135.38461538 , 4129.74358974 , 4137.94871795 , 4137.94871795 , 4145.12820513 , 4167.69230769 , 4591.79487179 , 4129.74358974 , 4139.48717949 , 2042.0 , 2038.0 , 9.303 , 0.0 , 0.0 , 0.0 , 0.0 , 

124.0 , 4132.30769231 , 4129.74358974 , 4127.69230769 , 4131.79487179 , 4129.23076923 , 4137.43589744 , 4129.74358974 , 4131.28205128 , 4137.43589744 , 4140.0 , 4165.64102564 , 4590.76923077 , 4126.66666667 , 4135.8974359 , 2043.0 , 2037.0 , 9.311 , 0.0 , 0.0 , 0.0 , 0.0 , 

125.0 , 4131.79487179 , 4129.23076923 , 4114.35897436 , 4133.84615385 , 4132.30769231 , 4133.33333333 , 4128.71794872 , 4132.82051282 , 4133.84615385 , 4137.94871795 , 4166.15384615 , 4590.25641026 , 4130.76923077 , 4132.82051282 , 2046.0 , 2039.0 , 9.319 , 0.0 , 0.0 , 0.0 , 0.0 , 

126.0 , 4132.82051282 , 4131.28205128 , 4134.87179487 , 4132.30769231 , 4132.30769231 , 4130.76923077 , 4130.25641026 , 4136.41025641 , 4134.87179487 , 4142.56410256 , 4168.20512821 , 4588.71794872 , 4132.30769231 , 4133.33333333 , 2046.0 , 2038.0 , 9.326 , 0.0 , 0.0 , 0.0 , 0.0 , 

127.0 , 4131.28205128 , 4130.76923077 , 4151.79487179 , 4132.30769231 , 4130.25641026 , 4134.87179487 , 4130.25641026 , 4132.82051282 , 4140.51282051 , 4145.64102564 , 4169.23076923 , 4589.23076923 , 4129.74358974 , 4136.41025641 , 2046.0 , 2039.0 , 9.335 , 0.0 , 0.0 , 0.0 , 0.0 , 

128.0 , 4129.23076923 , 4129.23076923 , 4143.07692308 , 4133.33333333 , 4129.74358974 , 4135.38461538 , 4128.20512821 , 4132.30769231 , 4139.48717949 , 4140.0 , 4169.74358974 , 4589.74358974 , 4128.71794872 , 4135.8974359 , 2046.0 , 2037.0 , 9.343 , 0.0 , 0.0 , 0.0 , 0.0 , 

0.0 , 4131.79487179 , 4127.69230769 , 4169.74358974 , 4130.76923077 , 4130.25641026 , 4134.87179487 , 4127.69230769 , 4138.46153846 , 4138.46153846 , 4141.02564103 , 4170.76923077 , 4593.84615385 , 4132.30769231 , 4136.92307692 , 2045.0 , 2037.0 , 9.35 , 0.0 , 0.0 , 0.0 , 0.0 , 

1.0 , 4134.35897436 , 4127.17948718 , 4157.43589744 , 4130.76923077 , 4131.28205128 , 4135.38461538 , 4128.20512821 , 4134.35897436 , 4138.46153846 , 4141.02564103 , 4168.20512821 , 4592.82051282 , 4130.25641026 , 4134.35897436 , 2046.0 , 2037.0 , 9.358 , 0.0 , 0.0 , 0.0 , 0.0 , 

2.0 , 4131.79487179 , 4128.20512821 , 4144.61538462 , 4134.35897436 , 4130.76923077 , 4135.38461538 , 4128.20512821 , 4134.35897436 , 4137.94871795 , 4140.0 , 4166.15384615 , 4588.71794872 , 4129.23076923 , 4132.82051282 , 2046.0 , 2036.0 , 9.366 , 0.0 , 0.0 , 0.0 , 0.0 , 

