['COUNTER', 'AF3', 'F7', 'F3', 'FC5', 'T7', 'P7', 'O1', 'O2', 'P8', 'T8', 'FC6', 'F4', 'F8', 'AF4', 'GYROX', 'GYROY', 'TIMESTAMP', 'FUNC_ID', 'FUNC_VALUE', 'MARKER', 'SYNC_SIGNAL']
128.0 , 4129.23076923 , 4133.84615385 , 4126.15384615 , 4129.23076923 , 4132.30769231 , 4128.71794872 , 4128.20512821 , 4132.30769231 , 4133.84615385 , 4143.07692308 , 4176.41025641 , 4715.38461538 , 4130.76923077 , 4141.02564103 , 2046.0 , 2050.0 , 6.044 , 0.0 , 0.0 , 0.0 , 0.0 , 

0.0 , 4129.23076923 , 4133.84615385 , 4123.58974359 , 4130.76923077 , 4130.76923077 , 4129.23076923 , 4128.20512821 , 4136.41025641 , 4135.38461538 , 4142.05128205 , 4175.38461538 , 4717.43589744 , 4132.82051282 , 4137.94871795 , 2045.0 , 2049.0 , 6.051 , 0.0 , 0.0 , 0.0 , 0.0 , 

1.0 , 4129.74358974 , 4130.25641026 , 4124.61538462 , 4130.76923077 , 4129.23076923 , 4127.69230769 , 4127.17948718 , 4135.38461538 , 4135.8974359 , 4140.0 , 4172.30769231 , 4715.8974359 , 4129.74358974 , 4133.33333333 , 2045.0 , 2044.0 , 6.059 , 0.0 , 0.0 , 0.0 , 0.0 , 

2.0 , 4132.30769231 , 4128.20512821 , 4137.94871795 , 4129.74358974 , 4131.28205128 , 4129.74358974 , 4126.66666667 , 4133.84615385 , 4135.38461538 , 4142.05128205 , 4173.84615385 , 4712.82051282 , 4130.25641026 , 4134.87179487 , 2047.0 , 2043.0 , 6.066 , 0.0 , 0.0 , 0.0 , 0.0 , 

3.0 , 4132.82051282 , 4131.79487179 , 4126.15384615 , 4130.76923077 , 4131.28205128 , 4129.74358974 , 4127.69230769 , 4131.28205128 , 4133.33333333 , 4141.02564103 , 4174.87179487 , 4713.33333333 , 4131.79487179 , 4135.38461538 , 2046.0 , 2043.0 , 6.076 , 0.0 , 0.0 , 0.0 , 0.0 , 

4.0 , 4131.79487179 , 4134.87179487 , 4116.41025641 , 4133.84615385 , 4130.25641026 , 4126.15384615 , 4128.20512821 , 4131.28205128 , 4132.82051282 , 4137.94871795 , 4174.87179487 , 4715.8974359 , 4129.74358974 , 4133.84615385 , 2047.0 , 2045.0 , 6.083 , 0.0 , 0.0 , 0.0 , 0.0 , 

5.0 , 4130.76923077 , 4131.28205128 , 4110.25641026 , 4134.87179487 , 4128.71794872 , 4126.66666667 , 4128.71794872 , 4129.23076923 , 4135.38461538 , 4137.94871795 , 4174.87179487 , 4712.30769231 , 4127.69230769 , 4134.87179487 , 2047.0 , 2045.0 , 6.092 , 0.0 , 0.0 , 0.0 , 0.0 , 

6.0 , 4128.71794872 , 4127.69230769 , 4130.76923077 , 4132.82051282 , 4128.20512821 , 4129.74358974 , 4128.71794872 , 4130.25641026 , 4137.94871795 , 4142.56410256 , 4175.38461538 , 4713.33333333 , 4131.79487179 , 4135.38461538 , 2047.0 , 2050.0 , 6.099 , 0.0 , 0.0 , 0.0 , 0.0 , 

7.0 , 4128.71794872 , 4131.79487179 , 4118.46153846 , 4131.28205128 , 4129.74358974 , 4130.76923077 , 4129.23076923 , 4131.28205128 , 4133.84615385 , 4142.05128205 , 4174.35897436 , 4716.92307692 , 4129.74358974 , 4133.33333333 , 2046.0 , 2053.0 , 6.108 , 0.0 , 0.0 , 0.0 , 0.0 , 

8.0 , 4130.25641026 , 4134.35897436 , 4106.66666667 , 4131.79487179 , 4129.74358974 , 4128.20512821 , 4128.71794872 , 4131.79487179 , 4131.79487179 , 4140.51282051 , 4174.87179487 , 4711.79487179 , 4126.66666667 , 4133.33333333 , 2047.0 , 2055.0 , 6.115 , 0.0 , 0.0 , 0.0 , 0.0 , 

9.0 , 4132.82051282 , 4130.76923077 , 4105.12820513 , 4132.82051282 , 4128.71794872 , 4127.69230769 , 4128.20512821 , 4132.30769231 , 4135.8974359 , 4141.02564103 , 4175.8974359 , 4706.15384615 , 4129.74358974 , 4134.87179487 , 2047.0 , 2058.0 , 6.122 , 0.0 , 0.0 , 0.0 , 0.0 , 

10.0 , 4132.30769231 , 4127.69230769 , 4110.76923077 , 4130.76923077 , 4130.25641026 , 4129.23076923 , 4128.20512821 , 4131.79487179 , 4137.43589744 , 4140.0 , 4174.87179487 , 4707.17948718 , 4130.76923077 , 4134.87179487 , 2048.0 , 2059.0 , 6.13 , 0.0 , 0.0 , 0.0 , 0.0 , 

11.0 , 4131.28205128 , 4129.74358974 , 4103.58974359 , 4129.74358974 , 4132.30769231 , 4128.20512821 , 4128.20512821 , 4134.35897436 , 4134.87179487 , 4140.0 , 4173.33333333 , 4711.79487179 , 4128.71794872 , 4137.94871795 , 2048.0 , 2058.0 , 6.138 , 0.0 , 0.0 , 0.0 , 0.0 , 

12.0 , 4130.76923077 , 4132.30769231 , 4110.76923077 , 4130.76923077 , 4129.23076923 , 4127.17948718 , 4127.17948718 , 4133.33333333 , 4134.87179487 , 4141.53846154 , 4172.82051282 , 4711.79487179 , 4130.76923077 , 4138.97435897 , 2050.0 , 2057.0 , 6.146 , 0.0 , 0.0 , 0.0 , 0.0 , 

13.0 , 4131.28205128 , 4132.30769231 , 4115.38461538 , 4131.28205128 , 4128.71794872 , 4129.74358974 , 4126.66666667 , 4134.35897436 , 4136.92307692 , 4141.53846154 , 4176.92307692 , 4709.74358974 , 4131.28205128 , 4137.43589744 , 2050.0 , 2053.0 , 6.154 , 0.0 , 0.0 , 0.0 , 0.0 , 

14.0 , 4129.74358974 , 4129.23076923 , 4124.1025641 , 4128.71794872 , 4131.28205128 , 4129.23076923 , 4128.20512821 , 4138.46153846 , 4137.43589744 , 4141.53846154 , 4178.46153846 , 4708.20512821 , 4128.71794872 , 4133.84615385 , 2050.0 , 2050.0 , 6.162 , 0.0 , 0.0 , 0.0 , 0.0 , 

15.0 , 4132.30769231 , 4130.25641026 , 4118.46153846 , 4128.71794872 , 4131.28205128 , 4127.69230769 , 4128.20512821 , 4137.94871795 , 4136.92307692 , 4144.1025641 , 4174.35897436 , 4711.79487179 , 4131.79487179 , 4134.87179487 , 2051.0 , 2047.0 , 6.17 , 0.0 , 0.0 , 0.0 , 0.0 , 

16.0 , 4130.76923077 , 4132.30769231 , 4111.79487179 , 4130.25641026 , 4130.25641026 , 4132.30769231 , 4126.66666667 , 4134.35897436 , 4136.92307692 , 4141.53846154 , 4174.35897436 , 4710.76923077 , 4132.82051282 , 4135.8974359 , 2051.0 , 2046.0 , 6.177 , 0.0 , 0.0 , 0.0 , 0.0 , 

17.0 , 4128.71794872 , 4131.79487179 , 4125.12820513 , 4130.25641026 , 4130.25641026 , 4132.82051282 , 4127.69230769 , 4134.87179487 , 4136.92307692 , 4140.51282051 , 4177.94871795 , 4709.23076923 , 4130.25641026 , 4136.41025641 , 2050.0 , 2047.0 , 6.185 , 0.0 , 0.0 , 0.0 , 0.0 , 

18.0 , 4130.25641026 , 4130.76923077 , 4132.82051282 , 4131.28205128 , 4128.20512821 , 4127.69230769 , 4127.69230769 , 4133.33333333 , 4134.35897436 , 4142.56410256 , 4175.38461538 , 4710.25641026 , 4130.25641026 , 4134.35897436 , 2050.0 , 2049.0 , 6.193 , 0.0 , 0.0 , 0.0 , 0.0 , 

19.0 , 4132.30769231 , 4131.28205128 , 4111.79487179 , 4134.35897436 , 4127.69230769 , 4126.66666667 , 4127.17948718 , 4129.74358974 , 4132.82051282 , 4141.02564103 , 4170.76923077 , 4711.28205128 , 4133.33333333 , 4136.41025641 , 2049.0 , 2050.0 , 6.201 , 0.0 , 0.0 , 0.0 , 0.0 , 

20.0 , 4130.25641026 , 4132.30769231 , 4096.92307692 , 4133.84615385 , 4130.25641026 , 4128.71794872 , 4129.23076923 , 4128.20512821 , 4132.82051282 , 4137.43589744 , 4172.30769231 , 4708.71794872 , 4129.23076923 , 4136.92307692 , 2048.0 , 2053.0 , 6.209 , 0.0 , 0.0 , 0.0 , 0.0 , 

21.0 , 4128.71794872 , 4130.76923077 , 4128.71794872 , 4131.79487179 , 4131.28205128 , 4127.17948718 , 4129.74358974 , 4132.30769231 , 4136.92307692 , 4140.51282051 , 4176.41025641 , 4706.66666667 , 4126.15384615 , 4134.87179487 , 2048.0 , 2056.0 , 6.217 , 0.0 , 0.0 , 0.0 , 0.0 , 

22.0 , 4131.28205128 , 4130.25641026 , 4126.15384615 , 4132.30769231 , 4129.74358974 , 4126.66666667 , 4127.69230769 , 4135.8974359 , 4138.46153846 , 4141.53846154 , 4176.41025641 , 4705.12820513 , 4127.17948718 , 4135.8974359 , 2047.0 , 2058.0 , 6.225 , 0.0 , 0.0 , 0.0 , 0.0 , 

23.0 , 4132.82051282 , 4131.79487179 , 4114.35897436 , 4131.28205128 , 4129.23076923 , 4130.25641026 , 4127.69230769 , 4137.94871795 , 4135.8974359 , 4142.56410256 , 4174.35897436 , 4707.17948718 , 4130.76923077 , 4138.46153846 , 2046.0 , 2060.0 , 6.233 , 0.0 , 0.0 , 0.0 , 0.0 , 

24.0 , 4132.82051282 , 4131.28205128 , 4107.17948718 , 4132.30769231 , 4131.28205128 , 4129.23076923 , 4128.71794872 , 4133.33333333 , 4134.87179487 , 4141.02564103 , 4172.82051282 , 4707.17948718 , 4127.69230769 , 4136.92307692 , 2044.0 , 2060.0 , 6.241 , 0.0 , 0.0 , 0.0 , 0.0 , 

25.0 , 4131.28205128 , 4128.71794872 , 4125.12820513 , 4132.30769231 , 4132.82051282 , 4126.66666667 , 4128.71794872 , 4131.28205128 , 4137.94871795 , 4141.53846154 , 4175.38461538 , 4705.12820513 , 4127.69230769 , 4132.82051282 , 2043.0 , 2060.0 , 6.249 , 0.0 , 0.0 , 0.0 , 0.0 , 

26.0 , 4130.76923077 , 4130.25641026 , 4115.8974359 , 4130.76923077 , 4132.30769231 , 4126.15384615 , 4127.69230769 , 4131.79487179 , 4136.92307692 , 4143.58974359 , 4175.8974359 , 4705.64102564 , 4130.25641026 , 4132.30769231 , 2042.0 , 2059.0 , 6.256 , 0.0 , 0.0 , 0.0 , 0.0 , 

27.0 , 4130.25641026 , 4132.30769231 , 4125.64102564 , 4131.28205128 , 4130.76923077 , 4124.1025641 , 4127.17948718 , 4133.33333333 , 4134.87179487 , 4143.07692308 , 4173.84615385 , 4707.17948718 , 4131.28205128 , 4136.41025641 , 2044.0 , 2055.0 , 6.264 , 0.0 , 0.0 , 0.0 , 0.0 , 

28.0 , 4132.30769231 , 4131.79487179 , 4127.69230769 , 4133.84615385 , 4130.25641026 , 4123.58974359 , 4126.66666667 , 4134.35897436 , 4135.38461538 , 4140.0 , 4173.33333333 , 4705.12820513 , 4129.74358974 , 4137.43589744 , 2042.0 , 2053.0 , 6.272 , 0.0 , 0.0 , 0.0 , 0.0 , 

29.0 , 4132.82051282 , 4129.74358974 , 4126.15384615 , 4131.79487179 , 4129.23076923 , 4127.69230769 , 4124.61538462 , 4132.30769231 , 4135.8974359 , 4141.53846154 , 4175.8974359 , 4702.56410256 , 4130.76923077 , 4133.84615385 , 2042.0 , 2048.0 , 6.28 , 0.0 , 0.0 , 0.0 , 0.0 , 

30.0 , 4131.28205128 , 4129.74358974 , 4117.43589744 , 4130.76923077 , 4128.71794872 , 4130.25641026 , 4125.12820513 , 4129.74358974 , 4134.87179487 , 4141.53846154 , 4178.46153846 , 4704.1025641 , 4133.84615385 , 4133.84615385 , 2042.0 , 2045.0 , 6.288 , 0.0 , 0.0 , 0.0 , 0.0 , 

31.0 , 4130.25641026 , 4129.74358974 , 4149.23076923 , 4131.28205128 , 4129.23076923 , 4129.23076923 , 4127.17948718 , 4135.8974359 , 4135.8974359 , 4140.51282051 , 4179.48717949 , 4708.71794872 , 4134.87179487 , 4138.46153846 , 2043.0 , 2042.0 , 6.296 , 0.0 , 0.0 , 0.0 , 0.0 , 

32.0 , 4133.33333333 , 4131.28205128 , 4149.23076923 , 4131.28205128 , 4130.25641026 , 4127.69230769 , 4128.20512821 , 4138.46153846 , 4135.38461538 , 4141.53846154 , 4177.43589744 , 4708.71794872 , 4131.79487179 , 4137.94871795 , 2046.0 , 2043.0 , 6.304 , 0.0 , 0.0 , 0.0 , 0.0 , 

33.0 , 4131.79487179 , 4130.25641026 , 4135.38461538 , 4132.30769231 , 4130.76923077 , 4129.23076923 , 4126.15384615 , 4133.84615385 , 4138.97435897 , 4143.58974359 , 4176.41025641 , 4707.69230769 , 4131.28205128 , 4134.87179487 , 2046.0 , 2043.0 , 6.312 , 0.0 , 0.0 , 0.0 , 0.0 , 

34.0 , 4130.25641026 , 4130.25641026 , 4135.38461538 , 4132.82051282 , 4131.28205128 , 4131.79487179 , 4126.66666667 , 4131.79487179 , 4140.51282051 , 4143.58974359 , 4176.92307692 , 4707.69230769 , 4130.25641026 , 4137.43589744 , 2049.0 , 2045.0 , 6.319 , 0.0 , 0.0 , 0.0 , 0.0 , 

35.0 , 4129.23076923 , 4132.82051282 , 4137.43589744 , 4132.30769231 , 4129.74358974 , 4129.23076923 , 4128.20512821 , 4133.84615385 , 4136.92307692 , 4141.02564103 , 4175.38461538 , 4703.58974359 , 4129.23076923 , 4136.92307692 , 2048.0 , 2046.0 , 6.327 , 0.0 , 0.0 , 0.0 , 0.0 , 

36.0 , 4130.76923077 , 4133.33333333 , 4134.35897436 , 4133.84615385 , 4127.17948718 , 4126.66666667 , 4129.23076923 , 4134.35897436 , 4135.38461538 , 4140.0 , 4174.35897436 , 4703.07692308 , 4133.33333333 , 4134.35897436 , 2048.0 , 2047.0 , 6.335 , 0.0 , 0.0 , 0.0 , 0.0 , 

37.0 , 4131.79487179 , 4130.25641026 , 4129.74358974 , 4131.79487179 , 4127.69230769 , 4128.71794872 , 4128.71794872 , 4132.30769231 , 4136.41025641 , 4143.07692308 , 4171.28205128 , 4703.58974359 , 4130.76923077 , 4133.84615385 , 2048.0 , 2047.0 , 6.343 , 0.0 , 0.0 , 0.0 , 0.0 , 

38.0 , 4132.30769231 , 4130.76923077 , 4129.23076923 , 4129.74358974 , 4130.25641026 , 4128.71794872 , 4126.66666667 , 4132.30769231 , 4134.87179487 , 4144.61538462 , 4171.28205128 , 4704.61538462 , 4125.64102564 , 4137.43589744 , 2048.0 , 2048.0 , 6.351 , 0.0 , 0.0 , 0.0 , 0.0 , 

39.0 , 4131.28205128 , 4133.33333333 , 4122.56410256 , 4130.25641026 , 4130.25641026 , 4126.66666667 , 4128.71794872 , 4133.33333333 , 4132.30769231 , 4140.51282051 , 4173.84615385 , 4708.20512821 , 4129.23076923 , 4136.92307692 , 2047.0 , 2047.0 , 6.359 , 0.0 , 0.0 , 0.0 , 0.0 , 

40.0 , 4130.25641026 , 4132.82051282 , 4144.1025641 , 4130.25641026 , 4129.74358974 , 4126.66666667 , 4131.79487179 , 4135.38461538 , 4134.87179487 , 4143.58974359 , 4174.87179487 , 4708.20512821 , 4133.84615385 , 4136.92307692 , 2047.0 , 2047.0 , 6.367 , 0.0 , 0.0 , 0.0 , 0.0 , 

41.0 , 4130.25641026 , 4131.28205128 , 4140.0 , 4129.74358974 , 4129.74358974 , 4128.71794872 , 4128.71794872 , 4133.84615385 , 4136.41025641 , 4145.12820513 , 4170.25641026 , 4701.53846154 , 4130.25641026 , 4136.92307692 , 2047.0 , 2048.0 , 6.375 , 0.0 , 0.0 , 0.0 , 0.0 , 

42.0 , 4128.71794872 , 4131.28205128 , 4163.07692308 , 4130.25641026 , 4129.74358974 , 4131.79487179 , 4124.1025641 , 4134.35897436 , 4137.43589744 , 4143.58974359 , 4171.28205128 , 4705.12820513 , 4133.84615385 , 4136.41025641 , 2047.0 , 2046.0 , 6.383 , 0.0 , 0.0 , 0.0 , 0.0 , 

43.0 , 4129.23076923 , 4130.25641026 , 4150.76923077 , 4130.25641026 , 4130.25641026 , 4131.79487179 , 4126.66666667 , 4133.33333333 , 4135.38461538 , 4140.51282051 , 4175.8974359 , 4708.71794872 , 4135.38461538 , 4135.38461538 , 2046.0 , 2045.0 , 6.391 , 0.0 , 0.0 , 0.0 , 0.0 , 

44.0 , 4130.25641026 , 4130.25641026 , 4145.64102564 , 4130.76923077 , 4128.71794872 , 4130.76923077 , 4130.25641026 , 4133.84615385 , 4137.43589744 , 4143.07692308 , 4175.8974359 , 4704.61538462 , 4130.76923077 , 4136.41025641 , 2046.0 , 2044.0 , 6.398 , 0.0 , 0.0 , 0.0 , 0.0 , 

45.0 , 4131.79487179 , 4131.28205128 , 4136.41025641 , 4133.84615385 , 4128.71794872 , 4131.28205128 , 4130.25641026 , 4133.84615385 , 4138.46153846 , 4139.48717949 , 4174.87179487 , 4703.58974359 , 4129.23076923 , 4137.94871795 , 2046.0 , 2043.0 , 6.406 , 0.0 , 0.0 , 0.0 , 0.0 , 

46.0 , 4130.25641026 , 4129.74358974 , 4128.71794872 , 4133.33333333 , 4129.74358974 , 4128.71794872 , 4128.20512821 , 4133.33333333 , 4136.41025641 , 4137.43589744 , 4176.92307692 , 4704.61538462 , 4131.79487179 , 4135.38461538 , 2046.0 , 2044.0 , 6.414 , 0.0 , 0.0 , 0.0 , 0.0 , 

47.0 , 4129.23076923 , 4130.76923077 , 4112.82051282 , 4131.28205128 , 4131.28205128 , 4126.66666667 , 4127.69230769 , 4131.28205128 , 4134.35897436 , 4141.53846154 , 4174.87179487 , 4702.56410256 , 4130.25641026 , 4134.35897436 , 2046.0 , 2043.0 , 6.422 , 0.0 , 0.0 , 0.0 , 0.0 , 

48.0 , 4128.20512821 , 4132.30769231 , 4136.41025641 , 4131.28205128 , 4130.76923077 , 4130.76923077 , 4128.20512821 , 4132.30769231 , 4134.87179487 , 4142.56410256 , 4173.84615385 , 4704.61538462 , 4130.76923077 , 4135.8974359 , 2046.0 , 2042.0 , 6.43 , 0.0 , 0.0 , 0.0 , 0.0 , 

49.0 , 4130.76923077 , 4132.30769231 , 4140.0 , 4133.33333333 , 4130.76923077 , 4131.79487179 , 4128.20512821 , 4132.82051282 , 4133.84615385 , 4139.48717949 , 4176.41025641 , 4708.20512821 , 4131.79487179 , 4136.92307692 , 2046.0 , 2045.0 , 6.438 , 0.0 , 0.0 , 0.0 , 0.0 , 

50.0 , 4132.82051282 , 4131.79487179 , 4130.25641026 , 4134.35897436 , 4130.76923077 , 4128.20512821 , 4126.15384615 , 4131.79487179 , 4135.38461538 , 4140.51282051 , 4176.41025641 , 4706.15384615 , 4130.25641026 , 4137.43589744 , 2046.0 , 2046.0 , 6.445 , 0.0 , 0.0 , 0.0 , 0.0 , 

51.0 , 4131.79487179 , 4131.79487179 , 4136.92307692 , 4133.33333333 , 4132.30769231 , 4128.20512821 , 4129.23076923 , 4131.79487179 , 4136.92307692 , 4144.61538462 , 4172.30769231 , 4704.1025641 , 4132.82051282 , 4137.94871795 , 2046.0 , 2045.0 , 6.453 , 0.0 , 0.0 , 0.0 , 0.0 , 

52.0 , 4129.74358974 , 4129.74358974 , 4146.15384615 , 4130.76923077 , 4129.74358974 , 4128.71794872 , 4130.76923077 , 4132.82051282 , 4135.8974359 , 4143.07692308 , 4172.30769231 , 4704.61538462 , 4134.87179487 , 4136.92307692 , 2045.0 , 2047.0 , 6.461 , 0.0 , 0.0 , 0.0 , 0.0 , 

53.0 , 4132.82051282 , 4129.74358974 , 4138.97435897 , 4131.28205128 , 4127.17948718 , 4129.74358974 , 4127.69230769 , 4133.33333333 , 4134.87179487 , 4141.02564103 , 4176.41025641 , 4707.17948718 , 4131.28205128 , 4136.92307692 , 2045.0 , 2048.0 , 6.469 , 0.0 , 0.0 , 0.0 , 0.0 , 

54.0 , 4132.30769231 , 4131.28205128 , 4143.07692308 , 4134.35897436 , 4130.76923077 , 4132.82051282 , 4126.66666667 , 4134.35897436 , 4133.84615385 , 4143.58974359 , 4174.35897436 , 4705.12820513 , 4130.76923077 , 4137.94871795 , 2045.0 , 2050.0 , 6.477 , 0.0 , 0.0 , 0.0 , 0.0 , 

55.0 , 4130.25641026 , 4130.76923077 , 4147.69230769 , 4132.30769231 , 4134.35897436 , 4130.25641026 , 4127.17948718 , 4136.92307692 , 4136.92307692 , 4145.64102564 , 4170.76923077 , 4703.07692308 , 4133.84615385 , 4137.94871795 , 2048.0 , 2052.0 , 6.485 , 0.0 , 0.0 , 0.0 , 0.0 , 

56.0 , 4130.76923077 , 4131.28205128 , 4147.17948718 , 4129.23076923 , 4130.76923077 , 4128.71794872 , 4126.66666667 , 4134.87179487 , 4139.48717949 , 4142.05128205 , 4173.33333333 , 4705.64102564 , 4132.82051282 , 4135.8974359 , 2048.0 , 2052.0 , 6.493 , 0.0 , 0.0 , 0.0 , 0.0 , 

57.0 , 4132.30769231 , 4132.82051282 , 4157.94871795 , 4130.25641026 , 4129.23076923 , 4127.69230769 , 4128.71794872 , 4131.79487179 , 4136.41025641 , 4140.0 , 4178.46153846 , 4708.71794872 , 4132.82051282 , 4136.41025641 , 2048.0 , 2052.0 , 6.501 , 0.0 , 0.0 , 0.0 , 0.0 , 

58.0 , 4131.79487179 , 4131.28205128 , 4136.41025641 , 4132.82051282 , 4132.82051282 , 4126.15384615 , 4130.25641026 , 4130.25641026 , 4132.82051282 , 4136.41025641 , 4174.35897436 , 4704.1025641 , 4132.30769231 , 4137.43589744 , 2048.0 , 2052.0 , 6.509 , 0.0 , 0.0 , 0.0 , 0.0 , 

59.0 , 4131.28205128 , 4130.25641026 , 4126.66666667 , 4132.30769231 , 4132.82051282 , 4128.71794872 , 4128.20512821 , 4133.33333333 , 4135.38461538 , 4135.38461538 , 4172.30769231 , 4703.58974359 , 4129.23076923 , 4137.94871795 , 2049.0 , 2051.0 , 6.516 , 0.0 , 0.0 , 0.0 , 0.0 , 

60.0 , 4131.79487179 , 4131.28205128 , 4132.30769231 , 4132.30769231 , 4129.23076923 , 4130.76923077 , 4125.64102564 , 4134.35897436 , 4136.41025641 , 4137.43589744 , 4178.46153846 , 4708.20512821 , 4128.71794872 , 4137.43589744 , 2049.0 , 2051.0 , 6.524 , 0.0 , 0.0 , 0.0 , 0.0 , 

61.0 , 4132.30769231 , 4131.28205128 , 4150.25641026 , 4134.87179487 , 4130.25641026 , 4129.74358974 , 4125.12820513 , 4134.35897436 , 4137.43589744 , 4143.07692308 , 4179.48717949 , 4708.71794872 , 4134.35897436 , 4139.48717949 , 2049.0 , 2051.0 , 6.532 , 0.0 , 0.0 , 0.0 , 0.0 , 

62.0 , 4131.28205128 , 4130.76923077 , 4128.71794872 , 4134.35897436 , 4131.79487179 , 4130.76923077 , 4128.71794872 , 4133.33333333 , 4137.43589744 , 4142.05128205 , 4170.76923077 , 4705.12820513 , 4132.30769231 , 4135.8974359 , 2048.0 , 2051.0 , 6.54 , 0.0 , 0.0 , 0.0 , 0.0 , 

63.0 , 4130.25641026 , 4129.74358974 , 4133.84615385 , 4130.25641026 , 4129.23076923 , 4132.82051282 , 4130.25641026 , 4134.35897436 , 4133.84615385 , 4140.0 , 4172.82051282 , 4704.61538462 , 4128.71794872 , 4131.79487179 , 2048.0 , 2051.0 , 6.548 , 0.0 , 0.0 , 0.0 , 0.0 , 

64.0 , 4130.76923077 , 4129.74358974 , 4135.38461538 , 4129.74358974 , 4129.74358974 , 4132.30769231 , 4128.71794872 , 4133.84615385 , 4131.79487179 , 4137.43589744 , 4177.94871795 , 4704.61538462 , 4129.74358974 , 4133.33333333 , 2046.0 , 2054.0 , 6.557 , 0.0 , 0.0 , 0.0 , 0.0 , 

65.0 , 4129.23076923 , 4129.74358974 , 4140.0 , 4133.33333333 , 4132.30769231 , 4131.28205128 , 4129.23076923 , 4134.87179487 , 4135.8974359 , 4139.48717949 , 4173.33333333 , 4704.61538462 , 4132.82051282 , 4134.35897436 , 2046.0 , 2054.0 , 6.564 , 0.0 , 0.0 , 0.0 , 0.0 , 

66.0 , 4131.28205128 , 4131.79487179 , 4135.38461538 , 4134.35897436 , 4132.30769231 , 4132.30769231 , 4130.25641026 , 4135.38461538 , 4136.92307692 , 4142.05128205 , 4169.74358974 , 4705.64102564 , 4132.30769231 , 4134.35897436 , 2046.0 , 2054.0 , 6.572 , 0.0 , 0.0 , 0.0 , 0.0 , 

67.0 , 4132.30769231 , 4131.79487179 , 4146.66666667 , 4133.33333333 , 4129.23076923 , 4132.30769231 , 4127.17948718 , 4134.35897436 , 4136.41025641 , 4141.02564103 , 4172.30769231 , 4705.12820513 , 4132.82051282 , 4136.41025641 , 2046.0 , 2054.0 , 6.579 , 0.0 , 0.0 , 0.0 , 0.0 , 

68.0 , 4132.82051282 , 4131.79487179 , 4143.58974359 , 4132.30769231 , 4129.74358974 , 4131.79487179 , 4127.69230769 , 4131.79487179 , 4137.94871795 , 4141.02564103 , 4174.35897436 , 4705.64102564 , 4133.33333333 , 4137.43589744 , 2044.0 , 2056.0 , 6.588 , 0.0 , 0.0 , 0.0 , 0.0 , 

69.0 , 4132.82051282 , 4133.33333333 , 4147.69230769 , 4128.20512821 , 4132.82051282 , 4128.71794872 , 4128.71794872 , 4131.79487179 , 4140.0 , 4144.1025641 , 4173.84615385 , 4706.15384615 , 4130.76923077 , 4134.87179487 , 2045.0 , 2057.0 , 6.596 , 0.0 , 0.0 , 0.0 , 0.0 , 

70.0 , 4132.82051282 , 4132.82051282 , 4133.33333333 , 4129.23076923 , 4132.30769231 , 4127.17948718 , 4128.20512821 , 4132.82051282 , 4136.41025641 , 4143.58974359 , 4173.33333333 , 4707.17948718 , 4129.23076923 , 4134.87179487 , 2046.0 , 2055.0 , 6.604 , 0.0 , 0.0 , 0.0 , 0.0 , 

71.0 , 4128.20512821 , 4131.79487179 , 4148.20512821 , 4132.30769231 , 4128.71794872 , 4129.23076923 , 4129.74358974 , 4135.38461538 , 4134.35897436 , 4144.61538462 , 4172.82051282 , 4707.17948718 , 4132.82051282 , 4135.8974359 , 2045.0 , 2056.0 , 6.611 , 0.0 , 0.0 , 0.0 , 0.0 , 

72.0 , 4128.71794872 , 4132.30769231 , 4177.94871795 , 4131.79487179 , 4128.20512821 , 4128.71794872 , 4130.25641026 , 4134.35897436 , 4134.87179487 , 4145.12820513 , 4174.35897436 , 4708.20512821 , 4133.84615385 , 4134.35897436 , 2045.0 , 2055.0 , 6.619 , 0.0 , 0.0 , 0.0 , 0.0 , 

73.0 , 4132.30769231 , 4131.28205128 , 4153.33333333 , 4130.76923077 , 4130.25641026 , 4128.20512821 , 4127.69230769 , 4130.76923077 , 4135.8974359 , 4140.0 , 4171.79487179 , 4707.17948718 , 4128.71794872 , 4132.30769231 , 2045.0 , 2054.0 , 6.756 , 0.0 , 0.0 , 0.0 , 0.0 , 

74.0 , 4131.79487179 , 4130.76923077 , 4134.35897436 , 4132.30769231 , 4129.23076923 , 4127.69230769 , 4128.71794872 , 4132.30769231 , 4135.8974359 , 4140.51282051 , 4170.76923077 , 4709.23076923 , 4130.25641026 , 4134.35897436 , 2045.0 , 2053.0 , 6.758 , 0.0 , 0.0 , 0.0 , 0.0 , 

75.0 , 4129.23076923 , 4132.82051282 , 4133.33333333 , 4132.82051282 , 4129.23076923 , 4128.20512821 , 4130.25641026 , 4134.35897436 , 4132.30769231 , 4143.07692308 , 4173.33333333 , 4710.76923077 , 4134.87179487 , 4135.8974359 , 2044.0 , 2051.0 , 6.758 , 0.0 , 0.0 , 0.0 , 0.0 , 

76.0 , 4129.74358974 , 4132.30769231 , 4140.51282051 , 4133.33333333 , 4129.74358974 , 4130.25641026 , 4128.71794872 , 4132.30769231 , 4132.30769231 , 4140.51282051 , 4173.33333333 , 4708.71794872 , 4134.35897436 , 4135.38461538 , 2045.0 , 2051.0 , 6.758 , 0.0 , 0.0 , 0.0 , 0.0 , 

77.0 , 4131.28205128 , 4129.23076923 , 4128.20512821 , 4132.82051282 , 4129.74358974 , 4130.76923077 , 4129.74358974 , 4131.79487179 , 4133.84615385 , 4138.46153846 , 4171.28205128 , 4705.64102564 , 4129.23076923 , 4136.41025641 , 2046.0 , 2052.0 , 6.758 , 0.0 , 0.0 , 0.0 , 0.0 , 

78.0 , 4131.79487179 , 4129.74358974 , 4147.69230769 , 4129.74358974 , 4130.25641026 , 4128.20512821 , 4131.28205128 , 4138.46153846 , 4136.92307692 , 4144.61538462 , 4176.92307692 , 4709.23076923 , 4130.76923077 , 4141.02564103 , 2045.0 , 2051.0 , 6.758 , 0.0 , 0.0 , 0.0 , 0.0 , 

79.0 , 4129.74358974 , 4131.28205128 , 4133.33333333 , 4130.25641026 , 4131.28205128 , 4127.69230769 , 4129.74358974 , 4137.94871795 , 4135.8974359 , 4140.0 , 4177.94871795 , 4709.23076923 , 4133.33333333 , 4140.51282051 , 2046.0 , 2052.0 , 6.758 , 0.0 , 0.0 , 0.0 , 0.0 , 

80.0 , 4129.74358974 , 4130.76923077 , 4117.43589744 , 4133.84615385 , 4130.25641026 , 4129.74358974 , 4129.74358974 , 4132.82051282 , 4134.87179487 , 4135.8974359 , 4171.79487179 , 4705.12820513 , 4132.82051282 , 4137.43589744 , 2046.0 , 2053.0 , 6.758 , 0.0 , 0.0 , 0.0 , 0.0 , 

81.0 , 4132.30769231 , 4131.79487179 , 4123.07692308 , 4133.84615385 , 4130.25641026 , 4129.74358974 , 4129.74358974 , 4130.76923077 , 4134.35897436 , 4141.02564103 , 4170.76923077 , 4707.17948718 , 4130.76923077 , 4135.38461538 , 2047.0 , 2053.0 , 6.758 , 0.0 , 0.0 , 0.0 , 0.0 , 

82.0 , 4131.79487179 , 4132.30769231 , 4142.05128205 , 4130.25641026 , 4130.25641026 , 4128.20512821 , 4128.71794872 , 4131.79487179 , 4134.35897436 , 4142.56410256 , 4175.8974359 , 4708.71794872 , 4132.82051282 , 4135.8974359 , 2048.0 , 2050.0 , 6.758 , 0.0 , 0.0 , 0.0 , 0.0 , 

83.0 , 4130.76923077 , 4131.28205128 , 4137.43589744 , 4131.28205128 , 4128.71794872 , 4129.74358974 , 4129.74358974 , 4131.28205128 , 4134.87179487 , 4138.97435897 , 4175.8974359 , 4707.17948718 , 4134.35897436 , 4137.43589744 , 2047.0 , 2049.0 , 6.758 , 0.0 , 0.0 , 0.0 , 0.0 , 

84.0 , 4131.28205128 , 4130.76923077 , 4136.41025641 , 4131.79487179 , 4129.74358974 , 4131.28205128 , 4129.74358974 , 4130.76923077 , 4135.8974359 , 4139.48717949 , 4174.87179487 , 4707.69230769 , 4131.79487179 , 4135.38461538 , 2050.0 , 2047.0 , 6.758 , 0.0 , 0.0 , 0.0 , 0.0 , 

85.0 , 4131.79487179 , 4132.30769231 , 4127.17948718 , 4130.25641026 , 4132.30769231 , 4132.82051282 , 4128.71794872 , 4129.23076923 , 4134.87179487 , 4141.02564103 , 4175.38461538 , 4708.71794872 , 4131.79487179 , 4134.87179487 , 2049.0 , 2049.0 , 6.758 , 0.0 , 0.0 , 0.0 , 0.0 , 

86.0 , 4128.20512821 , 4133.33333333 , 4154.87179487 , 4128.71794872 , 4131.28205128 , 4132.82051282 , 4128.20512821 , 4131.28205128 , 4135.8974359 , 4143.07692308 , 4175.38461538 , 4708.20512821 , 4134.35897436 , 4135.8974359 , 2050.0 , 2048.0 , 6.758 , 0.0 , 0.0 , 0.0 , 0.0 , 

87.0 , 4130.76923077 , 4131.79487179 , 4169.23076923 , 4130.76923077 , 4129.74358974 , 4131.28205128 , 4127.69230769 , 4134.87179487 , 4137.94871795 , 4144.1025641 , 4175.38461538 , 4710.76923077 , 4133.84615385 , 4136.41025641 , 2049.0 , 2048.0 , 6.758 , 0.0 , 0.0 , 0.0 , 0.0 , 

88.0 , 4133.84615385 , 4128.71794872 , 4127.17948718 , 4133.84615385 , 4130.25641026 , 4130.76923077 , 4128.20512821 , 4130.25641026 , 4133.84615385 , 4136.92307692 , 4171.79487179 , 4704.61538462 , 4128.71794872 , 4135.38461538 , 2048.0 , 2049.0 , 6.758 , 0.0 , 0.0 , 0.0 , 0.0 , 

89.0 , 4133.84615385 , 4130.76923077 , 4092.82051282 , 4134.87179487 , 4131.28205128 , 4129.74358974 , 4130.25641026 , 4129.74358974 , 4133.84615385 , 4135.8974359 , 4169.23076923 , 4702.05128205 , 4128.71794872 , 4135.38461538 , 2048.0 , 2049.0 , 6.758 , 0.0 , 0.0 , 0.0 , 0.0 , 

90.0 , 4129.74358974 , 4132.30769231 , 4130.25641026 , 4132.30769231 , 4128.20512821 , 4129.23076923 , 4128.20512821 , 4136.41025641 , 4140.0 , 4142.56410256 , 4171.28205128 , 4707.69230769 , 4129.23076923 , 4132.30769231 , 2050.0 , 2050.0 , 6.762 , 0.0 , 0.0 , 0.0 , 0.0 , 

91.0 , 4130.25641026 , 4130.76923077 , 4147.69230769 , 4132.30769231 , 4128.20512821 , 4131.28205128 , 4128.20512821 , 4138.46153846 , 4138.46153846 , 4142.05128205 , 4174.87179487 , 4711.28205128 , 4130.25641026 , 4130.76923077 , 2049.0 , 2050.0 , 6.769 , 0.0 , 0.0 , 0.0 , 0.0 , 

92.0 , 4131.28205128 , 4129.23076923 , 4117.43589744 , 4132.82051282 , 4131.28205128 , 4129.74358974 , 4130.25641026 , 4133.33333333 , 4134.35897436 , 4134.87179487 , 4171.79487179 , 4704.1025641 , 4129.23076923 , 4133.33333333 , 2049.0 , 2051.0 , 6.776 , 0.0 , 0.0 , 0.0 , 0.0 , 

93.0 , 4129.74358974 , 4130.76923077 , 4128.20512821 , 4131.28205128 , 4132.30769231 , 4124.61538462 , 4129.74358974 , 4133.33333333 , 4138.46153846 , 4138.97435897 , 4171.79487179 , 4706.15384615 , 4130.76923077 , 4136.41025641 , 2047.0 , 2051.0 , 6.784 , 0.0 , 0.0 , 0.0 , 0.0 , 

94.0 , 4127.17948718 , 4131.28205128 , 4133.84615385 , 4130.25641026 , 4129.74358974 , 4127.17948718 , 4127.69230769 , 4133.84615385 , 4138.46153846 , 4143.58974359 , 4173.33333333 , 4710.76923077 , 4130.25641026 , 4135.8974359 , 2045.0 , 2050.0 , 6.792 , 0.0 , 0.0 , 0.0 , 0.0 , 

95.0 , 4127.69230769 , 4130.25641026 , 4116.92307692 , 4131.28205128 , 4130.25641026 , 4132.30769231 , 4128.71794872 , 4132.82051282 , 4135.38461538 , 4142.05128205 , 4172.82051282 , 4706.66666667 , 4130.25641026 , 4135.8974359 , 2045.0 , 2049.0 , 6.8 , 0.0 , 0.0 , 0.0 , 0.0 , 

96.0 , 4130.25641026 , 4129.74358974 , 4117.94871795 , 4130.25641026 , 4132.30769231 , 4130.25641026 , 4130.76923077 , 4131.79487179 , 4136.92307692 , 4139.48717949 , 4171.79487179 , 4703.58974359 , 4129.74358974 , 4136.92307692 , 2043.0 , 2048.0 , 6.808 , 0.0 , 0.0 , 0.0 , 0.0 , 

97.0 , 4131.28205128 , 4130.76923077 , 4141.53846154 , 4129.74358974 , 4130.76923077 , 4127.69230769 , 4129.23076923 , 4133.33333333 , 4138.97435897 , 4141.02564103 , 4171.28205128 , 4708.71794872 , 4130.76923077 , 4136.92307692 , 2043.0 , 2047.0 , 6.816 , 0.0 , 0.0 , 0.0 , 0.0 , 

98.0 , 4130.76923077 , 4132.30769231 , 4129.74358974 , 4131.79487179 , 4131.79487179 , 4130.76923077 , 4127.69230769 , 4134.35897436 , 4136.41025641 , 4140.51282051 , 4172.30769231 , 4710.76923077 , 4130.76923077 , 4136.41025641 , 2043.0 , 2046.0 , 6.825 , 0.0 , 0.0 , 0.0 , 0.0 , 

99.0 , 4130.25641026 , 4131.79487179 , 4126.66666667 , 4131.79487179 , 4133.33333333 , 4130.25641026 , 4128.20512821 , 4131.79487179 , 4134.35897436 , 4141.02564103 , 4172.82051282 , 4706.15384615 , 4131.79487179 , 4134.87179487 , 2043.0 , 2046.0 , 6.832 , 0.0 , 0.0 , 0.0 , 0.0 , 

100.0 , 4130.76923077 , 4129.74358974 , 4124.1025641 , 4130.76923077 , 4130.76923077 , 4127.69230769 , 4128.71794872 , 4131.79487179 , 4133.33333333 , 4142.56410256 , 4172.82051282 , 4705.12820513 , 4132.82051282 , 4134.87179487 , 2042.0 , 2045.0 , 6.84 , 0.0 , 0.0 , 0.0 , 0.0 , 

101.0 , 4129.74358974 , 4128.71794872 , 4148.20512821 , 4130.76923077 , 4129.74358974 , 4128.71794872 , 4127.69230769 , 4136.41025641 , 4136.41025641 , 4144.1025641 , 4171.79487179 , 4707.17948718 , 4132.82051282 , 4136.41025641 , 2042.0 , 2046.0 , 6.847 , 0.0 , 0.0 , 0.0 , 0.0 , 

102.0 , 4131.28205128 , 4131.28205128 , 4149.23076923 , 4130.25641026 , 4130.25641026 , 4131.28205128 , 4128.20512821 , 4135.38461538 , 4137.94871795 , 4146.15384615 , 4172.82051282 , 4709.74358974 , 4132.30769231 , 4137.94871795 , 2042.0 , 2044.0 , 6.855 , 0.0 , 0.0 , 0.0 , 0.0 , 

103.0 , 4132.30769231 , 4133.33333333 , 4144.1025641 , 4129.23076923 , 4129.74358974 , 4131.28205128 , 4129.23076923 , 4132.30769231 , 4134.87179487 , 4144.1025641 , 4174.35897436 , 4709.23076923 , 4134.35897436 , 4136.41025641 , 2043.0 , 2045.0 , 6.864 , 0.0 , 0.0 , 0.0 , 0.0 , 

104.0 , 4131.79487179 , 4132.30769231 , 4126.66666667 , 4131.28205128 , 4130.76923077 , 4129.74358974 , 4127.69230769 , 4131.79487179 , 4131.28205128 , 4137.43589744 , 4172.30769231 , 4705.64102564 , 4132.82051282 , 4134.35897436 , 2042.0 , 2046.0 , 6.872 , 0.0 , 0.0 , 0.0 , 0.0 , 

105.0 , 4130.76923077 , 4129.74358974 , 4167.17948718 , 4131.79487179 , 4132.30769231 , 4130.25641026 , 4127.17948718 , 4137.43589744 , 4134.35897436 , 4141.53846154 , 4171.79487179 , 4705.64102564 , 4132.82051282 , 4135.38461538 , 2040.0 , 2045.0 , 6.879 , 0.0 , 0.0 , 0.0 , 0.0 , 

106.0 , 4132.82051282 , 4130.76923077 , 4176.41025641 , 4130.76923077 , 4132.30769231 , 4130.25641026 , 4128.71794872 , 4136.92307692 , 4136.41025641 , 4145.12820513 , 4173.84615385 , 4708.20512821 , 4131.79487179 , 4137.94871795 , 2042.0 , 2045.0 , 6.887 , 0.0 , 0.0 , 0.0 , 0.0 , 

107.0 , 4131.79487179 , 4132.30769231 , 4132.30769231 , 4132.30769231 , 4131.28205128 , 4127.69230769 , 4127.17948718 , 4131.28205128 , 4136.92307692 , 4141.02564103 , 4172.30769231 , 4707.17948718 , 4127.69230769 , 4136.41025641 , 2040.0 , 2045.0 , 6.895 , 0.0 , 0.0 , 0.0 , 0.0 , 

108.0 , 4131.28205128 , 4132.30769231 , 4124.1025641 , 4133.33333333 , 4130.76923077 , 4127.69230769 , 4125.64102564 , 4132.82051282 , 4137.94871795 , 4141.53846154 , 4170.76923077 , 4706.66666667 , 4129.23076923 , 4134.35897436 , 2042.0 , 2042.0 , 6.903 , 0.0 , 0.0 , 0.0 , 0.0 , 

109.0 , 4131.79487179 , 4130.76923077 , 4129.23076923 , 4132.30769231 , 4129.74358974 , 4131.79487179 , 4129.23076923 , 4135.38461538 , 4133.33333333 , 4139.48717949 , 4170.76923077 , 4705.64102564 , 4128.71794872 , 4132.82051282 , 2042.0 , 2040.0 , 6.91 , 0.0 , 0.0 , 0.0 , 0.0 , 

110.0 , 4132.30769231 , 4130.76923077 , 4117.43589744 , 4133.33333333 , 4128.71794872 , 4131.28205128 , 4131.28205128 , 4133.84615385 , 4132.30769231 , 4136.92307692 , 4171.28205128 , 4707.69230769 , 4125.12820513 , 4133.84615385 , 2042.0 , 2040.0 , 6.918 , 0.0 , 0.0 , 0.0 , 0.0 , 

111.0 , 4130.76923077 , 4129.74358974 , 4111.79487179 , 4133.84615385 , 4129.23076923 , 4127.17948718 , 4128.71794872 , 4132.82051282 , 4133.33333333 , 4140.51282051 , 4171.28205128 , 4710.76923077 , 4124.1025641 , 4134.87179487 , 2044.0 , 2039.0 , 6.926 , 0.0 , 0.0 , 0.0 , 0.0 , 

112.0 , 4133.84615385 , 4129.23076923 , 4136.41025641 , 4132.82051282 , 4132.30769231 , 4129.23076923 , 4127.69230769 , 4132.82051282 , 4132.30769231 , 4142.05128205 , 4173.33333333 , 4710.76923077 , 4127.17948718 , 4136.41025641 , 2042.0 , 2038.0 , 6.934 , 0.0 , 0.0 , 0.0 , 0.0 , 

113.0 , 4135.38461538 , 4131.28205128 , 4139.48717949 , 4130.76923077 , 4131.28205128 , 4133.84615385 , 4129.23076923 , 4132.30769231 , 4131.28205128 , 4137.94871795 , 4173.84615385 , 4707.69230769 , 4128.71794872 , 4135.38461538 , 2043.0 , 2040.0 , 6.942 , 0.0 , 0.0 , 0.0 , 0.0 , 

114.0 , 4130.76923077 , 4131.79487179 , 4153.84615385 , 4129.74358974 , 4128.20512821 , 4132.30769231 , 4128.20512821 , 4138.97435897 , 4135.38461538 , 4142.56410256 , 4177.94871795 , 4708.71794872 , 4132.82051282 , 4137.43589744 , 2042.0 , 2040.0 , 6.95 , 0.0 , 0.0 , 0.0 , 0.0 , 

115.0 , 4128.71794872 , 4128.20512821 , 4148.71794872 , 4130.76923077 , 4129.74358974 , 4129.23076923 , 4128.20512821 , 4137.43589744 , 4135.8974359 , 4145.64102564 , 4176.92307692 , 4708.71794872 , 4132.30769231 , 4137.94871795 , 2042.0 , 2043.0 , 6.958 , 0.0 , 0.0 , 0.0 , 0.0 , 

116.0 , 4130.25641026 , 4128.71794872 , 4142.56410256 , 4131.79487179 , 4130.25641026 , 4128.20512821 , 4129.23076923 , 4130.25641026 , 4136.92307692 , 4140.51282051 , 4171.28205128 , 4708.71794872 , 4129.74358974 , 4133.84615385 , 2041.0 , 2044.0 , 6.966 , 0.0 , 0.0 , 0.0 , 0.0 , 

117.0 , 4131.28205128 , 4131.79487179 , 4131.79487179 , 4130.25641026 , 4129.23076923 , 4128.71794872 , 4129.74358974 , 4131.79487179 , 4138.46153846 , 4138.46153846 , 4169.74358974 , 4708.20512821 , 4129.23076923 , 4134.35897436 , 2038.0 , 2046.0 , 6.973 , 0.0 , 0.0 , 0.0 , 0.0 , 

118.0 , 4130.76923077 , 4130.25641026 , 4136.41025641 , 4130.25641026 , 4129.23076923 , 4130.76923077 , 4128.20512821 , 4134.87179487 , 4136.92307692 , 4143.58974359 , 4173.84615385 , 4706.15384615 , 4130.76923077 , 4137.43589744 , 2039.0 , 2046.0 , 6.981 , 0.0 , 0.0 , 0.0 , 0.0 , 

119.0 , 4133.33333333 , 4128.71794872 , 4130.25641026 , 4132.82051282 , 4130.25641026 , 4131.28205128 , 4127.69230769 , 4132.82051282 , 4132.82051282 , 4143.58974359 , 4174.35897436 , 4706.66666667 , 4130.76923077 , 4135.38461538 , 2037.0 , 2046.0 , 6.989 , 0.0 , 0.0 , 0.0 , 0.0 , 

120.0 , 4131.79487179 , 4129.74358974 , 4141.53846154 , 4132.30769231 , 4129.23076923 , 4130.76923077 , 4129.23076923 , 4133.33333333 , 4132.30769231 , 4140.51282051 , 4172.30769231 , 4707.17948718 , 4131.79487179 , 4132.30769231 , 2036.0 , 2045.0 , 6.997 , 0.0 , 0.0 , 0.0 , 0.0 , 

121.0 , 4131.28205128 , 4131.28205128 , 4129.74358974 , 4133.33333333 , 4129.74358974 , 4130.76923077 , 4131.79487179 , 4131.28205128 , 4133.33333333 , 4140.0 , 4172.30769231 , 4704.61538462 , 4129.74358974 , 4134.87179487 , 2035.0 , 2043.0 , 7.005 , 0.0 , 0.0 , 0.0 , 0.0 , 

122.0 , 4131.79487179 , 4128.20512821 , 4135.38461538 , 4132.30769231 , 4129.74358974 , 4130.76923077 , 4132.30769231 , 4130.76923077 , 4133.84615385 , 4142.05128205 , 4176.92307692 , 4705.12820513 , 4130.25641026 , 4136.92307692 , 2036.0 , 2042.0 , 7.013 , 0.0 , 0.0 , 0.0 , 0.0 , 

123.0 , 4132.30769231 , 4123.58974359 , 4134.87179487 , 4131.28205128 , 4129.74358974 , 4129.74358974 , 4130.76923077 , 4132.82051282 , 4132.82051282 , 4141.02564103 , 4176.92307692 , 4709.74358974 , 4133.84615385 , 4135.8974359 , 2037.0 , 2042.0 , 7.021 , 0.0 , 0.0 , 0.0 , 0.0 , 

124.0 , 4130.25641026 , 4125.64102564 , 4133.84615385 , 4132.82051282 , 4129.74358974 , 4130.25641026 , 4127.17948718 , 4132.82051282 , 4133.33333333 , 4138.97435897 , 4172.30769231 , 4710.25641026 , 4131.79487179 , 4135.38461538 , 2036.0 , 2039.0 , 7.029 , 0.0 , 0.0 , 0.0 , 0.0 , 

125.0 , 4130.76923077 , 4132.30769231 , 4129.23076923 , 4132.82051282 , 4130.76923077 , 4130.25641026 , 4128.20512821 , 4133.84615385 , 4133.33333333 , 4140.51282051 , 4172.82051282 , 4710.25641026 , 4130.25641026 , 4135.8974359 , 2036.0 , 2039.0 , 7.037 , 0.0 , 0.0 , 0.0 , 0.0 , 

126.0 , 4131.79487179 , 4130.76923077 , 4128.71794872 , 4129.74358974 , 4130.76923077 , 4128.71794872 , 4130.25641026 , 4134.87179487 , 4131.28205128 , 4140.51282051 , 4172.30769231 , 4708.20512821 , 4132.30769231 , 4135.38461538 , 2037.0 , 2039.0 , 7.044 , 0.0 , 0.0 , 0.0 , 0.0 , 

127.0 , 4133.84615385 , 4128.71794872 , 4137.94871795 , 4131.28205128 , 4129.74358974 , 4128.71794872 , 4127.69230769 , 4133.33333333 , 4135.38461538 , 4141.02564103 , 4171.79487179 , 4709.23076923 , 4131.79487179 , 4136.92307692 , 2035.0 , 2039.0 , 7.052 , 0.0 , 0.0 , 0.0 , 0.0 , 

128.0 , 4132.82051282 , 4131.28205128 , 4139.48717949 , 4132.30769231 , 4129.74358974 , 4130.25641026 , 4126.15384615 , 4132.30769231 , 4137.94871795 , 4140.51282051 , 4172.82051282 , 4708.20512821 , 4127.17948718 , 4135.38461538 , 2036.0 , 2035.0 , 7.06 , 0.0 , 0.0 , 0.0 , 0.0 , 

0.0 , 4131.28205128 , 4130.25641026 , 4128.71794872 , 4131.28205128 , 4129.74358974 , 4130.25641026 , 4128.20512821 , 4134.35897436 , 4134.35897436 , 4140.51282051 , 4172.30769231 , 4706.15384615 , 4129.23076923 , 4132.82051282 , 2037.0 , 2033.0 , 7.068 , 0.0 , 0.0 , 0.0 , 0.0 , 

1.0 , 4130.76923077 , 4128.20512821 , 4129.23076923 , 4132.30769231 , 4129.74358974 , 4129.23076923 , 4128.71794872 , 4132.30769231 , 4133.33333333 , 4141.53846154 , 4170.76923077 , 4704.1025641 , 4130.25641026 , 4133.33333333 , 2037.0 , 2031.0 , 7.077 , 0.0 , 0.0 , 0.0 , 0.0 , 

2.0 , 4131.28205128 , 4131.28205128 , 4147.69230769 , 4131.79487179 , 4129.74358974 , 4128.71794872 , 4128.20512821 , 4134.35897436 , 4138.46153846 , 4144.61538462 , 4175.38461538 , 4707.17948718 , 4129.74358974 , 4136.41025641 , 2037.0 , 2034.0 , 7.085 , 0.0 , 0.0 , 0.0 , 0.0 , 

3.0 , 4130.25641026 , 4131.79487179 , 4139.48717949 , 4129.23076923 , 4129.23076923 , 4130.25641026 , 4128.71794872 , 4134.87179487 , 4138.46153846 , 4144.61538462 , 4175.38461538 , 4711.28205128 , 4131.28205128 , 4136.92307692 , 2037.0 , 2033.0 , 7.092 , 0.0 , 0.0 , 0.0 , 0.0 , 

4.0 , 4130.25641026 , 4128.71794872 , 4129.74358974 , 4131.79487179 , 4130.25641026 , 4130.76923077 , 4127.69230769 , 4130.76923077 , 4134.35897436 , 4143.07692308 , 4172.30769231 , 4708.71794872 , 4131.79487179 , 4134.87179487 , 2036.0 , 2032.0 , 7.1 , 0.0 , 0.0 , 0.0 , 0.0 , 

5.0 , 4132.30769231 , 4130.76923077 , 4127.69230769 , 4134.87179487 , 4131.28205128 , 4129.74358974 , 4126.15384615 , 4129.74358974 , 4133.84615385 , 4141.53846154 , 4173.33333333 , 4703.58974359 , 4129.23076923 , 4133.33333333 , 2036.0 , 2033.0 , 7.107 , 0.0 , 0.0 , 0.0 , 0.0 , 

6.0 , 4131.79487179 , 4132.82051282 , 4156.92307692 , 4131.28205128 , 4130.25641026 , 4127.69230769 , 4127.69230769 , 4135.38461538 , 4136.41025641 , 4142.56410256 , 4173.84615385 , 4704.61538462 , 4131.79487179 , 4136.41025641 , 2034.0 , 2032.0 , 7.115 , 0.0 , 0.0 , 0.0 , 0.0 , 

7.0 , 4131.28205128 , 4130.76923077 , 4142.05128205 , 4130.25641026 , 4130.76923077 , 4128.20512821 , 4129.74358974 , 4133.33333333 , 4135.8974359 , 4141.53846154 , 4171.79487179 , 4708.71794872 , 4132.30769231 , 4136.92307692 , 2035.0 , 2031.0 , 7.123 , 0.0 , 0.0 , 0.0 , 0.0 , 

8.0 , 4130.25641026 , 4130.25641026 , 4137.94871795 , 4130.25641026 , 4131.79487179 , 4128.71794872 , 4128.71794872 , 4129.23076923 , 4135.8974359 , 4141.02564103 , 4173.84615385 , 4710.25641026 , 4131.28205128 , 4134.35897436 , 2035.0 , 2031.0 , 7.131 , 0.0 , 0.0 , 0.0 , 0.0 , 

9.0 , 4130.76923077 , 4132.30769231 , 4131.28205128 , 4131.28205128 , 4130.76923077 , 4129.74358974 , 4128.71794872 , 4130.25641026 , 4134.87179487 , 4141.53846154 , 4173.33333333 , 4708.71794872 , 4131.28205128 , 4135.8974359 , 2035.0 , 2029.0 , 7.139 , 0.0 , 0.0 , 0.0 , 0.0 , 

10.0 , 4131.79487179 , 4130.25641026 , 4126.66666667 , 4130.76923077 , 4127.69230769 , 4129.23076923 , 4128.71794872 , 4130.76923077 , 4132.82051282 , 4141.53846154 , 4171.79487179 , 4707.17948718 , 4131.79487179 , 4138.46153846 , 2034.0 , 2026.0 , 7.147 , 0.0 , 0.0 , 0.0 , 0.0 , 

11.0 , 4132.30769231 , 4126.15384615 , 4114.35897436 , 4128.71794872 , 4129.74358974 , 4128.20512821 , 4128.71794872 , 4131.79487179 , 4132.82051282 , 4141.53846154 , 4174.87179487 , 4708.20512821 , 4129.74358974 , 4137.43589744 , 2035.0 , 2023.0 , 7.155 , 0.0 , 0.0 , 0.0 , 0.0 , 

12.0 , 4127.17948718 , 4127.69230769 , 4133.33333333 , 4128.20512821 , 4130.76923077 , 4129.23076923 , 4128.71794872 , 4134.35897436 , 4135.8974359 , 4143.58974359 , 4175.8974359 , 4708.20512821 , 4130.25641026 , 4134.87179487 , 2035.0 , 2022.0 , 7.163 , 0.0 , 0.0 , 0.0 , 0.0 , 

13.0 , 4126.15384615 , 4131.28205128 , 4138.46153846 , 4131.28205128 , 4129.74358974 , 4131.28205128 , 4128.71794872 , 4133.84615385 , 4137.43589744 , 4142.05128205 , 4173.84615385 , 4708.71794872 , 4130.76923077 , 4135.8974359 , 2035.0 , 2023.0 , 7.17 , 0.0 , 0.0 , 0.0 , 0.0 , 

14.0 , 4130.76923077 , 4129.23076923 , 4138.46153846 , 4131.79487179 , 4130.76923077 , 4129.23076923 , 4128.20512821 , 4132.82051282 , 4137.43589744 , 4138.46153846 , 4173.84615385 , 4709.23076923 , 4128.71794872 , 4136.92307692 , 2033.0 , 2023.0 , 7.177 , 0.0 , 0.0 , 0.0 , 0.0 , 

15.0 , 4131.79487179 , 4126.66666667 , 4143.07692308 , 4131.79487179 , 4131.79487179 , 4127.17948718 , 4129.74358974 , 4134.87179487 , 4136.41025641 , 4142.05128205 , 4175.8974359 , 4711.28205128 , 4131.79487179 , 4137.94871795 , 2032.0 , 2023.0 , 7.186 , 0.0 , 0.0 , 0.0 , 0.0 , 

16.0 , 4129.23076923 , 4127.69230769 , 4128.71794872 , 4134.35897436 , 4129.74358974 , 4129.74358974 , 4130.25641026 , 4132.30769231 , 4132.30769231 , 4141.53846154 , 4175.38461538 , 4708.71794872 , 4132.82051282 , 4133.84615385 , 2032.0 , 2022.0 , 7.194 , 0.0 , 0.0 , 0.0 , 0.0 , 

17.0 , 4132.30769231 , 4129.74358974 , 4121.53846154 , 4134.87179487 , 4131.28205128 , 4130.76923077 , 4129.23076923 , 4130.25641026 , 4135.38461538 , 4136.92307692 , 4173.84615385 , 4707.69230769 , 4132.82051282 , 4133.33333333 , 2031.0 , 2023.0 , 7.202 , 0.0 , 0.0 , 0.0 , 0.0 , 

18.0 , 4132.82051282 , 4130.25641026 , 4127.17948718 , 4132.82051282 , 4132.82051282 , 4130.25641026 , 4129.23076923 , 4131.28205128 , 4138.46153846 , 4137.94871795 , 4172.30769231 , 4707.69230769 , 4130.25641026 , 4137.43589744 , 2034.0 , 2021.0 , 7.21 , 0.0 , 0.0 , 0.0 , 0.0 , 

19.0 , 4130.76923077 , 4131.28205128 , 4125.64102564 , 4133.84615385 , 4129.74358974 , 4130.25641026 , 4129.74358974 , 4133.84615385 , 4135.38461538 , 4143.58974359 , 4172.30769231 , 4708.20512821 , 4129.23076923 , 4138.97435897 , 2035.0 , 2019.0 , 7.218 , 0.0 , 0.0 , 0.0 , 0.0 , 

20.0 , 4131.28205128 , 4130.76923077 , 4120.51282051 , 4132.82051282 , 4128.20512821 , 4130.76923077 , 4128.20512821 , 4132.82051282 , 4132.30769231 , 4140.51282051 , 4172.30769231 , 4707.69230769 , 4130.76923077 , 4135.8974359 , 2036.0 , 2015.0 , 7.226 , 0.0 , 0.0 , 0.0 , 0.0 , 

21.0 , 4131.28205128 , 4128.20512821 , 4142.56410256 , 4130.76923077 , 4130.25641026 , 4130.25641026 , 4128.20512821 , 4133.84615385 , 4136.92307692 , 4140.0 , 4175.8974359 , 4709.74358974 , 4134.35897436 , 4137.43589744 , 2037.0 , 2014.0 , 7.233 , 0.0 , 0.0 , 0.0 , 0.0 , 

22.0 , 4130.76923077 , 4130.76923077 , 4141.53846154 , 4132.30769231 , 4129.74358974 , 4130.25641026 , 4129.74358974 , 4132.82051282 , 4139.48717949 , 4143.07692308 , 4176.92307692 , 4709.74358974 , 4132.82051282 , 4138.46153846 , 2038.0 , 2011.0 , 7.241 , 0.0 , 0.0 , 0.0 , 0.0 , 

23.0 , 4132.30769231 , 4132.30769231 , 4136.41025641 , 4133.84615385 , 4127.69230769 , 4131.28205128 , 4128.71794872 , 4131.79487179 , 4137.43589744 , 4143.07692308 , 4174.87179487 , 4707.69230769 , 4130.25641026 , 4136.41025641 , 2041.0 , 2010.0 , 7.249 , 0.0 , 0.0 , 0.0 , 0.0 , 

24.0 , 4132.30769231 , 4128.71794872 , 4125.64102564 , 4132.30769231 , 4128.71794872 , 4130.76923077 , 4127.17948718 , 4132.82051282 , 4135.38461538 , 4140.51282051 , 4173.84615385 , 4708.20512821 , 4131.28205128 , 4137.43589744 , 2040.0 , 2009.0 , 7.257 , 0.0 , 0.0 , 0.0 , 0.0 , 

25.0 , 4129.23076923 , 4128.71794872 , 4137.43589744 , 4132.30769231 , 4129.23076923 , 4128.20512821 , 4127.17948718 , 4136.92307692 , 4137.94871795 , 4142.05128205 , 4173.84615385 , 4709.74358974 , 4133.84615385 , 4138.46153846 , 2043.0 , 2010.0 , 7.265 , 0.0 , 0.0 , 0.0 , 0.0 , 

26.0 , 4130.25641026 , 4130.76923077 , 4125.64102564 , 4132.82051282 , 4129.74358974 , 4129.23076923 , 4128.71794872 , 4135.38461538 , 4138.97435897 , 4141.53846154 , 4172.30769231 , 4706.66666667 , 4130.25641026 , 4132.82051282 , 2044.0 , 2009.0 , 7.273 , 0.0 , 0.0 , 0.0 , 0.0 , 

27.0 , 4129.23076923 , 4128.20512821 , 4114.87179487 , 4131.28205128 , 4129.23076923 , 4130.25641026 , 4127.69230769 , 4131.28205128 , 4134.87179487 , 4136.92307692 , 4173.33333333 , 4702.05128205 , 4127.69230769 , 4130.76923077 , 2046.0 , 2012.0 , 7.281 , 0.0 , 0.0 , 0.0 , 0.0 , 

28.0 , 4128.20512821 , 4129.23076923 , 4111.28205128 , 4131.79487179 , 4128.20512821 , 4128.71794872 , 4129.23076923 , 4130.76923077 , 4135.38461538 , 4136.41025641 , 4172.30769231 , 4704.1025641 , 4129.23076923 , 4134.87179487 , 2047.0 , 2012.0 , 7.289 , 0.0 , 0.0 , 0.0 , 0.0 , 

29.0 , 4127.69230769 , 4130.25641026 , 4127.17948718 , 4131.79487179 , 4129.23076923 , 4128.71794872 , 4129.23076923 , 4133.84615385 , 4139.48717949 , 4142.05128205 , 4171.79487179 , 4706.15384615 , 4131.28205128 , 4136.41025641 , 2047.0 , 2011.0 , 7.297 , 0.0 , 0.0 , 0.0 , 0.0 , 

30.0 , 4130.25641026 , 4130.25641026 , 4120.0 , 4131.28205128 , 4132.30769231 , 4131.79487179 , 4128.20512821 , 4132.30769231 , 4139.48717949 , 4144.61538462 , 4174.87179487 , 4705.64102564 , 4131.28205128 , 4135.8974359 , 2048.0 , 2013.0 , 7.304 , 0.0 , 0.0 , 0.0 , 0.0 , 

31.0 , 4130.25641026 , 4130.25641026 , 4124.1025641 , 4130.76923077 , 4130.76923077 , 4129.74358974 , 4128.20512821 , 4132.30769231 , 4135.8974359 , 4144.1025641 , 4173.84615385 , 4704.61538462 , 4129.74358974 , 4135.38461538 , 2050.0 , 2013.0 , 7.312 , 0.0 , 0.0 , 0.0 , 0.0 , 

32.0 , 4130.76923077 , 4129.23076923 , 4136.41025641 , 4131.28205128 , 4128.71794872 , 4127.69230769 , 4129.74358974 , 4134.87179487 , 4134.87179487 , 4144.61538462 , 4173.84615385 , 4707.17948718 , 4130.25641026 , 4136.41025641 , 2051.0 , 2013.0 , 7.32 , 0.0 , 0.0 , 0.0 , 0.0 , 

33.0 , 4130.76923077 , 4127.17948718 , 4136.41025641 , 4132.30769231 , 4130.25641026 , 4128.71794872 , 4130.76923077 , 4133.84615385 , 4135.38461538 , 4141.53846154 , 4175.38461538 , 4706.15384615 , 4131.28205128 , 4134.87179487 , 2052.0 , 2012.0 , 7.328 , 0.0 , 0.0 , 0.0 , 0.0 , 

34.0 , 4132.30769231 , 4131.28205128 , 4120.51282051 , 4133.33333333 , 4131.79487179 , 4132.82051282 , 4130.25641026 , 4133.33333333 , 4137.43589744 , 4140.0 , 4173.33333333 , 4705.12820513 , 4133.84615385 , 4134.35897436 , 2052.0 , 2012.0 , 7.337 , 0.0 , 0.0 , 0.0 , 0.0 , 

35.0 , 4130.25641026 , 4134.35897436 , 4114.35897436 , 4131.79487179 , 4131.28205128 , 4133.84615385 , 4129.23076923 , 4132.82051282 , 4137.43589744 , 4140.0 , 4169.23076923 , 4704.1025641 , 4131.79487179 , 4132.30769231 , 2053.0 , 2008.0 , 7.344 , 0.0 , 0.0 , 0.0 , 0.0 , 

36.0 , 4129.74358974 , 4129.23076923 , 4121.02564103 , 4130.25641026 , 4129.74358974 , 4132.30769231 , 4128.20512821 , 4131.79487179 , 4135.8974359 , 4141.53846154 , 4172.30769231 , 4706.66666667 , 4129.74358974 , 4133.33333333 , 2052.0 , 2005.0 , 7.353 , 0.0 , 0.0 , 0.0 , 0.0 , 

37.0 , 4132.30769231 , 4126.15384615 , 4117.43589744 , 4131.28205128 , 4128.20512821 , 4130.25641026 , 4128.20512821 , 4131.28205128 , 4135.38461538 , 4141.53846154 , 4175.8974359 , 4706.15384615 , 4130.76923077 , 4135.38461538 , 2054.0 , 2002.0 , 7.36 , 0.0 , 0.0 , 0.0 , 0.0 , 

38.0 , 4131.28205128 , 4130.25641026 , 4111.79487179 , 4132.30769231 , 4129.23076923 , 4130.25641026 , 4129.74358974 , 4133.84615385 , 4135.38461538 , 4141.53846154 , 4173.84615385 , 4705.12820513 , 4131.28205128 , 4135.38461538 , 2054.0 , 1998.0 , 7.367 , 0.0 , 0.0 , 0.0 , 0.0 , 

39.0 , 4127.69230769 , 4131.28205128 , 4116.41025641 , 4130.76923077 , 4130.76923077 , 4130.25641026 , 4129.74358974 , 4133.33333333 , 4136.41025641 , 4141.02564103 , 4172.30769231 , 4705.64102564 , 4129.74358974 , 4135.38461538 , 2054.0 , 1993.0 , 7.375 , 0.0 , 0.0 , 0.0 , 0.0 , 

40.0 , 4130.76923077 , 4129.74358974 , 4135.38461538 , 4130.76923077 , 4128.20512821 , 4126.66666667 , 4128.20512821 , 4134.87179487 , 4137.43589744 , 4144.61538462 , 4176.92307692 , 4708.71794872 , 4132.82051282 , 4137.43589744 , 2055.0 , 1990.0 , 7.383 , 0.0 , 0.0 , 0.0 , 0.0 , 

41.0 , 4133.84615385 , 4131.79487179 , 4116.92307692 , 4132.30769231 , 4127.17948718 , 4125.12820513 , 4128.71794872 , 4133.84615385 , 4133.84615385 , 4143.58974359 , 4177.43589744 , 4706.66666667 , 4132.82051282 , 4136.92307692 , 2055.0 , 1984.0 , 7.391 , 0.0 , 0.0 , 0.0 , 0.0 , 

42.0 , 4129.23076923 , 4133.33333333 , 4112.82051282 , 4131.28205128 , 4130.25641026 , 4126.15384615 , 4128.71794872 , 4130.76923077 , 4135.8974359 , 4140.0 , 4170.76923077 , 4702.05128205 , 4130.76923077 , 4134.35897436 , 2056.0 , 1983.0 , 7.399 , 0.0 , 0.0 , 0.0 , 0.0 , 

43.0 , 4130.25641026 , 4131.79487179 , 4118.97435897 , 4132.30769231 , 4130.76923077 , 4129.23076923 , 4127.69230769 , 4130.76923077 , 4139.48717949 , 4139.48717949 , 4167.17948718 , 4704.1025641 , 4130.76923077 , 4135.8974359 , 2056.0 , 1980.0 , 7.407 , 0.0 , 0.0 , 0.0 , 0.0 , 

44.0 , 4132.82051282 , 4130.76923077 , 4136.41025641 , 4134.87179487 , 4128.20512821 , 4130.76923077 , 4130.25641026 , 4133.84615385 , 4137.43589744 , 4142.56410256 , 4173.33333333 , 4709.23076923 , 4132.82051282 , 4137.94871795 , 2056.0 , 1982.0 , 7.415 , 0.0 , 0.0 , 0.0 , 0.0 , 

45.0 , 4129.74358974 , 4131.79487179 , 4121.02564103 , 4133.33333333 , 4128.20512821 , 4129.23076923 , 4132.30769231 , 4132.82051282 , 4133.84615385 , 4141.53846154 , 4176.92307692 , 4706.15384615 , 4132.30769231 , 4135.38461538 , 2055.0 , 1985.0 , 7.423 , 0.0 , 0.0 , 0.0 , 0.0 , 

46.0 , 4128.20512821 , 4131.79487179 , 4122.56410256 , 4129.74358974 , 4129.74358974 , 4127.17948718 , 4129.23076923 , 4132.30769231 , 4135.38461538 , 4142.05128205 , 4175.8974359 , 4702.56410256 , 4131.79487179 , 4134.87179487 , 2052.0 , 1988.0 , 7.431 , 0.0 , 0.0 , 0.0 , 0.0 , 

47.0 , 4131.79487179 , 4130.25641026 , 4120.0 , 4131.79487179 , 4129.74358974 , 4128.71794872 , 4129.23076923 , 4133.33333333 , 4136.41025641 , 4142.56410256 , 4174.35897436 , 4703.58974359 , 4131.28205128 , 4137.94871795 , 2050.0 , 1991.0 , 7.438 , 0.0 , 0.0 , 0.0 , 0.0 , 

48.0 , 4129.23076923 , 4128.71794872 , 4127.17948718 , 4132.30769231 , 4128.71794872 , 4126.66666667 , 4131.79487179 , 4133.33333333 , 4138.46153846 , 4142.56410256 , 4173.84615385 , 4703.07692308 , 4130.25641026 , 4134.35897436 , 2049.0 , 1992.0 , 7.446 , 0.0 , 0.0 , 0.0 , 0.0 , 

49.0 , 4129.74358974 , 4131.28205128 , 4118.46153846 , 4131.79487179 , 4130.25641026 , 4124.1025641 , 4132.82051282 , 4134.35897436 , 4136.92307692 , 4144.1025641 , 4173.84615385 , 4703.07692308 , 4131.28205128 , 4130.76923077 , 2048.0 , 1994.0 , 7.454 , 0.0 , 0.0 , 0.0 , 0.0 , 

50.0 , 4133.84615385 , 4133.84615385 , 4097.94871795 , 4131.79487179 , 4131.28205128 , 4129.23076923 , 4130.25641026 , 4132.82051282 , 4132.82051282 , 4141.53846154 , 4172.30769231 , 4702.56410256 , 4128.71794872 , 4133.84615385 , 2044.0 , 1995.0 , 7.462 , 0.0 , 0.0 , 0.0 , 0.0 , 

51.0 , 4135.38461538 , 4132.82051282 , 4089.23076923 , 4131.79487179 , 4130.76923077 , 4132.82051282 , 4128.20512821 , 4129.74358974 , 4134.35897436 , 4139.48717949 , 4174.87179487 , 4701.53846154 , 4127.69230769 , 4136.92307692 , 2041.0 , 1995.0 , 7.47 , 0.0 , 0.0 , 0.0 , 0.0 , 

52.0 , 4132.82051282 , 4129.23076923 , 4116.41025641 , 4132.30769231 , 4130.25641026 , 4129.23076923 , 4126.66666667 , 4132.30769231 , 4136.92307692 , 4141.53846154 , 4177.43589744 , 4702.05128205 , 4130.25641026 , 4136.41025641 , 2039.0 , 1990.0 , 7.477 , 0.0 , 0.0 , 0.0 , 0.0 , 

53.0 , 4132.82051282 , 4130.76923077 , 4135.38461538 , 4134.35897436 , 4130.76923077 , 4128.20512821 , 4128.20512821 , 4136.41025641 , 4135.38461538 , 4141.02564103 , 4176.41025641 , 4706.15384615 , 4132.82051282 , 4136.92307692 , 2037.0 , 1989.0 , 7.486 , 0.0 , 0.0 , 0.0 , 0.0 , 

54.0 , 4131.28205128 , 4131.79487179 , 4131.79487179 , 4133.84615385 , 4129.74358974 , 4130.25641026 , 4130.25641026 , 4133.33333333 , 4134.87179487 , 4140.0 , 4173.33333333 , 4702.56410256 , 4130.76923077 , 4137.94871795 , 2036.0 , 1988.0 , 7.494 , 0.0 , 0.0 , 0.0 , 0.0 , 

55.0 , 4131.28205128 , 4128.20512821 , 4141.53846154 , 4131.28205128 , 4131.28205128 , 4129.23076923 , 4129.74358974 , 4133.33333333 , 4137.43589744 , 4145.64102564 , 4173.33333333 , 4702.56410256 , 4130.25641026 , 4136.41025641 , 2033.0 , 1986.0 , 7.501 , 0.0 , 0.0 , 0.0 , 0.0 , 

56.0 , 4130.25641026 , 4127.69230769 , 4149.74358974 , 4130.25641026 , 4130.25641026 , 4127.69230769 , 4127.69230769 , 4135.38461538 , 4136.92307692 , 4146.66666667 , 4172.30769231 , 4706.15384615 , 4129.23076923 , 4132.30769231 , 2031.0 , 1986.0 , 7.509 , 0.0 , 0.0 , 0.0 , 0.0 , 

57.0 , 4130.25641026 , 4130.25641026 , 4142.56410256 , 4132.30769231 , 4127.69230769 , 4127.69230769 , 4127.69230769 , 4133.84615385 , 4132.30769231 , 4143.58974359 , 4172.30769231 , 4706.66666667 , 4127.69230769 , 4133.33333333 , 2032.0 , 1987.0 , 7.517 , 0.0 , 0.0 , 0.0 , 0.0 , 

58.0 , 4131.28205128 , 4129.23076923 , 4129.74358974 , 4132.30769231 , 4129.23076923 , 4128.20512821 , 4129.23076923 , 4131.28205128 , 4132.30769231 , 4141.53846154 , 4174.35897436 , 4701.53846154 , 4128.20512821 , 4136.92307692 , 2032.0 , 1986.0 , 7.525 , 0.0 , 0.0 , 0.0 , 0.0 , 

59.0 , 4131.28205128 , 4128.20512821 , 4142.56410256 , 4131.79487179 , 4131.79487179 , 4127.17948718 , 4130.76923077 , 4135.38461538 , 4137.94871795 , 4142.05128205 , 4175.38461538 , 4701.53846154 , 4131.28205128 , 4136.92307692 , 2031.0 , 1988.0 , 7.534 , 0.0 , 0.0 , 0.0 , 0.0 , 

60.0 , 4131.79487179 , 4131.28205128 , 4138.97435897 , 4132.82051282 , 4129.74358974 , 4126.15384615 , 4129.74358974 , 4134.35897436 , 4138.46153846 , 4141.53846154 , 4174.35897436 , 4704.61538462 , 4130.76923077 , 4135.38461538 , 2031.0 , 1990.0 , 7.541 , 0.0 , 0.0 , 0.0 , 0.0 , 

61.0 , 4132.30769231 , 4129.23076923 , 4143.07692308 , 4132.82051282 , 4127.69230769 , 4127.69230769 , 4126.66666667 , 4132.82051282 , 4135.38461538 , 4142.05128205 , 4176.41025641 , 4704.1025641 , 4130.76923077 , 4137.43589744 , 2030.0 , 1989.0 , 7.55 , 0.0 , 0.0 , 0.0 , 0.0 , 

62.0 , 4132.82051282 , 4125.64102564 , 4129.23076923 , 4132.30769231 , 4130.25641026 , 4129.74358974 , 4126.15384615 , 4132.82051282 , 4133.84615385 , 4140.51282051 , 4176.41025641 , 4701.53846154 , 4130.25641026 , 4138.46153846 , 2032.0 , 1991.0 , 7.558 , 0.0 , 0.0 , 0.0 , 0.0 , 

63.0 , 4131.79487179 , 4128.71794872 , 4152.82051282 , 4133.84615385 , 4130.76923077 , 4128.71794872 , 4128.71794872 , 4134.35897436 , 4136.92307692 , 4144.61538462 , 4175.38461538 , 4703.07692308 , 4133.33333333 , 4136.41025641 , 2032.0 , 1989.0 , 7.565 , 0.0 , 0.0 , 0.0 , 0.0 , 

64.0 , 4132.82051282 , 4132.82051282 , 4141.53846154 , 4133.33333333 , 4129.74358974 , 4127.69230769 , 4130.76923077 , 4132.82051282 , 4136.92307692 , 4144.1025641 , 4172.82051282 , 4703.58974359 , 4132.82051282 , 4136.41025641 , 2033.0 , 1990.0 , 7.573 , 0.0 , 0.0 , 0.0 , 0.0 , 

65.0 , 4131.28205128 , 4131.28205128 , 4137.94871795 , 4132.30769231 , 4128.71794872 , 4126.15384615 , 4128.71794872 , 4134.35897436 , 4137.43589744 , 4141.02564103 , 4172.30769231 , 4704.61538462 , 4132.82051282 , 4138.97435897 , 2033.0 , 1990.0 , 7.58 , 0.0 , 0.0 , 0.0 , 0.0 , 

66.0 , 4129.74358974 , 4129.23076923 , 4140.51282051 , 4133.84615385 , 4128.71794872 , 4127.17948718 , 4127.17948718 , 4134.35897436 , 4136.92307692 , 4139.48717949 , 4169.74358974 , 4703.07692308 , 4132.82051282 , 4138.46153846 , 2033.0 , 1991.0 , 7.588 , 0.0 , 0.0 , 0.0 , 0.0 , 

67.0 , 4130.76923077 , 4129.23076923 , 4150.76923077 , 4132.30769231 , 4128.71794872 , 4130.76923077 , 4128.20512821 , 4130.76923077 , 4135.8974359 , 4142.05128205 , 4170.76923077 , 4700.51282051 , 4132.30769231 , 4135.8974359 , 2035.0 , 1993.0 , 7.596 , 0.0 , 0.0 , 0.0 , 0.0 , 

68.0 , 4134.35897436 , 4131.28205128 , 4133.33333333 , 4131.28205128 , 4129.74358974 , 4130.76923077 , 4128.71794872 , 4129.23076923 , 4134.35897436 , 4143.07692308 , 4174.87179487 , 4703.58974359 , 4130.25641026 , 4137.94871795 , 2034.0 , 1994.0 , 7.605 , 0.0 , 0.0 , 0.0 , 0.0 , 

69.0 , 4133.33333333 , 4131.79487179 , 4140.0 , 4132.82051282 , 4130.76923077 , 4128.71794872 , 4127.17948718 , 4131.79487179 , 4134.87179487 , 4142.05128205 , 4175.38461538 , 4706.15384615 , 4131.79487179 , 4137.94871795 , 2035.0 , 1997.0 , 7.612 , 0.0 , 0.0 , 0.0 , 0.0 , 

70.0 , 4132.30769231 , 4130.76923077 , 4145.12820513 , 4133.84615385 , 4132.82051282 , 4130.25641026 , 4128.20512821 , 4132.82051282 , 4133.84615385 , 4140.0 , 4173.84615385 , 4704.1025641 , 4133.84615385 , 4134.87179487 , 2035.0 , 1998.0 , 7.62 , 0.0 , 0.0 , 0.0 , 0.0 , 

71.0 , 4132.30769231 , 4131.28205128 , 4139.48717949 , 4131.79487179 , 4132.82051282 , 4129.74358974 , 4128.20512821 , 4133.84615385 , 4133.33333333 , 4140.51282051 , 4173.33333333 , 4703.07692308 , 4132.30769231 , 4134.35897436 , 2035.0 , 1998.0 , 7.628 , 0.0 , 0.0 , 0.0 , 0.0 , 

72.0 , 4132.30769231 , 4133.33333333 , 4150.76923077 , 4130.25641026 , 4131.79487179 , 4126.66666667 , 4125.64102564 , 4136.92307692 , 4135.8974359 , 4145.12820513 , 4172.82051282 , 4704.1025641 , 4130.76923077 , 4138.46153846 , 2035.0 , 2000.0 , 7.635 , 0.0 , 0.0 , 0.0 , 0.0 , 

73.0 , 4129.74358974 , 4131.28205128 , 4145.12820513 , 4129.23076923 , 4130.76923077 , 4129.23076923 , 4126.66666667 , 4134.35897436 , 4137.94871795 , 4143.07692308 , 4172.82051282 , 4702.56410256 , 4130.25641026 , 4140.0 , 2034.0 , 1997.0 , 7.643 , 0.0 , 0.0 , 0.0 , 0.0 , 

74.0 , 4128.71794872 , 4128.20512821 , 4130.25641026 , 4129.23076923 , 4130.25641026 , 4130.76923077 , 4129.74358974 , 4132.30769231 , 4136.92307692 , 4137.94871795 , 4175.8974359 , 4704.1025641 , 4129.74358974 , 4138.97435897 , 2034.0 , 1996.0 , 7.651 , 0.0 , 0.0 , 0.0 , 0.0 , 

75.0 , 4130.25641026 , 4129.23076923 , 4145.64102564 , 4128.71794872 , 4128.20512821 , 4126.66666667 , 4129.23076923 , 4135.38461538 , 4137.94871795 , 4139.48717949 , 4177.43589744 , 4704.1025641 , 4130.25641026 , 4137.43589744 , 2035.0 , 1995.0 , 7.659 , 0.0 , 0.0 , 0.0 , 0.0 , 

76.0 , 4130.25641026 , 4128.71794872 , 4183.58974359 , 4130.25641026 , 4128.20512821 , 4125.12820513 , 4127.69230769 , 4136.92307692 , 4141.02564103 , 4147.69230769 , 4176.41025641 , 4704.1025641 , 4132.30769231 , 4138.46153846 , 2034.0 , 1998.0 , 7.667 , 0.0 , 0.0 , 0.0 , 0.0 , 

77.0 , 4128.71794872 , 4127.69230769 , 4166.15384615 , 4131.28205128 , 4131.79487179 , 4127.17948718 , 4129.23076923 , 4133.84615385 , 4137.43589744 , 4146.66666667 , 4174.87179487 , 4705.12820513 , 4129.23076923 , 4138.46153846 , 2036.0 , 2000.0 , 7.675 , 0.0 , 0.0 , 0.0 , 0.0 , 

78.0 , 4130.76923077 , 4126.66666667 , 4162.05128205 , 4131.28205128 , 4132.82051282 , 4128.20512821 , 4127.69230769 , 4134.35897436 , 4135.8974359 , 4142.05128205 , 4175.8974359 , 4704.61538462 , 4129.74358974 , 4137.43589744 , 2036.0 , 2004.0 , 7.682 , 0.0 , 0.0 , 0.0 , 0.0 , 

79.0 , 4134.35897436 , 4127.69230769 , 4155.38461538 , 4131.79487179 , 4129.74358974 , 4128.20512821 , 4125.64102564 , 4132.30769231 , 4136.92307692 , 4140.0 , 4174.35897436 , 4703.58974359 , 4132.30769231 , 4136.92307692 , 2037.0 , 2007.0 , 7.691 , 0.0 , 0.0 , 0.0 , 0.0 , 

80.0 , 4133.84615385 , 4130.25641026 , 4160.51282051 , 4133.33333333 , 4129.74358974 , 4128.20512821 , 4127.69230769 , 4130.76923077 , 4137.43589744 , 4144.1025641 , 4174.35897436 , 4705.64102564 , 4133.33333333 , 4135.8974359 , 2037.0 , 2009.0 , 7.698 , 0.0 , 0.0 , 0.0 , 0.0 , 

81.0 , 4131.79487179 , 4131.28205128 , 4144.61538462 , 4133.33333333 , 4132.30769231 , 4130.25641026 , 4128.71794872 , 4131.79487179 , 4134.35897436 , 4142.56410256 , 4175.38461538 , 4704.61538462 , 4132.30769231 , 4134.87179487 , 2039.0 , 2010.0 , 7.706 , 0.0 , 0.0 , 0.0 , 0.0 , 

82.0 , 4130.25641026 , 4130.76923077 , 4150.25641026 , 4129.74358974 , 4132.82051282 , 4130.25641026 , 4126.15384615 , 4133.84615385 , 4135.8974359 , 4140.51282051 , 4175.38461538 , 4703.58974359 , 4134.35897436 , 4136.41025641 , 2041.0 , 2011.0 , 7.714 , 0.0 , 0.0 , 0.0 , 0.0 , 

83.0 , 4131.79487179 , 4131.28205128 , 4137.94871795 , 4129.23076923 , 4131.28205128 , 4127.17948718 , 4127.17948718 , 4131.79487179 , 4136.41025641 , 4139.48717949 , 4173.84615385 , 4705.64102564 , 4129.74358974 , 4136.92307692 , 2042.0 , 2013.0 , 7.722 , 0.0 , 0.0 , 0.0 , 0.0 , 

84.0 , 4132.82051282 , 4131.79487179 , 4169.74358974 , 4132.30769231 , 4129.23076923 , 4128.71794872 , 4129.23076923 , 4132.30769231 , 4136.92307692 , 4143.07692308 , 4174.35897436 , 4707.17948718 , 4129.74358974 , 4136.92307692 , 2041.0 , 2017.0 , 7.73 , 0.0 , 0.0 , 0.0 , 0.0 , 

85.0 , 4133.33333333 , 4129.74358974 , 4176.41025641 , 4133.33333333 , 4128.20512821 , 4131.28205128 , 4127.69230769 , 4133.33333333 , 4136.41025641 , 4141.02564103 , 4175.8974359 , 4706.15384615 , 4133.84615385 , 4135.8974359 , 2041.0 , 2018.0 , 7.738 , 0.0 , 0.0 , 0.0 , 0.0 , 

86.0 , 4131.79487179 , 4128.71794872 , 4160.51282051 , 4130.25641026 , 4129.74358974 , 4128.71794872 , 4126.66666667 , 4134.35897436 , 4135.38461538 , 4140.0 , 4176.92307692 , 4706.15384615 , 4133.33333333 , 4134.35897436 , 2044.0 , 2020.0 , 7.746 , 0.0 , 0.0 , 0.0 , 0.0 , 

87.0 , 4134.87179487 , 4131.28205128 , 4149.23076923 , 4131.28205128 , 4132.82051282 , 4128.71794872 , 4127.69230769 , 4130.76923077 , 4133.33333333 , 4140.51282051 , 4175.38461538 , 4709.23076923 , 4129.23076923 , 4135.8974359 , 2042.0 , 2022.0 , 7.754 , 0.0 , 0.0 , 0.0 , 0.0 , 

88.0 , 4134.35897436 , 4129.74358974 , 4163.07692308 , 4135.38461538 , 4132.82051282 , 4131.28205128 , 4129.74358974 , 4130.25641026 , 4133.33333333 , 4139.48717949 , 4174.87179487 , 4709.23076923 , 4129.23076923 , 4136.41025641 , 2041.0 , 2023.0 , 7.762 , 0.0 , 0.0 , 0.0 , 0.0 , 

89.0 , 4131.79487179 , 4129.74358974 , 4155.8974359 , 4135.38461538 , 4132.30769231 , 4128.20512821 , 4127.69230769 , 4135.38461538 , 4135.38461538 , 4140.0 , 4177.43589744 , 4707.69230769 , 4129.23076923 , 4135.38461538 , 2042.0 , 2022.0 , 7.769 , 0.0 , 0.0 , 0.0 , 0.0 , 

90.0 , 4129.74358974 , 4131.28205128 , 4146.15384615 , 4131.28205128 , 4131.28205128 , 4126.66666667 , 4124.1025641 , 4134.87179487 , 4137.43589744 , 4140.0 , 4177.94871795 , 4707.17948718 , 4130.25641026 , 4133.33333333 , 2042.0 , 2025.0 , 7.777 , 0.0 , 0.0 , 0.0 , 0.0 , 

91.0 , 4133.33333333 , 4132.30769231 , 4149.74358974 , 4130.76923077 , 4130.25641026 , 4128.71794872 , 4125.64102564 , 4131.79487179 , 4135.38461538 , 4139.48717949 , 4176.92307692 , 4710.25641026 , 4132.30769231 , 4135.38461538 , 2043.0 , 2026.0 , 7.785 , 0.0 , 0.0 , 0.0 , 0.0 , 

92.0 , 4133.84615385 , 4131.28205128 , 4159.48717949 , 4130.25641026 , 4129.74358974 , 4129.74358974 , 4126.66666667 , 4132.30769231 , 4133.84615385 , 4140.51282051 , 4175.8974359 , 4711.28205128 , 4130.25641026 , 4137.43589744 , 2041.0 , 2030.0 , 7.793 , 0.0 , 0.0 , 0.0 , 0.0 , 

93.0 , 4129.74358974 , 4130.76923077 , 4170.25641026 , 4129.74358974 , 4129.74358974 , 4129.23076923 , 4125.64102564 , 4132.82051282 , 4138.97435897 , 4143.58974359 , 4176.41025641 , 4710.76923077 , 4128.71794872 , 4137.94871795 , 2039.0 , 2030.0 , 7.801 , 0.0 , 0.0 , 0.0 , 0.0 , 

94.0 , 4128.20512821 , 4130.25641026 , 4157.43589744 , 4130.76923077 , 4128.71794872 , 4129.74358974 , 4125.12820513 , 4130.76923077 , 4140.0 , 4143.07692308 , 4175.38461538 , 4709.23076923 , 4130.76923077 , 4133.84615385 , 2040.0 , 2032.0 , 7.809 , 0.0 , 0.0 , 0.0 , 0.0 , 

95.0 , 4130.25641026 , 4129.23076923 , 4153.33333333 , 4132.82051282 , 4129.74358974 , 4128.71794872 , 4126.66666667 , 4133.84615385 , 4135.38461538 , 4142.56410256 , 4175.8974359 , 4712.82051282 , 4132.30769231 , 4134.35897436 , 2040.0 , 2031.0 , 7.817 , 0.0 , 0.0 , 0.0 , 0.0 , 

96.0 , 4131.79487179 , 4130.76923077 , 4150.76923077 , 4132.82051282 , 4130.76923077 , 4128.20512821 , 4127.17948718 , 4134.35897436 , 4133.33333333 , 4140.0 , 4173.84615385 , 4713.33333333 , 4127.69230769 , 4136.41025641 , 2040.0 , 2032.0 , 7.825 , 0.0 , 0.0 , 0.0 , 0.0 , 

97.0 , 4130.76923077 , 4129.23076923 , 4159.48717949 , 4131.79487179 , 4130.76923077 , 4128.20512821 , 4127.17948718 , 4133.84615385 , 4136.92307692 , 4141.02564103 , 4172.82051282 , 4710.76923077 , 4125.12820513 , 4134.35897436 , 2040.0 , 2033.0 , 7.833 , 0.0 , 0.0 , 0.0 , 0.0 , 

98.0 , 4131.28205128 , 4127.17948718 , 4151.79487179 , 4131.79487179 , 4131.28205128 , 4127.17948718 , 4128.20512821 , 4134.35897436 , 4136.92307692 , 4141.02564103 , 4174.87179487 , 4710.76923077 , 4128.20512821 , 4132.30769231 , 2042.0 , 2032.0 , 7.841 , 0.0 , 0.0 , 0.0 , 0.0 , 

99.0 , 4131.28205128 , 4129.74358974 , 4161.02564103 , 4131.79487179 , 4130.76923077 , 4127.69230769 , 4128.20512821 , 4132.82051282 , 4133.84615385 , 4138.46153846 , 4174.35897436 , 4713.33333333 , 4131.28205128 , 4136.41025641 , 2042.0 , 2034.0 , 7.849 , 0.0 , 0.0 , 0.0 , 0.0 , 

100.0 , 4131.79487179 , 4131.79487179 , 4153.33333333 , 4132.30769231 , 4129.23076923 , 4129.23076923 , 4128.20512821 , 4131.28205128 , 4130.76923077 , 4137.43589744 , 4171.79487179 , 4713.33333333 , 4129.74358974 , 4137.94871795 , 2042.0 , 2033.0 , 7.857 , 0.0 , 0.0 , 0.0 , 0.0 , 

101.0 , 4131.28205128 , 4129.74358974 , 4162.05128205 , 4131.28205128 , 4127.69230769 , 4128.71794872 , 4128.20512821 , 4132.30769231 , 4134.87179487 , 4140.51282051 , 4173.33333333 , 4712.30769231 , 4131.28205128 , 4133.84615385 , 2046.0 , 2032.0 , 7.864 , 0.0 , 0.0 , 0.0 , 0.0 , 

102.0 , 4132.82051282 , 4130.25641026 , 4149.74358974 , 4132.82051282 , 4129.74358974 , 4128.20512821 , 4128.71794872 , 4130.76923077 , 4136.41025641 , 4138.97435897 , 4178.46153846 , 4714.35897436 , 4130.25641026 , 4134.87179487 , 2046.0 , 2033.0 , 7.872 , 0.0 , 0.0 , 0.0 , 0.0 , 

103.0 , 4131.28205128 , 4130.76923077 , 4148.71794872 , 4134.87179487 , 4130.76923077 , 4127.69230769 , 4127.17948718 , 4130.76923077 , 4134.87179487 , 4137.43589744 , 4174.87179487 , 4714.35897436 , 4127.69230769 , 4137.94871795 , 2047.0 , 2035.0 , 7.88 , 0.0 , 0.0 , 0.0 , 0.0 , 

104.0 , 4128.20512821 , 4129.74358974 , 4154.35897436 , 4132.30769231 , 4130.76923077 , 4127.17948718 , 4127.17948718 , 4131.28205128 , 4134.35897436 , 4140.51282051 , 4169.74358974 , 4712.30769231 , 4130.25641026 , 4137.43589744 , 2045.0 , 2037.0 , 7.888 , 0.0 , 0.0 , 0.0 , 0.0 , 

105.0 , 4128.71794872 , 4128.71794872 , 4161.53846154 , 4129.23076923 , 4131.79487179 , 4128.71794872 , 4127.17948718 , 4131.28205128 , 4136.41025641 , 4141.02564103 , 4172.82051282 , 4709.74358974 , 4133.33333333 , 4134.87179487 , 2046.0 , 2038.0 , 7.896 , 0.0 , 0.0 , 0.0 , 0.0 , 

106.0 , 4131.28205128 , 4128.71794872 , 4143.07692308 , 4130.25641026 , 4132.30769231 , 4128.71794872 , 4125.64102564 , 4133.84615385 , 4135.8974359 , 4138.46153846 , 4176.41025641 , 4713.33333333 , 4130.76923077 , 4134.87179487 , 2048.0 , 2040.0 , 7.903 , 0.0 , 0.0 , 0.0 , 0.0 , 

107.0 , 4130.25641026 , 4127.69230769 , 4160.0 , 4130.76923077 , 4129.74358974 , 4128.71794872 , 4124.61538462 , 4138.46153846 , 4137.43589744 , 4141.53846154 , 4174.87179487 , 4716.92307692 , 4131.28205128 , 4135.38461538 , 2049.0 , 2044.0 , 7.911 , 0.0 , 0.0 , 0.0 , 0.0 , 

108.0 , 4131.28205128 , 4128.20512821 , 4182.56410256 , 4131.79487179 , 4129.23076923 , 4130.76923077 , 4126.15384615 , 4137.43589744 , 4138.46153846 , 4143.07692308 , 4176.41025641 , 4716.92307692 , 4134.35897436 , 4134.87179487 , 2048.0 , 2045.0 , 7.919 , 0.0 , 0.0 , 0.0 , 0.0 , 

109.0 , 4131.28205128 , 4127.69230769 , 4155.8974359 , 4132.30769231 , 4130.76923077 , 4130.25641026 , 4127.17948718 , 4132.30769231 , 4135.38461538 , 4140.0 , 4176.41025641 , 4714.35897436 , 4133.33333333 , 4133.84615385 , 2048.0 , 2045.0 , 7.927 , 0.0 , 0.0 , 0.0 , 0.0 , 

110.0 , 4132.82051282 , 4127.17948718 , 4135.38461538 , 4131.79487179 , 4130.76923077 , 4127.69230769 , 4128.20512821 , 4131.79487179 , 4136.41025641 , 4141.02564103 , 4173.33333333 , 4715.8974359 , 4130.25641026 , 4134.35897436 , 2048.0 , 2045.0 , 7.935 , 0.0 , 0.0 , 0.0 , 0.0 , 

111.0 , 4132.30769231 , 4128.20512821 , 4149.23076923 , 4130.76923077 , 4129.74358974 , 4129.23076923 , 4127.17948718 , 4130.25641026 , 4138.46153846 , 4141.53846154 , 4173.33333333 , 4718.97435897 , 4127.17948718 , 4135.38461538 , 2048.0 , 2045.0 , 7.943 , 0.0 , 0.0 , 0.0 , 0.0 , 

112.0 , 4130.25641026 , 4127.69230769 , 4168.71794872 , 4130.76923077 , 4128.71794872 , 4131.28205128 , 4126.66666667 , 4130.76923077 , 4137.94871795 , 4137.94871795 , 4176.41025641 , 4719.48717949 , 4127.17948718 , 4135.8974359 , 2050.0 , 2045.0 , 7.951 , 0.0 , 0.0 , 0.0 , 0.0 , 

113.0 , 4130.76923077 , 4128.20512821 , 4143.58974359 , 4132.30769231 , 4129.23076923 , 4130.25641026 , 4128.20512821 , 4131.79487179 , 4135.8974359 , 4137.43589744 , 4174.87179487 , 4715.38461538 , 4127.69230769 , 4132.30769231 , 2048.0 , 2045.0 , 7.959 , 0.0 , 0.0 , 0.0 , 0.0 , 

114.0 , 4132.30769231 , 4130.25641026 , 4136.41025641 , 4132.82051282 , 4131.79487179 , 4128.71794872 , 4128.71794872 , 4132.82051282 , 4138.97435897 , 4142.56410256 , 4173.33333333 , 4714.87179487 , 4130.25641026 , 4132.82051282 , 2047.0 , 2047.0 , 7.966 , 0.0 , 0.0 , 0.0 , 0.0 , 

115.0 , 4131.79487179 , 4129.74358974 , 4136.41025641 , 4133.33333333 , 4131.79487179 , 4129.23076923 , 4126.15384615 , 4130.76923077 , 4139.48717949 , 4140.51282051 , 4174.35897436 , 4717.43589744 , 4129.23076923 , 4135.8974359 , 2046.0 , 2049.0 , 7.974 , 0.0 , 0.0 , 0.0 , 0.0 , 

116.0 , 4129.23076923 , 4129.74358974 , 4147.17948718 , 4133.84615385 , 4130.25641026 , 4131.28205128 , 4125.64102564 , 4131.28205128 , 4136.92307692 , 4137.94871795 , 4175.8974359 , 4718.97435897 , 4128.71794872 , 4136.41025641 , 2046.0 , 2048.0 , 7.982 , 0.0 , 0.0 , 0.0 , 0.0 , 

117.0 , 4130.76923077 , 4131.79487179 , 4141.53846154 , 4133.33333333 , 4130.25641026 , 4130.25641026 , 4127.69230769 , 4134.35897436 , 4136.92307692 , 4141.53846154 , 4175.38461538 , 4718.97435897 , 4132.82051282 , 4135.8974359 , 2044.0 , 2048.0 , 7.99 , 0.0 , 0.0 , 0.0 , 0.0 , 

118.0 , 4132.30769231 , 4131.28205128 , 4141.02564103 , 4131.28205128 , 4130.76923077 , 4126.66666667 , 4126.66666667 , 4135.8974359 , 4136.92307692 , 4144.1025641 , 4175.38461538 , 4718.46153846 , 4132.82051282 , 4136.92307692 , 2043.0 , 2046.0 , 7.998 , 0.0 , 0.0 , 0.0 , 0.0 , 

119.0 , 4130.25641026 , 4130.25641026 , 4136.92307692 , 4131.28205128 , 4130.25641026 , 4127.69230769 , 4126.15384615 , 4133.33333333 , 4134.35897436 , 4140.51282051 , 4175.38461538 , 4717.43589744 , 4128.71794872 , 4136.41025641 , 2043.0 , 2047.0 , 8.006 , 0.0 , 0.0 , 0.0 , 0.0 , 

120.0 , 4126.15384615 , 4131.28205128 , 4156.92307692 , 4130.25641026 , 4129.23076923 , 4131.28205128 , 4127.17948718 , 4133.84615385 , 4136.92307692 , 4141.53846154 , 4174.87179487 , 4716.92307692 , 4132.30769231 , 4135.38461538 , 2042.0 , 2049.0 , 8.014 , 0.0 , 0.0 , 0.0 , 0.0 , 

121.0 , 4128.20512821 , 4131.79487179 , 4160.0 , 4130.76923077 , 4130.76923077 , 4129.23076923 , 4128.71794872 , 4135.8974359 , 4137.94871795 , 4144.1025641 , 4174.87179487 , 4717.94871795 , 4134.87179487 , 4136.92307692 , 2043.0 , 2050.0 , 8.022 , 0.0 , 0.0 , 0.0 , 0.0 , 

122.0 , 4129.74358974 , 4129.23076923 , 4139.48717949 , 4132.82051282 , 4131.79487179 , 4127.17948718 , 4128.20512821 , 4133.84615385 , 4132.82051282 , 4141.02564103 , 4173.84615385 , 4717.43589744 , 4128.20512821 , 4134.35897436 , 2042.0 , 2048.0 , 8.03 , 0.0 , 0.0 , 0.0 , 0.0 , 

123.0 , 4129.74358974 , 4129.23076923 , 4125.64102564 , 4131.79487179 , 4130.76923077 , 4131.28205128 , 4126.15384615 , 4131.79487179 , 4132.82051282 , 4139.48717949 , 4174.35897436 , 4718.46153846 , 4127.69230769 , 4135.38461538 , 2042.0 , 2047.0 , 8.038 , 0.0 , 0.0 , 0.0 , 0.0 , 

124.0 , 4130.25641026 , 4128.20512821 , 4145.12820513 , 4129.74358974 , 4129.23076923 , 4132.82051282 , 4126.66666667 , 4134.35897436 , 4138.46153846 , 4138.97435897 , 4174.35897436 , 4718.46153846 , 4130.25641026 , 4137.43589744 , 2041.0 , 2045.0 , 8.046 , 0.0 , 0.0 , 0.0 , 0.0 , 

125.0 , 4133.84615385 , 4129.74358974 , 4135.8974359 , 4133.33333333 , 4130.25641026 , 4129.23076923 , 4129.23076923 , 4137.43589744 , 4138.97435897 , 4140.0 , 4174.87179487 , 4718.97435897 , 4128.20512821 , 4137.43589744 , 2042.0 , 2043.0 , 8.053 , 0.0 , 0.0 , 0.0 , 0.0 , 

126.0 , 4131.79487179 , 4130.76923077 , 4123.07692308 , 4132.82051282 , 4131.79487179 , 4128.71794872 , 4128.20512821 , 4132.30769231 , 4135.38461538 , 4140.51282051 , 4175.38461538 , 4716.92307692 , 4127.17948718 , 4135.8974359 , 2041.0 , 2043.0 , 8.06 , 0.0 , 0.0 , 0.0 , 0.0 , 

127.0 , 4129.23076923 , 4130.25641026 , 4134.87179487 , 4128.71794872 , 4130.25641026 , 4130.76923077 , 4125.12820513 , 4129.74358974 , 4135.38461538 , 4140.51282051 , 4176.41025641 , 4718.97435897 , 4131.79487179 , 4136.41025641 , 2039.0 , 2042.0 , 8.069 , 0.0 , 0.0 , 0.0 , 0.0 , 

128.0 , 4129.74358974 , 4130.25641026 , 4144.1025641 , 4132.30769231 , 4129.74358974 , 4129.74358974 , 4125.12820513 , 4130.25641026 , 4133.84615385 , 4138.46153846 , 4173.84615385 , 4722.05128205 , 4130.25641026 , 4136.92307692 , 2038.0 , 2041.0 , 8.077 , 0.0 , 0.0 , 0.0 , 0.0 , 

0.0 , 4132.82051282 , 4131.28205128 , 4140.51282051 , 4136.92307692 , 4132.30769231 , 4128.71794872 , 4126.66666667 , 4132.30769231 , 4133.33333333 , 4141.02564103 , 4171.28205128 , 4721.02564103 , 4128.71794872 , 4136.92307692 , 2038.0 , 2041.0 , 8.085 , 0.0 , 0.0 , 0.0 , 0.0 , 

1.0 , 4131.28205128 , 4130.76923077 , 4129.74358974 , 4133.84615385 , 4133.33333333 , 4129.23076923 , 4126.15384615 , 4131.79487179 , 4133.84615385 , 4140.51282051 , 4171.28205128 , 4715.8974359 , 4128.20512821 , 4134.35897436 , 2037.0 , 2040.0 , 8.092 , 0.0 , 0.0 , 0.0 , 0.0 , 

2.0 , 4130.25641026 , 4128.71794872 , 4127.17948718 , 4131.79487179 , 4130.76923077 , 4128.71794872 , 4124.61538462 , 4132.82051282 , 4133.84615385 , 4138.97435897 , 4174.35897436 , 4716.92307692 , 4129.74358974 , 4134.35897436 , 2038.0 , 2042.0 , 8.1 , 0.0 , 0.0 , 0.0 , 0.0 , 

3.0 , 4132.82051282 , 4128.20512821 , 4127.17948718 , 4134.87179487 , 4129.74358974 , 4129.74358974 , 4125.64102564 , 4133.84615385 , 4133.84615385 , 4139.48717949 , 4175.8974359 , 4722.05128205 , 4132.30769231 , 4137.43589744 , 2038.0 , 2042.0 , 8.108 , 0.0 , 0.0 , 0.0 , 0.0 , 

4.0 , 4132.30769231 , 4129.74358974 , 4142.05128205 , 4133.33333333 , 4129.23076923 , 4130.76923077 , 4127.69230769 , 4134.35897436 , 4136.92307692 , 4140.0 , 4174.87179487 , 4721.53846154 , 4132.30769231 , 4138.46153846 , 2038.0 , 2043.0 , 8.116 , 0.0 , 0.0 , 0.0 , 0.0 , 

5.0 , 4129.23076923 , 4130.76923077 , 4135.38461538 , 4132.30769231 , 4127.69230769 , 4130.76923077 , 4128.71794872 , 4133.84615385 , 4137.94871795 , 4139.48717949 , 4173.84615385 , 4718.46153846 , 4129.23076923 , 4135.38461538 , 2037.0 , 2045.0 , 8.124 , 0.0 , 0.0 , 0.0 , 0.0 , 

6.0 , 4128.71794872 , 4129.74358974 , 4137.43589744 , 4134.87179487 , 4128.20512821 , 4129.23076923 , 4128.20512821 , 4133.84615385 , 4134.87179487 , 4142.05128205 , 4174.35897436 , 4718.46153846 , 4128.71794872 , 4133.84615385 , 2037.0 , 2047.0 , 8.132 , 0.0 , 0.0 , 0.0 , 0.0 , 

7.0 , 4132.30769231 , 4129.74358974 , 4133.84615385 , 4134.35897436 , 4128.20512821 , 4128.20512821 , 4129.23076923 , 4133.84615385 , 4133.84615385 , 4141.53846154 , 4174.35897436 , 4718.97435897 , 4131.28205128 , 4134.35897436 , 2038.0 , 2049.0 , 8.14 , 0.0 , 0.0 , 0.0 , 0.0 , 

8.0 , 4130.76923077 , 4130.25641026 , 4137.94871795 , 4130.25641026 , 4129.23076923 , 4129.74358974 , 4128.71794872 , 4132.30769231 , 4135.38461538 , 4139.48717949 , 4172.82051282 , 4717.43589744 , 4133.33333333 , 4133.84615385 , 2037.0 , 2049.0 , 8.148 , 0.0 , 0.0 , 0.0 , 0.0 , 

9.0 , 4128.20512821 , 4130.76923077 , 4125.64102564 , 4131.79487179 , 4131.79487179 , 4132.30769231 , 4128.71794872 , 4130.25641026 , 4134.87179487 , 4141.02564103 , 4173.84615385 , 4718.46153846 , 4132.82051282 , 4133.33333333 , 2038.0 , 2054.0 , 8.155 , 0.0 , 0.0 , 0.0 , 0.0 , 

10.0 , 4128.20512821 , 4130.25641026 , 4151.28205128 , 4133.84615385 , 4129.74358974 , 4130.25641026 , 4127.69230769 , 4134.87179487 , 4136.41025641 , 4143.58974359 , 4177.43589744 , 4720.51282051 , 4133.33333333 , 4132.82051282 , 2038.0 , 2055.0 , 8.163 , 0.0 , 0.0 , 0.0 , 0.0 , 

11.0 , 4130.76923077 , 4129.74358974 , 4161.02564103 , 4133.33333333 , 4127.17948718 , 4128.71794872 , 4126.66666667 , 4135.8974359 , 4136.92307692 , 4141.53846154 , 4176.41025641 , 4717.94871795 , 4133.33333333 , 4135.8974359 , 2037.0 , 2057.0 , 8.171 , 0.0 , 0.0 , 0.0 , 0.0 , 

12.0 , 4130.76923077 , 4129.74358974 , 4150.76923077 , 4133.33333333 , 4128.71794872 , 4129.74358974 , 4126.66666667 , 4132.82051282 , 4135.8974359 , 4140.51282051 , 4173.84615385 , 4716.92307692 , 4131.79487179 , 4138.97435897 , 2037.0 , 2057.0 , 8.179 , 0.0 , 0.0 , 0.0 , 0.0 , 

13.0 , 4130.76923077 , 4131.28205128 , 4136.92307692 , 4134.35897436 , 4131.28205128 , 4128.20512821 , 4127.69230769 , 4133.33333333 , 4136.92307692 , 4142.56410256 , 4175.8974359 , 4720.51282051 , 4128.20512821 , 4136.92307692 , 2036.0 , 2057.0 , 8.186 , 0.0 , 0.0 , 0.0 , 0.0 , 

14.0 , 4129.74358974 , 4130.76923077 , 4119.48717949 , 4132.82051282 , 4128.71794872 , 4126.66666667 , 4127.69230769 , 4132.82051282 , 4135.8974359 , 4140.0 , 4174.35897436 , 4719.48717949 , 4127.69230769 , 4133.84615385 , 2037.0 , 2055.0 , 8.195 , 0.0 , 0.0 , 0.0 , 0.0 , 

15.0 , 4130.76923077 , 4129.74358974 , 4107.69230769 , 4132.82051282 , 4126.66666667 , 4129.74358974 , 4128.20512821 , 4131.28205128 , 4136.41025641 , 4137.43589744 , 4171.28205128 , 4720.0 , 4131.28205128 , 4137.94871795 , 2039.0 , 2054.0 , 8.203 , 0.0 , 0.0 , 0.0 , 0.0 , 

16.0 , 4130.25641026 , 4131.28205128 , 4114.35897436 , 4132.82051282 , 4127.69230769 , 4130.76923077 , 4127.69230769 , 4130.25641026 , 4136.92307692 , 4138.46153846 , 4171.79487179 , 4719.48717949 , 4129.23076923 , 4137.94871795 , 2040.0 , 2053.0 , 8.211 , 0.0 , 0.0 , 0.0 , 0.0 , 

17.0 , 4131.79487179 , 4133.33333333 , 4124.61538462 , 4132.82051282 , 4131.79487179 , 4128.20512821 , 4128.20512821 , 4133.84615385 , 4135.38461538 , 4140.51282051 , 4174.35897436 , 4720.51282051 , 4129.23076923 , 4134.87179487 , 2041.0 , 2052.0 , 8.219 , 0.0 , 0.0 , 0.0 , 0.0 , 

18.0 , 4134.87179487 , 4132.30769231 , 4107.69230769 , 4131.79487179 , 4131.79487179 , 4128.20512821 , 4127.69230769 , 4134.35897436 , 4130.76923077 , 4135.38461538 , 4173.84615385 , 4720.0 , 4131.28205128 , 4135.38461538 , 2042.0 , 2051.0 , 8.226 , 0.0 , 0.0 , 0.0 , 0.0 , 

19.0 , 4134.35897436 , 4130.76923077 , 4113.33333333 , 4132.30769231 , 4129.74358974 , 4130.25641026 , 4126.66666667 , 4133.84615385 , 4131.28205128 , 4135.8974359 , 4175.8974359 , 4720.0 , 4131.28205128 , 4136.41025641 , 2043.0 , 2052.0 , 8.234 , 0.0 , 0.0 , 0.0 , 0.0 , 

20.0 , 4129.23076923 , 4130.76923077 , 4129.23076923 , 4133.33333333 , 4130.25641026 , 4129.23076923 , 4127.17948718 , 4132.82051282 , 4132.30769231 , 4138.97435897 , 4175.8974359 , 4718.46153846 , 4127.69230769 , 4136.41025641 , 2043.0 , 2052.0 , 8.242 , 0.0 , 0.0 , 0.0 , 0.0 , 

21.0 , 4129.74358974 , 4130.25641026 , 4130.76923077 , 4134.35897436 , 4130.25641026 , 4127.17948718 , 4128.71794872 , 4134.87179487 , 4133.84615385 , 4140.0 , 4172.82051282 , 4720.0 , 4130.25641026 , 4137.94871795 , 2044.0 , 2053.0 , 8.25 , 0.0 , 0.0 , 0.0 , 0.0 , 

22.0 , 4132.82051282 , 4129.23076923 , 4125.12820513 , 4133.84615385 , 4130.25641026 , 4129.23076923 , 4127.69230769 , 4135.8974359 , 4136.41025641 , 4139.48717949 , 4172.30769231 , 4719.48717949 , 4132.82051282 , 4132.82051282 , 2043.0 , 2053.0 , 8.258 , 0.0 , 0.0 , 0.0 , 0.0 , 

23.0 , 4130.76923077 , 4127.69230769 , 4124.61538462 , 4133.33333333 , 4129.74358974 , 4131.79487179 , 4126.66666667 , 4134.35897436 , 4134.35897436 , 4143.07692308 , 4174.35897436 , 4716.92307692 , 4131.79487179 , 4129.74358974 , 2044.0 , 2056.0 , 8.266 , 0.0 , 0.0 , 0.0 , 0.0 , 

24.0 , 4130.76923077 , 4127.69230769 , 4114.87179487 , 4133.84615385 , 4130.25641026 , 4130.76923077 , 4126.15384615 , 4133.33333333 , 4131.28205128 , 4145.12820513 , 4174.87179487 , 4717.94871795 , 4129.74358974 , 4137.43589744 , 2046.0 , 2055.0 , 8.274 , 0.0 , 0.0 , 0.0 , 0.0 , 

25.0 , 4131.28205128 , 4129.23076923 , 4122.05128205 , 4132.82051282 , 4130.25641026 , 4130.25641026 , 4126.15384615 , 4134.87179487 , 4134.35897436 , 4142.05128205 , 4174.87179487 , 4718.97435897 , 4129.23076923 , 4141.53846154 , 2044.0 , 2053.0 , 8.282 , 0.0 , 0.0 , 0.0 , 0.0 , 

26.0 , 4129.74358974 , 4131.79487179 , 4117.43589744 , 4131.79487179 , 4131.79487179 , 4129.74358974 , 4127.17948718 , 4133.33333333 , 4136.92307692 , 4138.46153846 , 4174.35897436 , 4716.92307692 , 4127.17948718 , 4137.43589744 , 2045.0 , 2051.0 , 8.289 , 0.0 , 0.0 , 0.0 , 0.0 , 

27.0 , 4129.23076923 , 4130.76923077 , 4120.51282051 , 4131.28205128 , 4131.28205128 , 4127.69230769 , 4126.15384615 , 4133.33333333 , 4135.8974359 , 4139.48717949 , 4173.33333333 , 4717.43589744 , 4128.71794872 , 4135.38461538 , 2045.0 , 2050.0 , 8.297 , 0.0 , 0.0 , 0.0 , 0.0 , 

28.0 , 4132.82051282 , 4130.76923077 , 4116.41025641 , 4132.82051282 , 4129.23076923 , 4129.74358974 , 4126.15384615 , 4134.35897436 , 4133.33333333 , 4143.07692308 , 4174.35897436 , 4719.48717949 , 4132.30769231 , 4138.46153846 , 2043.0 , 2048.0 , 8.304 , 0.0 , 0.0 , 0.0 , 0.0 , 

29.0 , 4133.33333333 , 4130.25641026 , 4129.23076923 , 4131.79487179 , 4127.69230769 , 4133.33333333 , 4127.69230769 , 4134.35897436 , 4135.38461538 , 4143.07692308 , 4175.38461538 , 4716.41025641 , 4131.28205128 , 4137.43589744 , 2044.0 , 2046.0 , 8.314 , 0.0 , 0.0 , 0.0 , 0.0 , 

30.0 , 4133.33333333 , 4129.74358974 , 4125.64102564 , 4130.76923077 , 4129.23076923 , 4132.30769231 , 4127.17948718 , 4134.35897436 , 4139.48717949 , 4140.51282051 , 4175.38461538 , 4716.41025641 , 4126.15384615 , 4136.41025641 , 2045.0 , 2048.0 , 8.322 , 0.0 , 0.0 , 0.0 , 0.0 , 

31.0 , 4132.30769231 , 4130.76923077 , 4133.84615385 , 4131.79487179 , 4130.76923077 , 4129.23076923 , 4126.15384615 , 4134.35897436 , 4137.94871795 , 4140.0 , 4176.41025641 , 4720.0 , 4128.71794872 , 4136.41025641 , 2045.0 , 2049.0 , 8.329 , 0.0 , 0.0 , 0.0 , 0.0 , 

32.0 , 4132.30769231 , 4130.25641026 , 4133.33333333 , 4132.82051282 , 4129.23076923 , 4129.74358974 , 4129.74358974 , 4134.35897436 , 4133.33333333 , 4140.51282051 , 4177.43589744 , 4721.02564103 , 4133.33333333 , 4137.94871795 , 2043.0 , 2050.0 , 8.337 , 0.0 , 0.0 , 0.0 , 0.0 , 

33.0 , 4131.28205128 , 4127.17948718 , 4129.23076923 , 4131.79487179 , 4129.23076923 , 4128.20512821 , 4130.25641026 , 4135.38461538 , 4135.38461538 , 4141.02564103 , 4175.38461538 , 4716.41025641 , 4130.76923077 , 4137.43589744 , 2044.0 , 2051.0 , 8.345 , 0.0 , 0.0 , 0.0 , 0.0 , 

34.0 , 4132.82051282 , 4128.71794872 , 4127.17948718 , 4132.30769231 , 4130.25641026 , 4125.64102564 , 4128.20512821 , 4137.94871795 , 4138.46153846 , 4143.58974359 , 4174.87179487 , 4715.38461538 , 4128.71794872 , 4136.41025641 , 2044.0 , 2052.0 , 8.354 , 0.0 , 0.0 , 0.0 , 0.0 , 

35.0 , 4132.30769231 , 4131.28205128 , 4120.51282051 , 4132.30769231 , 4130.25641026 , 4126.15384615 , 4128.71794872 , 4134.87179487 , 4133.33333333 , 4143.07692308 , 4173.84615385 , 4716.41025641 , 4127.69230769 , 4134.35897436 , 2044.0 , 2053.0 , 8.36 , 0.0 , 0.0 , 0.0 , 0.0 , 

36.0 , 4130.25641026 , 4130.25641026 , 4116.92307692 , 4131.28205128 , 4130.25641026 , 4126.66666667 , 4130.25641026 , 4130.76923077 , 4129.74358974 , 4140.51282051 , 4172.82051282 , 4715.8974359 , 4127.69230769 , 4133.84615385 , 2045.0 , 2055.0 , 8.368 , 0.0 , 0.0 , 0.0 , 0.0 , 

37.0 , 4130.76923077 , 4129.23076923 , 4114.87179487 , 4130.76923077 , 4130.76923077 , 4127.69230769 , 4129.74358974 , 4133.33333333 , 4134.35897436 , 4139.48717949 , 4174.87179487 , 4715.38461538 , 4128.20512821 , 4134.35897436 , 2046.0 , 2056.0 , 8.376 , 0.0 , 0.0 , 0.0 , 0.0 , 

38.0 , 4132.82051282 , 4130.76923077 , 4126.66666667 , 4130.25641026 , 4131.28205128 , 4128.71794872 , 4128.71794872 , 4136.92307692 , 4137.43589744 , 4141.02564103 , 4176.92307692 , 4718.97435897 , 4129.74358974 , 4135.38461538 , 2045.0 , 2056.0 , 8.384 , 0.0 , 0.0 , 0.0 , 0.0 , 

39.0 , 4132.82051282 , 4130.76923077 , 4129.23076923 , 4130.76923077 , 4128.71794872 , 4128.71794872 , 4127.17948718 , 4133.33333333 , 4133.84615385 , 4141.53846154 , 4175.8974359 , 4717.43589744 , 4127.69230769 , 4133.84615385 , 2045.0 , 2055.0 , 8.392 , 0.0 , 0.0 , 0.0 , 0.0 , 

40.0 , 4131.28205128 , 4129.23076923 , 4132.30769231 , 4134.87179487 , 4128.71794872 , 4128.20512821 , 4126.15384615 , 4133.33333333 , 4132.82051282 , 4142.56410256 , 4173.84615385 , 4713.84615385 , 4127.69230769 , 4135.38461538 , 2045.0 , 2054.0 , 8.4 , 0.0 , 0.0 , 0.0 , 0.0 , 

41.0 , 4130.25641026 , 4128.71794872 , 4120.51282051 , 4135.38461538 , 4131.79487179 , 4130.25641026 , 4128.20512821 , 4134.35897436 , 4135.38461538 , 4139.48717949 , 4173.33333333 , 4714.35897436 , 4128.71794872 , 4136.41025641 , 2045.0 , 2053.0 , 8.408 , 0.0 , 0.0 , 0.0 , 0.0 , 

42.0 , 4130.25641026 , 4129.74358974 , 4136.41025641 , 4130.76923077 , 4132.30769231 , 4131.28205128 , 4128.71794872 , 4132.82051282 , 4138.46153846 , 4138.97435897 , 4176.92307692 , 4716.41025641 , 4130.25641026 , 4135.38461538 , 2042.0 , 2055.0 , 8.416 , 0.0 , 0.0 , 0.0 , 0.0 , 

43.0 , 4132.82051282 , 4130.76923077 , 4132.30769231 , 4130.76923077 , 4131.79487179 , 4131.28205128 , 4127.17948718 , 4130.76923077 , 4135.38461538 , 4141.53846154 , 4176.92307692 , 4715.38461538 , 4129.74358974 , 4135.8974359 , 2044.0 , 2058.0 , 8.423 , 0.0 , 0.0 , 0.0 , 0.0 , 

44.0 , 4131.28205128 , 4131.28205128 , 4149.74358974 , 4133.84615385 , 4131.79487179 , 4129.74358974 , 4126.15384615 , 4132.82051282 , 4136.41025641 , 4144.61538462 , 4174.35897436 , 4715.8974359 , 4132.30769231 , 4136.92307692 , 2042.0 , 2058.0 , 8.431 , 0.0 , 0.0 , 0.0 , 0.0 , 

45.0 , 4130.25641026 , 4132.30769231 , 4138.97435897 , 4134.35897436 , 4131.79487179 , 4128.71794872 , 4128.20512821 , 4133.33333333 , 4135.8974359 , 4140.0 , 4173.33333333 , 4714.87179487 , 4130.76923077 , 4134.35897436 , 2043.0 , 2058.0 , 8.439 , 0.0 , 0.0 , 0.0 , 0.0 , 

46.0 , 4132.30769231 , 4130.76923077 , 4128.71794872 , 4133.84615385 , 4131.28205128 , 4127.69230769 , 4129.74358974 , 4132.30769231 , 4133.84615385 , 4137.94871795 , 4174.87179487 , 4713.33333333 , 4131.28205128 , 4132.82051282 , 2044.0 , 2057.0 , 8.447 , 0.0 , 0.0 , 0.0 , 0.0 , 

47.0 , 4133.84615385 , 4130.25641026 , 4119.48717949 , 4133.33333333 , 4131.79487179 , 4127.69230769 , 4128.20512821 , 4131.28205128 , 4132.82051282 , 4141.53846154 , 4174.87179487 , 4714.87179487 , 4132.30769231 , 4135.8974359 , 2045.0 , 2056.0 , 8.455 , 0.0 , 0.0 , 0.0 , 0.0 , 

48.0 , 4131.28205128 , 4131.28205128 , 4130.25641026 , 4131.79487179 , 4131.28205128 , 4127.17948718 , 4126.66666667 , 4135.38461538 , 4135.38461538 , 4142.56410256 , 4172.82051282 , 4716.92307692 , 4130.25641026 , 4136.41025641 , 2044.0 , 2055.0 , 8.463 , 0.0 , 0.0 , 0.0 , 0.0 , 

49.0 , 4133.33333333 , 4132.30769231 , 4123.07692308 , 4133.33333333 , 4130.76923077 , 4127.69230769 , 4127.17948718 , 4138.46153846 , 4136.41025641 , 4140.0 , 4174.35897436 , 4716.92307692 , 4129.74358974 , 4136.41025641 , 2046.0 , 2054.0 , 8.471 , 0.0 , 0.0 , 0.0 , 0.0 , 

50.0 , 4133.84615385 , 4129.23076923 , 4116.41025641 , 4135.38461538 , 4131.79487179 , 4128.20512821 , 4128.20512821 , 4133.84615385 , 4137.94871795 , 4140.0 , 4178.46153846 , 4714.87179487 , 4130.76923077 , 4135.8974359 , 2047.0 , 2053.0 , 8.479 , 0.0 , 0.0 , 0.0 , 0.0 , 

51.0 , 4133.33333333 , 4129.23076923 , 4128.71794872 , 4134.87179487 , 4131.79487179 , 4130.76923077 , 4127.17948718 , 4131.79487179 , 4138.46153846 , 4140.0 , 4177.43589744 , 4715.38461538 , 4129.74358974 , 4133.84615385 , 2047.0 , 2052.0 , 8.487 , 0.0 , 0.0 , 0.0 , 0.0 , 

52.0 , 4132.30769231 , 4130.25641026 , 4136.92307692 , 4133.33333333 , 4130.25641026 , 4129.23076923 , 4125.12820513 , 4134.35897436 , 4134.35897436 , 4139.48717949 , 4173.84615385 , 4718.97435897 , 4130.25641026 , 4130.76923077 , 2048.0 , 2051.0 , 8.494 , 0.0 , 0.0 , 0.0 , 0.0 , 

53.0 , 4134.35897436 , 4131.28205128 , 4124.61538462 , 4134.35897436 , 4130.76923077 , 4126.66666667 , 4125.64102564 , 4133.33333333 , 4133.84615385 , 4141.02564103 , 4175.8974359 , 4721.53846154 , 4134.87179487 , 4134.35897436 , 2047.0 , 2047.0 , 8.502 , 0.0 , 0.0 , 0.0 , 0.0 , 

54.0 , 4134.87179487 , 4129.74358974 , 4124.1025641 , 4135.38461538 , 4131.79487179 , 4129.74358974 , 4127.17948718 , 4129.74358974 , 4136.41025641 , 4142.05128205 , 4177.43589744 , 4717.94871795 , 4133.84615385 , 4137.94871795 , 2046.0 , 2047.0 , 8.51 , 0.0 , 0.0 , 0.0 , 0.0 , 

55.0 , 4133.33333333 , 4129.74358974 , 4142.05128205 , 4134.35897436 , 4129.23076923 , 4129.74358974 , 4127.69230769 , 4133.84615385 , 4135.8974359 , 4142.05128205 , 4176.92307692 , 4716.41025641 , 4131.28205128 , 4136.92307692 , 2045.0 , 2046.0 , 8.518 , 0.0 , 0.0 , 0.0 , 0.0 , 

56.0 , 4131.79487179 , 4130.25641026 , 4129.74358974 , 4133.33333333 , 4128.20512821 , 4127.17948718 , 4128.20512821 , 4134.87179487 , 4132.82051282 , 4139.48717949 , 4176.41025641 , 4715.8974359 , 4129.23076923 , 4135.8974359 , 2047.0 , 2046.0 , 8.527 , 0.0 , 0.0 , 0.0 , 0.0 , 

57.0 , 4132.82051282 , 4130.76923077 , 4119.48717949 , 4133.84615385 , 4131.28205128 , 4129.74358974 , 4129.23076923 , 4132.82051282 , 4133.84615385 , 4138.46153846 , 4177.43589744 , 4715.8974359 , 4129.23076923 , 4137.43589744 , 2048.0 , 2046.0 , 8.535 , 0.0 , 0.0 , 0.0 , 0.0 , 

58.0 , 4131.79487179 , 4129.74358974 , 4129.23076923 , 4134.87179487 , 4129.74358974 , 4132.82051282 , 4128.20512821 , 4132.30769231 , 4136.41025641 , 4141.53846154 , 4176.92307692 , 4714.87179487 , 4130.25641026 , 4134.87179487 , 2048.0 , 2046.0 , 8.542 , 0.0 , 0.0 , 0.0 , 0.0 , 

59.0 , 4129.74358974 , 4127.69230769 , 4135.8974359 , 4134.35897436 , 4127.17948718 , 4131.79487179 , 4127.17948718 , 4134.87179487 , 4137.43589744 , 4143.58974359 , 4174.35897436 , 4715.8974359 , 4131.28205128 , 4133.33333333 , 2049.0 , 2046.0 , 8.549 , 0.0 , 0.0 , 0.0 , 0.0 , 

60.0 , 4129.74358974 , 4130.25641026 , 4113.84615385 , 4133.84615385 , 4128.71794872 , 4130.25641026 , 4128.71794872 , 4134.35897436 , 4134.87179487 , 4140.51282051 , 4171.79487179 , 4715.38461538 , 4129.23076923 , 4133.84615385 , 2050.0 , 2049.0 , 8.557 , 0.0 , 0.0 , 0.0 , 0.0 , 

61.0 , 4128.71794872 , 4133.33333333 , 4122.56410256 , 4133.84615385 , 4131.79487179 , 4126.66666667 , 4129.74358974 , 4132.30769231 , 4134.87179487 , 4141.02564103 , 4175.8974359 , 4714.35897436 , 4130.76923077 , 4133.84615385 , 2050.0 , 2048.0 , 8.565 , 0.0 , 0.0 , 0.0 , 0.0 , 

62.0 , 4128.20512821 , 4131.28205128 , 4120.51282051 , 4134.35897436 , 4131.79487179 , 4124.61538462 , 4128.20512821 , 4130.76923077 , 4135.8974359 , 4142.05128205 , 4178.46153846 , 4712.30769231 , 4131.79487179 , 4133.84615385 , 2048.0 , 2049.0 , 8.573 , 0.0 , 0.0 , 0.0 , 0.0 , 

63.0 , 4129.74358974 , 4128.71794872 , 4128.71794872 , 4135.38461538 , 4130.76923077 , 4127.69230769 , 4128.20512821 , 4134.35897436 , 4137.43589744 , 4141.53846154 , 4174.87179487 , 4712.30769231 , 4130.25641026 , 4133.84615385 , 2048.0 , 2047.0 , 8.581 , 0.0 , 0.0 , 0.0 , 0.0 , 

64.0 , 4132.30769231 , 4131.28205128 , 4120.0 , 4134.87179487 , 4130.25641026 , 4130.76923077 , 4128.20512821 , 4135.8974359 , 4135.8974359 , 4141.53846154 , 4172.30769231 , 4713.84615385 , 4128.20512821 , 4134.87179487 , 2048.0 , 2045.0 , 8.589 , 0.0 , 0.0 , 0.0 , 0.0 , 

65.0 , 4131.79487179 , 4130.76923077 , 4124.1025641 , 4132.30769231 , 4130.25641026 , 4129.23076923 , 4127.69230769 , 4133.84615385 , 4135.38461538 , 4142.56410256 , 4172.82051282 , 4713.33333333 , 4129.74358974 , 4136.41025641 , 2046.0 , 2044.0 , 8.596 , 0.0 , 0.0 , 0.0 , 0.0 , 

66.0 , 4132.30769231 , 4129.23076923 , 4126.15384615 , 4132.30769231 , 4131.28205128 , 4127.69230769 , 4127.17948718 , 4131.79487179 , 4137.43589744 , 4142.05128205 , 4173.84615385 , 4713.84615385 , 4131.28205128 , 4137.43589744 , 2046.0 , 2044.0 , 8.605 , 0.0 , 0.0 , 0.0 , 0.0 , 

67.0 , 4132.82051282 , 4129.74358974 , 4134.87179487 , 4133.33333333 , 4129.74358974 , 4127.69230769 , 4123.58974359 , 4133.84615385 , 4138.97435897 , 4142.56410256 , 4175.38461538 , 4713.33333333 , 4129.74358974 , 4136.92307692 , 2044.0 , 2043.0 , 8.613 , 0.0 , 0.0 , 0.0 , 0.0 , 

68.0 , 4133.33333333 , 4131.28205128 , 4128.20512821 , 4133.33333333 , 4128.71794872 , 4127.69230769 , 4124.1025641 , 4134.87179487 , 4137.94871795 , 4143.07692308 , 4176.41025641 , 4715.8974359 , 4130.25641026 , 4137.43589744 , 2044.0 , 2043.0 , 8.62 , 0.0 , 0.0 , 0.0 , 0.0 , 

69.0 , 4129.74358974 , 4130.76923077 , 4126.66666667 , 4133.33333333 , 4129.23076923 , 4128.20512821 , 4128.20512821 , 4134.35897436 , 4135.8974359 , 4141.02564103 , 4173.33333333 , 4716.92307692 , 4130.76923077 , 4135.38461538 , 2044.0 , 2043.0 , 8.628 , 0.0 , 0.0 , 0.0 , 0.0 , 

70.0 , 4129.74358974 , 4131.28205128 , 4128.71794872 , 4132.30769231 , 4129.74358974 , 4128.71794872 , 4129.23076923 , 4134.87179487 , 4133.84615385 , 4140.51282051 , 4174.35897436 , 4714.87179487 , 4131.28205128 , 4134.35897436 , 2044.0 , 2043.0 , 8.636 , 0.0 , 0.0 , 0.0 , 0.0 , 

71.0 , 4131.79487179 , 4131.28205128 , 4136.92307692 , 4130.76923077 , 4129.23076923 , 4128.20512821 , 4127.69230769 , 4136.41025641 , 4136.92307692 , 4142.56410256 , 4176.41025641 , 4712.30769231 , 4130.76923077 , 4133.33333333 , 2046.0 , 2044.0 , 8.644 , 0.0 , 0.0 , 0.0 , 0.0 , 

72.0 , 4134.35897436 , 4130.25641026 , 4131.79487179 , 4133.33333333 , 4129.23076923 , 4127.69230769 , 4127.69230769 , 4134.87179487 , 4138.97435897 , 4144.61538462 , 4174.35897436 , 4711.28205128 , 4128.20512821 , 4133.33333333 , 2047.0 , 2045.0 , 8.652 , 0.0 , 0.0 , 0.0 , 0.0 , 

73.0 , 4131.79487179 , 4129.74358974 , 4129.74358974 , 4135.8974359 , 4130.76923077 , 4129.23076923 , 4126.15384615 , 4131.79487179 , 4135.8974359 , 4142.56410256 , 4172.30769231 , 4710.25641026 , 4127.69230769 , 4135.38461538 , 2046.0 , 2047.0 , 8.66 , 0.0 , 0.0 , 0.0 , 0.0 , 

74.0 , 4129.74358974 , 4127.17948718 , 4158.46153846 , 4134.35897436 , 4131.28205128 , 4128.71794872 , 4126.15384615 , 4133.84615385 , 4136.92307692 , 4142.05128205 , 4173.84615385 , 4713.84615385 , 4131.28205128 , 4137.94871795 , 2045.0 , 2049.0 , 8.668 , 0.0 , 0.0 , 0.0 , 0.0 , 

75.0 , 4131.79487179 , 4125.64102564 , 4144.1025641 , 4131.28205128 , 4129.74358974 , 4128.20512821 , 4128.71794872 , 4133.84615385 , 4135.38461538 , 4140.0 , 4173.84615385 , 4715.38461538 , 4130.25641026 , 4135.38461538 , 2046.0 , 2049.0 , 8.676 , 0.0 , 0.0 , 0.0 , 0.0 , 

76.0 , 4134.35897436 , 4127.69230769 , 4123.07692308 , 4130.76923077 , 4129.23076923 , 4130.76923077 , 4128.71794872 , 4131.28205128 , 4132.30769231 , 4140.0 , 4173.33333333 , 4714.35897436 , 4130.76923077 , 4132.82051282 , 2047.0 , 2051.0 , 8.683 , 0.0 , 0.0 , 0.0 , 0.0 , 

77.0 , 4132.82051282 , 4129.74358974 , 4118.97435897 , 4132.30769231 , 4130.25641026 , 4131.79487179 , 4128.20512821 , 4131.79487179 , 4134.87179487 , 4142.05128205 , 4172.82051282 , 4713.84615385 , 4131.79487179 , 4134.35897436 , 2048.0 , 2050.0 , 8.691 , 0.0 , 0.0 , 0.0 , 0.0 , 

78.0 , 4130.76923077 , 4129.23076923 , 4147.17948718 , 4132.30769231 , 4129.23076923 , 4129.74358974 , 4127.17948718 , 4136.41025641 , 4139.48717949 , 4145.12820513 , 4171.79487179 , 4715.8974359 , 4132.30769231 , 4135.8974359 , 2048.0 , 2049.0 , 8.699 , 0.0 , 0.0 , 0.0 , 0.0 , 

79.0 , 4131.79487179 , 4129.23076923 , 4133.84615385 , 4131.28205128 , 4128.71794872 , 4130.76923077 , 4127.69230769 , 4132.82051282 , 4133.84615385 , 4140.0 , 4170.76923077 , 4714.35897436 , 4130.25641026 , 4132.30769231 , 2048.0 , 2049.0 , 8.707 , 0.0 , 0.0 , 0.0 , 0.0 , 

80.0 , 4131.28205128 , 4129.23076923 , 4132.30769231 , 4133.84615385 , 4130.76923077 , 4131.28205128 , 4128.71794872 , 4131.79487179 , 4132.30769231 , 4138.46153846 , 4172.82051282 , 4713.84615385 , 4133.33333333 , 4132.30769231 , 2049.0 , 2048.0 , 8.715 , 0.0 , 0.0 , 0.0 , 0.0 , 

81.0 , 4131.28205128 , 4130.76923077 , 4117.43589744 , 4136.92307692 , 4129.74358974 , 4128.20512821 , 4127.69230769 , 4133.33333333 , 4133.33333333 , 4141.53846154 , 4173.33333333 , 4714.35897436 , 4132.30769231 , 4137.43589744 , 2049.0 , 2047.0 , 8.723 , 0.0 , 0.0 , 0.0 , 0.0 , 

82.0 , 4130.76923077 , 4131.79487179 , 4113.84615385 , 4134.35897436 , 4127.69230769 , 4128.71794872 , 4128.20512821 , 4133.33333333 , 4132.82051282 , 4143.07692308 , 4174.35897436 , 4714.87179487 , 4127.17948718 , 4137.94871795 , 2049.0 , 2046.0 , 8.731 , 0.0 , 0.0 , 0.0 , 0.0 , 

83.0 , 4131.28205128 , 4130.25641026 , 4122.56410256 , 4132.30769231 , 4129.74358974 , 4132.82051282 , 4130.76923077 , 4133.84615385 , 4132.82051282 , 4141.02564103 , 4176.41025641 , 4714.35897436 , 4126.66666667 , 4136.41025641 , 2048.0 , 2045.0 , 8.739 , 0.0 , 0.0 , 0.0 , 0.0 , 

84.0 , 4131.28205128 , 4128.71794872 , 4123.58974359 , 4132.30769231 , 4131.28205128 , 4130.25641026 , 4129.74358974 , 4133.33333333 , 4133.84615385 , 4141.02564103 , 4174.87179487 , 4710.25641026 , 4128.71794872 , 4136.41025641 , 2047.0 , 2046.0 , 8.747 , 0.0 , 0.0 , 0.0 , 0.0 , 

85.0 , 4132.82051282 , 4130.25641026 , 4108.71794872 , 4133.33333333 , 4130.25641026 , 4127.69230769 , 4128.71794872 , 4132.82051282 , 4135.38461538 , 4144.1025641 , 4173.33333333 , 4710.76923077 , 4128.20512821 , 4138.46153846 , 2048.0 , 2047.0 , 8.754 , 0.0 , 0.0 , 0.0 , 0.0 , 

86.0 , 4132.30769231 , 4132.30769231 , 4131.79487179 , 4132.30769231 , 4127.69230769 , 4129.23076923 , 4128.71794872 , 4134.35897436 , 4138.97435897 , 4143.07692308 , 4175.38461538 , 4713.33333333 , 4129.74358974 , 4138.46153846 , 2049.0 , 2047.0 , 8.762 , 0.0 , 0.0 , 0.0 , 0.0 , 

87.0 , 4133.33333333 , 4132.30769231 , 4144.61538462 , 4131.28205128 , 4127.69230769 , 4129.74358974 , 4129.23076923 , 4133.84615385 , 4140.0 , 4141.53846154 , 4176.92307692 , 4714.87179487 , 4132.82051282 , 4138.97435897 , 2049.0 , 2048.0 , 8.77 , 0.0 , 0.0 , 0.0 , 0.0 , 

88.0 , 4133.33333333 , 4130.25641026 , 4123.07692308 , 4131.28205128 , 4130.76923077 , 4128.20512821 , 4128.71794872 , 4131.28205128 , 4135.38461538 , 4141.02564103 , 4174.35897436 , 4714.87179487 , 4130.76923077 , 4137.94871795 , 2051.0 , 2050.0 , 8.778 , 0.0 , 0.0 , 0.0 , 0.0 , 

89.0 , 4132.82051282 , 4130.25641026 , 4112.30769231 , 4132.30769231 , 4132.82051282 , 4129.74358974 , 4128.71794872 , 4134.35897436 , 4134.35897436 , 4140.51282051 , 4172.82051282 , 4714.87179487 , 4129.23076923 , 4137.43589744 , 2049.0 , 2050.0 , 8.786 , 0.0 , 0.0 , 0.0 , 0.0 , 

90.0 , 4131.28205128 , 4130.76923077 , 4130.25641026 , 4134.35897436 , 4130.76923077 , 4129.74358974 , 4128.20512821 , 4133.84615385 , 4136.92307692 , 4138.97435897 , 4175.8974359 , 4711.79487179 , 4129.74358974 , 4136.41025641 , 2049.0 , 2048.0 , 8.794 , 0.0 , 0.0 , 0.0 , 0.0 , 

91.0 , 4132.30769231 , 4130.25641026 , 4132.82051282 , 4135.38461538 , 4128.20512821 , 4129.23076923 , 4128.71794872 , 4131.28205128 , 4134.87179487 , 4142.05128205 , 4180.51282051 , 4712.82051282 , 4130.76923077 , 4138.46153846 , 2048.0 , 2046.0 , 8.803 , 0.0 , 0.0 , 0.0 , 0.0 , 

92.0 , 4130.76923077 , 4130.25641026 , 4118.97435897 , 4131.79487179 , 4128.71794872 , 4128.20512821 , 4130.25641026 , 4130.76923077 , 4130.25641026 , 4142.05128205 , 4175.38461538 , 4713.84615385 , 4128.20512821 , 4137.94871795 , 2047.0 , 2044.0 , 8.811 , 0.0 , 0.0 , 0.0 , 0.0 , 

93.0 , 4130.25641026 , 4132.30769231 , 4111.79487179 , 4131.79487179 , 4130.25641026 , 4128.20512821 , 4128.71794872 , 4131.28205128 , 4131.28205128 , 4138.97435897 , 4170.76923077 , 4710.76923077 , 4127.17948718 , 4134.35897436 , 2048.0 , 2044.0 , 8.816 , 0.0 , 0.0 , 0.0 , 0.0 , 

94.0 , 4131.28205128 , 4132.30769231 , 4114.35897436 , 4133.84615385 , 4129.23076923 , 4130.76923077 , 4127.69230769 , 4130.25641026 , 4132.82051282 , 4140.51282051 , 4174.35897436 , 4709.23076923 , 4129.74358974 , 4135.38461538 , 2047.0 , 2042.0 , 8.825 , 0.0 , 0.0 , 0.0 , 0.0 , 

95.0 , 4130.25641026 , 4130.25641026 , 4141.02564103 , 4132.82051282 , 4129.23076923 , 4131.28205128 , 4129.23076923 , 4132.30769231 , 4133.84615385 , 4145.64102564 , 4176.92307692 , 4713.33333333 , 4131.79487179 , 4138.97435897 , 2049.0 , 2044.0 , 8.833 , 0.0 , 0.0 , 0.0 , 0.0 , 

96.0 , 4130.76923077 , 4129.74358974 , 4126.15384615 , 4130.76923077 , 4131.79487179 , 4128.71794872 , 4130.76923077 , 4130.25641026 , 4132.82051282 , 4142.05128205 , 4172.30769231 , 4713.33333333 , 4130.25641026 , 4135.8974359 , 2049.0 , 2045.0 , 8.841 , 0.0 , 0.0 , 0.0 , 0.0 , 

97.0 , 4133.84615385 , 4130.76923077 , 4114.87179487 , 4131.28205128 , 4130.25641026 , 4129.74358974 , 4128.71794872 , 4130.25641026 , 4133.84615385 , 4138.46153846 , 4173.84615385 , 4711.28205128 , 4131.79487179 , 4135.38461538 , 2048.0 , 2045.0 , 8.848 , 0.0 , 0.0 , 0.0 , 0.0 , 

98.0 , 4132.30769231 , 4129.23076923 , 4115.38461538 , 4132.30769231 , 4126.15384615 , 4131.79487179 , 4127.69230769 , 4131.28205128 , 4135.38461538 , 4141.02564103 , 4176.41025641 , 4710.76923077 , 4131.28205128 , 4137.43589744 , 2049.0 , 2043.0 , 8.857 , 0.0 , 0.0 , 0.0 , 0.0 , 

99.0 , 4127.17948718 , 4128.71794872 , 4124.61538462 , 4132.82051282 , 4128.20512821 , 4127.69230769 , 4127.17948718 , 4131.28205128 , 4134.35897436 , 4144.1025641 , 4175.8974359 , 4712.30769231 , 4128.20512821 , 4136.41025641 , 2049.0 , 2043.0 , 8.865 , 0.0 , 0.0 , 0.0 , 0.0 , 

100.0 , 4129.23076923 , 4132.82051282 , 4110.25641026 , 4134.35897436 , 4131.28205128 , 4128.71794872 , 4128.20512821 , 4131.28205128 , 4130.76923077 , 4141.02564103 , 4176.41025641 , 4713.33333333 , 4129.23076923 , 4136.41025641 , 2049.0 , 2042.0 , 8.873 , 0.0 , 0.0 , 0.0 , 0.0 , 

101.0 , 4132.30769231 , 4132.30769231 , 4120.51282051 , 4133.33333333 , 4129.74358974 , 4132.30769231 , 4130.76923077 , 4131.79487179 , 4132.82051282 , 4140.0 , 4175.8974359 , 4710.76923077 , 4132.30769231 , 4135.8974359 , 2048.0 , 2042.0 , 8.88 , 0.0 , 0.0 , 0.0 , 0.0 , 

102.0 , 4131.79487179 , 4129.23076923 , 4127.17948718 , 4132.30769231 , 4129.23076923 , 4130.25641026 , 4128.71794872 , 4130.25641026 , 4136.92307692 , 4142.56410256 , 4175.38461538 , 4711.28205128 , 4129.23076923 , 4133.33333333 , 2048.0 , 2044.0 , 8.888 , 0.0 , 0.0 , 0.0 , 0.0 , 

103.0 , 4129.74358974 , 4129.74358974 , 4138.97435897 , 4132.30769231 , 4129.74358974 , 4126.66666667 , 4125.12820513 , 4132.82051282 , 4136.92307692 , 4143.58974359 , 4176.41025641 , 4711.79487179 , 4129.74358974 , 4134.87179487 , 2048.0 , 2045.0 , 8.896 , 0.0 , 0.0 , 0.0 , 0.0 , 

104.0 , 4130.25641026 , 4131.28205128 , 4125.12820513 , 4133.33333333 , 4130.25641026 , 4128.71794872 , 4128.71794872 , 4135.8974359 , 4133.33333333 , 4141.02564103 , 4175.8974359 , 4710.25641026 , 4133.84615385 , 4137.43589744 , 2045.0 , 2047.0 , 8.904 , 0.0 , 0.0 , 0.0 , 0.0 , 

105.0 , 4131.28205128 , 4129.23076923 , 4120.51282051 , 4133.33333333 , 4131.28205128 , 4129.23076923 , 4131.28205128 , 4133.33333333 , 4130.25641026 , 4140.0 , 4173.84615385 , 4708.20512821 , 4131.28205128 , 4133.84615385 , 2044.0 , 2047.0 , 8.912 , 0.0 , 0.0 , 0.0 , 0.0 , 

106.0 , 4131.79487179 , 4130.76923077 , 4133.33333333 , 4133.84615385 , 4131.28205128 , 4131.79487179 , 4129.23076923 , 4132.30769231 , 4132.82051282 , 4144.1025641 , 4173.84615385 , 4710.76923077 , 4129.74358974 , 4133.84615385 , 2044.0 , 2048.0 , 8.92 , 0.0 , 0.0 , 0.0 , 0.0 , 

107.0 , 4129.23076923 , 4131.79487179 , 4110.76923077 , 4135.38461538 , 4129.74358974 , 4130.76923077 , 4128.20512821 , 4131.28205128 , 4134.87179487 , 4142.05128205 , 4171.79487179 , 4708.20512821 , 4128.71794872 , 4136.92307692 , 2044.0 , 2048.0 , 8.928 , 0.0 , 0.0 , 0.0 , 0.0 , 

108.0 , 4130.25641026 , 4129.23076923 , 4083.58974359 , 4135.8974359 , 4130.76923077 , 4126.15384615 , 4130.25641026 , 4130.76923077 , 4133.33333333 , 4138.46153846 , 4169.74358974 , 4706.66666667 , 4127.69230769 , 4136.92307692 , 2045.0 , 2050.0 , 8.936 , 0.0 , 0.0 , 0.0 , 0.0 , 

109.0 , 4130.76923077 , 4128.20512821 , 4101.02564103 , 4133.84615385 , 4130.25641026 , 4127.69230769 , 4130.25641026 , 4133.84615385 , 4132.30769231 , 4137.43589744 , 4171.28205128 , 4708.71794872 , 4127.17948718 , 4135.38461538 , 2044.0 , 2048.0 , 8.944 , 0.0 , 0.0 , 0.0 , 0.0 , 

110.0 , 4130.25641026 , 4130.76923077 , 4128.71794872 , 4133.33333333 , 4128.71794872 , 4130.76923077 , 4129.23076923 , 4136.92307692 , 4133.84615385 , 4142.05128205 , 4173.84615385 , 4710.76923077 , 4130.25641026 , 4137.43589744 , 2045.0 , 2047.0 , 8.951 , 0.0 , 0.0 , 0.0 , 0.0 , 

111.0 , 4130.76923077 , 4129.23076923 , 4110.25641026 , 4132.82051282 , 4129.74358974 , 4129.23076923 , 4128.20512821 , 4133.33333333 , 4132.30769231 , 4141.53846154 , 4174.35897436 , 4708.20512821 , 4130.76923077 , 4138.46153846 , 2046.0 , 2041.0 , 8.959 , 0.0 , 0.0 , 0.0 , 0.0 , 

112.0 , 4131.28205128 , 4127.69230769 , 4112.82051282 , 4131.79487179 , 4130.76923077 , 4128.71794872 , 4129.23076923 , 4132.30769231 , 4133.33333333 , 4139.48717949 , 4175.8974359 , 4708.71794872 , 4130.25641026 , 4137.94871795 , 2045.0 , 2039.0 , 8.967 , 0.0 , 0.0 , 0.0 , 0.0 , 

113.0 , 4129.23076923 , 4130.25641026 , 4123.58974359 , 4130.76923077 , 4128.71794872 , 4130.76923077 , 4130.76923077 , 4133.33333333 , 4134.87179487 , 4139.48717949 , 4174.35897436 , 4710.25641026 , 4127.69230769 , 4136.41025641 , 2045.0 , 2037.0 , 8.976 , 0.0 , 0.0 , 0.0 , 0.0 , 

114.0 , 4128.20512821 , 4129.74358974 , 4129.74358974 , 4132.82051282 , 4130.25641026 , 4131.28205128 , 4130.25641026 , 4132.30769231 , 4134.87179487 , 4144.1025641 , 4173.84615385 , 4709.23076923 , 4129.23076923 , 4136.92307692 , 2045.0 , 2036.0 , 8.983 , 0.0 , 0.0 , 0.0 , 0.0 , 

115.0 , 4129.74358974 , 4126.15384615 , 4117.94871795 , 4135.38461538 , 4129.74358974 , 4129.74358974 , 4129.23076923 , 4129.23076923 , 4133.84615385 , 4142.56410256 , 4173.84615385 , 4705.64102564 , 4130.25641026 , 4135.8974359 , 2046.0 , 2036.0 , 8.992 , 0.0 , 0.0 , 0.0 , 0.0 , 

116.0 , 4130.25641026 , 4128.71794872 , 4123.58974359 , 4134.35897436 , 4127.17948718 , 4129.74358974 , 4127.69230769 , 4129.74358974 , 4134.35897436 , 4140.0 , 4174.35897436 , 4708.20512821 , 4130.25641026 , 4133.33333333 , 2047.0 , 2038.0 , 8.999 , 0.0 , 0.0 , 0.0 , 0.0 , 

117.0 , 4131.28205128 , 4132.30769231 , 4114.87179487 , 4133.33333333 , 4128.71794872 , 4134.87179487 , 4127.17948718 , 4130.25641026 , 4132.30769231 , 4140.0 , 4173.33333333 , 4709.23076923 , 4129.23076923 , 4135.38461538 , 2046.0 , 2039.0 , 9.007 , 0.0 , 0.0 , 0.0 , 0.0 , 

118.0 , 4131.28205128 , 4129.23076923 , 4109.23076923 , 4132.82051282 , 4131.79487179 , 4135.38461538 , 4127.17948718 , 4131.79487179 , 4131.79487179 , 4140.51282051 , 4172.82051282 , 4704.1025641 , 4127.69230769 , 4136.92307692 , 2046.0 , 2041.0 , 9.015 , 0.0 , 0.0 , 0.0 , 0.0 , 

119.0 , 4133.33333333 , 4126.66666667 , 4102.05128205 , 4131.28205128 , 4132.30769231 , 4128.20512821 , 4128.20512821 , 4134.35897436 , 4133.33333333 , 4141.53846154 , 4173.33333333 , 4704.1025641 , 4126.15384615 , 4135.38461538 , 2046.0 , 2042.0 , 9.023 , 0.0 , 0.0 , 0.0 , 0.0 , 

120.0 , 4132.30769231 , 4129.23076923 , 4105.12820513 , 4130.25641026 , 4131.79487179 , 4125.12820513 , 4127.17948718 , 4134.87179487 , 4134.35897436 , 4142.56410256 , 4172.82051282 , 4707.17948718 , 4128.20512821 , 4134.35897436 , 2045.0 , 2044.0 , 9.03 , 0.0 , 0.0 , 0.0 , 0.0 , 

121.0 , 4131.28205128 , 4132.30769231 , 4096.92307692 , 4131.28205128 , 4130.76923077 , 4130.76923077 , 4128.20512821 , 4131.28205128 , 4132.82051282 , 4141.53846154 , 4171.79487179 , 4703.07692308 , 4130.76923077 , 4135.38461538 , 2045.0 , 2045.0 , 9.038 , 0.0 , 0.0 , 0.0 , 0.0 , 

122.0 , 4131.79487179 , 4130.25641026 , 4124.1025641 , 4130.25641026 , 4130.25641026 , 4130.76923077 , 4130.76923077 , 4132.82051282 , 4133.84615385 , 4142.05128205 , 4173.84615385 , 4701.02564103 , 4131.28205128 , 4136.41025641 , 2045.0 , 2045.0 , 9.046 , 0.0 , 0.0 , 0.0 , 0.0 , 

123.0 , 4134.35897436 , 4127.17948718 , 4133.33333333 , 4130.76923077 , 4132.30769231 , 4129.23076923 , 4129.23076923 , 4137.43589744 , 4134.35897436 , 4144.1025641 , 4175.8974359 , 4704.1025641 , 4131.28205128 , 4138.46153846 , 2044.0 , 2043.0 , 9.054 , 0.0 , 0.0 , 0.0 , 0.0 , 

124.0 , 4131.79487179 , 4126.66666667 , 4127.17948718 , 4131.28205128 , 4131.28205128 , 4130.76923077 , 4126.66666667 , 4134.35897436 , 4133.84615385 , 4145.12820513 , 4174.87179487 , 4701.53846154 , 4129.74358974 , 4137.43589744 , 2043.0 , 2041.0 , 9.062 , 0.0 , 0.0 , 0.0 , 0.0 , 

125.0 , 4131.79487179 , 4130.25641026 , 4126.15384615 , 4131.79487179 , 4128.71794872 , 4128.71794872 , 4129.74358974 , 4131.28205128 , 4134.35897436 , 4144.61538462 , 4173.84615385 , 4700.51282051 , 4130.25641026 , 4135.8974359 , 2043.0 , 2040.0 , 9.07 , 0.0 , 0.0 , 0.0 , 0.0 , 

126.0 , 4132.82051282 , 4131.79487179 , 4131.79487179 , 4132.82051282 , 4128.71794872 , 4126.66666667 , 4129.23076923 , 4132.30769231 , 4134.87179487 , 4142.05128205 , 4174.87179487 , 4703.07692308 , 4131.79487179 , 4135.38461538 , 2042.0 , 2037.0 , 9.077 , 0.0 , 0.0 , 0.0 , 0.0 , 

127.0 , 4133.33333333 , 4128.20512821 , 4132.30769231 , 4133.84615385 , 4129.23076923 , 4130.76923077 , 4125.12820513 , 4134.35897436 , 4134.35897436 , 4140.51282051 , 4176.92307692 , 4704.1025641 , 4130.76923077 , 4135.8974359 , 2044.0 , 2035.0 , 9.085 , 0.0 , 0.0 , 0.0 , 0.0 , 

128.0 , 4131.28205128 , 4125.12820513 , 4134.35897436 , 4130.25641026 , 4128.71794872 , 4131.28205128 , 4126.15384615 , 4132.82051282 , 4134.35897436 , 4140.0 , 4177.43589744 , 4704.61538462 , 4128.71794872 , 4135.8974359 , 2043.0 , 2036.0 , 9.093 , 0.0 , 0.0 , 0.0 , 0.0 , 

0.0 , 4130.25641026 , 4129.23076923 , 4130.76923077 , 4130.76923077 , 4129.74358974 , 4124.1025641 , 4129.74358974 , 4131.79487179 , 4135.38461538 , 4140.51282051 , 4174.35897436 , 4706.15384615 , 4131.28205128 , 4136.92307692 , 2044.0 , 2035.0 , 9.101 , 0.0 , 0.0 , 0.0 , 0.0 , 

1.0 , 4130.76923077 , 4131.28205128 , 4113.33333333 , 4132.82051282 , 4130.76923077 , 4123.58974359 , 4129.23076923 , 4129.74358974 , 4134.35897436 , 4138.97435897 , 4172.30769231 , 4702.56410256 , 4131.28205128 , 4136.92307692 , 2043.0 , 2035.0 , 9.109 , 0.0 , 0.0 , 0.0 , 0.0 , 

2.0 , 4132.30769231 , 4127.69230769 , 4128.71794872 , 4131.28205128 , 4129.23076923 , 4130.76923077 , 4127.17948718 , 4132.30769231 , 4135.8974359 , 4144.1025641 , 4173.84615385 , 4702.05128205 , 4128.71794872 , 4137.43589744 , 2044.0 , 2036.0 , 9.117 , 0.0 , 0.0 , 0.0 , 0.0 , 

3.0 , 4133.84615385 , 4129.74358974 , 4124.1025641 , 4131.28205128 , 4128.71794872 , 4131.28205128 , 4127.17948718 , 4134.87179487 , 4134.87179487 , 4145.64102564 , 4172.30769231 , 4703.58974359 , 4127.69230769 , 4136.41025641 , 2043.0 , 2040.0 , 9.125 , 0.0 , 0.0 , 0.0 , 0.0 , 

4.0 , 4131.79487179 , 4131.79487179 , 4130.25641026 , 4132.82051282 , 4130.25641026 , 4128.20512821 , 4129.23076923 , 4134.35897436 , 4135.38461538 , 4142.05128205 , 4173.84615385 , 4702.56410256 , 4132.82051282 , 4136.41025641 , 2042.0 , 2039.0 , 9.133 , 0.0 , 0.0 , 0.0 , 0.0 , 

5.0 , 4129.74358974 , 4128.20512821 , 4123.07692308 , 4131.79487179 , 4131.79487179 , 4128.71794872 , 4129.74358974 , 4132.30769231 , 4135.38461538 , 4139.48717949 , 4174.87179487 , 4700.51282051 , 4131.79487179 , 4137.94871795 , 2042.0 , 2040.0 , 9.141 , 0.0 , 0.0 , 0.0 , 0.0 , 

6.0 , 4131.79487179 , 4128.20512821 , 4125.12820513 , 4131.79487179 , 4130.76923077 , 4126.15384615 , 4128.20512821 , 4135.38461538 , 4134.87179487 , 4143.07692308 , 4172.30769231 , 4699.48717949 , 4128.20512821 , 4137.43589744 , 2041.0 , 2040.0 , 9.148 , 0.0 , 0.0 , 0.0 , 0.0 , 

7.0 , 4133.33333333 , 4131.79487179 , 4116.92307692 , 4133.84615385 , 4129.23076923 , 4124.61538462 , 4128.71794872 , 4135.8974359 , 4133.84615385 , 4143.07692308 , 4173.33333333 , 4698.97435897 , 4127.69230769 , 4134.87179487 , 2043.0 , 2040.0 , 9.156 , 0.0 , 0.0 , 0.0 , 0.0 , 

8.0 , 4130.25641026 , 4127.69230769 , 4135.8974359 , 4132.82051282 , 4129.74358974 , 4127.17948718 , 4129.23076923 , 4131.79487179 , 4136.41025641 , 4144.1025641 , 4176.92307692 , 4701.02564103 , 4129.74358974 , 4135.8974359 , 2043.0 , 2039.0 , 9.164 , 0.0 , 0.0 , 0.0 , 0.0 , 

9.0 , 4131.79487179 , 4128.20512821 , 4127.17948718 , 4132.82051282 , 4128.71794872 , 4128.20512821 , 4129.23076923 , 4130.25641026 , 4136.41025641 , 4143.07692308 , 4175.38461538 , 4702.05128205 , 4130.25641026 , 4137.94871795 , 2042.0 , 2040.0 , 9.172 , 0.0 , 0.0 , 0.0 , 0.0 , 

10.0 , 4133.84615385 , 4131.28205128 , 4138.46153846 , 4133.33333333 , 4127.17948718 , 4127.69230769 , 4128.20512821 , 4135.38461538 , 4136.92307692 , 4141.53846154 , 4175.8974359 , 4700.51282051 , 4132.30769231 , 4134.87179487 , 2042.0 , 2041.0 , 9.18 , 0.0 , 0.0 , 0.0 , 0.0 , 

11.0 , 4133.33333333 , 4128.20512821 , 4148.71794872 , 4132.82051282 , 4128.71794872 , 4127.17948718 , 4127.69230769 , 4134.87179487 , 4138.46153846 , 4142.56410256 , 4177.43589744 , 4699.48717949 , 4130.76923077 , 4134.35897436 , 2043.0 , 2040.0 , 9.188 , 0.0 , 0.0 , 0.0 , 0.0 , 

12.0 , 4130.25641026 , 4127.69230769 , 4138.97435897 , 4132.82051282 , 4129.23076923 , 4128.20512821 , 4128.20512821 , 4130.76923077 , 4136.92307692 , 4143.58974359 , 4174.35897436 , 4699.48717949 , 4127.69230769 , 4138.97435897 , 2043.0 , 2041.0 , 9.196 , 0.0 , 0.0 , 0.0 , 0.0 , 

13.0 , 4129.23076923 , 4132.30769231 , 4120.0 , 4134.35897436 , 4128.20512821 , 4128.71794872 , 4127.69230769 , 4130.25641026 , 4135.8974359 , 4143.07692308 , 4172.30769231 , 4698.97435897 , 4129.23076923 , 4138.46153846 , 2044.0 , 2040.0 , 9.204 , 0.0 , 0.0 , 0.0 , 0.0 , 

14.0 , 4129.23076923 , 4130.76923077 , 4118.46153846 , 4133.84615385 , 4130.25641026 , 4127.69230769 , 4126.15384615 , 4130.25641026 , 4136.41025641 , 4143.07692308 , 4173.33333333 , 4697.94871795 , 4127.69230769 , 4132.30769231 , 2045.0 , 2041.0 , 9.212 , 0.0 , 0.0 , 0.0 , 0.0 , 

15.0 , 4133.33333333 , 4128.71794872 , 4117.94871795 , 4131.79487179 , 4131.79487179 , 4127.69230769 , 4127.69230769 , 4130.25641026 , 4134.87179487 , 4143.07692308 , 4174.87179487 , 4697.43589744 , 4126.66666667 , 4134.87179487 , 2044.0 , 2042.0 , 9.219 , 0.0 , 0.0 , 0.0 , 0.0 , 

16.0 , 4132.30769231 , 4129.74358974 , 4107.69230769 , 4129.23076923 , 4130.76923077 , 4126.15384615 , 4129.23076923 , 4130.76923077 , 4133.33333333 , 4138.97435897 , 4175.38461538 , 4696.41025641 , 4127.17948718 , 4139.48717949 , 2045.0 , 2042.0 , 9.227 , 0.0 , 0.0 , 0.0 , 0.0 , 

17.0 , 4129.23076923 , 4130.76923077 , 4128.71794872 , 4130.76923077 , 4129.23076923 , 4124.61538462 , 4128.71794872 , 4133.84615385 , 4136.41025641 , 4141.53846154 , 4175.38461538 , 4700.0 , 4130.25641026 , 4137.43589744 , 2044.0 , 2046.0 , 9.235 , 0.0 , 0.0 , 0.0 , 0.0 , 

18.0 , 4131.28205128 , 4130.76923077 , 4122.05128205 , 4133.84615385 , 4129.74358974 , 4125.12820513 , 4129.74358974 , 4131.79487179 , 4135.38461538 , 4141.02564103 , 4172.30769231 , 4697.43589744 , 4129.23076923 , 4132.82051282 , 2044.0 , 2045.0 , 9.243 , 0.0 , 0.0 , 0.0 , 0.0 , 

19.0 , 4133.84615385 , 4131.79487179 , 4102.56410256 , 4133.33333333 , 4130.25641026 , 4128.20512821 , 4129.23076923 , 4131.79487179 , 4133.33333333 , 4138.97435897 , 4175.38461538 , 4695.8974359 , 4127.69230769 , 4135.38461538 , 2043.0 , 2042.0 , 9.251 , 0.0 , 0.0 , 0.0 , 0.0 , 

20.0 , 4130.76923077 , 4130.25641026 , 4110.76923077 , 4132.82051282 , 4130.25641026 , 4130.25641026 , 4127.17948718 , 4135.38461538 , 4135.38461538 , 4140.51282051 , 4177.43589744 , 4697.94871795 , 4127.69230769 , 4136.41025641 , 2044.0 , 2040.0 , 9.259 , 0.0 , 0.0 , 0.0 , 0.0 , 

21.0 , 4130.25641026 , 4129.74358974 , 4139.48717949 , 4134.35897436 , 4129.74358974 , 4129.74358974 , 4129.23076923 , 4137.43589744 , 4137.94871795 , 4143.58974359 , 4174.87179487 , 4702.05128205 , 4130.25641026 , 4134.35897436 , 2046.0 , 2039.0 , 9.267 , 0.0 , 0.0 , 0.0 , 0.0 , 

22.0 , 4132.82051282 , 4130.76923077 , 4125.64102564 , 4134.35897436 , 4128.71794872 , 4127.69230769 , 4130.76923077 , 4132.82051282 , 4135.38461538 , 4142.56410256 , 4172.82051282 , 4698.97435897 , 4130.25641026 , 4133.84615385 , 2044.0 , 2038.0 , 9.275 , 0.0 , 0.0 , 0.0 , 0.0 , 

23.0 , 4130.76923077 , 4128.71794872 , 4115.8974359 , 4132.82051282 , 4129.23076923 , 4129.23076923 , 4128.71794872 , 4131.28205128 , 4133.84615385 , 4143.58974359 , 4174.35897436 , 4694.35897436 , 4128.71794872 , 4134.87179487 , 2042.0 , 2037.0 , 9.283 , 0.0 , 0.0 , 0.0 , 0.0 , 

24.0 , 4130.25641026 , 4126.15384615 , 4122.56410256 , 4130.76923077 , 4131.28205128 , 4130.25641026 , 4127.69230769 , 4131.79487179 , 4134.87179487 , 4143.58974359 , 4173.33333333 , 4694.87179487 , 4130.25641026 , 4135.8974359 , 2040.0 , 2037.0 , 9.291 , 0.0 , 0.0 , 0.0 , 0.0 , 

25.0 , 4131.28205128 , 4127.17948718 , 4144.1025641 , 4130.25641026 , 4131.79487179 , 4130.25641026 , 4128.20512821 , 4129.74358974 , 4136.41025641 , 4142.05128205 , 4173.33333333 , 4698.97435897 , 4132.30769231 , 4136.92307692 , 2039.0 , 2036.0 , 9.298 , 0.0 , 0.0 , 0.0 , 0.0 , 

26.0 , 4130.76923077 , 4131.79487179 , 4127.69230769 , 4132.82051282 , 4130.25641026 , 4136.41025641 , 4128.71794872 , 4127.17948718 , 4133.33333333 , 4141.02564103 , 4176.41025641 , 4700.0 , 4130.25641026 , 4136.92307692 , 2041.0 , 2037.0 , 9.306 , 0.0 , 0.0 , 0.0 , 0.0 , 

27.0 , 4129.74358974 , 4132.30769231 , 4115.8974359 , 4130.76923077 , 4130.25641026 , 4135.8974359 , 4128.71794872 , 4131.28205128 , 4132.30769231 , 4143.07692308 , 4175.8974359 , 4696.41025641 , 4129.23076923 , 4134.87179487 , 2041.0 , 2037.0 , 9.314 , 0.0 , 0.0 , 0.0 , 0.0 , 

28.0 , 4134.35897436 , 4130.25641026 , 4109.74358974 , 4127.69230769 , 4129.74358974 , 4127.69230769 , 4126.15384615 , 4137.43589744 , 4134.87179487 , 4141.02564103 , 4173.33333333 , 4694.87179487 , 4128.20512821 , 4136.92307692 , 2041.0 , 2036.0 , 9.321 , 0.0 , 0.0 , 0.0 , 0.0 , 

29.0 , 4130.25641026 , 4129.74358974 , 4145.64102564 , 4132.30769231 , 4127.17948718 , 4126.66666667 , 4124.1025641 , 4141.02564103 , 4137.43589744 , 4142.56410256 , 4174.87179487 , 4696.92307692 , 4132.30769231 , 4141.02564103 , 2041.0 , 2035.0 , 9.33 , 0.0 , 0.0 , 0.0 , 0.0 , 

30.0 , 4126.66666667 , 4130.76923077 , 4144.1025641 , 4135.8974359 , 4131.79487179 , 4129.23076923 , 4126.66666667 , 4136.41025641 , 4134.87179487 , 4144.1025641 , 4175.38461538 , 4698.97435897 , 4133.84615385 , 4138.46153846 , 2041.0 , 2036.0 , 9.339 , 0.0 , 0.0 , 0.0 , 0.0 , 

31.0 , 4130.76923077 , 4129.23076923 , 4131.28205128 , 4131.79487179 , 4134.35897436 , 4128.71794872 , 4128.20512821 , 4133.33333333 , 4134.35897436 , 4143.58974359 , 4173.84615385 , 4697.94871795 , 4130.76923077 , 4133.84615385 , 2041.0 , 2034.0 , 9.344 , 0.0 , 0.0 , 0.0 , 0.0 , 

32.0 , 4132.82051282 , 4127.69230769 , 4126.66666667 , 4132.30769231 , 4130.76923077 , 4131.28205128 , 4127.69230769 , 4132.82051282 , 4135.38461538 , 4142.56410256 , 4173.33333333 , 4698.46153846 , 4130.76923077 , 4136.41025641 , 2040.0 , 2035.0 , 9.353 , 0.0 , 0.0 , 0.0 , 0.0 , 

33.0 , 4128.20512821 , 4128.71794872 , 4133.33333333 , 4132.82051282 , 4128.71794872 , 4134.35897436 , 4127.69230769 , 4130.76923077 , 4133.84615385 , 4142.05128205 , 4172.82051282 , 4697.94871795 , 4131.79487179 , 4137.43589744 , 2040.0 , 2033.0 , 9.361 , 0.0 , 0.0 , 0.0 , 0.0 , 

34.0 , 4130.76923077 , 4132.30769231 , 4138.97435897 , 4131.28205128 , 4131.28205128 , 4131.28205128 , 4128.71794872 , 4132.82051282 , 4135.38461538 , 4143.58974359 , 4172.82051282 , 4697.43589744 , 4130.25641026 , 4136.41025641 , 2041.0 , 2035.0 , 9.368 , 0.0 , 0.0 , 0.0 , 0.0 , 

35.0 , 4132.82051282 , 4131.79487179 , 4131.28205128 , 4132.30769231 , 4131.28205128 , 4129.74358974 , 4128.20512821 , 4135.38461538 , 4135.8974359 , 4141.02564103 , 4173.84615385 , 4695.8974359 , 4128.71794872 , 4136.92307692 , 2040.0 , 2034.0 , 9.377 , 0.0 , 0.0 , 0.0 , 0.0 , 

36.0 , 4128.71794872 , 4129.23076923 , 4127.17948718 , 4134.35897436 , 4128.20512821 , 4131.28205128 , 4127.17948718 , 4135.38461538 , 4135.38461538 , 4138.46153846 , 4176.41025641 , 4695.8974359 , 4130.76923077 , 4136.92307692 , 2040.0 , 2035.0 , 9.385 , 0.0 , 0.0 , 0.0 , 0.0 , 

