['COUNTER', 'AF3', 'F7', 'F3', 'FC5', 'T7', 'P7', 'O1', 'O2', 'P8', 'T8', 'FC6', 'F4', 'F8', 'AF4', 'GYROX', 'GYROY', 'TIMESTAMP', 'FUNC_ID', 'FUNC_VALUE', 'MARKER', 'SYNC_SIGNAL']
121.0 , 4128.71794872 , 4126.66666667 , 4129.74358974 , 4129.74358974 , 4128.20512821 , 4124.61538462 , 4124.1025641 , 4128.71794872 , 4132.82051282 , 4136.41025641 , 4185.64102564 , 4908.71794872 , 4131.79487179 , 4137.43589744 , 2042.0 , 2035.0 , 59.331 , 0.0 , 0.0 , 0.0 , 0.0 , 

122.0 , 4130.76923077 , 4129.23076923 , 4130.25641026 , 4129.23076923 , 4125.64102564 , 4126.15384615 , 4125.12820513 , 4128.20512821 , 4131.79487179 , 4135.8974359 , 4189.74358974 , 4907.69230769 , 4131.79487179 , 4137.94871795 , 2041.0 , 2036.0 , 59.339 , 0.0 , 0.0 , 0.0 , 0.0 , 

123.0 , 4131.79487179 , 4131.79487179 , 4133.84615385 , 4129.23076923 , 4126.15384615 , 4128.20512821 , 4126.15384615 , 4129.23076923 , 4128.71794872 , 4135.8974359 , 4190.76923077 , 4910.76923077 , 4130.76923077 , 4133.84615385 , 2041.0 , 2034.0 , 59.347 , 0.0 , 0.0 , 0.0 , 0.0 , 

124.0 , 4128.20512821 , 4128.71794872 , 4131.79487179 , 4128.20512821 , 4129.23076923 , 4127.17948718 , 4125.12820513 , 4131.79487179 , 4130.76923077 , 4135.8974359 , 4185.12820513 , 4908.20512821 , 4130.25641026 , 4132.30769231 , 2043.0 , 2034.0 , 59.355 , 0.0 , 0.0 , 0.0 , 0.0 , 

125.0 , 4131.28205128 , 4129.23076923 , 4129.23076923 , 4126.66666667 , 4129.74358974 , 4127.17948718 , 4124.61538462 , 4130.76923077 , 4130.25641026 , 4135.8974359 , 4186.66666667 , 4906.66666667 , 4129.74358974 , 4135.8974359 , 2042.0 , 2035.0 , 59.362 , 0.0 , 0.0 , 0.0 , 0.0 , 

126.0 , 4129.74358974 , 4130.25641026 , 4127.17948718 , 4128.71794872 , 4128.71794872 , 4127.69230769 , 4124.61538462 , 4131.28205128 , 4129.74358974 , 4135.8974359 , 4189.23076923 , 4908.20512821 , 4129.74358974 , 4135.8974359 , 2042.0 , 2035.0 , 59.37 , 0.0 , 0.0 , 0.0 , 0.0 , 

127.0 , 4126.15384615 , 4129.23076923 , 4131.28205128 , 4130.76923077 , 4129.23076923 , 4125.12820513 , 4126.66666667 , 4131.79487179 , 4133.33333333 , 4135.8974359 , 4187.17948718 , 4908.71794872 , 4132.30769231 , 4133.84615385 , 2042.0 , 2036.0 , 59.378 , 0.0 , 0.0 , 0.0 , 0.0 , 

128.0 , 4129.74358974 , 4127.17948718 , 4130.76923077 , 4129.23076923 , 4131.28205128 , 4124.1025641 , 4127.69230769 , 4128.71794872 , 4134.87179487 , 4135.8974359 , 4185.12820513 , 4906.66666667 , 4130.25641026 , 4133.84615385 , 2041.0 , 2036.0 , 59.386 , 0.0 , 0.0 , 0.0 , 0.0 , 

0.0 , 4134.35897436 , 4128.20512821 , 4125.64102564 , 4128.71794872 , 4129.23076923 , 4124.61538462 , 4124.61538462 , 4125.64102564 , 4129.74358974 , 4135.8974359 , 4186.66666667 , 4908.20512821 , 4126.15384615 , 4135.38461538 , 2040.0 , 2034.0 , 59.394 , 0.0 , 0.0 , 0.0 , 0.0 , 

1.0 , 4130.76923077 , 4128.71794872 , 4128.71794872 , 4131.79487179 , 4125.12820513 , 4125.64102564 , 4122.05128205 , 4126.15384615 , 4126.66666667 , 4135.8974359 , 4186.15384615 , 4910.76923077 , 4130.25641026 , 4135.38461538 , 2041.0 , 2035.0 , 59.402 , 0.0 , 0.0 , 0.0 , 0.0 , 

2.0 , 4128.71794872 , 4126.66666667 , 4133.84615385 , 4130.76923077 , 4128.71794872 , 4127.17948718 , 4125.64102564 , 4129.74358974 , 4129.23076923 , 4135.8974359 , 4185.64102564 , 4908.20512821 , 4132.82051282 , 4135.38461538 , 2041.0 , 2035.0 , 59.41 , 0.0 , 0.0 , 0.0 , 0.0 , 

3.0 , 4130.76923077 , 4127.17948718 , 4132.82051282 , 4128.20512821 , 4131.79487179 , 4126.15384615 , 4127.17948718 , 4130.25641026 , 4130.25641026 , 4135.8974359 , 4188.20512821 , 4908.20512821 , 4130.25641026 , 4137.94871795 , 2042.0 , 2036.0 , 59.418 , 0.0 , 0.0 , 0.0 , 0.0 , 

4.0 , 4129.23076923 , 4128.20512821 , 4127.17948718 , 4129.74358974 , 4129.74358974 , 4125.64102564 , 4123.07692308 , 4129.74358974 , 4129.74358974 , 4135.8974359 , 4188.20512821 , 4908.71794872 , 4129.23076923 , 4134.87179487 , 2041.0 , 2035.0 , 59.425 , 0.0 , 0.0 , 0.0 , 0.0 , 

5.0 , 4129.74358974 , 4129.23076923 , 4129.23076923 , 4132.82051282 , 4128.20512821 , 4129.23076923 , 4123.07692308 , 4127.17948718 , 4131.28205128 , 4135.8974359 , 4187.69230769 , 4909.74358974 , 4130.76923077 , 4132.30769231 , 2041.0 , 2035.0 , 59.434 , 0.0 , 0.0 , 0.0 , 0.0 , 

6.0 , 4129.74358974 , 4125.64102564 , 4128.20512821 , 4132.82051282 , 4128.71794872 , 4129.23076923 , 4126.66666667 , 4127.69230769 , 4134.87179487 , 4135.8974359 , 4186.66666667 , 4905.64102564 , 4130.76923077 , 4133.84615385 , 2042.0 , 2035.0 , 59.441 , 0.0 , 0.0 , 0.0 , 0.0 , 

7.0 , 4131.28205128 , 4126.66666667 , 4129.74358974 , 4130.25641026 , 4127.17948718 , 4126.15384615 , 4127.17948718 , 4129.74358974 , 4132.82051282 , 4135.8974359 , 4187.17948718 , 4907.69230769 , 4130.76923077 , 4136.41025641 , 2040.0 , 2035.0 , 59.45 , 0.0 , 0.0 , 0.0 , 0.0 , 

8.0 , 4128.71794872 , 4127.17948718 , 4127.17948718 , 4129.23076923 , 4128.20512821 , 4128.71794872 , 4124.61538462 , 4130.25641026 , 4133.33333333 , 4135.8974359 , 4185.64102564 , 4908.20512821 , 4129.23076923 , 4134.35897436 , 2042.0 , 2035.0 , 59.457 , 0.0 , 0.0 , 0.0 , 0.0 , 

9.0 , 4129.23076923 , 4125.64102564 , 4129.23076923 , 4130.25641026 , 4130.76923077 , 4131.28205128 , 4125.12820513 , 4128.20512821 , 4134.87179487 , 4135.8974359 , 4189.23076923 , 4910.25641026 , 4129.74358974 , 4132.82051282 , 2042.0 , 2036.0 , 59.465 , 0.0 , 0.0 , 0.0 , 0.0 , 

10.0 , 4127.69230769 , 4124.61538462 , 4128.20512821 , 4130.25641026 , 4129.23076923 , 4130.76923077 , 4125.12820513 , 4129.74358974 , 4132.30769231 , 4135.8974359 , 4191.79487179 , 4907.69230769 , 4131.79487179 , 4133.84615385 , 2041.0 , 2034.0 , 59.473 , 0.0 , 0.0 , 0.0 , 0.0 , 

11.0 , 4127.69230769 , 4129.23076923 , 4129.74358974 , 4129.23076923 , 4125.64102564 , 4127.69230769 , 4124.1025641 , 4130.76923077 , 4129.74358974 , 4135.8974359 , 4188.20512821 , 4908.20512821 , 4130.76923077 , 4136.41025641 , 2042.0 , 2036.0 , 59.482 , 0.0 , 0.0 , 0.0 , 0.0 , 

12.0 , 4128.20512821 , 4128.71794872 , 4127.69230769 , 4128.71794872 , 4125.64102564 , 4125.64102564 , 4123.58974359 , 4130.76923077 , 4132.30769231 , 4135.8974359 , 4186.66666667 , 4905.64102564 , 4127.17948718 , 4134.35897436 , 2042.0 , 2035.0 , 59.489 , 0.0 , 0.0 , 0.0 , 0.0 , 

13.0 , 4130.76923077 , 4126.15384615 , 4129.23076923 , 4127.69230769 , 4126.66666667 , 4125.64102564 , 4124.61538462 , 4128.20512821 , 4131.79487179 , 4135.8974359 , 4191.28205128 , 4909.23076923 , 4129.74358974 , 4132.30769231 , 2041.0 , 2035.0 , 59.496 , 0.0 , 0.0 , 0.0 , 0.0 , 

14.0 , 4129.23076923 , 4125.12820513 , 4128.20512821 , 4126.15384615 , 4128.20512821 , 4129.23076923 , 4124.1025641 , 4128.71794872 , 4132.30769231 , 4135.8974359 , 4187.69230769 , 4912.30769231 , 4133.33333333 , 4133.84615385 , 2040.0 , 2035.0 , 59.504 , 0.0 , 0.0 , 0.0 , 0.0 , 

15.0 , 4130.25641026 , 4127.17948718 , 4130.25641026 , 4128.71794872 , 4128.20512821 , 4129.23076923 , 4123.07692308 , 4131.28205128 , 4134.87179487 , 4135.8974359 , 4184.1025641 , 4910.76923077 , 4133.33333333 , 4136.92307692 , 2040.0 , 2035.0 , 59.512 , 0.0 , 0.0 , 0.0 , 0.0 , 

16.0 , 4128.71794872 , 4127.17948718 , 4130.76923077 , 4130.25641026 , 4127.69230769 , 4126.15384615 , 4124.61538462 , 4131.79487179 , 4134.87179487 , 4135.8974359 , 4189.23076923 , 4907.69230769 , 4131.79487179 , 4134.35897436 , 2041.0 , 2034.0 , 59.52 , 0.0 , 0.0 , 0.0 , 0.0 , 

17.0 , 4127.69230769 , 4129.23076923 , 4129.23076923 , 4130.25641026 , 4127.17948718 , 4127.17948718 , 4126.66666667 , 4129.23076923 , 4131.79487179 , 4135.8974359 , 4189.23076923 , 4908.20512821 , 4130.25641026 , 4133.84615385 , 2041.0 , 2035.0 , 59.528 , 0.0 , 0.0 , 0.0 , 0.0 , 

18.0 , 4130.76923077 , 4128.71794872 , 4128.71794872 , 4131.28205128 , 4128.71794872 , 4129.23076923 , 4125.12820513 , 4129.74358974 , 4133.33333333 , 4135.8974359 , 4186.15384615 , 4907.17948718 , 4129.23076923 , 4134.87179487 , 2041.0 , 2034.0 , 59.536 , 0.0 , 0.0 , 0.0 , 0.0 , 

19.0 , 4132.30769231 , 4125.64102564 , 4129.74358974 , 4131.79487179 , 4128.71794872 , 4127.17948718 , 4122.05128205 , 4131.79487179 , 4131.28205128 , 4135.8974359 , 4191.28205128 , 4905.12820513 , 4130.25641026 , 4133.84615385 , 2041.0 , 2035.0 , 59.545 , 0.0 , 0.0 , 0.0 , 0.0 , 

20.0 , 4131.28205128 , 4126.66666667 , 4129.23076923 , 4130.76923077 , 4127.69230769 , 4126.66666667 , 4123.58974359 , 4128.20512821 , 4126.66666667 , 4135.8974359 , 4192.30769231 , 4908.20512821 , 4130.25641026 , 4133.33333333 , 2041.0 , 2035.0 , 59.552 , 0.0 , 0.0 , 0.0 , 0.0 , 

21.0 , 4131.28205128 , 4130.25641026 , 4127.17948718 , 4130.76923077 , 4128.20512821 , 4127.69230769 , 4125.12820513 , 4127.17948718 , 4128.20512821 , 4135.8974359 , 4187.17948718 , 4908.71794872 , 4128.20512821 , 4133.33333333 , 2041.0 , 2035.0 , 59.559 , 0.0 , 0.0 , 0.0 , 0.0 , 

22.0 , 4131.79487179 , 4130.25641026 , 4129.74358974 , 4131.28205128 , 4128.71794872 , 4126.66666667 , 4126.15384615 , 4131.79487179 , 4130.76923077 , 4135.8974359 , 4186.15384615 , 4908.71794872 , 4129.23076923 , 4137.94871795 , 2042.0 , 2036.0 , 59.567 , 0.0 , 0.0 , 0.0 , 0.0 , 

23.0 , 4127.17948718 , 4127.17948718 , 4127.69230769 , 4130.25641026 , 4127.69230769 , 4125.64102564 , 4126.15384615 , 4131.79487179 , 4131.79487179 , 4135.8974359 , 4186.15384615 , 4906.66666667 , 4129.74358974 , 4136.41025641 , 2042.0 , 2035.0 , 59.575 , 0.0 , 0.0 , 0.0 , 0.0 , 

24.0 , 4128.71794872 , 4129.74358974 , 4127.69230769 , 4129.74358974 , 4127.17948718 , 4126.66666667 , 4125.64102564 , 4127.69230769 , 4130.25641026 , 4135.8974359 , 4186.66666667 , 4907.17948718 , 4130.25641026 , 4134.35897436 , 2041.0 , 2035.0 , 59.583 , 0.0 , 0.0 , 0.0 , 0.0 , 

25.0 , 4130.76923077 , 4129.74358974 , 4127.17948718 , 4129.74358974 , 4127.69230769 , 4127.69230769 , 4124.61538462 , 4130.76923077 , 4129.74358974 , 4135.8974359 , 4190.25641026 , 4907.17948718 , 4129.23076923 , 4138.46153846 , 2043.0 , 2035.0 , 59.591 , 0.0 , 0.0 , 0.0 , 0.0 , 

26.0 , 4132.30769231 , 4127.17948718 , 4129.74358974 , 4130.25641026 , 4126.15384615 , 4128.20512821 , 4125.12820513 , 4132.30769231 , 4129.74358974 , 4135.8974359 , 4190.76923077 , 4911.79487179 , 4131.28205128 , 4142.05128205 , 2041.0 , 2035.0 , 59.599 , 0.0 , 0.0 , 0.0 , 0.0 , 

27.0 , 4130.76923077 , 4125.64102564 , 4129.23076923 , 4128.71794872 , 4127.17948718 , 4127.17948718 , 4124.1025641 , 4130.76923077 , 4129.23076923 , 4135.8974359 , 4184.61538462 , 4910.25641026 , 4133.33333333 , 4136.41025641 , 2041.0 , 2033.0 , 59.608 , 0.0 , 0.0 , 0.0 , 0.0 , 

28.0 , 4130.25641026 , 4128.71794872 , 4132.30769231 , 4128.71794872 , 4127.17948718 , 4125.12820513 , 4123.07692308 , 4129.74358974 , 4127.69230769 , 4135.8974359 , 4185.64102564 , 4909.74358974 , 4132.30769231 , 4135.8974359 , 2041.0 , 2036.0 , 59.615 , 0.0 , 0.0 , 0.0 , 0.0 , 

29.0 , 4128.20512821 , 4127.17948718 , 4128.71794872 , 4130.76923077 , 4126.66666667 , 4125.64102564 , 4123.07692308 , 4130.76923077 , 4129.74358974 , 4135.8974359 , 4187.17948718 , 4907.69230769 , 4127.69230769 , 4137.43589744 , 2042.0 , 2036.0 , 59.624 , 0.0 , 0.0 , 0.0 , 0.0 , 

30.0 , 4129.74358974 , 4126.66666667 , 4129.74358974 , 4129.23076923 , 4127.69230769 , 4128.20512821 , 4123.58974359 , 4128.71794872 , 4132.30769231 , 4135.8974359 , 4187.69230769 , 4908.71794872 , 4130.25641026 , 4135.8974359 , 2042.0 , 2035.0 , 59.63 , 0.0 , 0.0 , 0.0 , 0.0 , 

31.0 , 4130.76923077 , 4126.66666667 , 4128.71794872 , 4127.17948718 , 4129.74358974 , 4126.15384615 , 4123.07692308 , 4129.74358974 , 4130.76923077 , 4136.41025641 , 4190.25641026 , 4906.15384615 , 4133.84615385 , 4133.84615385 , 2042.0 , 2035.0 , 59.639 , 0.0 , 0.0 , 0.0 , 0.0 , 

32.0 , 4130.25641026 , 4129.23076923 , 4129.74358974 , 4129.23076923 , 4127.69230769 , 4128.71794872 , 4122.56410256 , 4129.74358974 , 4129.23076923 , 4136.92307692 , 4191.79487179 , 4908.71794872 , 4131.28205128 , 4135.38461538 , 2042.0 , 2035.0 , 59.646 , 0.0 , 0.0 , 0.0 , 0.0 , 

33.0 , 4128.20512821 , 4130.76923077 , 4127.17948718 , 4130.25641026 , 4127.69230769 , 4135.8974359 , 4123.58974359 , 4127.69230769 , 4131.28205128 , 4137.43589744 , 4187.69230769 , 4909.23076923 , 4129.23076923 , 4135.38461538 , 2042.0 , 2033.0 , 59.654 , 0.0 , 0.0 , 0.0 , 0.0 , 

34.0 , 4128.20512821 , 4131.28205128 , 4127.69230769 , 4130.25641026 , 4127.69230769 , 4131.28205128 , 4125.12820513 , 4128.20512821 , 4129.23076923 , 4138.46153846 , 4187.69230769 , 4907.69230769 , 4131.28205128 , 4134.87179487 , 2043.0 , 2034.0 , 59.662 , 0.0 , 0.0 , 0.0 , 0.0 , 

35.0 , 4127.69230769 , 4127.69230769 , 4128.20512821 , 4131.28205128 , 4126.66666667 , 4123.07692308 , 4124.1025641 , 4132.82051282 , 4127.69230769 , 4137.43589744 , 4188.71794872 , 4908.20512821 , 4131.79487179 , 4133.84615385 , 2042.0 , 2034.0 , 59.67 , 0.0 , 0.0 , 0.0 , 0.0 , 

36.0 , 4129.74358974 , 4127.69230769 , 4128.20512821 , 4131.28205128 , 4127.17948718 , 4125.64102564 , 4120.51282051 , 4133.84615385 , 4127.17948718 , 4135.38461538 , 4187.17948718 , 4909.74358974 , 4131.28205128 , 4135.8974359 , 2041.0 , 2033.0 , 59.679 , 0.0 , 0.0 , 0.0 , 0.0 , 

37.0 , 4131.79487179 , 4130.25641026 , 4128.71794872 , 4130.25641026 , 4128.20512821 , 4130.76923077 , 4121.02564103 , 4130.76923077 , 4127.69230769 , 4135.8974359 , 4185.64102564 , 4910.25641026 , 4131.79487179 , 4137.43589744 , 2041.0 , 2034.0 , 59.686 , 0.0 , 0.0 , 0.0 , 0.0 , 

38.0 , 4129.74358974 , 4128.71794872 , 4128.71794872 , 4127.69230769 , 4128.20512821 , 4125.64102564 , 4125.12820513 , 4129.74358974 , 4130.76923077 , 4137.43589744 , 4186.15384615 , 4908.20512821 , 4130.25641026 , 4135.38461538 , 2041.0 , 2034.0 , 59.693 , 0.0 , 0.0 , 0.0 , 0.0 , 

39.0 , 4129.23076923 , 4126.66666667 , 4129.23076923 , 4128.20512821 , 4127.17948718 , 4123.58974359 , 4128.20512821 , 4129.23076923 , 4131.28205128 , 4136.41025641 , 4190.25641026 , 4907.69230769 , 4130.25641026 , 4133.84615385 , 2042.0 , 2034.0 , 59.702 , 0.0 , 0.0 , 0.0 , 0.0 , 

40.0 , 4129.23076923 , 4127.69230769 , 4127.17948718 , 4129.74358974 , 4128.71794872 , 4125.12820513 , 4124.61538462 , 4130.25641026 , 4129.74358974 , 4135.38461538 , 4191.79487179 , 4909.23076923 , 4130.76923077 , 4133.33333333 , 2042.0 , 2035.0 , 59.709 , 0.0 , 0.0 , 0.0 , 0.0 , 

41.0 , 4129.23076923 , 4129.74358974 , 4129.23076923 , 4130.25641026 , 4131.79487179 , 4125.12820513 , 4122.05128205 , 4132.30769231 , 4129.74358974 , 4136.41025641 , 4188.20512821 , 4913.33333333 , 4131.79487179 , 4135.8974359 , 2043.0 , 2035.0 , 59.717 , 0.0 , 0.0 , 0.0 , 0.0 , 

42.0 , 4128.20512821 , 4128.71794872 , 4127.69230769 , 4129.23076923 , 4130.76923077 , 4125.12820513 , 4127.69230769 , 4131.79487179 , 4131.79487179 , 4136.41025641 , 4185.64102564 , 4908.71794872 , 4130.76923077 , 4136.41025641 , 2043.0 , 2034.0 , 59.732 , 0.0 , 0.0 , 0.0 , 0.0 , 

43.0 , 4130.25641026 , 4128.71794872 , 4128.71794872 , 4129.23076923 , 4125.12820513 , 4124.61538462 , 4130.76923077 , 4128.20512821 , 4130.76923077 , 4135.8974359 , 4189.23076923 , 4906.66666667 , 4129.23076923 , 4134.87179487 , 2041.0 , 2034.0 , 59.733 , 0.0 , 0.0 , 0.0 , 0.0 , 

44.0 , 4129.74358974 , 4126.15384615 , 4128.71794872 , 4128.71794872 , 4125.64102564 , 4126.15384615 , 4126.15384615 , 4129.74358974 , 4130.76923077 , 4135.8974359 , 4188.20512821 , 4906.66666667 , 4128.20512821 , 4134.87179487 , 2042.0 , 2035.0 , 59.741 , 0.0 , 0.0 , 0.0 , 0.0 , 

45.0 , 4130.76923077 , 4128.20512821 , 4132.30769231 , 4128.71794872 , 4128.71794872 , 4127.17948718 , 4122.56410256 , 4129.23076923 , 4127.69230769 , 4135.8974359 , 4188.20512821 , 4908.20512821 , 4129.23076923 , 4136.92307692 , 2043.0 , 2035.0 , 59.749 , 0.0 , 0.0 , 0.0 , 0.0 , 

46.0 , 4128.71794872 , 4131.79487179 , 4128.20512821 , 4128.20512821 , 4128.20512821 , 4125.64102564 , 4126.15384615 , 4128.71794872 , 4126.66666667 , 4135.8974359 , 4189.23076923 , 4905.12820513 , 4129.74358974 , 4133.84615385 , 2042.0 , 2036.0 , 59.756 , 0.0 , 0.0 , 0.0 , 0.0 , 

47.0 , 4131.28205128 , 4130.76923077 , 4129.23076923 , 4129.23076923 , 4126.66666667 , 4124.1025641 , 4127.69230769 , 4131.28205128 , 4130.76923077 , 4135.8974359 , 4187.69230769 , 4909.23076923 , 4130.25641026 , 4134.35897436 , 2041.0 , 2035.0 , 59.765 , 0.0 , 0.0 , 0.0 , 0.0 , 

48.0 , 4131.79487179 , 4126.66666667 , 4130.25641026 , 4131.28205128 , 4129.23076923 , 4125.12820513 , 4124.1025641 , 4132.82051282 , 4133.33333333 , 4135.8974359 , 4186.15384615 , 4907.17948718 , 4131.79487179 , 4136.92307692 , 2040.0 , 2035.0 , 59.772 , 0.0 , 0.0 , 0.0 , 0.0 , 

49.0 , 4129.23076923 , 4129.23076923 , 4131.28205128 , 4132.30769231 , 4129.74358974 , 4124.61538462 , 4122.56410256 , 4128.20512821 , 4130.76923077 , 4135.8974359 , 4187.69230769 , 4907.17948718 , 4132.82051282 , 4135.38461538 , 2042.0 , 2035.0 , 59.78 , 0.0 , 0.0 , 0.0 , 0.0 , 

50.0 , 4126.66666667 , 4128.71794872 , 4128.20512821 , 4128.71794872 , 4128.20512821 , 4125.12820513 , 4123.58974359 , 4129.23076923 , 4131.79487179 , 4135.8974359 , 4185.64102564 , 4908.71794872 , 4130.76923077 , 4131.28205128 , 2042.0 , 2036.0 , 59.788 , 0.0 , 0.0 , 0.0 , 0.0 , 

51.0 , 4130.76923077 , 4127.17948718 , 4128.71794872 , 4127.17948718 , 4126.66666667 , 4128.71794872 , 4125.12820513 , 4132.82051282 , 4132.82051282 , 4135.8974359 , 4184.61538462 , 4910.76923077 , 4130.25641026 , 4133.84615385 , 2041.0 , 2037.0 , 59.796 , 0.0 , 0.0 , 0.0 , 0.0 , 

52.0 , 4130.76923077 , 4128.20512821 , 4129.74358974 , 4130.25641026 , 4126.66666667 , 4128.71794872 , 4123.58974359 , 4131.79487179 , 4132.30769231 , 4135.8974359 , 4186.66666667 , 4907.17948718 , 4129.74358974 , 4135.38461538 , 2042.0 , 2036.0 , 59.804 , 0.0 , 0.0 , 0.0 , 0.0 , 

53.0 , 4129.23076923 , 4130.25641026 , 4132.82051282 , 4131.28205128 , 4127.17948718 , 4124.61538462 , 4121.53846154 , 4130.25641026 , 4132.30769231 , 4135.8974359 , 4186.66666667 , 4905.64102564 , 4129.74358974 , 4132.82051282 , 2042.0 , 2034.0 , 59.812 , 0.0 , 0.0 , 0.0 , 0.0 , 

54.0 , 4128.20512821 , 4127.69230769 , 4131.79487179 , 4128.20512821 , 4127.69230769 , 4125.12820513 , 4123.58974359 , 4130.76923077 , 4132.82051282 , 4135.8974359 , 4185.12820513 , 4906.66666667 , 4130.25641026 , 4133.33333333 , 2043.0 , 2035.0 , 59.82 , 0.0 , 0.0 , 0.0 , 0.0 , 

55.0 , 4129.23076923 , 4126.15384615 , 4126.66666667 , 4127.69230769 , 4128.20512821 , 4128.71794872 , 4126.15384615 , 4130.76923077 , 4130.76923077 , 4135.8974359 , 4188.71794872 , 4908.20512821 , 4130.25641026 , 4136.41025641 , 2041.0 , 2035.0 , 59.827 , 0.0 , 0.0 , 0.0 , 0.0 , 

56.0 , 4130.76923077 , 4127.17948718 , 4129.23076923 , 4130.25641026 , 4127.69230769 , 4128.71794872 , 4124.61538462 , 4131.79487179 , 4129.23076923 , 4135.8974359 , 4194.35897436 , 4908.71794872 , 4129.74358974 , 4139.48717949 , 2041.0 , 2035.0 , 59.835 , 0.0 , 0.0 , 0.0 , 0.0 , 

57.0 , 4129.23076923 , 4127.17948718 , 4132.30769231 , 4130.76923077 , 4127.17948718 , 4128.20512821 , 4124.61538462 , 4132.82051282 , 4132.82051282 , 4135.8974359 , 4192.30769231 , 4907.17948718 , 4130.76923077 , 4137.43589744 , 2042.0 , 2035.0 , 59.843 , 0.0 , 0.0 , 0.0 , 0.0 , 

58.0 , 4129.23076923 , 4128.20512821 , 4129.74358974 , 4130.25641026 , 4128.71794872 , 4129.74358974 , 4125.12820513 , 4131.28205128 , 4132.30769231 , 4135.8974359 , 4189.23076923 , 4909.74358974 , 4131.28205128 , 4132.82051282 , 2043.0 , 2036.0 , 59.852 , 0.0 , 0.0 , 0.0 , 0.0 , 

59.0 , 4130.25641026 , 4128.20512821 , 4127.17948718 , 4128.20512821 , 4128.71794872 , 4128.71794872 , 4122.56410256 , 4131.28205128 , 4129.23076923 , 4135.8974359 , 4189.23076923 , 4908.71794872 , 4129.23076923 , 4133.33333333 , 2041.0 , 2035.0 , 59.86 , 0.0 , 0.0 , 0.0 , 0.0 , 

60.0 , 4130.76923077 , 4128.71794872 , 4133.84615385 , 4127.17948718 , 4126.66666667 , 4125.12820513 , 4122.05128205 , 4128.71794872 , 4129.74358974 , 4135.8974359 , 4188.71794872 , 4908.71794872 , 4130.25641026 , 4138.97435897 , 2041.0 , 2035.0 , 59.867 , 0.0 , 0.0 , 0.0 , 0.0 , 

61.0 , 4128.71794872 , 4128.71794872 , 4130.76923077 , 4129.23076923 , 4126.15384615 , 4122.05128205 , 4122.05128205 , 4130.25641026 , 4131.28205128 , 4135.8974359 , 4185.12820513 , 4907.17948718 , 4131.28205128 , 4137.43589744 , 2042.0 , 2036.0 , 59.875 , 0.0 , 0.0 , 0.0 , 0.0 , 

62.0 , 4131.79487179 , 4128.71794872 , 4127.17948718 , 4129.74358974 , 4126.15384615 , 4124.1025641 , 4121.02564103 , 4131.79487179 , 4129.23076923 , 4135.8974359 , 4186.15384615 , 4909.23076923 , 4129.74358974 , 4134.35897436 , 2041.0 , 2034.0 , 59.882 , 0.0 , 0.0 , 0.0 , 0.0 , 

63.0 , 4131.79487179 , 4126.15384615 , 4127.69230769 , 4127.69230769 , 4129.23076923 , 4124.61538462 , 4123.58974359 , 4130.25641026 , 4131.28205128 , 4135.8974359 , 4187.17948718 , 4906.15384615 , 4129.74358974 , 4134.87179487 , 2042.0 , 2036.0 , 59.89 , 0.0 , 0.0 , 0.0 , 0.0 , 

64.0 , 4130.76923077 , 4127.17948718 , 4133.33333333 , 4131.28205128 , 4130.25641026 , 4121.53846154 , 4126.66666667 , 4126.66666667 , 4133.33333333 , 4135.8974359 , 4185.12820513 , 4908.20512821 , 4131.28205128 , 4136.41025641 , 2042.0 , 2035.0 , 59.898 , 0.0 , 0.0 , 0.0 , 0.0 , 

65.0 , 4129.23076923 , 4128.71794872 , 4129.23076923 , 4132.82051282 , 4128.71794872 , 4123.07692308 , 4121.53846154 , 4129.74358974 , 4130.25641026 , 4135.8974359 , 4184.1025641 , 4907.17948718 , 4129.74358974 , 4135.38461538 , 2042.0 , 2036.0 , 59.906 , 0.0 , 0.0 , 0.0 , 0.0 , 

66.0 , 4129.23076923 , 4129.74358974 , 4129.74358974 , 4130.76923077 , 4126.66666667 , 4128.71794872 , 4121.53846154 , 4130.76923077 , 4127.69230769 , 4135.8974359 , 4187.69230769 , 4908.20512821 , 4129.74358974 , 4135.38461538 , 2041.0 , 2035.0 , 59.914 , 0.0 , 0.0 , 0.0 , 0.0 , 

67.0 , 4127.69230769 , 4127.69230769 , 4128.71794872 , 4131.79487179 , 4127.17948718 , 4127.17948718 , 4126.66666667 , 4130.76923077 , 4130.76923077 , 4135.8974359 , 4187.17948718 , 4906.66666667 , 4131.28205128 , 4134.87179487 , 2042.0 , 2036.0 , 59.922 , 0.0 , 0.0 , 0.0 , 0.0 , 

68.0 , 4131.28205128 , 4126.66666667 , 4131.28205128 , 4132.82051282 , 4127.69230769 , 4123.58974359 , 4124.61538462 , 4130.25641026 , 4131.79487179 , 4135.8974359 , 4187.17948718 , 4908.20512821 , 4131.79487179 , 4134.35897436 , 2042.0 , 2035.0 , 59.93 , 0.0 , 0.0 , 0.0 , 0.0 , 

69.0 , 4131.79487179 , 4127.17948718 , 4129.23076923 , 4128.71794872 , 4128.20512821 , 4127.17948718 , 4123.07692308 , 4132.30769231 , 4130.76923077 , 4135.8974359 , 4187.17948718 , 4909.23076923 , 4128.71794872 , 4133.84615385 , 2042.0 , 2036.0 , 59.938 , 0.0 , 0.0 , 0.0 , 0.0 , 

70.0 , 4129.23076923 , 4129.74358974 , 4128.71794872 , 4128.20512821 , 4129.74358974 , 4125.64102564 , 4126.66666667 , 4131.79487179 , 4130.25641026 , 4135.8974359 , 4188.20512821 , 4910.76923077 , 4128.20512821 , 4136.41025641 , 2042.0 , 2036.0 , 59.947 , 0.0 , 0.0 , 0.0 , 0.0 , 

71.0 , 4129.23076923 , 4127.69230769 , 4129.74358974 , 4132.30769231 , 4129.74358974 , 4123.58974359 , 4124.61538462 , 4128.20512821 , 4130.25641026 , 4135.8974359 , 4186.66666667 , 4907.17948718 , 4128.71794872 , 4138.97435897 , 2044.0 , 2035.0 , 59.954 , 0.0 , 0.0 , 0.0 , 0.0 , 

72.0 , 4132.30769231 , 4127.17948718 , 4130.25641026 , 4131.28205128 , 4127.69230769 , 4129.74358974 , 4121.02564103 , 4126.66666667 , 4126.66666667 , 4135.8974359 , 4186.15384615 , 4906.66666667 , 4129.74358974 , 4136.92307692 , 2042.0 , 2035.0 , 59.961 , 0.0 , 0.0 , 0.0 , 0.0 , 

73.0 , 4130.25641026 , 4129.74358974 , 4128.71794872 , 4127.17948718 , 4128.20512821 , 4131.28205128 , 4123.58974359 , 4129.74358974 , 4125.12820513 , 4135.8974359 , 4187.69230769 , 4908.71794872 , 4131.28205128 , 4134.87179487 , 2041.0 , 2034.0 , 59.969 , 0.0 , 0.0 , 0.0 , 0.0 , 

74.0 , 4128.20512821 , 4128.71794872 , 4128.20512821 , 4128.71794872 , 4130.25641026 , 4123.07692308 , 4124.61538462 , 4130.76923077 , 4127.17948718 , 4135.8974359 , 4186.66666667 , 4908.20512821 , 4132.82051282 , 4136.41025641 , 2041.0 , 2034.0 , 59.977 , 0.0 , 0.0 , 0.0 , 0.0 , 

75.0 , 4128.20512821 , 4125.64102564 , 4129.74358974 , 4130.76923077 , 4128.71794872 , 4123.58974359 , 4124.1025641 , 4130.76923077 , 4127.69230769 , 4135.8974359 , 4186.66666667 , 4908.20512821 , 4132.82051282 , 4136.92307692 , 2042.0 , 2039.0 , 59.986 , 0.0 , 0.0 , 0.0 , 0.0 , 

76.0 , 4126.66666667 , 4127.17948718 , 4129.23076923 , 4130.25641026 , 4127.69230769 , 4127.17948718 , 4126.15384615 , 4131.79487179 , 4130.76923077 , 4135.8974359 , 4188.71794872 , 4906.15384615 , 4130.76923077 , 4134.35897436 , 2043.0 , 2037.0 , 59.993 , 0.0 , 0.0 , 0.0 , 0.0 , 

77.0 , 4128.71794872 , 4130.25641026 , 4131.79487179 , 4130.76923077 , 4129.23076923 , 4125.64102564 , 4124.1025641 , 4130.25641026 , 4133.33333333 , 4135.8974359 , 4190.25641026 , 4906.66666667 , 4128.71794872 , 4133.84615385 , 2042.0 , 2034.0 , 60.001 , 0.0 , 0.0 , 0.0 , 0.0 , 

78.0 , 4128.71794872 , 4128.20512821 , 4131.28205128 , 4131.28205128 , 4129.23076923 , 4127.17948718 , 4123.07692308 , 4130.76923077 , 4132.82051282 , 4135.8974359 , 4186.15384615 , 4907.17948718 , 4129.74358974 , 4134.87179487 , 2041.0 , 2035.0 , 60.009 , 0.0 , 0.0 , 0.0 , 0.0 , 

79.0 , 4128.20512821 , 4129.23076923 , 4131.79487179 , 4130.76923077 , 4126.66666667 , 4129.23076923 , 4126.15384615 , 4132.82051282 , 4130.25641026 , 4135.8974359 , 4185.12820513 , 4910.25641026 , 4132.30769231 , 4136.92307692 , 2041.0 , 2035.0 , 60.016 , 0.0 , 0.0 , 0.0 , 0.0 , 

80.0 , 4129.74358974 , 4129.23076923 , 4129.23076923 , 4128.20512821 , 4126.66666667 , 4127.17948718 , 4126.66666667 , 4130.76923077 , 4132.82051282 , 4135.8974359 , 4185.64102564 , 4907.17948718 , 4129.74358974 , 4133.84615385 , 2041.0 , 2035.0 , 60.024 , 0.0 , 0.0 , 0.0 , 0.0 , 

81.0 , 4132.82051282 , 4130.25641026 , 4131.79487179 , 4127.69230769 , 4127.17948718 , 4125.64102564 , 4125.64102564 , 4126.15384615 , 4133.84615385 , 4135.8974359 , 4186.66666667 , 4909.74358974 , 4127.69230769 , 4132.30769231 , 2042.0 , 2034.0 , 60.032 , 0.0 , 0.0 , 0.0 , 0.0 , 

82.0 , 4130.25641026 , 4130.76923077 , 4130.76923077 , 4128.20512821 , 4128.20512821 , 4127.17948718 , 4126.15384615 , 4128.71794872 , 4130.76923077 , 4135.8974359 , 4185.12820513 , 4909.23076923 , 4129.74358974 , 4133.84615385 , 2042.0 , 2035.0 , 60.04 , 0.0 , 0.0 , 0.0 , 0.0 , 

83.0 , 4131.79487179 , 4130.76923077 , 4133.33333333 , 4127.69230769 , 4127.69230769 , 4128.20512821 , 4125.64102564 , 4130.76923077 , 4127.69230769 , 4135.8974359 , 4187.17948718 , 4907.17948718 , 4133.33333333 , 4136.92307692 , 2044.0 , 2036.0 , 60.048 , 0.0 , 0.0 , 0.0 , 0.0 , 

84.0 , 4131.79487179 , 4126.15384615 , 4131.28205128 , 4127.17948718 , 4127.69230769 , 4127.17948718 , 4123.07692308 , 4130.25641026 , 4131.79487179 , 4135.8974359 , 4188.20512821 , 4904.61538462 , 4133.33333333 , 4134.87179487 , 2042.0 , 2035.0 , 60.055 , 0.0 , 0.0 , 0.0 , 0.0 , 

85.0 , 4129.74358974 , 4127.17948718 , 4133.84615385 , 4128.71794872 , 4128.20512821 , 4124.1025641 , 4123.58974359 , 4128.71794872 , 4134.35897436 , 4135.8974359 , 4187.69230769 , 4909.74358974 , 4132.30769231 , 4132.30769231 , 2042.0 , 2036.0 , 60.063 , 0.0 , 0.0 , 0.0 , 0.0 , 

86.0 , 4128.20512821 , 4131.79487179 , 4129.74358974 , 4129.74358974 , 4128.20512821 , 4125.12820513 , 4126.15384615 , 4131.79487179 , 4130.25641026 , 4135.8974359 , 4189.23076923 , 4908.71794872 , 4131.79487179 , 4132.30769231 , 2041.0 , 2035.0 , 60.072 , 0.0 , 0.0 , 0.0 , 0.0 , 

87.0 , 4129.74358974 , 4130.76923077 , 4128.20512821 , 4129.74358974 , 4127.69230769 , 4128.71794872 , 4126.15384615 , 4132.82051282 , 4128.71794872 , 4135.8974359 , 4189.74358974 , 4907.17948718 , 4131.79487179 , 4135.8974359 , 2042.0 , 2035.0 , 60.08 , 0.0 , 0.0 , 0.0 , 0.0 , 

88.0 , 4130.76923077 , 4126.15384615 , 4130.25641026 , 4128.71794872 , 4126.66666667 , 4125.64102564 , 4124.61538462 , 4131.28205128 , 4130.76923077 , 4135.8974359 , 4185.64102564 , 4908.71794872 , 4132.30769231 , 4135.8974359 , 2041.0 , 2036.0 , 60.087 , 0.0 , 0.0 , 0.0 , 0.0 , 

89.0 , 4128.71794872 , 4130.25641026 , 4131.28205128 , 4128.20512821 , 4127.17948718 , 4123.07692308 , 4126.15384615 , 4129.23076923 , 4128.20512821 , 4135.8974359 , 4184.61538462 , 4909.74358974 , 4132.30769231 , 4135.38461538 , 2042.0 , 2036.0 , 60.095 , 0.0 , 0.0 , 0.0 , 0.0 , 

90.0 , 4126.66666667 , 4132.30769231 , 4127.69230769 , 4129.23076923 , 4130.76923077 , 4124.61538462 , 4126.15384615 , 4132.30769231 , 4127.17948718 , 4135.8974359 , 4187.69230769 , 4906.66666667 , 4131.28205128 , 4135.38461538 , 2041.0 , 2035.0 , 60.105 , 0.0 , 0.0 , 0.0 , 0.0 , 

91.0 , 4129.23076923 , 4128.20512821 , 4128.71794872 , 4131.28205128 , 4129.74358974 , 4125.12820513 , 4122.05128205 , 4132.30769231 , 4132.30769231 , 4135.8974359 , 4188.71794872 , 4907.17948718 , 4131.28205128 , 4134.87179487 , 2040.0 , 2036.0 , 60.111 , 0.0 , 0.0 , 0.0 , 0.0 , 

92.0 , 4129.74358974 , 4126.66666667 , 4128.71794872 , 4130.76923077 , 4126.66666667 , 4125.12820513 , 4124.61538462 , 4128.71794872 , 4135.38461538 , 4135.8974359 , 4186.15384615 , 4909.23076923 , 4131.28205128 , 4133.84615385 , 2042.0 , 2036.0 , 60.12 , 0.0 , 0.0 , 0.0 , 0.0 , 

93.0 , 4127.17948718 , 4129.23076923 , 4127.17948718 , 4128.20512821 , 4128.71794872 , 4127.69230769 , 4129.23076923 , 4129.74358974 , 4132.82051282 , 4135.8974359 , 4187.17948718 , 4907.69230769 , 4129.74358974 , 4132.82051282 , 2041.0 , 2034.0 , 60.128 , 0.0 , 0.0 , 0.0 , 0.0 , 

94.0 , 4129.23076923 , 4130.25641026 , 4130.76923077 , 4128.20512821 , 4130.25641026 , 4129.23076923 , 4125.12820513 , 4131.28205128 , 4130.25641026 , 4136.41025641 , 4187.17948718 , 4907.17948718 , 4130.76923077 , 4133.33333333 , 2041.0 , 2034.0 , 60.139 , 0.0 , 0.0 , 0.0 , 0.0 , 

95.0 , 4130.76923077 , 4129.74358974 , 4129.74358974 , 4129.23076923 , 4127.69230769 , 4126.66666667 , 4122.56410256 , 4130.25641026 , 4130.25641026 , 4135.8974359 , 4184.61538462 , 4907.17948718 , 4133.84615385 , 4135.8974359 , 2042.0 , 2037.0 , 60.142 , 0.0 , 0.0 , 0.0 , 0.0 , 

96.0 , 4130.76923077 , 4129.23076923 , 4129.74358974 , 4127.69230769 , 4127.17948718 , 4125.64102564 , 4125.64102564 , 4130.25641026 , 4130.25641026 , 4135.8974359 , 4186.15384615 , 4909.74358974 , 4132.82051282 , 4136.92307692 , 2042.0 , 2035.0 , 60.151 , 0.0 , 0.0 , 0.0 , 0.0 , 

97.0 , 4129.23076923 , 4126.15384615 , 4130.25641026 , 4125.12820513 , 4129.74358974 , 4126.15384615 , 4123.07692308 , 4132.30769231 , 4131.79487179 , 4136.41025641 , 4187.69230769 , 4907.17948718 , 4129.74358974 , 4133.33333333 , 2042.0 , 2035.0 , 60.159 , 0.0 , 0.0 , 0.0 , 0.0 , 

98.0 , 4129.23076923 , 4128.71794872 , 4130.76923077 , 4126.15384615 , 4129.74358974 , 4125.12820513 , 4120.0 , 4130.76923077 , 4131.28205128 , 4135.8974359 , 4187.69230769 , 4908.20512821 , 4129.74358974 , 4133.33333333 , 2041.0 , 2036.0 , 60.167 , 0.0 , 0.0 , 0.0 , 0.0 , 

99.0 , 4129.74358974 , 4129.74358974 , 4127.17948718 , 4126.66666667 , 4127.69230769 , 4125.12820513 , 4124.1025641 , 4130.76923077 , 4129.74358974 , 4134.87179487 , 4185.64102564 , 4906.66666667 , 4128.71794872 , 4135.38461538 , 2041.0 , 2036.0 , 60.175 , 0.0 , 0.0 , 0.0 , 0.0 , 

100.0 , 4132.30769231 , 4128.71794872 , 4131.79487179 , 4127.17948718 , 4126.15384615 , 4129.74358974 , 4124.61538462 , 4130.25641026 , 4128.20512821 , 4135.8974359 , 4186.66666667 , 4908.71794872 , 4129.23076923 , 4138.46153846 , 2041.0 , 2036.0 , 60.182 , 0.0 , 0.0 , 0.0 , 0.0 , 

101.0 , 4127.69230769 , 4125.64102564 , 4129.74358974 , 4130.76923077 , 4129.23076923 , 4129.74358974 , 4123.58974359 , 4131.28205128 , 4127.17948718 , 4135.8974359 , 4185.12820513 , 4909.23076923 , 4131.28205128 , 4137.94871795 , 2042.0 , 2036.0 , 60.191 , 0.0 , 0.0 , 0.0 , 0.0 , 

102.0 , 4126.66666667 , 4128.71794872 , 4129.74358974 , 4132.30769231 , 4129.74358974 , 4125.12820513 , 4126.15384615 , 4132.82051282 , 4125.64102564 , 4135.8974359 , 4184.61538462 , 4909.74358974 , 4131.79487179 , 4135.38461538 , 2042.0 , 2036.0 , 60.199 , 0.0 , 0.0 , 0.0 , 0.0 , 

103.0 , 4128.71794872 , 4129.74358974 , 4128.71794872 , 4128.71794872 , 4128.20512821 , 4125.64102564 , 4124.1025641 , 4133.33333333 , 4125.64102564 , 4136.92307692 , 4185.64102564 , 4907.17948718 , 4129.74358974 , 4132.82051282 , 2041.0 , 2036.0 , 60.207 , 0.0 , 0.0 , 0.0 , 0.0 , 

104.0 , 4132.30769231 , 4128.20512821 , 4129.74358974 , 4127.69230769 , 4127.69230769 , 4128.20512821 , 4121.02564103 , 4130.76923077 , 4128.20512821 , 4136.92307692 , 4186.15384615 , 4909.23076923 , 4130.25641026 , 4134.87179487 , 2041.0 , 2035.0 , 60.213 , 0.0 , 0.0 , 0.0 , 0.0 , 

105.0 , 4129.74358974 , 4128.20512821 , 4127.69230769 , 4129.23076923 , 4127.17948718 , 4125.64102564 , 4123.07692308 , 4129.74358974 , 4131.79487179 , 4135.8974359 , 4186.15384615 , 4908.20512821 , 4130.76923077 , 4133.84615385 , 2040.0 , 2035.0 , 60.222 , 0.0 , 0.0 , 0.0 , 0.0 , 

106.0 , 4129.74358974 , 4130.76923077 , 4129.74358974 , 4128.20512821 , 4125.64102564 , 4125.64102564 , 4124.1025641 , 4127.69230769 , 4131.79487179 , 4135.8974359 , 4188.20512821 , 4908.20512821 , 4130.76923077 , 4132.82051282 , 2041.0 , 2036.0 , 60.23 , 0.0 , 0.0 , 0.0 , 0.0 , 

107.0 , 4130.76923077 , 4129.74358974 , 4130.25641026 , 4128.20512821 , 4128.20512821 , 4128.20512821 , 4123.07692308 , 4129.23076923 , 4130.25641026 , 4136.41025641 , 4188.20512821 , 4907.69230769 , 4131.28205128 , 4134.35897436 , 2040.0 , 2034.0 , 60.238 , 0.0 , 0.0 , 0.0 , 0.0 , 

108.0 , 4131.28205128 , 4127.17948718 , 4130.76923077 , 4129.74358974 , 4126.66666667 , 4125.12820513 , 4123.58974359 , 4132.30769231 , 4130.76923077 , 4135.8974359 , 4187.17948718 , 4908.71794872 , 4131.79487179 , 4135.8974359 , 2042.0 , 2037.0 , 60.246 , 0.0 , 0.0 , 0.0 , 0.0 , 

109.0 , 4127.17948718 , 4127.17948718 , 4129.74358974 , 4129.74358974 , 4124.61538462 , 4124.1025641 , 4124.61538462 , 4131.79487179 , 4131.28205128 , 4135.8974359 , 4187.17948718 , 4908.71794872 , 4130.25641026 , 4136.41025641 , 2042.0 , 2035.0 , 60.254 , 0.0 , 0.0 , 0.0 , 0.0 , 

110.0 , 4124.61538462 , 4127.69230769 , 4128.71794872 , 4127.17948718 , 4127.69230769 , 4127.69230769 , 4124.61538462 , 4129.74358974 , 4131.28205128 , 4136.92307692 , 4188.71794872 , 4910.76923077 , 4130.25641026 , 4136.92307692 , 2041.0 , 2037.0 , 60.261 , 0.0 , 0.0 , 0.0 , 0.0 , 

111.0 , 4127.69230769 , 4128.71794872 , 4128.20512821 , 4127.17948718 , 4131.79487179 , 4127.17948718 , 4124.61538462 , 4130.25641026 , 4130.76923077 , 4137.43589744 , 4187.17948718 , 4910.76923077 , 4132.82051282 , 4134.35897436 , 2041.0 , 2035.0 , 60.269 , 0.0 , 0.0 , 0.0 , 0.0 , 

112.0 , 4130.25641026 , 4128.71794872 , 4127.17948718 , 4128.71794872 , 4129.23076923 , 4126.15384615 , 4124.61538462 , 4132.30769231 , 4130.25641026 , 4136.41025641 , 4185.12820513 , 4908.20512821 , 4133.33333333 , 4132.30769231 , 2042.0 , 2035.0 , 60.277 , 0.0 , 0.0 , 0.0 , 0.0 , 

113.0 , 4131.28205128 , 4128.71794872 , 4129.74358974 , 4128.71794872 , 4125.12820513 , 4128.20512821 , 4125.64102564 , 4130.76923077 , 4129.74358974 , 4136.92307692 , 4188.71794872 , 4910.25641026 , 4131.79487179 , 4137.43589744 , 2041.0 , 2035.0 , 60.284 , 0.0 , 0.0 , 0.0 , 0.0 , 

114.0 , 4130.25641026 , 4129.23076923 , 4129.23076923 , 4127.69230769 , 4124.61538462 , 4127.17948718 , 4125.64102564 , 4128.20512821 , 4128.71794872 , 4137.94871795 , 4191.28205128 , 4908.71794872 , 4130.76923077 , 4141.02564103 , 2041.0 , 2035.0 , 60.292 , 0.0 , 0.0 , 0.0 , 0.0 , 

115.0 , 4129.74358974 , 4129.74358974 , 4129.74358974 , 4128.71794872 , 4126.15384615 , 4124.61538462 , 4123.58974359 , 4128.20512821 , 4127.17948718 , 4137.94871795 , 4189.23076923 , 4908.71794872 , 4130.25641026 , 4135.8974359 , 2041.0 , 2033.0 , 60.3 , 0.0 , 0.0 , 0.0 , 0.0 , 

116.0 , 4127.17948718 , 4127.17948718 , 4128.20512821 , 4128.20512821 , 4127.69230769 , 4125.12820513 , 4123.07692308 , 4130.25641026 , 4128.71794872 , 4137.43589744 , 4184.61538462 , 4906.66666667 , 4129.74358974 , 4129.23076923 , 2042.0 , 2034.0 , 60.308 , 0.0 , 0.0 , 0.0 , 0.0 , 

117.0 , 4130.25641026 , 4127.17948718 , 4130.25641026 , 4127.69230769 , 4127.17948718 , 4125.12820513 , 4124.61538462 , 4129.74358974 , 4129.23076923 , 4137.94871795 , 4185.64102564 , 4908.20512821 , 4128.71794872 , 4134.35897436 , 2041.0 , 2036.0 , 60.316 , 0.0 , 0.0 , 0.0 , 0.0 , 

118.0 , 4131.28205128 , 4127.17948718 , 4127.17948718 , 4127.17948718 , 4126.66666667 , 4125.64102564 , 4123.58974359 , 4130.76923077 , 4130.25641026 , 4137.43589744 , 4186.66666667 , 4906.15384615 , 4126.66666667 , 4138.97435897 , 2042.0 , 2035.0 , 60.324 , 0.0 , 0.0 , 0.0 , 0.0 , 

119.0 , 4131.28205128 , 4128.71794872 , 4130.25641026 , 4128.71794872 , 4128.71794872 , 4127.69230769 , 4122.05128205 , 4131.28205128 , 4129.23076923 , 4137.43589744 , 4186.15384615 , 4908.20512821 , 4129.23076923 , 4137.94871795 , 2041.0 , 2035.0 , 60.333 , 0.0 , 0.0 , 0.0 , 0.0 , 

120.0 , 4127.69230769 , 4128.20512821 , 4128.71794872 , 4128.71794872 , 4130.76923077 , 4126.66666667 , 4122.56410256 , 4133.84615385 , 4128.20512821 , 4137.43589744 , 4185.12820513 , 4908.71794872 , 4132.30769231 , 4134.87179487 , 2042.0 , 2037.0 , 60.346 , 0.0 , 0.0 , 0.0 , 0.0 , 

121.0 , 4129.23076923 , 4129.23076923 , 4128.71794872 , 4127.17948718 , 4129.74358974 , 4124.1025641 , 4122.05128205 , 4131.79487179 , 4127.17948718 , 4137.94871795 , 4186.66666667 , 4909.74358974 , 4130.76923077 , 4136.41025641 , 2042.0 , 2035.0 , 60.348 , 0.0 , 0.0 , 0.0 , 0.0 , 

122.0 , 4130.25641026 , 4128.71794872 , 4126.66666667 , 4126.66666667 , 4126.15384615 , 4124.61538462 , 4122.05128205 , 4129.23076923 , 4128.71794872 , 4137.94871795 , 4186.66666667 , 4904.61538462 , 4127.69230769 , 4136.92307692 , 2042.0 , 2035.0 , 60.355 , 0.0 , 0.0 , 0.0 , 0.0 , 

123.0 , 4131.28205128 , 4128.71794872 , 4129.23076923 , 4128.20512821 , 4126.66666667 , 4124.61538462 , 4124.1025641 , 4128.71794872 , 4130.25641026 , 4137.94871795 , 4188.20512821 , 4905.12820513 , 4130.25641026 , 4135.8974359 , 2043.0 , 2036.0 , 60.363 , 0.0 , 0.0 , 0.0 , 0.0 , 

124.0 , 4130.25641026 , 4125.64102564 , 4127.17948718 , 4127.69230769 , 4128.71794872 , 4126.15384615 , 4123.58974359 , 4131.28205128 , 4130.25641026 , 4137.43589744 , 4186.66666667 , 4908.20512821 , 4134.35897436 , 4133.84615385 , 2044.0 , 2036.0 , 60.371 , 0.0 , 0.0 , 0.0 , 0.0 , 

125.0 , 4130.76923077 , 4126.15384615 , 4128.71794872 , 4126.15384615 , 4128.20512821 , 4127.69230769 , 4122.05128205 , 4132.82051282 , 4131.79487179 , 4136.41025641 , 4185.12820513 , 4909.23076923 , 4134.35897436 , 4135.38461538 , 2043.0 , 2034.0 , 60.379 , 0.0 , 0.0 , 0.0 , 0.0 , 

126.0 , 4131.28205128 , 4128.20512821 , 4130.76923077 , 4127.69230769 , 4128.71794872 , 4126.15384615 , 4123.58974359 , 4131.79487179 , 4133.84615385 , 4135.8974359 , 4185.64102564 , 4906.66666667 , 4130.76923077 , 4136.41025641 , 2042.0 , 2034.0 , 60.387 , 0.0 , 0.0 , 0.0 , 0.0 , 

127.0 , 4129.74358974 , 4129.74358974 , 4130.76923077 , 4129.23076923 , 4128.71794872 , 4126.15384615 , 4126.15384615 , 4129.23076923 , 4132.82051282 , 4135.8974359 , 4186.66666667 , 4907.69230769 , 4129.74358974 , 4135.38461538 , 2040.0 , 2035.0 , 60.395 , 0.0 , 0.0 , 0.0 , 0.0 , 

128.0 , 4128.71794872 , 4128.20512821 , 4128.71794872 , 4129.74358974 , 4126.66666667 , 4129.74358974 , 4124.61538462 , 4129.74358974 , 4133.84615385 , 4136.92307692 , 4185.12820513 , 4909.23076923 , 4129.23076923 , 4133.84615385 , 2043.0 , 2036.0 , 60.404 , 0.0 , 0.0 , 0.0 , 0.0 , 

0.0 , 4130.76923077 , 4126.15384615 , 4129.74358974 , 4130.25641026 , 4128.71794872 , 4127.17948718 , 4122.05128205 , 4132.30769231 , 4135.38461538 , 4137.43589744 , 4185.12820513 , 4908.20512821 , 4128.20512821 , 4134.87179487 , 2041.0 , 2036.0 , 60.41 , 0.0 , 0.0 , 0.0 , 0.0 , 

1.0 , 4131.28205128 , 4128.20512821 , 4130.25641026 , 4129.74358974 , 4130.76923077 , 4123.58974359 , 4123.07692308 , 4129.23076923 , 4132.82051282 , 4136.92307692 , 4188.71794872 , 4910.25641026 , 4131.79487179 , 4135.8974359 , 2042.0 , 2035.0 , 60.419 , 0.0 , 0.0 , 0.0 , 0.0 , 

2.0 , 4128.20512821 , 4127.17948718 , 4126.66666667 , 4129.74358974 , 4129.23076923 , 4127.17948718 , 4123.58974359 , 4128.20512821 , 4131.28205128 , 4136.41025641 , 4188.71794872 , 4908.71794872 , 4133.33333333 , 4135.38461538 , 2041.0 , 2036.0 , 60.426 , 0.0 , 0.0 , 0.0 , 0.0 , 

3.0 , 4128.20512821 , 4125.12820513 , 4130.25641026 , 4130.76923077 , 4126.15384615 , 4129.74358974 , 4123.58974359 , 4131.79487179 , 4130.25641026 , 4136.92307692 , 4185.64102564 , 4906.66666667 , 4132.30769231 , 4135.8974359 , 2042.0 , 2036.0 , 60.434 , 0.0 , 0.0 , 0.0 , 0.0 , 

4.0 , 4129.23076923 , 4125.12820513 , 4130.25641026 , 4129.23076923 , 4127.69230769 , 4128.71794872 , 4123.07692308 , 4134.87179487 , 4129.23076923 , 4136.92307692 , 4185.12820513 , 4906.66666667 , 4132.82051282 , 4134.87179487 , 2042.0 , 2036.0 , 60.443 , 0.0 , 0.0 , 0.0 , 0.0 , 

5.0 , 4129.74358974 , 4129.23076923 , 4130.76923077 , 4127.69230769 , 4130.25641026 , 4128.20512821 , 4124.61538462 , 4132.30769231 , 4129.74358974 , 4136.92307692 , 4189.23076923 , 4911.28205128 , 4133.84615385 , 4134.87179487 , 2040.0 , 2035.0 , 60.451 , 0.0 , 0.0 , 0.0 , 0.0 , 

6.0 , 4128.20512821 , 4128.20512821 , 4130.76923077 , 4127.17948718 , 4131.79487179 , 4129.74358974 , 4127.69230769 , 4131.28205128 , 4131.28205128 , 4136.92307692 , 4187.17948718 , 4907.69230769 , 4132.82051282 , 4133.84615385 , 2042.0 , 2033.0 , 60.459 , 0.0 , 0.0 , 0.0 , 0.0 , 

7.0 , 4130.25641026 , 4127.17948718 , 4133.33333333 , 4129.23076923 , 4131.28205128 , 4128.20512821 , 4128.20512821 , 4130.76923077 , 4128.20512821 , 4136.92307692 , 4185.64102564 , 4906.66666667 , 4130.76923077 , 4136.92307692 , 2041.0 , 2035.0 , 60.466 , 0.0 , 0.0 , 0.0 , 0.0 , 

8.0 , 4129.74358974 , 4127.17948718 , 4127.17948718 , 4130.25641026 , 4130.25641026 , 4127.17948718 , 4123.07692308 , 4130.76923077 , 4127.17948718 , 4136.92307692 , 4188.71794872 , 4908.20512821 , 4129.23076923 , 4139.48717949 , 2041.0 , 2035.0 , 60.474 , 0.0 , 0.0 , 0.0 , 0.0 , 

9.0 , 4129.74358974 , 4128.71794872 , 4130.25641026 , 4129.74358974 , 4130.76923077 , 4128.20512821 , 4122.56410256 , 4128.20512821 , 4130.25641026 , 4136.92307692 , 4191.79487179 , 4909.23076923 , 4129.74358974 , 4138.46153846 , 2041.0 , 2034.0 , 60.481 , 0.0 , 0.0 , 0.0 , 0.0 , 

10.0 , 4127.69230769 , 4127.69230769 , 4130.25641026 , 4128.71794872 , 4129.74358974 , 4126.66666667 , 4127.17948718 , 4128.20512821 , 4131.28205128 , 4136.92307692 , 4187.69230769 , 4904.61538462 , 4130.25641026 , 4134.35897436 , 2042.0 , 2037.0 , 60.489 , 0.0 , 0.0 , 0.0 , 0.0 , 

11.0 , 4128.71794872 , 4129.74358974 , 4129.74358974 , 4131.79487179 , 4126.15384615 , 4126.15384615 , 4126.15384615 , 4128.20512821 , 4127.69230769 , 4136.92307692 , 4186.15384615 , 4909.74358974 , 4130.25641026 , 4133.33333333 , 2041.0 , 2037.0 , 60.497 , 0.0 , 0.0 , 0.0 , 0.0 , 

12.0 , 4128.71794872 , 4131.28205128 , 4129.74358974 , 4133.84615385 , 4126.66666667 , 4127.17948718 , 4124.61538462 , 4130.25641026 , 4128.20512821 , 4136.92307692 , 4187.69230769 , 4910.25641026 , 4130.25641026 , 4132.30769231 , 2041.0 , 2036.0 , 60.505 , 0.0 , 0.0 , 0.0 , 0.0 , 

13.0 , 4129.74358974 , 4130.25641026 , 4132.30769231 , 4132.30769231 , 4128.20512821 , 4127.17948718 , 4124.61538462 , 4129.23076923 , 4130.76923077 , 4136.92307692 , 4188.71794872 , 4908.71794872 , 4130.25641026 , 4133.33333333 , 2042.0 , 2036.0 , 60.514 , 0.0 , 0.0 , 0.0 , 0.0 , 

14.0 , 4129.23076923 , 4125.64102564 , 4129.23076923 , 4129.74358974 , 4127.17948718 , 4124.61538462 , 4124.1025641 , 4128.71794872 , 4129.74358974 , 4136.92307692 , 4188.20512821 , 4908.71794872 , 4130.25641026 , 4135.38461538 , 2041.0 , 2035.0 , 60.522 , 0.0 , 0.0 , 0.0 , 0.0 , 

15.0 , 4129.23076923 , 4126.66666667 , 4130.25641026 , 4129.74358974 , 4127.17948718 , 4125.12820513 , 4124.1025641 , 4131.28205128 , 4128.20512821 , 4136.92307692 , 4186.15384615 , 4910.76923077 , 4131.79487179 , 4136.41025641 , 2041.0 , 2036.0 , 60.53 , 0.0 , 0.0 , 0.0 , 0.0 , 

16.0 , 4127.69230769 , 4127.69230769 , 4130.25641026 , 4129.74358974 , 4128.71794872 , 4126.66666667 , 4126.15384615 , 4131.28205128 , 4132.82051282 , 4136.92307692 , 4185.12820513 , 4907.69230769 , 4131.28205128 , 4134.87179487 , 2040.0 , 2036.0 , 60.538 , 0.0 , 0.0 , 0.0 , 0.0 , 

17.0 , 4129.74358974 , 4124.61538462 , 4128.20512821 , 4128.71794872 , 4129.74358974 , 4124.61538462 , 4125.12820513 , 4128.20512821 , 4132.30769231 , 4136.92307692 , 4188.20512821 , 4906.66666667 , 4129.23076923 , 4134.35897436 , 2041.0 , 2036.0 , 60.551 , 0.0 , 0.0 , 0.0 , 0.0 , 

18.0 , 4132.82051282 , 4124.1025641 , 4130.25641026 , 4127.69230769 , 4129.74358974 , 4124.61538462 , 4123.07692308 , 4128.20512821 , 4128.71794872 , 4136.92307692 , 4190.25641026 , 4910.25641026 , 4129.74358974 , 4134.35897436 , 2043.0 , 2035.0 , 60.553 , 0.0 , 0.0 , 0.0 , 0.0 , 

19.0 , 4131.28205128 , 4128.20512821 , 4132.30769231 , 4129.23076923 , 4129.23076923 , 4126.66666667 , 4125.12820513 , 4132.30769231 , 4132.30769231 , 4136.92307692 , 4188.71794872 , 4910.25641026 , 4132.30769231 , 4134.87179487 , 2042.0 , 2036.0 , 60.56 , 0.0 , 0.0 , 0.0 , 0.0 , 

20.0 , 4130.25641026 , 4129.74358974 , 4131.28205128 , 4130.25641026 , 4129.74358974 , 4128.71794872 , 4125.12820513 , 4132.82051282 , 4132.30769231 , 4136.92307692 , 4185.12820513 , 4908.20512821 , 4131.28205128 , 4135.8974359 , 2042.0 , 2036.0 , 60.568 , 0.0 , 0.0 , 0.0 , 0.0 , 

21.0 , 4130.25641026 , 4125.64102564 , 4128.20512821 , 4129.23076923 , 4130.25641026 , 4129.74358974 , 4122.56410256 , 4131.28205128 , 4128.20512821 , 4136.92307692 , 4184.61538462 , 4904.61538462 , 4129.74358974 , 4133.84615385 , 2042.0 , 2036.0 , 60.576 , 0.0 , 0.0 , 0.0 , 0.0 , 

22.0 , 4128.71794872 , 4126.15384615 , 4129.23076923 , 4129.23076923 , 4128.71794872 , 4129.23076923 , 4123.07692308 , 4129.74358974 , 4130.25641026 , 4136.92307692 , 4186.66666667 , 4906.66666667 , 4131.28205128 , 4133.84615385 , 2043.0 , 2037.0 , 60.584 , 0.0 , 0.0 , 0.0 , 0.0 , 

23.0 , 4126.15384615 , 4129.23076923 , 4129.23076923 , 4130.76923077 , 4128.20512821 , 4124.61538462 , 4125.12820513 , 4130.25641026 , 4134.35897436 , 4136.92307692 , 4187.17948718 , 4907.69230769 , 4131.79487179 , 4134.35897436 , 2042.0 , 2035.0 , 60.592 , 0.0 , 0.0 , 0.0 , 0.0 , 

24.0 , 4128.20512821 , 4128.71794872 , 4130.25641026 , 4130.76923077 , 4128.20512821 , 4123.07692308 , 4126.15384615 , 4129.74358974 , 4131.79487179 , 4136.41025641 , 4186.66666667 , 4909.74358974 , 4129.74358974 , 4134.87179487 , 2042.0 , 2037.0 , 60.6 , 0.0 , 0.0 , 0.0 , 0.0 , 

25.0 , 4126.15384615 , 4125.64102564 , 4125.12820513 , 4129.23076923 , 4126.15384615 , 4126.66666667 , 4125.12820513 , 4129.23076923 , 4130.25641026 , 4136.92307692 , 4185.64102564 , 4906.15384615 , 4128.20512821 , 4132.82051282 , 2041.0 , 2035.0 , 60.608 , 0.0 , 0.0 , 0.0 , 0.0 , 

26.0 , 4127.69230769 , 4128.71794872 , 4128.20512821 , 4130.25641026 , 4127.17948718 , 4126.66666667 , 4123.58974359 , 4128.20512821 , 4129.23076923 , 4136.92307692 , 4187.17948718 , 4907.69230769 , 4131.79487179 , 4134.87179487 , 2042.0 , 2035.0 , 60.615 , 0.0 , 0.0 , 0.0 , 0.0 , 

27.0 , 4129.74358974 , 4129.23076923 , 4131.28205128 , 4130.25641026 , 4129.74358974 , 4126.15384615 , 4126.66666667 , 4129.74358974 , 4131.28205128 , 4136.41025641 , 4185.64102564 , 4908.71794872 , 4133.33333333 , 4135.8974359 , 2041.0 , 2034.0 , 60.623 , 0.0 , 0.0 , 0.0 , 0.0 , 

28.0 , 4130.25641026 , 4128.20512821 , 4132.30769231 , 4129.23076923 , 4126.15384615 , 4128.20512821 , 4131.28205128 , 4129.74358974 , 4131.79487179 , 4136.92307692 , 4185.64102564 , 4909.74358974 , 4131.28205128 , 4135.38461538 , 2042.0 , 2034.0 , 60.631 , 0.0 , 0.0 , 0.0 , 0.0 , 

29.0 , 4128.71794872 , 4128.71794872 , 4127.17948718 , 4130.76923077 , 4126.15384615 , 4128.20512821 , 4127.69230769 , 4130.25641026 , 4129.74358974 , 4138.97435897 , 4185.12820513 , 4906.15384615 , 4129.74358974 , 4134.87179487 , 2041.0 , 2037.0 , 60.639 , 0.0 , 0.0 , 0.0 , 0.0 , 

30.0 , 4130.76923077 , 4131.28205128 , 4131.28205128 , 4131.79487179 , 4128.71794872 , 4126.66666667 , 4122.56410256 , 4130.25641026 , 4128.20512821 , 4138.97435897 , 4186.66666667 , 4910.76923077 , 4130.76923077 , 4136.41025641 , 2042.0 , 2035.0 , 60.647 , 0.0 , 0.0 , 0.0 , 0.0 , 

31.0 , 4128.71794872 , 4127.69230769 , 4131.28205128 , 4128.20512821 , 4128.20512821 , 4127.17948718 , 4125.64102564 , 4129.74358974 , 4130.25641026 , 4137.94871795 , 4185.64102564 , 4910.25641026 , 4129.23076923 , 4134.87179487 , 2042.0 , 2036.0 , 60.655 , 0.0 , 0.0 , 0.0 , 0.0 , 

32.0 , 4128.20512821 , 4126.66666667 , 4130.25641026 , 4126.66666667 , 4129.74358974 , 4129.74358974 , 4128.71794872 , 4128.71794872 , 4129.74358974 , 4137.94871795 , 4186.15384615 , 4907.17948718 , 4129.23076923 , 4135.38461538 , 2041.0 , 2037.0 , 60.663 , 0.0 , 0.0 , 0.0 , 0.0 , 

33.0 , 4129.74358974 , 4128.20512821 , 4128.71794872 , 4128.20512821 , 4132.30769231 , 4129.23076923 , 4126.15384615 , 4128.20512821 , 4128.71794872 , 4137.94871795 , 4187.69230769 , 4907.17948718 , 4132.82051282 , 4135.8974359 , 2041.0 , 2034.0 , 60.671 , 0.0 , 0.0 , 0.0 , 0.0 , 

34.0 , 4130.76923077 , 4126.66666667 , 4129.23076923 , 4128.71794872 , 4127.17948718 , 4125.12820513 , 4124.61538462 , 4127.17948718 , 4127.69230769 , 4137.94871795 , 4187.17948718 , 4911.79487179 , 4133.84615385 , 4136.41025641 , 2041.0 , 2035.0 , 60.678 , 0.0 , 0.0 , 0.0 , 0.0 , 

35.0 , 4129.74358974 , 4126.15384615 , 4129.74358974 , 4127.69230769 , 4125.12820513 , 4124.61538462 , 4125.64102564 , 4130.76923077 , 4127.69230769 , 4137.43589744 , 4187.17948718 , 4910.25641026 , 4130.76923077 , 4136.41025641 , 2043.0 , 2036.0 , 60.686 , 0.0 , 0.0 , 0.0 , 0.0 , 

36.0 , 4129.74358974 , 4127.69230769 , 4131.79487179 , 4128.20512821 , 4131.28205128 , 4126.15384615 , 4125.12820513 , 4133.33333333 , 4129.74358974 , 4137.94871795 , 4186.15384615 , 4905.12820513 , 4129.23076923 , 4135.8974359 , 2041.0 , 2035.0 , 60.694 , 0.0 , 0.0 , 0.0 , 0.0 , 

37.0 , 4130.25641026 , 4130.25641026 , 4131.79487179 , 4129.23076923 , 4131.79487179 , 4124.61538462 , 4124.1025641 , 4132.30769231 , 4132.30769231 , 4138.46153846 , 4185.12820513 , 4905.64102564 , 4131.28205128 , 4134.35897436 , 2040.0 , 2035.0 , 60.702 , 0.0 , 0.0 , 0.0 , 0.0 , 

38.0 , 4129.23076923 , 4131.79487179 , 4127.17948718 , 4129.74358974 , 4128.20512821 , 4125.12820513 , 4125.12820513 , 4130.76923077 , 4133.84615385 , 4135.8974359 , 4187.17948718 , 4906.66666667 , 4132.30769231 , 4133.84615385 , 2042.0 , 2035.0 , 60.71 , 0.0 , 0.0 , 0.0 , 0.0 , 

39.0 , 4129.23076923 , 4133.33333333 , 4126.66666667 , 4128.20512821 , 4128.71794872 , 4129.74358974 , 4125.64102564 , 4129.74358974 , 4130.76923077 , 4134.35897436 , 4188.71794872 , 4907.69230769 , 4131.28205128 , 4135.8974359 , 2042.0 , 2035.0 , 60.718 , 0.0 , 0.0 , 0.0 , 0.0 , 

40.0 , 4127.69230769 , 4130.76923077 , 4130.25641026 , 4128.20512821 , 4131.28205128 , 4126.66666667 , 4125.12820513 , 4129.74358974 , 4128.20512821 , 4136.41025641 , 4185.64102564 , 4908.20512821 , 4128.71794872 , 4134.87179487 , 2040.0 , 2036.0 , 60.726 , 0.0 , 0.0 , 0.0 , 0.0 , 

41.0 , 4128.20512821 , 4130.25641026 , 4134.35897436 , 4129.23076923 , 4130.76923077 , 4122.56410256 , 4126.15384615 , 4130.25641026 , 4130.76923077 , 4137.43589744 , 4188.20512821 , 4908.71794872 , 4130.25641026 , 4135.8974359 , 2041.0 , 2036.0 , 60.734 , 0.0 , 0.0 , 0.0 , 0.0 , 

42.0 , 4128.71794872 , 4128.20512821 , 4130.25641026 , 4125.64102564 , 4130.25641026 , 4125.64102564 , 4125.64102564 , 4130.76923077 , 4133.33333333 , 4135.8974359 , 4189.74358974 , 4905.12820513 , 4131.79487179 , 4135.8974359 , 2041.0 , 2036.0 , 60.741 , 0.0 , 0.0 , 0.0 , 0.0 , 

43.0 , 4129.74358974 , 4127.17948718 , 4131.28205128 , 4124.1025641 , 4131.28205128 , 4128.20512821 , 4125.12820513 , 4128.71794872 , 4129.23076923 , 4135.8974359 , 4188.20512821 , 4907.17948718 , 4130.76923077 , 4136.41025641 , 2041.0 , 2035.0 , 60.754 , 0.0 , 0.0 , 0.0 , 0.0 , 

44.0 , 4129.74358974 , 4129.23076923 , 4131.79487179 , 4126.66666667 , 4130.25641026 , 4126.66666667 , 4124.61538462 , 4130.76923077 , 4129.74358974 , 4136.41025641 , 4187.69230769 , 4908.20512821 , 4129.23076923 , 4134.87179487 , 2041.0 , 2036.0 , 60.758 , 0.0 , 0.0 , 0.0 , 0.0 , 

45.0 , 4132.30769231 , 4131.79487179 , 4134.35897436 , 4129.74358974 , 4127.69230769 , 4126.66666667 , 4124.1025641 , 4131.79487179 , 4133.33333333 , 4135.8974359 , 4188.20512821 , 4910.25641026 , 4132.30769231 , 4133.33333333 , 2043.0 , 2036.0 , 60.765 , 0.0 , 0.0 , 0.0 , 0.0 , 

46.0 , 4127.17948718 , 4126.15384615 , 4131.28205128 , 4128.20512821 , 4128.20512821 , 4130.25641026 , 4124.61538462 , 4131.28205128 , 4133.84615385 , 4135.8974359 , 4185.64102564 , 4907.17948718 , 4131.28205128 , 4133.33333333 , 2042.0 , 2036.0 , 60.773 , 0.0 , 0.0 , 0.0 , 0.0 , 

47.0 , 4127.17948718 , 4123.58974359 , 4131.79487179 , 4129.23076923 , 4129.23076923 , 4131.28205128 , 4125.12820513 , 4129.74358974 , 4128.71794872 , 4135.8974359 , 4186.15384615 , 4909.23076923 , 4129.23076923 , 4135.8974359 , 2041.0 , 2035.0 , 60.781 , 0.0 , 0.0 , 0.0 , 0.0 , 

48.0 , 4130.25641026 , 4125.64102564 , 4128.20512821 , 4130.25641026 , 4128.71794872 , 4126.15384615 , 4123.58974359 , 4129.74358974 , 4128.20512821 , 4136.41025641 , 4185.12820513 , 4906.66666667 , 4130.76923077 , 4134.35897436 , 2042.0 , 2034.0 , 60.79 , 0.0 , 0.0 , 0.0 , 0.0 , 

49.0 , 4131.28205128 , 4129.23076923 , 4130.25641026 , 4129.74358974 , 4127.17948718 , 4124.1025641 , 4122.56410256 , 4129.23076923 , 4131.28205128 , 4135.8974359 , 4183.58974359 , 4907.69230769 , 4132.30769231 , 4133.33333333 , 2042.0 , 2034.0 , 60.797 , 0.0 , 0.0 , 0.0 , 0.0 , 

50.0 , 4127.69230769 , 4128.20512821 , 4131.79487179 , 4130.76923077 , 4128.20512821 , 4125.64102564 , 4123.07692308 , 4130.76923077 , 4134.35897436 , 4135.8974359 , 4185.12820513 , 4907.17948718 , 4129.23076923 , 4133.84615385 , 2043.0 , 2036.0 , 60.804 , 0.0 , 0.0 , 0.0 , 0.0 , 

51.0 , 4128.20512821 , 4126.66666667 , 4131.28205128 , 4131.28205128 , 4126.66666667 , 4123.07692308 , 4123.07692308 , 4130.76923077 , 4131.79487179 , 4136.92307692 , 4187.69230769 , 4909.23076923 , 4129.74358974 , 4134.87179487 , 2042.0 , 2035.0 , 60.811 , 0.0 , 0.0 , 0.0 , 0.0 , 

52.0 , 4128.71794872 , 4126.66666667 , 4127.69230769 , 4131.28205128 , 4126.66666667 , 4124.1025641 , 4122.56410256 , 4129.23076923 , 4129.74358974 , 4137.94871795 , 4188.20512821 , 4907.69230769 , 4132.30769231 , 4134.35897436 , 2042.0 , 2036.0 , 60.82 , 0.0 , 0.0 , 0.0 , 0.0 , 

53.0 , 4128.71794872 , 4129.23076923 , 4129.74358974 , 4131.28205128 , 4130.25641026 , 4129.23076923 , 4123.58974359 , 4127.69230769 , 4130.76923077 , 4136.41025641 , 4188.71794872 , 4907.69230769 , 4131.79487179 , 4135.38461538 , 2041.0 , 2035.0 , 60.827 , 0.0 , 0.0 , 0.0 , 0.0 , 

54.0 , 4128.71794872 , 4130.76923077 , 4132.30769231 , 4128.71794872 , 4131.79487179 , 4130.25641026 , 4123.58974359 , 4129.74358974 , 4130.25641026 , 4136.41025641 , 4190.25641026 , 4909.23076923 , 4131.79487179 , 4133.84615385 , 2042.0 , 2036.0 , 60.836 , 0.0 , 0.0 , 0.0 , 0.0 , 

55.0 , 4129.74358974 , 4129.74358974 , 4130.25641026 , 4127.17948718 , 4128.71794872 , 4125.64102564 , 4122.05128205 , 4131.28205128 , 4127.17948718 , 4137.43589744 , 4190.25641026 , 4909.23076923 , 4131.28205128 , 4133.84615385 , 2041.0 , 2037.0 , 60.844 , 0.0 , 0.0 , 0.0 , 0.0 , 

56.0 , 4129.74358974 , 4127.69230769 , 4130.25641026 , 4129.74358974 , 4126.66666667 , 4125.12820513 , 4123.07692308 , 4129.74358974 , 4127.69230769 , 4136.41025641 , 4187.69230769 , 4907.69230769 , 4130.25641026 , 4137.94871795 , 2041.0 , 2035.0 , 60.855 , 0.0 , 0.0 , 0.0 , 0.0 , 

57.0 , 4127.69230769 , 4128.20512821 , 4129.74358974 , 4132.30769231 , 4127.69230769 , 4127.17948718 , 4125.64102564 , 4130.25641026 , 4129.23076923 , 4135.8974359 , 4185.12820513 , 4905.64102564 , 4129.74358974 , 4137.94871795 , 2043.0 , 2034.0 , 60.86 , 0.0 , 0.0 , 0.0 , 0.0 , 

58.0 , 4128.71794872 , 4128.20512821 , 4129.74358974 , 4130.25641026 , 4128.20512821 , 4127.17948718 , 4124.1025641 , 4131.28205128 , 4132.30769231 , 4135.8974359 , 4186.15384615 , 4907.69230769 , 4130.76923077 , 4134.35897436 , 2043.0 , 2035.0 , 60.869 , 0.0 , 0.0 , 0.0 , 0.0 , 

59.0 , 4129.23076923 , 4125.12820513 , 4127.17948718 , 4127.69230769 , 4130.25641026 , 4125.64102564 , 4121.02564103 , 4131.28205128 , 4134.87179487 , 4135.8974359 , 4186.66666667 , 4907.69230769 , 4131.28205128 , 4135.8974359 , 2041.0 , 2035.0 , 60.875 , 0.0 , 0.0 , 0.0 , 0.0 , 

60.0 , 4129.23076923 , 4127.69230769 , 4129.74358974 , 4128.20512821 , 4132.30769231 , 4125.64102564 , 4123.07692308 , 4127.69230769 , 4131.28205128 , 4135.8974359 , 4185.64102564 , 4910.25641026 , 4131.79487179 , 4140.0 , 2041.0 , 2036.0 , 60.883 , 0.0 , 0.0 , 0.0 , 0.0 , 

61.0 , 4127.69230769 , 4127.69230769 , 4128.20512821 , 4129.23076923 , 4131.28205128 , 4126.66666667 , 4124.1025641 , 4128.20512821 , 4127.17948718 , 4135.8974359 , 4184.61538462 , 4908.71794872 , 4131.28205128 , 4135.8974359 , 2042.0 , 2036.0 , 60.891 , 0.0 , 0.0 , 0.0 , 0.0 , 

62.0 , 4129.74358974 , 4126.66666667 , 4130.76923077 , 4129.74358974 , 4129.23076923 , 4124.61538462 , 4122.05128205 , 4129.74358974 , 4127.69230769 , 4135.8974359 , 4187.17948718 , 4907.17948718 , 4130.76923077 , 4131.79487179 , 2041.0 , 2037.0 , 60.899 , 0.0 , 0.0 , 0.0 , 0.0 , 

63.0 , 4129.23076923 , 4124.61538462 , 4129.23076923 , 4128.71794872 , 4129.23076923 , 4124.1025641 , 4122.56410256 , 4131.28205128 , 4130.76923077 , 4135.8974359 , 4187.17948718 , 4904.1025641 , 4130.76923077 , 4133.33333333 , 2042.0 , 2034.0 , 60.907 , 0.0 , 0.0 , 0.0 , 0.0 , 

64.0 , 4129.74358974 , 4126.66666667 , 4131.79487179 , 4129.74358974 , 4129.74358974 , 4128.20512821 , 4125.12820513 , 4130.25641026 , 4129.23076923 , 4136.92307692 , 4187.17948718 , 4908.20512821 , 4131.28205128 , 4137.43589744 , 2041.0 , 2034.0 , 60.934 , 0.0 , 0.0 , 0.0 , 0.0 , 

65.0 , 4128.71794872 , 4127.17948718 , 4130.25641026 , 4129.23076923 , 4131.28205128 , 4129.74358974 , 4127.17948718 , 4131.79487179 , 4129.23076923 , 4137.94871795 , 4187.69230769 , 4907.17948718 , 4131.28205128 , 4135.8974359 , 2041.0 , 2035.0 , 60.935 , 0.0 , 0.0 , 0.0 , 0.0 , 

66.0 , 4130.25641026 , 4127.17948718 , 4133.33333333 , 4126.66666667 , 4128.71794872 , 4128.20512821 , 4127.17948718 , 4131.79487179 , 4132.30769231 , 4137.94871795 , 4190.76923077 , 4908.20512821 , 4131.79487179 , 4135.8974359 , 2041.0 , 2036.0 , 60.935 , 0.0 , 0.0 , 0.0 , 0.0 , 

67.0 , 4127.69230769 , 4125.12820513 , 4131.79487179 , 4128.71794872 , 4127.69230769 , 4125.12820513 , 4127.69230769 , 4131.28205128 , 4135.38461538 , 4137.43589744 , 4190.25641026 , 4909.23076923 , 4132.30769231 , 4136.41025641 , 2041.0 , 2035.0 , 60.941 , 0.0 , 0.0 , 0.0 , 0.0 , 

68.0 , 4125.64102564 , 4129.23076923 , 4130.76923077 , 4133.84615385 , 4130.25641026 , 4123.58974359 , 4125.64102564 , 4130.25641026 , 4131.28205128 , 4137.94871795 , 4188.20512821 , 4909.23076923 , 4132.82051282 , 4136.92307692 , 2042.0 , 2036.0 , 60.945 , 0.0 , 0.0 , 0.0 , 0.0 , 

69.0 , 4126.66666667 , 4132.82051282 , 4127.69230769 , 4132.30769231 , 4130.25641026 , 4125.64102564 , 4122.56410256 , 4131.28205128 , 4126.66666667 , 4137.94871795 , 4187.17948718 , 4906.15384615 , 4132.30769231 , 4136.41025641 , 2041.0 , 2036.0 , 60.955 , 0.0 , 0.0 , 0.0 , 0.0 , 

70.0 , 4129.23076923 , 4129.23076923 , 4131.79487179 , 4127.69230769 , 4130.25641026 , 4125.64102564 , 4123.07692308 , 4130.76923077 , 4129.23076923 , 4137.43589744 , 4188.20512821 , 4908.71794872 , 4134.35897436 , 4136.41025641 , 2042.0 , 2035.0 , 60.962 , 0.0 , 0.0 , 0.0 , 0.0 , 

71.0 , 4128.71794872 , 4126.66666667 , 4134.35897436 , 4129.74358974 , 4131.79487179 , 4124.61538462 , 4125.12820513 , 4130.76923077 , 4133.84615385 , 4137.94871795 , 4189.23076923 , 4911.28205128 , 4133.84615385 , 4134.35897436 , 2041.0 , 2035.0 , 60.97 , 0.0 , 0.0 , 0.0 , 0.0 , 

72.0 , 4129.74358974 , 4128.20512821 , 4132.82051282 , 4132.30769231 , 4128.71794872 , 4125.64102564 , 4123.58974359 , 4131.28205128 , 4132.30769231 , 4137.43589744 , 4188.71794872 , 4911.79487179 , 4130.25641026 , 4132.82051282 , 2039.0 , 2035.0 , 60.978 , 0.0 , 0.0 , 0.0 , 0.0 , 

73.0 , 4130.76923077 , 4126.66666667 , 4131.28205128 , 4129.74358974 , 4125.12820513 , 4125.64102564 , 4122.05128205 , 4130.76923077 , 4129.23076923 , 4137.43589744 , 4185.64102564 , 4909.74358974 , 4131.28205128 , 4134.35897436 , 2042.0 , 2035.0 , 60.986 , 0.0 , 0.0 , 0.0 , 0.0 , 

74.0 , 4129.74358974 , 4125.64102564 , 4128.20512821 , 4127.69230769 , 4128.71794872 , 4124.61538462 , 4126.15384615 , 4131.28205128 , 4129.74358974 , 4137.43589744 , 4185.12820513 , 4906.66666667 , 4133.33333333 , 4135.8974359 , 2043.0 , 2036.0 , 60.995 , 0.0 , 0.0 , 0.0 , 0.0 , 

75.0 , 4129.74358974 , 4127.17948718 , 4128.20512821 , 4129.74358974 , 4131.28205128 , 4126.66666667 , 4126.66666667 , 4129.74358974 , 4128.20512821 , 4137.43589744 , 4187.69230769 , 4907.69230769 , 4132.30769231 , 4135.8974359 , 2042.0 , 2034.0 , 61.003 , 0.0 , 0.0 , 0.0 , 0.0 , 

76.0 , 4129.23076923 , 4127.17948718 , 4130.25641026 , 4128.71794872 , 4129.23076923 , 4127.17948718 , 4121.53846154 , 4128.20512821 , 4128.20512821 , 4137.43589744 , 4188.71794872 , 4906.66666667 , 4130.25641026 , 4133.84615385 , 2042.0 , 2035.0 , 61.009 , 0.0 , 0.0 , 0.0 , 0.0 , 

77.0 , 4130.76923077 , 4128.71794872 , 4132.82051282 , 4128.20512821 , 4128.71794872 , 4126.66666667 , 4122.05128205 , 4129.74358974 , 4131.28205128 , 4137.43589744 , 4190.76923077 , 4908.71794872 , 4131.79487179 , 4133.84615385 , 2042.0 , 2036.0 , 61.017 , 0.0 , 0.0 , 0.0 , 0.0 , 

78.0 , 4129.74358974 , 4126.66666667 , 4128.71794872 , 4130.76923077 , 4130.76923077 , 4125.64102564 , 4123.58974359 , 4131.28205128 , 4130.76923077 , 4137.94871795 , 4191.79487179 , 4908.71794872 , 4133.84615385 , 4135.38461538 , 2042.0 , 2037.0 , 61.026 , 0.0 , 0.0 , 0.0 , 0.0 , 

79.0 , 4127.69230769 , 4126.15384615 , 4130.25641026 , 4131.28205128 , 4129.23076923 , 4124.61538462 , 4123.07692308 , 4128.20512821 , 4126.66666667 , 4137.94871795 , 4188.71794872 , 4908.71794872 , 4134.87179487 , 4135.8974359 , 2041.0 , 2036.0 , 61.033 , 0.0 , 0.0 , 0.0 , 0.0 , 

80.0 , 4126.15384615 , 4127.69230769 , 4130.25641026 , 4128.71794872 , 4127.69230769 , 4125.64102564 , 4124.61538462 , 4130.25641026 , 4129.74358974 , 4137.94871795 , 4185.12820513 , 4905.12820513 , 4132.82051282 , 4132.82051282 , 2040.0 , 2035.0 , 61.041 , 0.0 , 0.0 , 0.0 , 0.0 , 

81.0 , 4130.76923077 , 4128.71794872 , 4131.28205128 , 4129.74358974 , 4127.69230769 , 4127.17948718 , 4124.61538462 , 4132.82051282 , 4134.35897436 , 4137.43589744 , 4186.66666667 , 4909.23076923 , 4130.76923077 , 4133.84615385 , 2041.0 , 2035.0 , 61.049 , 0.0 , 0.0 , 0.0 , 0.0 , 

82.0 , 4130.76923077 , 4126.15384615 , 4128.71794872 , 4131.79487179 , 4129.23076923 , 4127.69230769 , 4123.58974359 , 4131.79487179 , 4134.87179487 , 4137.94871795 , 4187.17948718 , 4907.17948718 , 4131.28205128 , 4135.8974359 , 2041.0 , 2035.0 , 61.057 , 0.0 , 0.0 , 0.0 , 0.0 , 

83.0 , 4129.23076923 , 4128.20512821 , 4130.25641026 , 4132.82051282 , 4128.71794872 , 4129.74358974 , 4126.15384615 , 4129.23076923 , 4130.25641026 , 4137.94871795 , 4186.66666667 , 4904.61538462 , 4131.79487179 , 4135.38461538 , 2041.0 , 2035.0 , 61.065 , 0.0 , 0.0 , 0.0 , 0.0 , 

84.0 , 4125.64102564 , 4128.71794872 , 4128.20512821 , 4131.79487179 , 4127.17948718 , 4132.82051282 , 4127.69230769 , 4129.23076923 , 4129.23076923 , 4136.92307692 , 4184.61538462 , 4903.58974359 , 4128.20512821 , 4133.84615385 , 2040.0 , 2035.0 , 61.072 , 0.0 , 0.0 , 0.0 , 0.0 , 

85.0 , 4127.69230769 , 4128.71794872 , 4129.74358974 , 4129.23076923 , 4128.71794872 , 4130.25641026 , 4126.66666667 , 4126.15384615 , 4130.76923077 , 4135.8974359 , 4184.1025641 , 4910.76923077 , 4129.23076923 , 4135.8974359 , 2040.0 , 2035.0 , 61.08 , 0.0 , 0.0 , 0.0 , 0.0 , 

86.0 , 4128.20512821 , 4128.71794872 , 4127.17948718 , 4127.69230769 , 4130.25641026 , 4131.28205128 , 4125.12820513 , 4128.20512821 , 4134.87179487 , 4134.87179487 , 4187.69230769 , 4912.82051282 , 4132.30769231 , 4136.41025641 , 2041.0 , 2035.0 , 61.088 , 0.0 , 0.0 , 0.0 , 0.0 , 

87.0 , 4127.17948718 , 4128.71794872 , 4127.69230769 , 4129.23076923 , 4127.17948718 , 4132.82051282 , 4123.07692308 , 4130.76923077 , 4133.33333333 , 4133.84615385 , 4190.76923077 , 4909.23076923 , 4132.30769231 , 4134.35897436 , 2042.0 , 2035.0 , 61.152 , 0.0 , 0.0 , 0.0 , 0.0 , 

88.0 , 4128.20512821 , 4127.17948718 , 4127.69230769 , 4128.20512821 , 4124.61538462 , 4129.23076923 , 4122.56410256 , 4130.25641026 , 4128.20512821 , 4134.87179487 , 4186.15384615 , 4904.61538462 , 4130.25641026 , 4133.33333333 , 2043.0 , 2036.0 , 61.154 , 0.0 , 0.0 , 0.0 , 0.0 , 

89.0 , 4130.25641026 , 4128.71794872 , 4129.74358974 , 4128.20512821 , 4128.71794872 , 4126.66666667 , 4124.61538462 , 4129.23076923 , 4126.66666667 , 4135.8974359 , 4185.12820513 , 4906.66666667 , 4132.30769231 , 4135.8974359 , 2043.0 , 2036.0 , 61.154 , 0.0 , 0.0 , 0.0 , 0.0 , 

90.0 , 4129.74358974 , 4129.23076923 , 4129.74358974 , 4129.74358974 , 4131.79487179 , 4127.17948718 , 4126.66666667 , 4131.79487179 , 4132.30769231 , 4136.41025641 , 4189.23076923 , 4908.71794872 , 4132.82051282 , 4135.38461538 , 2042.0 , 2036.0 , 61.154 , 0.0 , 0.0 , 0.0 , 0.0 , 

91.0 , 4130.25641026 , 4126.66666667 , 4129.23076923 , 4130.76923077 , 4128.71794872 , 4129.23076923 , 4124.61538462 , 4131.79487179 , 4135.38461538 , 4135.8974359 , 4189.74358974 , 4907.69230769 , 4130.76923077 , 4132.82051282 , 2042.0 , 2036.0 , 61.154 , 0.0 , 0.0 , 0.0 , 0.0 , 

92.0 , 4129.23076923 , 4125.64102564 , 4129.74358974 , 4129.74358974 , 4126.66666667 , 4128.20512821 , 4124.1025641 , 4128.20512821 , 4133.84615385 , 4135.8974359 , 4186.66666667 , 4907.69230769 , 4130.25641026 , 4135.38461538 , 2042.0 , 2035.0 , 61.154 , 0.0 , 0.0 , 0.0 , 0.0 , 

93.0 , 4127.17948718 , 4128.71794872 , 4129.74358974 , 4128.71794872 , 4127.17948718 , 4124.61538462 , 4128.20512821 , 4129.23076923 , 4132.30769231 , 4135.8974359 , 4187.17948718 , 4909.23076923 , 4131.79487179 , 4136.92307692 , 2041.0 , 2036.0 , 61.154 , 0.0 , 0.0 , 0.0 , 0.0 , 

94.0 , 4127.69230769 , 4130.76923077 , 4131.28205128 , 4128.20512821 , 4127.69230769 , 4123.58974359 , 4127.17948718 , 4130.25641026 , 4131.28205128 , 4135.8974359 , 4190.25641026 , 4910.25641026 , 4131.79487179 , 4133.84615385 , 2041.0 , 2037.0 , 61.154 , 0.0 , 0.0 , 0.0 , 0.0 , 

95.0 , 4126.66666667 , 4128.20512821 , 4130.76923077 , 4127.69230769 , 4126.15384615 , 4125.12820513 , 4122.05128205 , 4129.74358974 , 4131.79487179 , 4135.8974359 , 4188.71794872 , 4907.69230769 , 4129.74358974 , 4132.82051282 , 2041.0 , 2035.0 , 61.162 , 0.0 , 0.0 , 0.0 , 0.0 , 

96.0 , 4127.69230769 , 4127.69230769 , 4131.79487179 , 4128.20512821 , 4127.17948718 , 4125.64102564 , 4123.07692308 , 4129.23076923 , 4132.30769231 , 4135.8974359 , 4186.15384615 , 4906.66666667 , 4129.23076923 , 4136.92307692 , 2041.0 , 2035.0 , 61.166 , 0.0 , 0.0 , 0.0 , 0.0 , 

97.0 , 4127.17948718 , 4128.20512821 , 4126.66666667 , 4127.69230769 , 4128.71794872 , 4125.12820513 , 4124.1025641 , 4132.30769231 , 4131.28205128 , 4135.8974359 , 4187.17948718 , 4904.61538462 , 4131.79487179 , 4134.87179487 , 2042.0 , 2035.0 , 61.176 , 0.0 , 0.0 , 0.0 , 0.0 , 

98.0 , 4128.71794872 , 4128.20512821 , 4127.17948718 , 4128.71794872 , 4126.66666667 , 4126.66666667 , 4122.56410256 , 4132.30769231 , 4130.76923077 , 4135.8974359 , 4189.74358974 , 4909.23076923 , 4132.30769231 , 4132.30769231 , 2041.0 , 2035.0 , 61.183 , 0.0 , 0.0 , 0.0 , 0.0 , 

99.0 , 4129.74358974 , 4127.69230769 , 4129.23076923 , 4130.25641026 , 4128.71794872 , 4128.20512821 , 4126.15384615 , 4130.25641026 , 4134.35897436 , 4135.8974359 , 4187.69230769 , 4909.23076923 , 4129.74358974 , 4133.33333333 , 2040.0 , 2035.0 , 61.192 , 0.0 , 0.0 , 0.0 , 0.0 , 

100.0 , 4129.23076923 , 4128.20512821 , 4131.79487179 , 4131.28205128 , 4132.30769231 , 4130.76923077 , 4128.20512821 , 4127.69230769 , 4132.30769231 , 4135.8974359 , 4186.66666667 , 4908.71794872 , 4130.76923077 , 4135.38461538 , 2042.0 , 2036.0 , 61.198 , 0.0 , 0.0 , 0.0 , 0.0 , 

101.0 , 4124.61538462 , 4126.15384615 , 4128.20512821 , 4129.74358974 , 4129.23076923 , 4128.71794872 , 4122.05128205 , 4128.20512821 , 4128.71794872 , 4135.8974359 , 4187.17948718 , 4905.12820513 , 4133.33333333 , 4133.33333333 , 2042.0 , 2036.0 , 61.206 , 0.0 , 0.0 , 0.0 , 0.0 , 

102.0 , 4128.71794872 , 4128.71794872 , 4130.76923077 , 4128.71794872 , 4125.12820513 , 4125.12820513 , 4123.58974359 , 4128.71794872 , 4129.74358974 , 4135.8974359 , 4187.69230769 , 4907.17948718 , 4133.33333333 , 4135.8974359 , 2041.0 , 2036.0 , 61.215 , 0.0 , 0.0 , 0.0 , 0.0 , 

103.0 , 4132.30769231 , 4129.23076923 , 4130.25641026 , 4128.20512821 , 4127.17948718 , 4125.64102564 , 4128.71794872 , 4130.25641026 , 4131.79487179 , 4135.8974359 , 4186.15384615 , 4905.64102564 , 4131.28205128 , 4136.92307692 , 2042.0 , 2036.0 , 61.223 , 0.0 , 0.0 , 0.0 , 0.0 , 

104.0 , 4130.76923077 , 4126.66666667 , 4130.25641026 , 4128.20512821 , 4128.71794872 , 4125.12820513 , 4125.12820513 , 4130.76923077 , 4128.71794872 , 4135.8974359 , 4187.17948718 , 4909.23076923 , 4132.82051282 , 4135.38461538 , 2041.0 , 2035.0 , 61.23 , 0.0 , 0.0 , 0.0 , 0.0 , 

105.0 , 4128.71794872 , 4126.15384615 , 4127.69230769 , 4127.69230769 , 4127.17948718 , 4123.07692308 , 4126.66666667 , 4131.79487179 , 4126.15384615 , 4135.8974359 , 4188.71794872 , 4911.28205128 , 4133.33333333 , 4134.35897436 , 2042.0 , 2035.0 , 61.239 , 0.0 , 0.0 , 0.0 , 0.0 , 

106.0 , 4130.25641026 , 4129.74358974 , 4130.25641026 , 4129.23076923 , 4127.17948718 , 4123.07692308 , 4131.79487179 , 4130.76923077 , 4129.74358974 , 4135.8974359 , 4188.20512821 , 4909.74358974 , 4132.30769231 , 4135.8974359 , 2041.0 , 2036.0 , 61.246 , 0.0 , 0.0 , 0.0 , 0.0 , 

107.0 , 4128.20512821 , 4130.25641026 , 4129.74358974 , 4130.76923077 , 4128.20512821 , 4124.61538462 , 4126.66666667 , 4132.30769231 , 4133.84615385 , 4135.8974359 , 4185.64102564 , 4908.20512821 , 4130.25641026 , 4135.38461538 , 2041.0 , 2035.0 , 61.255 , 0.0 , 0.0 , 0.0 , 0.0 , 

108.0 , 4127.17948718 , 4128.20512821 , 4126.15384615 , 4130.76923077 , 4126.66666667 , 4125.12820513 , 4121.02564103 , 4132.82051282 , 4132.82051282 , 4135.8974359 , 4185.64102564 , 4910.25641026 , 4128.20512821 , 4132.30769231 , 2043.0 , 2035.0 , 61.266 , 0.0 , 0.0 , 0.0 , 0.0 , 

109.0 , 4128.20512821 , 4127.69230769 , 4126.15384615 , 4130.76923077 , 4127.17948718 , 4126.66666667 , 4125.64102564 , 4130.76923077 , 4130.25641026 , 4135.8974359 , 4188.20512821 , 4909.23076923 , 4129.23076923 , 4132.30769231 , 2042.0 , 2034.0 , 61.268 , 0.0 , 0.0 , 0.0 , 0.0 , 

110.0 , 4128.20512821 , 4127.17948718 , 4128.20512821 , 4130.76923077 , 4128.20512821 , 4127.17948718 , 4128.20512821 , 4128.20512821 , 4130.25641026 , 4135.8974359 , 4189.23076923 , 4906.66666667 , 4130.76923077 , 4136.92307692 , 2040.0 , 2035.0 , 61.277 , 0.0 , 0.0 , 0.0 , 0.0 , 

111.0 , 4127.17948718 , 4127.69230769 , 4127.17948718 , 4130.25641026 , 4127.69230769 , 4127.17948718 , 4125.12820513 , 4127.69230769 , 4127.17948718 , 4135.8974359 , 4188.20512821 , 4908.20512821 , 4130.76923077 , 4137.94871795 , 2040.0 , 2036.0 , 61.286 , 0.0 , 0.0 , 0.0 , 0.0 , 

112.0 , 4128.71794872 , 4127.69230769 , 4126.15384615 , 4128.71794872 , 4127.69230769 , 4127.17948718 , 4126.15384615 , 4131.28205128 , 4126.15384615 , 4135.8974359 , 4186.66666667 , 4909.74358974 , 4131.28205128 , 4134.35897436 , 2042.0 , 2034.0 , 61.293 , 0.0 , 0.0 , 0.0 , 0.0 , 

113.0 , 4130.25641026 , 4128.20512821 , 4129.74358974 , 4129.23076923 , 4127.69230769 , 4126.66666667 , 4126.66666667 , 4131.79487179 , 4129.74358974 , 4135.8974359 , 4187.69230769 , 4910.76923077 , 4132.30769231 , 4135.8974359 , 2042.0 , 2035.0 , 61.301 , 0.0 , 0.0 , 0.0 , 0.0 , 

114.0 , 4128.71794872 , 4126.66666667 , 4128.71794872 , 4129.74358974 , 4129.23076923 , 4126.15384615 , 4122.56410256 , 4129.23076923 , 4132.30769231 , 4135.8974359 , 4189.23076923 , 4910.25641026 , 4133.84615385 , 4135.8974359 , 2041.0 , 2036.0 , 61.309 , 0.0 , 0.0 , 0.0 , 0.0 , 

115.0 , 4128.71794872 , 4126.66666667 , 4130.76923077 , 4129.74358974 , 4130.25641026 , 4127.17948718 , 4121.53846154 , 4126.66666667 , 4130.76923077 , 4135.8974359 , 4188.20512821 , 4911.79487179 , 4131.28205128 , 4132.82051282 , 2041.0 , 2036.0 , 61.318 , 0.0 , 0.0 , 0.0 , 0.0 , 

116.0 , 4129.74358974 , 4126.15384615 , 4128.71794872 , 4127.69230769 , 4131.28205128 , 4129.23076923 , 4123.58974359 , 4130.25641026 , 4132.82051282 , 4135.8974359 , 4186.66666667 , 4906.66666667 , 4127.17948718 , 4132.30769231 , 2041.0 , 2035.0 , 61.325 , 0.0 , 0.0 , 0.0 , 0.0 , 

117.0 , 4131.79487179 , 4127.69230769 , 4128.71794872 , 4127.17948718 , 4128.71794872 , 4127.17948718 , 4124.1025641 , 4129.23076923 , 4134.35897436 , 4135.38461538 , 4188.71794872 , 4906.66666667 , 4129.74358974 , 4134.87179487 , 2041.0 , 2036.0 , 61.332 , 0.0 , 0.0 , 0.0 , 0.0 , 

118.0 , 4128.71794872 , 4129.23076923 , 4127.69230769 , 4128.20512821 , 4128.20512821 , 4125.12820513 , 4124.1025641 , 4127.17948718 , 4133.84615385 , 4136.92307692 , 4187.17948718 , 4906.66666667 , 4132.30769231 , 4134.87179487 , 2042.0 , 2034.0 , 61.34 , 0.0 , 0.0 , 0.0 , 0.0 , 

119.0 , 4128.20512821 , 4129.74358974 , 4130.25641026 , 4128.20512821 , 4130.25641026 , 4125.64102564 , 4125.12820513 , 4128.20512821 , 4132.82051282 , 4137.94871795 , 4187.69230769 , 4909.23076923 , 4132.30769231 , 4134.87179487 , 2041.0 , 2035.0 , 61.348 , 0.0 , 0.0 , 0.0 , 0.0 , 

120.0 , 4127.69230769 , 4127.17948718 , 4127.17948718 , 4127.69230769 , 4131.28205128 , 4127.69230769 , 4127.69230769 , 4133.33333333 , 4134.35897436 , 4136.41025641 , 4188.20512821 , 4907.69230769 , 4130.76923077 , 4133.84615385 , 2041.0 , 2036.0 , 61.356 , 0.0 , 0.0 , 0.0 , 0.0 , 

121.0 , 4129.23076923 , 4129.74358974 , 4130.25641026 , 4128.71794872 , 4128.71794872 , 4127.69230769 , 4127.69230769 , 4131.28205128 , 4130.76923077 , 4136.41025641 , 4187.69230769 , 4909.74358974 , 4130.25641026 , 4135.38461538 , 2043.0 , 2035.0 , 61.364 , 0.0 , 0.0 , 0.0 , 0.0 , 

122.0 , 4128.20512821 , 4130.76923077 , 4130.76923077 , 4128.20512821 , 4126.66666667 , 4126.15384615 , 4125.64102564 , 4130.25641026 , 4129.74358974 , 4137.43589744 , 4189.74358974 , 4907.69230769 , 4130.25641026 , 4136.41025641 , 2042.0 , 2035.0 , 61.372 , 0.0 , 0.0 , 0.0 , 0.0 , 

123.0 , 4129.23076923 , 4128.20512821 , 4131.79487179 , 4127.69230769 , 4126.66666667 , 4126.15384615 , 4124.61538462 , 4131.28205128 , 4130.76923077 , 4136.92307692 , 4191.28205128 , 4908.20512821 , 4131.79487179 , 4136.41025641 , 2041.0 , 2035.0 , 61.38 , 0.0 , 0.0 , 0.0 , 0.0 , 

124.0 , 4128.20512821 , 4126.15384615 , 4129.23076923 , 4126.66666667 , 4127.17948718 , 4128.71794872 , 4126.66666667 , 4131.28205128 , 4130.25641026 , 4135.8974359 , 4187.17948718 , 4906.66666667 , 4132.30769231 , 4134.35897436 , 2042.0 , 2035.0 , 61.389 , 0.0 , 0.0 , 0.0 , 0.0 , 

125.0 , 4127.69230769 , 4129.23076923 , 4131.79487179 , 4127.69230769 , 4127.69230769 , 4128.20512821 , 4125.64102564 , 4126.66666667 , 4129.23076923 , 4135.8974359 , 4185.12820513 , 4905.64102564 , 4130.76923077 , 4134.87179487 , 2042.0 , 2034.0 , 61.397 , 0.0 , 0.0 , 0.0 , 0.0 , 

126.0 , 4127.69230769 , 4129.23076923 , 4133.84615385 , 4127.69230769 , 4129.23076923 , 4126.66666667 , 4124.1025641 , 4126.66666667 , 4130.76923077 , 4136.41025641 , 4186.66666667 , 4908.20512821 , 4130.25641026 , 4134.35897436 , 2041.0 , 2035.0 , 61.403 , 0.0 , 0.0 , 0.0 , 0.0 , 

127.0 , 4129.74358974 , 4127.17948718 , 4132.30769231 , 4126.15384615 , 4128.71794872 , 4126.15384615 , 4125.64102564 , 4130.25641026 , 4130.76923077 , 4135.8974359 , 4184.61538462 , 4911.28205128 , 4132.30769231 , 4134.35897436 , 2040.0 , 2036.0 , 61.412 , 0.0 , 0.0 , 0.0 , 0.0 , 

128.0 , 4130.76923077 , 4125.64102564 , 4130.25641026 , 4126.66666667 , 4127.69230769 , 4124.61538462 , 4128.20512821 , 4128.20512821 , 4129.74358974 , 4135.8974359 , 4184.61538462 , 4907.17948718 , 4132.30769231 , 4135.8974359 , 2041.0 , 2034.0 , 61.419 , 0.0 , 0.0 , 0.0 , 0.0 , 

0.0 , 4128.20512821 , 4126.66666667 , 4131.28205128 , 4130.25641026 , 4127.69230769 , 4124.61538462 , 4129.23076923 , 4127.69230769 , 4128.71794872 , 4135.8974359 , 4186.66666667 , 4904.1025641 , 4128.20512821 , 4135.38461538 , 2042.0 , 2034.0 , 61.428 , 0.0 , 0.0 , 0.0 , 0.0 , 

1.0 , 4127.69230769 , 4130.76923077 , 4131.28205128 , 4132.30769231 , 4127.69230769 , 4125.12820513 , 4125.64102564 , 4130.25641026 , 4127.17948718 , 4135.8974359 , 4187.17948718 , 4907.17948718 , 4128.71794872 , 4132.82051282 , 2042.0 , 2035.0 , 61.435 , 0.0 , 0.0 , 0.0 , 0.0 , 

2.0 , 4130.25641026 , 4130.25641026 , 4127.17948718 , 4130.76923077 , 4128.20512821 , 4124.1025641 , 4122.56410256 , 4130.76923077 , 4129.23076923 , 4135.8974359 , 4186.15384615 , 4905.12820513 , 4131.79487179 , 4132.82051282 , 2042.0 , 2036.0 , 61.444 , 0.0 , 0.0 , 0.0 , 0.0 , 

3.0 , 4131.79487179 , 4126.15384615 , 4128.71794872 , 4128.71794872 , 4129.23076923 , 4127.17948718 , 4125.12820513 , 4129.74358974 , 4130.76923077 , 4135.8974359 , 4187.17948718 , 4906.66666667 , 4131.79487179 , 4134.87179487 , 2041.0 , 2036.0 , 61.451 , 0.0 , 0.0 , 0.0 , 0.0 , 

4.0 , 4128.20512821 , 4124.1025641 , 4126.66666667 , 4127.17948718 , 4127.69230769 , 4128.71794872 , 4124.61538462 , 4132.30769231 , 4129.74358974 , 4135.8974359 , 4188.20512821 , 4908.20512821 , 4131.28205128 , 4133.84615385 , 2042.0 , 2036.0 , 61.459 , 0.0 , 0.0 , 0.0 , 0.0 , 

5.0 , 4127.17948718 , 4126.15384615 , 4127.17948718 , 4130.25641026 , 4126.66666667 , 4124.61538462 , 4122.05128205 , 4131.79487179 , 4129.23076923 , 4135.8974359 , 4188.71794872 , 4910.76923077 , 4132.82051282 , 4135.8974359 , 2041.0 , 2035.0 , 61.474 , 0.0 , 0.0 , 0.0 , 0.0 , 

6.0 , 4127.17948718 , 4124.1025641 , 4127.69230769 , 4131.28205128 , 4128.20512821 , 4124.61538462 , 4124.1025641 , 4132.30769231 , 4130.25641026 , 4135.8974359 , 4185.12820513 , 4909.23076923 , 4132.82051282 , 4136.41025641 , 2041.0 , 2034.0 , 61.478 , 0.0 , 0.0 , 0.0 , 0.0 , 

7.0 , 4130.25641026 , 4125.12820513 , 4133.33333333 , 4128.20512821 , 4128.71794872 , 4128.71794872 , 4127.69230769 , 4132.30769231 , 4128.71794872 , 4135.8974359 , 4184.61538462 , 4909.23076923 , 4131.79487179 , 4134.35897436 , 2042.0 , 2035.0 , 61.482 , 0.0 , 0.0 , 0.0 , 0.0 , 

8.0 , 4129.74358974 , 4129.23076923 , 4130.76923077 , 4127.17948718 , 4128.20512821 , 4129.74358974 , 4125.64102564 , 4129.74358974 , 4129.74358974 , 4135.8974359 , 4189.23076923 , 4906.66666667 , 4130.76923077 , 4131.79487179 , 2041.0 , 2037.0 , 61.49 , 0.0 , 0.0 , 0.0 , 0.0 , 

9.0 , 4128.71794872 , 4130.76923077 , 4131.28205128 , 4128.71794872 , 4126.15384615 , 4127.17948718 , 4125.12820513 , 4128.20512821 , 4130.25641026 , 4135.8974359 , 4191.28205128 , 4910.76923077 , 4130.76923077 , 4133.33333333 , 2041.0 , 2038.0 , 61.498 , 0.0 , 0.0 , 0.0 , 0.0 , 

10.0 , 4127.69230769 , 4125.64102564 , 4129.74358974 , 4128.20512821 , 4126.15384615 , 4126.66666667 , 4126.15384615 , 4133.33333333 , 4130.76923077 , 4135.8974359 , 4187.69230769 , 4908.71794872 , 4132.30769231 , 4134.87179487 , 2042.0 , 2036.0 , 61.507 , 0.0 , 0.0 , 0.0 , 0.0 , 

11.0 , 4130.76923077 , 4125.64102564 , 4132.82051282 , 4127.69230769 , 4128.20512821 , 4126.66666667 , 4125.12820513 , 4132.30769231 , 4131.28205128 , 4136.92307692 , 4186.66666667 , 4907.17948718 , 4131.28205128 , 4136.41025641 , 2041.0 , 2036.0 , 61.514 , 0.0 , 0.0 , 0.0 , 0.0 , 

12.0 , 4130.25641026 , 4129.74358974 , 4132.82051282 , 4129.74358974 , 4128.71794872 , 4127.17948718 , 4124.1025641 , 4127.69230769 , 4131.28205128 , 4137.94871795 , 4187.17948718 , 4906.15384615 , 4129.23076923 , 4134.35897436 , 2041.0 , 2034.0 , 61.523 , 0.0 , 0.0 , 0.0 , 0.0 , 

13.0 , 4129.23076923 , 4129.74358974 , 4134.35897436 , 4129.74358974 , 4127.17948718 , 4124.61538462 , 4124.61538462 , 4127.69230769 , 4128.71794872 , 4137.94871795 , 4189.23076923 , 4908.71794872 , 4131.28205128 , 4133.84615385 , 2042.0 , 2036.0 , 61.529 , 0.0 , 0.0 , 0.0 , 0.0 , 

14.0 , 4129.23076923 , 4126.66666667 , 4132.30769231 , 4129.74358974 , 4128.71794872 , 4125.64102564 , 4127.69230769 , 4131.79487179 , 4128.71794872 , 4137.43589744 , 4188.71794872 , 4906.15384615 , 4132.82051282 , 4135.38461538 , 2041.0 , 2036.0 , 61.537 , 0.0 , 0.0 , 0.0 , 0.0 , 

15.0 , 4131.28205128 , 4128.20512821 , 4131.28205128 , 4132.30769231 , 4131.28205128 , 4129.74358974 , 4128.20512821 , 4133.33333333 , 4129.74358974 , 4137.94871795 , 4185.64102564 , 4907.17948718 , 4131.28205128 , 4136.41025641 , 2040.0 , 2034.0 , 61.545 , 0.0 , 0.0 , 0.0 , 0.0 , 

16.0 , 4128.71794872 , 4129.23076923 , 4130.25641026 , 4130.76923077 , 4129.74358974 , 4129.23076923 , 4126.15384615 , 4131.79487179 , 4129.23076923 , 4137.94871795 , 4183.07692308 , 4910.76923077 , 4129.74358974 , 4133.33333333 , 2042.0 , 2035.0 , 61.553 , 0.0 , 0.0 , 0.0 , 0.0 , 

17.0 , 4126.66666667 , 4126.66666667 , 4130.76923077 , 4128.71794872 , 4127.17948718 , 4126.66666667 , 4125.64102564 , 4129.74358974 , 4127.17948718 , 4137.43589744 , 4184.61538462 , 4908.71794872 , 4130.76923077 , 4131.79487179 , 2043.0 , 2036.0 , 61.561 , 0.0 , 0.0 , 0.0 , 0.0 , 

18.0 , 4128.71794872 , 4125.12820513 , 4129.74358974 , 4130.25641026 , 4127.69230769 , 4127.17948718 , 4127.69230769 , 4128.71794872 , 4126.66666667 , 4137.94871795 , 4184.1025641 , 4907.17948718 , 4131.79487179 , 4133.33333333 , 2040.0 , 2035.0 , 61.57 , 0.0 , 0.0 , 0.0 , 0.0 , 

19.0 , 4128.71794872 , 4127.69230769 , 4127.69230769 , 4129.74358974 , 4128.71794872 , 4127.17948718 , 4130.25641026 , 4129.23076923 , 4128.71794872 , 4137.43589744 , 4183.07692308 , 4909.23076923 , 4130.76923077 , 4134.35897436 , 2042.0 , 2034.0 , 61.577 , 0.0 , 0.0 , 0.0 , 0.0 , 

20.0 , 4127.17948718 , 4129.74358974 , 4128.20512821 , 4129.74358974 , 4127.69230769 , 4128.20512821 , 4127.69230769 , 4129.23076923 , 4130.25641026 , 4137.43589744 , 4186.15384615 , 4909.74358974 , 4131.79487179 , 4134.87179487 , 2041.0 , 2035.0 , 61.586 , 0.0 , 0.0 , 0.0 , 0.0 , 

21.0 , 4130.76923077 , 4126.15384615 , 4128.20512821 , 4130.76923077 , 4126.15384615 , 4127.69230769 , 4123.07692308 , 4131.28205128 , 4128.20512821 , 4137.43589744 , 4188.71794872 , 4904.61538462 , 4131.28205128 , 4134.87179487 , 2041.0 , 2033.0 , 61.593 , 0.0 , 0.0 , 0.0 , 0.0 , 

22.0 , 4133.33333333 , 4124.1025641 , 4131.28205128 , 4129.23076923 , 4127.17948718 , 4124.61538462 , 4122.05128205 , 4132.82051282 , 4130.25641026 , 4137.43589744 , 4189.74358974 , 4906.66666667 , 4129.74358974 , 4136.41025641 , 2043.0 , 2036.0 , 61.601 , 0.0 , 0.0 , 0.0 , 0.0 , 

23.0 , 4128.20512821 , 4127.69230769 , 4130.25641026 , 4128.20512821 , 4131.28205128 , 4125.12820513 , 4124.61538462 , 4131.79487179 , 4133.84615385 , 4137.43589744 , 4187.69230769 , 4908.71794872 , 4129.23076923 , 4133.84615385 , 2041.0 , 2035.0 , 61.608 , 0.0 , 0.0 , 0.0 , 0.0 , 

24.0 , 4128.71794872 , 4129.74358974 , 4131.28205128 , 4129.23076923 , 4129.74358974 , 4126.66666667 , 4124.1025641 , 4128.20512821 , 4129.74358974 , 4137.43589744 , 4186.15384615 , 4910.25641026 , 4132.82051282 , 4132.30769231 , 2040.0 , 2035.0 , 61.616 , 0.0 , 0.0 , 0.0 , 0.0 , 

25.0 , 4128.71794872 , 4127.17948718 , 4129.74358974 , 4129.23076923 , 4125.64102564 , 4124.61538462 , 4123.58974359 , 4128.20512821 , 4126.66666667 , 4137.94871795 , 4185.64102564 , 4908.20512821 , 4132.82051282 , 4133.33333333 , 2042.0 , 2035.0 , 61.624 , 0.0 , 0.0 , 0.0 , 0.0 , 

26.0 , 4128.71794872 , 4129.74358974 , 4130.76923077 , 4128.20512821 , 4127.17948718 , 4126.15384615 , 4125.64102564 , 4128.71794872 , 4127.69230769 , 4137.43589744 , 4186.66666667 , 4910.25641026 , 4131.28205128 , 4135.38461538 , 2044.0 , 2035.0 , 61.632 , 0.0 , 0.0 , 0.0 , 0.0 , 

27.0 , 4127.17948718 , 4130.25641026 , 4128.71794872 , 4127.17948718 , 4130.25641026 , 4128.71794872 , 4125.12820513 , 4129.74358974 , 4129.23076923 , 4137.43589744 , 4185.12820513 , 4906.15384615 , 4132.82051282 , 4133.84615385 , 2042.0 , 2035.0 , 61.64 , 0.0 , 0.0 , 0.0 , 0.0 , 

28.0 , 4128.20512821 , 4130.76923077 , 4132.30769231 , 4126.66666667 , 4127.69230769 , 4126.15384615 , 4123.58974359 , 4129.23076923 , 4129.23076923 , 4137.43589744 , 4185.12820513 , 4904.1025641 , 4132.30769231 , 4131.79487179 , 2041.0 , 2033.0 , 61.648 , 0.0 , 0.0 , 0.0 , 0.0 , 

29.0 , 4128.71794872 , 4129.74358974 , 4129.74358974 , 4129.23076923 , 4126.66666667 , 4127.17948718 , 4123.07692308 , 4131.79487179 , 4132.82051282 , 4137.43589744 , 4187.69230769 , 4904.1025641 , 4128.20512821 , 4131.79487179 , 2042.0 , 2035.0 , 61.656 , 0.0 , 0.0 , 0.0 , 0.0 , 

30.0 , 4130.76923077 , 4129.23076923 , 4129.23076923 , 4131.28205128 , 4129.74358974 , 4129.74358974 , 4123.07692308 , 4131.79487179 , 4130.76923077 , 4137.43589744 , 4189.74358974 , 4909.74358974 , 4130.25641026 , 4135.8974359 , 2043.0 , 2037.0 , 61.664 , 0.0 , 0.0 , 0.0 , 0.0 , 

31.0 , 4128.71794872 , 4126.66666667 , 4130.25641026 , 4131.28205128 , 4130.25641026 , 4126.15384615 , 4123.07692308 , 4129.74358974 , 4129.23076923 , 4137.43589744 , 4187.17948718 , 4909.23076923 , 4132.82051282 , 4136.41025641 , 2040.0 , 2034.0 , 61.676 , 0.0 , 0.0 , 0.0 , 0.0 , 

32.0 , 4127.17948718 , 4127.69230769 , 4132.82051282 , 4130.76923077 , 4130.25641026 , 4122.05128205 , 4123.58974359 , 4128.71794872 , 4131.28205128 , 4137.94871795 , 4187.17948718 , 4907.17948718 , 4129.74358974 , 4134.35897436 , 2042.0 , 2035.0 , 61.679 , 0.0 , 0.0 , 0.0 , 0.0 , 

33.0 , 4127.17948718 , 4129.23076923 , 4129.74358974 , 4129.74358974 , 4129.23076923 , 4122.56410256 , 4124.1025641 , 4131.79487179 , 4131.79487179 , 4137.43589744 , 4189.74358974 , 4906.66666667 , 4127.69230769 , 4133.84615385 , 2042.0 , 2035.0 , 61.687 , 0.0 , 0.0 , 0.0 , 0.0 , 

34.0 , 4130.76923077 , 4128.71794872 , 4128.71794872 , 4129.74358974 , 4126.66666667 , 4125.64102564 , 4121.53846154 , 4132.30769231 , 4130.25641026 , 4137.43589744 , 4190.25641026 , 4908.20512821 , 4130.76923077 , 4135.38461538 , 2041.0 , 2034.0 , 61.696 , 0.0 , 0.0 , 0.0 , 0.0 , 

35.0 , 4130.76923077 , 4127.69230769 , 4129.74358974 , 4128.20512821 , 4127.69230769 , 4126.66666667 , 4121.53846154 , 4130.25641026 , 4130.76923077 , 4137.43589744 , 4187.69230769 , 4906.66666667 , 4130.76923077 , 4135.38461538 , 2042.0 , 2035.0 , 61.704 , 0.0 , 0.0 , 0.0 , 0.0 , 

36.0 , 4127.69230769 , 4127.17948718 , 4131.79487179 , 4126.66666667 , 4129.74358974 , 4125.64102564 , 4124.1025641 , 4130.25641026 , 4130.76923077 , 4137.43589744 , 4186.66666667 , 4907.69230769 , 4130.25641026 , 4134.87179487 , 2042.0 , 2036.0 , 61.711 , 0.0 , 0.0 , 0.0 , 0.0 , 

37.0 , 4129.23076923 , 4128.20512821 , 4131.79487179 , 4129.23076923 , 4128.20512821 , 4125.12820513 , 4124.1025641 , 4130.25641026 , 4129.23076923 , 4137.43589744 , 4186.66666667 , 4911.79487179 , 4130.25641026 , 4135.38461538 , 2042.0 , 2036.0 , 61.719 , 0.0 , 0.0 , 0.0 , 0.0 , 

38.0 , 4132.82051282 , 4127.69230769 , 4130.25641026 , 4130.76923077 , 4126.66666667 , 4124.1025641 , 4124.1025641 , 4130.25641026 , 4129.23076923 , 4137.43589744 , 4186.15384615 , 4909.74358974 , 4128.71794872 , 4136.92307692 , 2042.0 , 2036.0 , 61.728 , 0.0 , 0.0 , 0.0 , 0.0 , 

39.0 , 4131.79487179 , 4128.20512821 , 4133.33333333 , 4129.23076923 , 4128.71794872 , 4123.58974359 , 4125.64102564 , 4130.76923077 , 4131.79487179 , 4137.94871795 , 4188.20512821 , 4906.66666667 , 4129.23076923 , 4138.46153846 , 2042.0 , 2035.0 , 61.734 , 0.0 , 0.0 , 0.0 , 0.0 , 

40.0 , 4129.74358974 , 4128.20512821 , 4129.74358974 , 4128.20512821 , 4129.74358974 , 4124.61538462 , 4124.1025641 , 4131.28205128 , 4133.33333333 , 4137.43589744 , 4188.71794872 , 4906.15384615 , 4131.28205128 , 4135.38461538 , 2039.0 , 2036.0 , 61.742 , 0.0 , 0.0 , 0.0 , 0.0 , 

41.0 , 4130.25641026 , 4128.20512821 , 4128.71794872 , 4129.23076923 , 4128.20512821 , 4124.61538462 , 4122.56410256 , 4130.76923077 , 4128.20512821 , 4137.43589744 , 4188.71794872 , 4908.20512821 , 4131.28205128 , 4133.33333333 , 2042.0 , 2035.0 , 61.75 , 0.0 , 0.0 , 0.0 , 0.0 , 

42.0 , 4127.17948718 , 4127.69230769 , 4128.20512821 , 4129.74358974 , 4128.20512821 , 4123.58974359 , 4122.56410256 , 4130.76923077 , 4126.66666667 , 4137.43589744 , 4187.69230769 , 4905.64102564 , 4129.74358974 , 4134.35897436 , 2041.0 , 2035.0 , 61.758 , 0.0 , 0.0 , 0.0 , 0.0 , 

43.0 , 4128.20512821 , 4128.71794872 , 4130.25641026 , 4130.76923077 , 4130.25641026 , 4125.64102564 , 4122.56410256 , 4128.71794872 , 4129.74358974 , 4137.43589744 , 4188.20512821 , 4909.23076923 , 4131.28205128 , 4137.43589744 , 2042.0 , 2036.0 , 61.767 , 0.0 , 0.0 , 0.0 , 0.0 , 

44.0 , 4128.71794872 , 4127.17948718 , 4127.69230769 , 4130.25641026 , 4132.30769231 , 4130.25641026 , 4123.58974359 , 4130.25641026 , 4131.79487179 , 4137.43589744 , 4188.71794872 , 4908.20512821 , 4130.25641026 , 4134.35897436 , 2041.0 , 2036.0 , 61.777 , 0.0 , 0.0 , 0.0 , 0.0 , 

45.0 , 4129.74358974 , 4128.71794872 , 4130.25641026 , 4130.25641026 , 4129.74358974 , 4127.17948718 , 4124.1025641 , 4130.25641026 , 4130.25641026 , 4137.43589744 , 4189.74358974 , 4908.20512821 , 4127.17948718 , 4131.79487179 , 2041.0 , 2036.0 , 61.782 , 0.0 , 0.0 , 0.0 , 0.0 , 

46.0 , 4129.23076923 , 4129.23076923 , 4128.71794872 , 4131.28205128 , 4128.20512821 , 4124.1025641 , 4124.61538462 , 4129.23076923 , 4128.20512821 , 4137.94871795 , 4186.15384615 , 4906.15384615 , 4129.23076923 , 4133.33333333 , 2042.0 , 2036.0 , 61.79 , 0.0 , 0.0 , 0.0 , 0.0 , 

47.0 , 4131.28205128 , 4129.23076923 , 4130.25641026 , 4131.79487179 , 4131.79487179 , 4127.17948718 , 4125.64102564 , 4128.71794872 , 4125.64102564 , 4137.43589744 , 4185.12820513 , 4910.25641026 , 4132.82051282 , 4136.41025641 , 2041.0 , 2036.0 , 61.797 , 0.0 , 0.0 , 0.0 , 0.0 , 

48.0 , 4130.25641026 , 4126.66666667 , 4130.25641026 , 4130.76923077 , 4132.30769231 , 4128.20512821 , 4124.61538462 , 4130.76923077 , 4126.66666667 , 4137.43589744 , 4186.15384615 , 4907.69230769 , 4129.23076923 , 4134.87179487 , 2041.0 , 2035.0 , 61.806 , 0.0 , 0.0 , 0.0 , 0.0 , 

49.0 , 4132.82051282 , 4127.69230769 , 4132.82051282 , 4129.74358974 , 4127.17948718 , 4123.58974359 , 4122.56410256 , 4131.28205128 , 4128.71794872 , 4137.43589744 , 4187.69230769 , 4905.12820513 , 4126.15384615 , 4132.82051282 , 2041.0 , 2037.0 , 61.813 , 0.0 , 0.0 , 0.0 , 0.0 , 

50.0 , 4131.79487179 , 4126.66666667 , 4130.76923077 , 4128.71794872 , 4125.64102564 , 4124.1025641 , 4123.58974359 , 4131.28205128 , 4129.74358974 , 4137.43589744 , 4186.15384615 , 4907.17948718 , 4129.23076923 , 4132.82051282 , 2041.0 , 2037.0 , 61.822 , 0.0 , 0.0 , 0.0 , 0.0 , 

51.0 , 4130.25641026 , 4127.69230769 , 4131.28205128 , 4130.25641026 , 4128.71794872 , 4128.71794872 , 4123.58974359 , 4130.25641026 , 4129.23076923 , 4137.43589744 , 4185.12820513 , 4911.28205128 , 4130.76923077 , 4136.41025641 , 2041.0 , 2036.0 , 61.83 , 0.0 , 0.0 , 0.0 , 0.0 , 

52.0 , 4129.74358974 , 4129.74358974 , 4129.23076923 , 4130.76923077 , 4129.23076923 , 4128.71794872 , 4123.07692308 , 4129.74358974 , 4131.79487179 , 4137.43589744 , 4185.64102564 , 4908.20512821 , 4127.69230769 , 4136.41025641 , 2041.0 , 2036.0 , 61.838 , 0.0 , 0.0 , 0.0 , 0.0 , 

53.0 , 4128.20512821 , 4126.66666667 , 4129.23076923 , 4128.20512821 , 4128.20512821 , 4124.61538462 , 4124.1025641 , 4128.71794872 , 4133.33333333 , 4137.94871795 , 4187.69230769 , 4908.20512821 , 4130.76923077 , 4135.38461538 , 2041.0 , 2035.0 , 61.846 , 0.0 , 0.0 , 0.0 , 0.0 , 

54.0 , 4127.17948718 , 4126.15384615 , 4130.76923077 , 4128.20512821 , 4128.20512821 , 4123.58974359 , 4124.61538462 , 4129.74358974 , 4132.82051282 , 4137.43589744 , 4186.15384615 , 4911.28205128 , 4133.84615385 , 4135.8974359 , 2042.0 , 2033.0 , 61.854 , 0.0 , 0.0 , 0.0 , 0.0 , 

55.0 , 4126.15384615 , 4129.74358974 , 4130.25641026 , 4130.25641026 , 4126.66666667 , 4124.1025641 , 4123.58974359 , 4131.28205128 , 4131.79487179 , 4137.43589744 , 4185.12820513 , 4909.23076923 , 4131.28205128 , 4134.35897436 , 2042.0 , 2034.0 , 61.86 , 0.0 , 0.0 , 0.0 , 0.0 , 

56.0 , 4128.71794872 , 4128.20512821 , 4129.74358974 , 4129.23076923 , 4126.66666667 , 4125.64102564 , 4124.1025641 , 4129.74358974 , 4132.30769231 , 4137.94871795 , 4188.20512821 , 4906.66666667 , 4129.74358974 , 4131.79487179 , 2042.0 , 2035.0 , 61.868 , 0.0 , 0.0 , 0.0 , 0.0 , 

57.0 , 4131.28205128 , 4126.15384615 , 4128.20512821 , 4128.71794872 , 4129.23076923 , 4125.12820513 , 4123.58974359 , 4129.23076923 , 4132.82051282 , 4137.94871795 , 4188.20512821 , 4907.17948718 , 4130.25641026 , 4133.84615385 , 2041.0 , 2034.0 , 61.876 , 0.0 , 0.0 , 0.0 , 0.0 , 

58.0 , 4132.82051282 , 4130.25641026 , 4129.74358974 , 4130.25641026 , 4130.25641026 , 4124.1025641 , 4124.61538462 , 4131.28205128 , 4128.20512821 , 4137.43589744 , 4185.12820513 , 4909.74358974 , 4130.25641026 , 4136.41025641 , 2041.0 , 2036.0 , 61.884 , 0.0 , 0.0 , 0.0 , 0.0 , 

59.0 , 4128.71794872 , 4129.74358974 , 4128.20512821 , 4129.23076923 , 4128.71794872 , 4125.64102564 , 4129.74358974 , 4132.30769231 , 4128.71794872 , 4137.43589744 , 4186.15384615 , 4908.20512821 , 4130.25641026 , 4134.87179487 , 2041.0 , 2036.0 , 61.892 , 0.0 , 0.0 , 0.0 , 0.0 , 

60.0 , 4128.71794872 , 4127.17948718 , 4128.71794872 , 4128.71794872 , 4126.66666667 , 4128.71794872 , 4129.74358974 , 4129.74358974 , 4131.28205128 , 4137.94871795 , 4188.20512821 , 4908.71794872 , 4131.28205128 , 4133.84615385 , 2041.0 , 2036.0 , 61.9 , 0.0 , 0.0 , 0.0 , 0.0 , 

61.0 , 4130.25641026 , 4127.69230769 , 4125.64102564 , 4130.25641026 , 4128.20512821 , 4128.20512821 , 4124.1025641 , 4130.25641026 , 4130.76923077 , 4136.92307692 , 4185.12820513 , 4908.20512821 , 4130.76923077 , 4132.30769231 , 2040.0 , 2035.0 , 61.909 , 0.0 , 0.0 , 0.0 , 0.0 , 

62.0 , 4130.25641026 , 4130.76923077 , 4129.23076923 , 4131.28205128 , 4127.69230769 , 4123.58974359 , 4122.56410256 , 4131.28205128 , 4130.76923077 , 4135.8974359 , 4186.15384615 , 4911.28205128 , 4129.74358974 , 4134.87179487 , 2042.0 , 2036.0 , 61.918 , 0.0 , 0.0 , 0.0 , 0.0 , 

63.0 , 4127.69230769 , 4127.69230769 , 4130.76923077 , 4129.74358974 , 4127.69230769 , 4124.61538462 , 4123.07692308 , 4130.76923077 , 4133.84615385 , 4135.8974359 , 4188.20512821 , 4907.69230769 , 4130.25641026 , 4134.35897436 , 2041.0 , 2036.0 , 61.923 , 0.0 , 0.0 , 0.0 , 0.0 , 

64.0 , 4130.76923077 , 4128.71794872 , 4129.74358974 , 4129.74358974 , 4129.74358974 , 4131.79487179 , 4123.07692308 , 4127.69230769 , 4131.28205128 , 4137.43589744 , 4188.20512821 , 4908.71794872 , 4131.28205128 , 4132.30769231 , 2042.0 , 2034.0 , 61.932 , 0.0 , 0.0 , 0.0 , 0.0 , 

65.0 , 4130.76923077 , 4127.17948718 , 4126.66666667 , 4128.71794872 , 4129.23076923 , 4135.38461538 , 4124.61538462 , 4130.76923077 , 4130.25641026 , 4137.94871795 , 4187.69230769 , 4909.74358974 , 4129.23076923 , 4132.82051282 , 2041.0 , 2034.0 , 61.94 , 0.0 , 0.0 , 0.0 , 0.0 , 

66.0 , 4131.79487179 , 4125.12820513 , 4132.30769231 , 4127.69230769 , 4127.17948718 , 4129.74358974 , 4126.15384615 , 4130.76923077 , 4133.33333333 , 4137.43589744 , 4188.20512821 , 4910.25641026 , 4129.74358974 , 4135.8974359 , 2041.0 , 2036.0 , 61.948 , 0.0 , 0.0 , 0.0 , 0.0 , 

67.0 , 4130.76923077 , 4125.64102564 , 4131.79487179 , 4128.71794872 , 4128.71794872 , 4127.17948718 , 4123.58974359 , 4129.23076923 , 4134.35897436 , 4137.43589744 , 4186.15384615 , 4906.15384615 , 4131.79487179 , 4133.84615385 , 2042.0 , 2036.0 , 61.955 , 0.0 , 0.0 , 0.0 , 0.0 , 

68.0 , 4129.23076923 , 4128.20512821 , 4128.20512821 , 4130.76923077 , 4128.71794872 , 4127.17948718 , 4123.58974359 , 4131.79487179 , 4132.30769231 , 4137.94871795 , 4187.69230769 , 4906.66666667 , 4130.25641026 , 4133.84615385 , 2042.0 , 2035.0 , 61.963 , 0.0 , 0.0 , 0.0 , 0.0 , 

69.0 , 4129.23076923 , 4127.17948718 , 4125.64102564 , 4130.76923077 , 4126.66666667 , 4126.66666667 , 4128.20512821 , 4133.33333333 , 4134.35897436 , 4137.94871795 , 4187.17948718 , 4908.20512821 , 4127.69230769 , 4135.38461538 , 2041.0 , 2036.0 , 61.971 , 0.0 , 0.0 , 0.0 , 0.0 , 

70.0 , 4131.28205128 , 4127.69230769 , 4129.74358974 , 4130.76923077 , 4128.71794872 , 4127.17948718 , 4129.74358974 , 4129.23076923 , 4133.84615385 , 4137.94871795 , 4184.61538462 , 4909.23076923 , 4128.71794872 , 4135.8974359 , 2041.0 , 2036.0 , 61.98 , 0.0 , 0.0 , 0.0 , 0.0 , 

71.0 , 4128.20512821 , 4127.69230769 , 4129.74358974 , 4131.79487179 , 4130.25641026 , 4128.20512821 , 4125.12820513 , 4128.20512821 , 4131.28205128 , 4137.94871795 , 4184.1025641 , 4906.66666667 , 4130.76923077 , 4136.41025641 , 2042.0 , 2035.0 , 61.987 , 0.0 , 0.0 , 0.0 , 0.0 , 

72.0 , 4128.71794872 , 4128.20512821 , 4128.71794872 , 4130.25641026 , 4129.23076923 , 4126.15384615 , 4122.56410256 , 4130.25641026 , 4130.76923077 , 4137.43589744 , 4186.66666667 , 4907.69230769 , 4131.28205128 , 4135.38461538 , 2042.0 , 2035.0 , 61.994 , 0.0 , 0.0 , 0.0 , 0.0 , 

73.0 , 4130.76923077 , 4128.71794872 , 4131.28205128 , 4128.71794872 , 4129.74358974 , 4126.66666667 , 4127.17948718 , 4130.25641026 , 4130.25641026 , 4136.41025641 , 4189.23076923 , 4910.25641026 , 4130.25641026 , 4134.87179487 , 2042.0 , 2036.0 , 62.002 , 0.0 , 0.0 , 0.0 , 0.0 , 

74.0 , 4129.74358974 , 4126.66666667 , 4131.28205128 , 4129.74358974 , 4128.71794872 , 4126.15384615 , 4129.23076923 , 4130.76923077 , 4132.30769231 , 4135.8974359 , 4187.17948718 , 4910.25641026 , 4128.71794872 , 4136.41025641 , 2042.0 , 2034.0 , 62.01 , 0.0 , 0.0 , 0.0 , 0.0 , 

75.0 , 4129.74358974 , 4124.1025641 , 4130.25641026 , 4131.79487179 , 4126.15384615 , 4124.61538462 , 4125.12820513 , 4130.25641026 , 4133.33333333 , 4135.8974359 , 4185.12820513 , 4909.74358974 , 4129.23076923 , 4135.38461538 , 2042.0 , 2034.0 , 62.019 , 0.0 , 0.0 , 0.0 , 0.0 , 

76.0 , 4128.71794872 , 4125.12820513 , 4128.71794872 , 4131.28205128 , 4128.71794872 , 4126.66666667 , 4122.05128205 , 4130.76923077 , 4131.28205128 , 4135.8974359 , 4188.20512821 , 4907.17948718 , 4130.25641026 , 4133.33333333 , 2041.0 , 2036.0 , 62.027 , 0.0 , 0.0 , 0.0 , 0.0 , 

77.0 , 4129.23076923 , 4126.15384615 , 4132.30769231 , 4130.76923077 , 4131.28205128 , 4126.66666667 , 4124.61538462 , 4129.74358974 , 4130.76923077 , 4136.41025641 , 4190.25641026 , 4909.74358974 , 4129.74358974 , 4134.87179487 , 2041.0 , 2035.0 , 62.034 , 0.0 , 0.0 , 0.0 , 0.0 , 

78.0 , 4129.23076923 , 4125.64102564 , 4131.79487179 , 4129.74358974 , 4129.23076923 , 4126.15384615 , 4129.23076923 , 4129.74358974 , 4133.33333333 , 4135.38461538 , 4185.64102564 , 4907.69230769 , 4129.74358974 , 4134.35897436 , 2042.0 , 2035.0 , 62.042 , 0.0 , 0.0 , 0.0 , 0.0 , 

79.0 , 4132.30769231 , 4128.20512821 , 4132.30769231 , 4129.74358974 , 4126.66666667 , 4128.71794872 , 4128.20512821 , 4130.25641026 , 4130.76923077 , 4134.35897436 , 4185.12820513 , 4907.69230769 , 4131.79487179 , 4133.33333333 , 2042.0 , 2036.0 , 62.051 , 0.0 , 0.0 , 0.0 , 0.0 , 

80.0 , 4132.30769231 , 4126.15384615 , 4129.23076923 , 4130.76923077 , 4127.69230769 , 4128.71794872 , 4123.07692308 , 4131.79487179 , 4128.71794872 , 4136.41025641 , 4188.20512821 , 4905.64102564 , 4132.30769231 , 4135.8974359 , 2041.0 , 2035.0 , 62.059 , 0.0 , 0.0 , 0.0 , 0.0 , 

81.0 , 4132.82051282 , 4124.61538462 , 4130.25641026 , 4129.74358974 , 4129.23076923 , 4124.61538462 , 4123.07692308 , 4130.76923077 , 4130.25641026 , 4137.43589744 , 4189.23076923 , 4906.66666667 , 4131.28205128 , 4138.97435897 , 2041.0 , 2034.0 , 62.065 , 0.0 , 0.0 , 0.0 , 0.0 , 

82.0 , 4131.28205128 , 4126.15384615 , 4127.69230769 , 4127.17948718 , 4128.71794872 , 4124.61538462 , 4126.15384615 , 4132.30769231 , 4133.33333333 , 4136.41025641 , 4186.15384615 , 4903.07692308 , 4129.74358974 , 4135.8974359 , 2041.0 , 2035.0 , 62.073 , 0.0 , 0.0 , 0.0 , 0.0 , 

83.0 , 4131.28205128 , 4128.71794872 , 4128.71794872 , 4129.74358974 , 4126.66666667 , 4128.20512821 , 4125.12820513 , 4130.76923077 , 4133.84615385 , 4135.8974359 , 4185.64102564 , 4908.20512821 , 4131.28205128 , 4135.38461538 , 2041.0 , 2034.0 , 62.081 , 0.0 , 0.0 , 0.0 , 0.0 , 

84.0 , 4128.71794872 , 4128.20512821 , 4128.20512821 , 4129.74358974 , 4127.17948718 , 4127.69230769 , 4125.12820513 , 4127.69230769 , 4131.79487179 , 4136.41025641 , 4184.61538462 , 4909.74358974 , 4132.30769231 , 4134.87179487 , 2040.0 , 2033.0 , 62.089 , 0.0 , 0.0 , 0.0 , 0.0 , 

85.0 , 4128.20512821 , 4129.74358974 , 4130.25641026 , 4127.69230769 , 4128.20512821 , 4124.1025641 , 4129.74358974 , 4126.66666667 , 4130.25641026 , 4135.8974359 , 4184.1025641 , 4908.71794872 , 4131.79487179 , 4134.87179487 , 2040.0 , 2035.0 , 62.097 , 0.0 , 0.0 , 0.0 , 0.0 , 

86.0 , 4130.25641026 , 4127.69230769 , 4127.17948718 , 4129.23076923 , 4129.74358974 , 4125.12820513 , 4128.71794872 , 4128.71794872 , 4133.33333333 , 4135.8974359 , 4184.1025641 , 4907.69230769 , 4129.74358974 , 4134.35897436 , 2041.0 , 2037.0 , 62.106 , 0.0 , 0.0 , 0.0 , 0.0 , 

87.0 , 4131.79487179 , 4127.69230769 , 4129.74358974 , 4130.25641026 , 4132.82051282 , 4127.17948718 , 4124.61538462 , 4129.74358974 , 4132.82051282 , 4135.8974359 , 4186.15384615 , 4907.69230769 , 4130.76923077 , 4134.35897436 , 2042.0 , 2036.0 , 62.113 , 0.0 , 0.0 , 0.0 , 0.0 , 

88.0 , 4128.71794872 , 4129.23076923 , 4131.79487179 , 4126.66666667 , 4130.76923077 , 4125.12820513 , 4123.07692308 , 4130.25641026 , 4129.23076923 , 4135.8974359 , 4187.69230769 , 4904.61538462 , 4131.28205128 , 4134.35897436 , 2042.0 , 2036.0 , 62.121 , 0.0 , 0.0 , 0.0 , 0.0 , 

89.0 , 4128.20512821 , 4129.23076923 , 4132.30769231 , 4128.20512821 , 4127.69230769 , 4123.58974359 , 4122.05128205 , 4129.74358974 , 4129.74358974 , 4135.8974359 , 4188.20512821 , 4908.71794872 , 4128.20512821 , 4134.87179487 , 2040.0 , 2034.0 , 62.128 , 0.0 , 0.0 , 0.0 , 0.0 , 

90.0 , 4129.74358974 , 4127.17948718 , 4129.74358974 , 4130.25641026 , 4130.25641026 , 4126.15384615 , 4123.07692308 , 4129.23076923 , 4131.79487179 , 4135.8974359 , 4187.17948718 , 4911.28205128 , 4128.20512821 , 4134.87179487 , 2041.0 , 2033.0 , 62.136 , 0.0 , 0.0 , 0.0 , 0.0 , 

91.0 , 4131.79487179 , 4124.1025641 , 4128.71794872 , 4129.23076923 , 4129.23076923 , 4128.20512821 , 4124.61538462 , 4130.25641026 , 4132.30769231 , 4135.8974359 , 4187.17948718 , 4907.17948718 , 4132.30769231 , 4134.35897436 , 2041.0 , 2034.0 , 62.144 , 0.0 , 0.0 , 0.0 , 0.0 , 

92.0 , 4131.79487179 , 4123.07692308 , 4131.79487179 , 4129.74358974 , 4126.15384615 , 4128.20512821 , 4123.58974359 , 4130.25641026 , 4130.76923077 , 4135.8974359 , 4187.17948718 , 4907.17948718 , 4132.30769231 , 4133.84615385 , 2042.0 , 2036.0 , 62.152 , 0.0 , 0.0 , 0.0 , 0.0 , 

93.0 , 4131.28205128 , 4125.64102564 , 4131.28205128 , 4130.76923077 , 4128.71794872 , 4125.64102564 , 4124.1025641 , 4130.25641026 , 4130.76923077 , 4135.8974359 , 4187.69230769 , 4907.17948718 , 4130.25641026 , 4133.33333333 , 2040.0 , 2035.0 , 62.16 , 0.0 , 0.0 , 0.0 , 0.0 , 

94.0 , 4131.79487179 , 4127.69230769 , 4129.74358974 , 4128.20512821 , 4129.23076923 , 4124.61538462 , 4127.17948718 , 4128.71794872 , 4133.33333333 , 4136.41025641 , 4188.71794872 , 4906.15384615 , 4130.25641026 , 4133.33333333 , 2042.0 , 2034.0 , 62.17 , 0.0 , 0.0 , 0.0 , 0.0 , 

95.0 , 4126.66666667 , 4125.64102564 , 4128.71794872 , 4127.17948718 , 4128.71794872 , 4124.1025641 , 4125.12820513 , 4128.71794872 , 4132.82051282 , 4135.8974359 , 4186.15384615 , 4906.15384615 , 4131.28205128 , 4133.33333333 , 2042.0 , 2035.0 , 62.176 , 0.0 , 0.0 , 0.0 , 0.0 , 

96.0 , 4126.15384615 , 4128.20512821 , 4132.30769231 , 4128.71794872 , 4131.28205128 , 4124.1025641 , 4124.1025641 , 4129.74358974 , 4130.25641026 , 4135.8974359 , 4185.64102564 , 4910.25641026 , 4129.23076923 , 4136.41025641 , 2042.0 , 2035.0 , 62.184 , 0.0 , 0.0 , 0.0 , 0.0 , 

97.0 , 4130.25641026 , 4130.25641026 , 4130.76923077 , 4129.74358974 , 4131.79487179 , 4126.15384615 , 4127.17948718 , 4131.28205128 , 4133.84615385 , 4136.41025641 , 4187.17948718 , 4908.20512821 , 4125.12820513 , 4137.43589744 , 2043.0 , 2035.0 , 62.192 , 0.0 , 0.0 , 0.0 , 0.0 , 

98.0 , 4134.35897436 , 4127.69230769 , 4132.30769231 , 4130.25641026 , 4128.20512821 , 4125.64102564 , 4127.17948718 , 4129.23076923 , 4134.35897436 , 4136.92307692 , 4188.20512821 , 4908.71794872 , 4128.71794872 , 4136.41025641 , 2042.0 , 2033.0 , 62.201 , 0.0 , 0.0 , 0.0 , 0.0 , 

99.0 , 4133.33333333 , 4125.12820513 , 4131.28205128 , 4130.25641026 , 4129.23076923 , 4125.12820513 , 4124.1025641 , 4131.28205128 , 4131.28205128 , 4136.92307692 , 4186.15384615 , 4907.69230769 , 4134.35897436 , 4134.87179487 , 2041.0 , 2036.0 , 62.207 , 0.0 , 0.0 , 0.0 , 0.0 , 

100.0 , 4132.82051282 , 4128.20512821 , 4133.84615385 , 4130.76923077 , 4129.74358974 , 4128.20512821 , 4125.12820513 , 4131.28205128 , 4130.76923077 , 4137.43589744 , 4187.69230769 , 4908.71794872 , 4132.30769231 , 4135.38461538 , 2041.0 , 2036.0 , 62.215 , 0.0 , 0.0 , 0.0 , 0.0 , 

101.0 , 4127.69230769 , 4127.69230769 , 4131.28205128 , 4130.25641026 , 4128.20512821 , 4127.69230769 , 4125.64102564 , 4130.25641026 , 4131.28205128 , 4137.94871795 , 4186.66666667 , 4907.69230769 , 4127.69230769 , 4133.33333333 , 2040.0 , 2035.0 , 62.223 , 0.0 , 0.0 , 0.0 , 0.0 , 

102.0 , 4130.25641026 , 4128.71794872 , 4132.30769231 , 4128.71794872 , 4126.66666667 , 4123.58974359 , 4122.56410256 , 4130.25641026 , 4128.71794872 , 4137.43589744 , 4185.64102564 , 4909.74358974 , 4130.76923077 , 4134.87179487 , 2041.0 , 2035.0 , 62.232 , 0.0 , 0.0 , 0.0 , 0.0 , 

103.0 , 4132.82051282 , 4130.76923077 , 4131.28205128 , 4127.17948718 , 4126.15384615 , 4125.64102564 , 4123.07692308 , 4132.30769231 , 4131.28205128 , 4137.94871795 , 4185.12820513 , 4906.66666667 , 4132.30769231 , 4136.41025641 , 2042.0 , 2036.0 , 62.239 , 0.0 , 0.0 , 0.0 , 0.0 , 

104.0 , 4131.28205128 , 4127.69230769 , 4133.33333333 , 4128.71794872 , 4127.17948718 , 4127.17948718 , 4126.15384615 , 4131.28205128 , 4132.30769231 , 4137.94871795 , 4184.61538462 , 4907.69230769 , 4129.23076923 , 4135.8974359 , 2040.0 , 2035.0 , 62.247 , 0.0 , 0.0 , 0.0 , 0.0 , 

105.0 , 4128.71794872 , 4123.07692308 , 4130.76923077 , 4130.25641026 , 4129.74358974 , 4125.12820513 , 4124.61538462 , 4130.76923077 , 4129.74358974 , 4135.8974359 , 4185.64102564 , 4908.71794872 , 4129.74358974 , 4135.38461538 , 2040.0 , 2034.0 , 62.254 , 0.0 , 0.0 , 0.0 , 0.0 , 

106.0 , 4130.76923077 , 4128.20512821 , 4132.82051282 , 4129.23076923 , 4129.23076923 , 4127.17948718 , 4122.05128205 , 4130.76923077 , 4129.23076923 , 4134.87179487 , 4188.20512821 , 4910.25641026 , 4132.30769231 , 4135.8974359 , 2040.0 , 2036.0 , 62.263 , 0.0 , 0.0 , 0.0 , 0.0 , 

107.0 , 4132.30769231 , 4131.28205128 , 4133.33333333 , 4126.66666667 , 4128.20512821 , 4129.23076923 , 4124.61538462 , 4129.23076923 , 4132.82051282 , 4136.92307692 , 4187.17948718 , 4907.69230769 , 4131.79487179 , 4134.87179487 , 2040.0 , 2036.0 , 62.27 , 0.0 , 0.0 , 0.0 , 0.0 , 

108.0 , 4131.79487179 , 4127.69230769 , 4129.74358974 , 4126.66666667 , 4129.74358974 , 4125.12820513 , 4124.1025641 , 4129.23076923 , 4134.35897436 , 4138.46153846 , 4184.1025641 , 4906.66666667 , 4129.23076923 , 4134.87179487 , 2040.0 , 2036.0 , 62.278 , 0.0 , 0.0 , 0.0 , 0.0 , 

109.0 , 4129.74358974 , 4127.69230769 , 4127.69230769 , 4128.20512821 , 4130.76923077 , 4123.58974359 , 4123.07692308 , 4131.79487179 , 4132.30769231 , 4136.92307692 , 4186.15384615 , 4908.71794872 , 4128.71794872 , 4135.38461538 , 2041.0 , 2034.0 , 62.293 , 0.0 , 0.0 , 0.0 , 0.0 , 

110.0 , 4129.23076923 , 4129.74358974 , 4129.74358974 , 4129.23076923 , 4130.25641026 , 4128.20512821 , 4125.12820513 , 4132.30769231 , 4128.20512821 , 4135.8974359 , 4187.69230769 , 4909.74358974 , 4129.74358974 , 4136.41025641 , 2042.0 , 2035.0 , 62.297 , 0.0 , 0.0 , 0.0 , 0.0 , 

111.0 , 4129.23076923 , 4127.17948718 , 4130.76923077 , 4129.74358974 , 4129.23076923 , 4128.71794872 , 4126.15384615 , 4130.76923077 , 4127.69230769 , 4135.8974359 , 4185.64102564 , 4910.25641026 , 4130.25641026 , 4135.8974359 , 2042.0 , 2037.0 , 62.302 , 0.0 , 0.0 , 0.0 , 0.0 , 

112.0 , 4127.17948718 , 4128.20512821 , 4128.71794872 , 4130.25641026 , 4129.74358974 , 4123.58974359 , 4123.58974359 , 4131.28205128 , 4133.84615385 , 4135.8974359 , 4186.15384615 , 4908.20512821 , 4131.28205128 , 4131.79487179 , 2041.0 , 2037.0 , 62.31 , 0.0 , 0.0 , 0.0 , 0.0 , 

113.0 , 4128.20512821 , 4133.84615385 , 4130.25641026 , 4129.74358974 , 4129.74358974 , 4123.07692308 , 4123.58974359 , 4131.28205128 , 4133.84615385 , 4135.8974359 , 4189.74358974 , 4908.71794872 , 4131.28205128 , 4132.82051282 , 2041.0 , 2035.0 , 62.317 , 0.0 , 0.0 , 0.0 , 0.0 , 

114.0 , 4129.74358974 , 4129.23076923 , 4129.74358974 , 4128.20512821 , 4128.20512821 , 4127.17948718 , 4124.61538462 , 4131.28205128 , 4130.25641026 , 4135.8974359 , 4186.15384615 , 4909.23076923 , 4129.74358974 , 4135.8974359 , 2041.0 , 2036.0 , 62.326 , 0.0 , 0.0 , 0.0 , 0.0 , 

115.0 , 4132.82051282 , 4124.61538462 , 4131.28205128 , 4128.71794872 , 4126.15384615 , 4128.71794872 , 4125.64102564 , 4131.28205128 , 4132.82051282 , 4135.8974359 , 4184.61538462 , 4911.28205128 , 4129.23076923 , 4136.92307692 , 2041.0 , 2035.0 , 62.333 , 0.0 , 0.0 , 0.0 , 0.0 , 

116.0 , 4131.28205128 , 4126.66666667 , 4127.69230769 , 4129.23076923 , 4128.71794872 , 4125.64102564 , 4125.64102564 , 4131.28205128 , 4135.8974359 , 4135.8974359 , 4186.66666667 , 4907.17948718 , 4130.76923077 , 4135.8974359 , 2042.0 , 2035.0 , 62.342 , 0.0 , 0.0 , 0.0 , 0.0 , 

117.0 , 4129.23076923 , 4129.74358974 , 4128.20512821 , 4129.74358974 , 4130.25641026 , 4124.61538462 , 4124.61538462 , 4128.71794872 , 4132.82051282 , 4135.8974359 , 4187.17948718 , 4909.74358974 , 4131.28205128 , 4137.94871795 , 2042.0 , 2036.0 , 62.35 , 0.0 , 0.0 , 0.0 , 0.0 , 

118.0 , 4127.69230769 , 4126.66666667 , 4127.17948718 , 4128.71794872 , 4128.20512821 , 4126.66666667 , 4124.61538462 , 4129.23076923 , 4130.25641026 , 4135.8974359 , 4184.1025641 , 4910.25641026 , 4129.23076923 , 4135.38461538 , 2041.0 , 2035.0 , 62.358 , 0.0 , 0.0 , 0.0 , 0.0 , 

119.0 , 4130.25641026 , 4127.17948718 , 4130.25641026 , 4128.20512821 , 4128.71794872 , 4126.15384615 , 4124.1025641 , 4130.76923077 , 4129.74358974 , 4135.8974359 , 4185.64102564 , 4911.28205128 , 4128.71794872 , 4132.82051282 , 2041.0 , 2036.0 , 62.365 , 0.0 , 0.0 , 0.0 , 0.0 , 

120.0 , 4129.74358974 , 4127.17948718 , 4129.74358974 , 4127.69230769 , 4129.74358974 , 4126.15384615 , 4122.56410256 , 4131.79487179 , 4132.30769231 , 4135.8974359 , 4187.69230769 , 4907.69230769 , 4129.23076923 , 4132.30769231 , 2041.0 , 2035.0 , 62.373 , 0.0 , 0.0 , 0.0 , 0.0 , 

121.0 , 4131.79487179 , 4128.20512821 , 4133.84615385 , 4127.69230769 , 4127.17948718 , 4128.20512821 , 4123.58974359 , 4131.28205128 , 4133.33333333 , 4135.8974359 , 4188.71794872 , 4907.69230769 , 4130.25641026 , 4134.35897436 , 2043.0 , 2035.0 , 62.381 , 0.0 , 0.0 , 0.0 , 0.0 , 

122.0 , 4130.76923077 , 4128.20512821 , 4130.76923077 , 4128.20512821 , 4127.17948718 , 4126.66666667 , 4124.1025641 , 4131.79487179 , 4132.30769231 , 4136.41025641 , 4185.64102564 , 4906.66666667 , 4128.20512821 , 4134.87179487 , 2042.0 , 2036.0 , 62.392 , 0.0 , 0.0 , 0.0 , 0.0 , 

123.0 , 4130.25641026 , 4130.25641026 , 4130.25641026 , 4129.23076923 , 4127.17948718 , 4124.1025641 , 4124.1025641 , 4130.76923077 , 4131.28205128 , 4135.8974359 , 4185.12820513 , 4909.74358974 , 4126.15384615 , 4134.35897436 , 2043.0 , 2035.0 , 62.396 , 0.0 , 0.0 , 0.0 , 0.0 , 

124.0 , 4130.76923077 , 4130.25641026 , 4129.74358974 , 4130.76923077 , 4128.20512821 , 4126.15384615 , 4124.1025641 , 4132.30769231 , 4133.33333333 , 4135.8974359 , 4187.17948718 , 4908.71794872 , 4128.20512821 , 4134.35897436 , 2041.0 , 2036.0 , 62.404 , 0.0 , 0.0 , 0.0 , 0.0 , 

125.0 , 4130.25641026 , 4128.20512821 , 4129.74358974 , 4129.74358974 , 4129.23076923 , 4126.15384615 , 4125.12820513 , 4131.28205128 , 4131.79487179 , 4136.92307692 , 4186.66666667 , 4907.69230769 , 4130.76923077 , 4135.8974359 , 2041.0 , 2035.0 , 62.412 , 0.0 , 0.0 , 0.0 , 0.0 , 

126.0 , 4127.69230769 , 4128.71794872 , 4127.17948718 , 4128.71794872 , 4129.23076923 , 4124.61538462 , 4124.1025641 , 4130.25641026 , 4130.76923077 , 4137.43589744 , 4184.61538462 , 4907.17948718 , 4129.74358974 , 4135.38461538 , 2042.0 , 2036.0 , 62.42 , 0.0 , 0.0 , 0.0 , 0.0 , 

127.0 , 4128.20512821 , 4131.28205128 , 4127.69230769 , 4129.74358974 , 4129.74358974 , 4125.64102564 , 4122.05128205 , 4131.79487179 , 4131.79487179 , 4136.41025641 , 4185.12820513 , 4906.66666667 , 4130.25641026 , 4133.84615385 , 2040.0 , 2036.0 , 62.428 , 0.0 , 0.0 , 0.0 , 0.0 , 

128.0 , 4129.23076923 , 4128.71794872 , 4130.76923077 , 4129.74358974 , 4130.25641026 , 4126.15384615 , 4123.07692308 , 4130.25641026 , 4130.76923077 , 4135.38461538 , 4185.64102564 , 4907.17948718 , 4132.30769231 , 4132.82051282 , 2041.0 , 2035.0 , 62.437 , 0.0 , 0.0 , 0.0 , 0.0 , 

0.0 , 4128.71794872 , 4127.17948718 , 4131.79487179 , 4128.20512821 , 4129.74358974 , 4126.15384615 , 4125.12820513 , 4128.71794872 , 4131.79487179 , 4135.8974359 , 4185.64102564 , 4909.74358974 , 4132.30769231 , 4135.38461538 , 2042.0 , 2036.0 , 62.444 , 0.0 , 0.0 , 0.0 , 0.0 , 

1.0 , 4130.25641026 , 4129.74358974 , 4130.25641026 , 4128.71794872 , 4129.74358974 , 4128.71794872 , 4124.1025641 , 4129.23076923 , 4134.35897436 , 4137.43589744 , 4188.71794872 , 4911.79487179 , 4131.28205128 , 4139.48717949 , 2042.0 , 2035.0 , 62.451 , 0.0 , 0.0 , 0.0 , 0.0 , 

2.0 , 4130.76923077 , 4128.71794872 , 4127.69230769 , 4130.76923077 , 4128.71794872 , 4127.17948718 , 4121.53846154 , 4129.23076923 , 4134.87179487 , 4137.94871795 , 4189.74358974 , 4908.20512821 , 4129.74358974 , 4137.43589744 , 2042.0 , 2034.0 , 62.459 , 0.0 , 0.0 , 0.0 , 0.0 , 

3.0 , 4129.74358974 , 4126.66666667 , 4129.23076923 , 4130.25641026 , 4125.12820513 , 4124.61538462 , 4122.05128205 , 4128.20512821 , 4130.76923077 , 4136.92307692 , 4188.20512821 , 4909.23076923 , 4130.25641026 , 4132.82051282 , 2041.0 , 2035.0 , 62.467 , 0.0 , 0.0 , 0.0 , 0.0 , 

4.0 , 4127.17948718 , 4126.15384615 , 4127.69230769 , 4128.20512821 , 4127.17948718 , 4125.64102564 , 4121.53846154 , 4131.28205128 , 4131.79487179 , 4135.8974359 , 4186.66666667 , 4909.74358974 , 4130.76923077 , 4131.79487179 , 2041.0 , 2035.0 , 62.476 , 0.0 , 0.0 , 0.0 , 0.0 , 

5.0 , 4128.71794872 , 4129.74358974 , 4129.23076923 , 4129.23076923 , 4131.79487179 , 4126.15384615 , 4122.05128205 , 4130.76923077 , 4133.84615385 , 4135.8974359 , 4187.69230769 , 4910.25641026 , 4130.76923077 , 4135.38461538 , 2040.0 , 2034.0 , 62.484 , 0.0 , 0.0 , 0.0 , 0.0 , 

6.0 , 4128.20512821 , 4130.25641026 , 4127.69230769 , 4129.23076923 , 4130.25641026 , 4124.61538462 , 4124.61538462 , 4128.71794872 , 4133.33333333 , 4135.8974359 , 4187.69230769 , 4905.12820513 , 4129.74358974 , 4135.8974359 , 2040.0 , 2034.0 , 62.496 , 0.0 , 0.0 , 0.0 , 0.0 , 

7.0 , 4128.71794872 , 4129.23076923 , 4130.25641026 , 4129.23076923 , 4126.66666667 , 4124.1025641 , 4124.1025641 , 4130.25641026 , 4132.30769231 , 4135.8974359 , 4187.69230769 , 4907.17948718 , 4130.76923077 , 4136.41025641 , 2042.0 , 2035.0 , 62.499 , 0.0 , 0.0 , 0.0 , 0.0 , 

8.0 , 4128.71794872 , 4126.15384615 , 4127.17948718 , 4128.20512821 , 4127.17948718 , 4127.69230769 , 4124.1025641 , 4132.30769231 , 4134.87179487 , 4135.8974359 , 4186.15384615 , 4906.66666667 , 4130.76923077 , 4132.82051282 , 2042.0 , 2036.0 , 62.511 , 0.0 , 0.0 , 0.0 , 0.0 , 

9.0 , 4128.71794872 , 4129.74358974 , 4128.20512821 , 4128.20512821 , 4128.20512821 , 4128.71794872 , 4125.12820513 , 4130.25641026 , 4133.84615385 , 4135.8974359 , 4187.69230769 , 4907.69230769 , 4129.74358974 , 4133.33333333 , 2042.0 , 2035.0 , 62.519 , 0.0 , 0.0 , 0.0 , 0.0 , 

10.0 , 4128.20512821 , 4130.25641026 , 4127.17948718 , 4128.20512821 , 4129.23076923 , 4127.17948718 , 4124.1025641 , 4131.28205128 , 4131.79487179 , 4135.8974359 , 4188.71794872 , 4906.15384615 , 4128.20512821 , 4135.38461538 , 2041.0 , 2036.0 , 62.521 , 0.0 , 0.0 , 0.0 , 0.0 , 

11.0 , 4131.28205128 , 4128.71794872 , 4129.74358974 , 4128.20512821 , 4129.23076923 , 4127.17948718 , 4124.1025641 , 4131.79487179 , 4132.30769231 , 4135.8974359 , 4189.23076923 , 4908.20512821 , 4129.23076923 , 4135.8974359 , 2041.0 , 2036.0 , 62.531 , 0.0 , 0.0 , 0.0 , 0.0 , 

12.0 , 4130.25641026 , 4129.23076923 , 4128.20512821 , 4127.69230769 , 4129.23076923 , 4128.20512821 , 4123.58974359 , 4132.30769231 , 4133.33333333 , 4135.8974359 , 4189.23076923 , 4906.15384615 , 4128.71794872 , 4133.84615385 , 2042.0 , 2035.0 , 62.539 , 0.0 , 0.0 , 0.0 , 0.0 , 

13.0 , 4131.28205128 , 4130.25641026 , 4128.20512821 , 4127.69230769 , 4129.74358974 , 4125.12820513 , 4124.1025641 , 4131.28205128 , 4130.25641026 , 4135.8974359 , 4188.71794872 , 4909.23076923 , 4128.20512821 , 4134.35897436 , 2041.0 , 2035.0 , 62.547 , 0.0 , 0.0 , 0.0 , 0.0 , 

14.0 , 4129.74358974 , 4127.17948718 , 4126.15384615 , 4127.69230769 , 4131.28205128 , 4122.05128205 , 4127.17948718 , 4129.74358974 , 4127.69230769 , 4135.8974359 , 4185.64102564 , 4910.76923077 , 4129.23076923 , 4135.8974359 , 2042.0 , 2036.0 , 62.554 , 0.0 , 0.0 , 0.0 , 0.0 , 

15.0 , 4128.20512821 , 4128.71794872 , 4126.66666667 , 4127.69230769 , 4129.23076923 , 4125.64102564 , 4127.17948718 , 4128.71794872 , 4129.23076923 , 4135.8974359 , 4185.64102564 , 4909.23076923 , 4128.71794872 , 4135.8974359 , 2041.0 , 2037.0 , 62.562 , 0.0 , 0.0 , 0.0 , 0.0 , 

16.0 , 4129.23076923 , 4129.74358974 , 4128.20512821 , 4129.23076923 , 4126.15384615 , 4130.76923077 , 4124.1025641 , 4130.76923077 , 4130.76923077 , 4135.8974359 , 4187.69230769 , 4909.74358974 , 4129.74358974 , 4133.84615385 , 2041.0 , 2034.0 , 62.57 , 0.0 , 0.0 , 0.0 , 0.0 , 

17.0 , 4130.76923077 , 4125.12820513 , 4130.25641026 , 4129.23076923 , 4127.69230769 , 4130.25641026 , 4122.56410256 , 4130.25641026 , 4128.71794872 , 4135.8974359 , 4186.66666667 , 4912.30769231 , 4130.76923077 , 4132.30769231 , 2042.0 , 2035.0 , 62.577 , 0.0 , 0.0 , 0.0 , 0.0 , 

18.0 , 4130.76923077 , 4124.1025641 , 4132.30769231 , 4129.23076923 , 4128.71794872 , 4125.12820513 , 4123.58974359 , 4130.25641026 , 4128.20512821 , 4135.8974359 , 4186.66666667 , 4910.25641026 , 4130.25641026 , 4133.33333333 , 2042.0 , 2035.0 , 62.585 , 0.0 , 0.0 , 0.0 , 0.0 , 

19.0 , 4129.74358974 , 4127.69230769 , 4129.74358974 , 4129.23076923 , 4127.17948718 , 4123.07692308 , 4124.61538462 , 4131.28205128 , 4129.74358974 , 4135.8974359 , 4188.71794872 , 4906.66666667 , 4130.25641026 , 4135.38461538 , 2041.0 , 2034.0 , 62.595 , 0.0 , 0.0 , 0.0 , 0.0 , 

20.0 , 4129.23076923 , 4130.25641026 , 4128.71794872 , 4130.25641026 , 4126.66666667 , 4125.64102564 , 4125.12820513 , 4131.79487179 , 4131.79487179 , 4135.8974359 , 4188.71794872 , 4909.74358974 , 4130.76923077 , 4134.87179487 , 2042.0 , 2038.0 , 62.602 , 0.0 , 0.0 , 0.0 , 0.0 , 

21.0 , 4129.23076923 , 4129.74358974 , 4129.23076923 , 4131.79487179 , 4129.23076923 , 4126.15384615 , 4123.07692308 , 4132.82051282 , 4134.35897436 , 4135.8974359 , 4187.69230769 , 4908.71794872 , 4128.71794872 , 4132.82051282 , 2042.0 , 2034.0 , 62.61 , 0.0 , 0.0 , 0.0 , 0.0 , 

22.0 , 4130.76923077 , 4130.25641026 , 4131.79487179 , 4131.79487179 , 4130.25641026 , 4124.61538462 , 4122.56410256 , 4131.79487179 , 4131.28205128 , 4135.8974359 , 4186.15384615 , 4908.71794872 , 4129.23076923 , 4133.84615385 , 2041.0 , 2035.0 , 62.618 , 0.0 , 0.0 , 0.0 , 0.0 , 

23.0 , 4128.20512821 , 4127.69230769 , 4129.23076923 , 4130.76923077 , 4129.74358974 , 4125.12820513 , 4123.07692308 , 4130.76923077 , 4128.20512821 , 4135.8974359 , 4183.58974359 , 4907.69230769 , 4132.30769231 , 4134.87179487 , 2042.0 , 2035.0 , 62.624 , 0.0 , 0.0 , 0.0 , 0.0 , 

24.0 , 4127.69230769 , 4127.17948718 , 4130.25641026 , 4131.28205128 , 4130.25641026 , 4127.17948718 , 4123.07692308 , 4128.71794872 , 4132.30769231 , 4135.8974359 , 4185.12820513 , 4909.74358974 , 4131.28205128 , 4135.8974359 , 2042.0 , 2036.0 , 62.632 , 0.0 , 0.0 , 0.0 , 0.0 , 

25.0 , 4127.69230769 , 4128.71794872 , 4127.17948718 , 4130.25641026 , 4129.23076923 , 4125.64102564 , 4124.61538462 , 4130.25641026 , 4133.33333333 , 4135.8974359 , 4186.15384615 , 4906.66666667 , 4128.20512821 , 4136.92307692 , 2042.0 , 2035.0 , 62.64 , 0.0 , 0.0 , 0.0 , 0.0 , 

26.0 , 4129.74358974 , 4128.71794872 , 4129.74358974 , 4129.23076923 , 4126.15384615 , 4125.64102564 , 4124.61538462 , 4129.74358974 , 4127.17948718 , 4135.8974359 , 4186.66666667 , 4908.20512821 , 4128.20512821 , 4137.43589744 , 2041.0 , 2036.0 , 62.647 , 0.0 , 0.0 , 0.0 , 0.0 , 

27.0 , 4129.74358974 , 4125.64102564 , 4129.23076923 , 4130.25641026 , 4127.69230769 , 4125.64102564 , 4124.1025641 , 4130.76923077 , 4129.23076923 , 4135.8974359 , 4188.20512821 , 4908.71794872 , 4130.25641026 , 4135.38461538 , 2041.0 , 2034.0 , 62.655 , 0.0 , 0.0 , 0.0 , 0.0 , 

