['COUNTER', 'AF3', 'F7', 'F3', 'FC5', 'T7', 'P7', 'O1', 'O2', 'P8', 'T8', 'FC6', 'F4', 'F8', 'AF4', 'GYROX', 'GYROY', 'TIMESTAMP', 'FUNC_ID', 'FUNC_VALUE', 'MARKER', 'SYNC_SIGNAL']
11.0 , 4116.41025641 , 4117.43589744 , 4117.43589744 , 4121.02564103 , 4116.41025641 , 4116.41025641 , 4115.8974359 , 4122.05128205 , 4118.97435897 , 4121.02564103 , 4178.46153846 , 4895.38461538 , 4121.02564103 , 4124.61538462 , 2043.0 , 2034.0 , 1017.021 , 0.0 , 0.0 , 0.0 , 0.0 , 

12.0 , 4118.46153846 , 4115.8974359 , 4118.46153846 , 4123.07692308 , 4118.97435897 , 4114.35897436 , 4118.46153846 , 4118.97435897 , 4119.48717949 , 4122.05128205 , 4178.46153846 , 4899.48717949 , 4121.02564103 , 4126.15384615 , 2042.0 , 2033.0 , 1017.029 , 0.0 , 0.0 , 0.0 , 0.0 , 

13.0 , 4119.48717949 , 4115.38461538 , 4121.53846154 , 4121.02564103 , 4122.56410256 , 4113.84615385 , 4122.56410256 , 4120.0 , 4120.0 , 4123.58974359 , 4176.41025641 , 4900.51282051 , 4122.56410256 , 4126.15384615 , 2043.0 , 2034.0 , 1017.04 , 0.0 , 0.0 , 0.0 , 0.0 , 

14.0 , 4119.48717949 , 4116.92307692 , 4119.48717949 , 4118.97435897 , 4117.43589744 , 4116.41025641 , 4120.0 , 4122.05128205 , 4118.46153846 , 4122.05128205 , 4177.43589744 , 4900.51282051 , 4121.53846154 , 4127.17948718 , 2043.0 , 2034.0 , 1017.044 , 0.0 , 0.0 , 0.0 , 0.0 , 

15.0 , 4118.46153846 , 4116.41025641 , 4116.41025641 , 4119.48717949 , 4114.35897436 , 4118.97435897 , 4114.87179487 , 4119.48717949 , 4118.97435897 , 4120.51282051 , 4178.46153846 , 4897.43589744 , 4121.02564103 , 4127.17948718 , 2044.0 , 2035.0 , 1017.052 , 0.0 , 0.0 , 0.0 , 0.0 , 

16.0 , 4117.94871795 , 4117.43589744 , 4119.48717949 , 4119.48717949 , 4117.94871795 , 4118.97435897 , 4115.38461538 , 4117.94871795 , 4119.48717949 , 4121.02564103 , 4176.92307692 , 4897.43589744 , 4123.58974359 , 4125.64102564 , 2043.0 , 2035.0 , 1017.06 , 0.0 , 0.0 , 0.0 , 0.0 , 

17.0 , 4120.0 , 4118.46153846 , 4121.53846154 , 4116.92307692 , 4118.97435897 , 4117.43589744 , 4115.8974359 , 4117.43589744 , 4118.97435897 , 4121.53846154 , 4176.41025641 , 4901.53846154 , 4123.58974359 , 4126.15384615 , 2042.0 , 2034.0 , 1017.068 , 0.0 , 0.0 , 0.0 , 0.0 , 

18.0 , 4120.0 , 4118.46153846 , 4119.48717949 , 4117.94871795 , 4117.43589744 , 4116.41025641 , 4113.84615385 , 4118.46153846 , 4122.05128205 , 4121.53846154 , 4178.46153846 , 4902.05128205 , 4120.51282051 , 4126.15384615 , 2041.0 , 2034.0 , 1017.076 , 0.0 , 0.0 , 0.0 , 0.0 , 

19.0 , 4118.46153846 , 4119.48717949 , 4121.02564103 , 4123.58974359 , 4120.0 , 4116.41025641 , 4116.41025641 , 4118.46153846 , 4123.58974359 , 4122.05128205 , 4180.0 , 4900.51282051 , 4118.97435897 , 4125.64102564 , 2042.0 , 2034.0 , 1017.084 , 0.0 , 0.0 , 0.0 , 0.0 , 

20.0 , 4116.92307692 , 4119.48717949 , 4121.53846154 , 4122.56410256 , 4122.56410256 , 4115.38461538 , 4120.0 , 4118.97435897 , 4122.05128205 , 4122.05128205 , 4177.94871795 , 4897.94871795 , 4120.51282051 , 4127.17948718 , 2043.0 , 2035.0 , 1017.092 , 0.0 , 0.0 , 0.0 , 0.0 , 

21.0 , 4121.02564103 , 4118.46153846 , 4122.56410256 , 4118.97435897 , 4120.0 , 4116.92307692 , 4117.94871795 , 4118.97435897 , 4120.0 , 4122.05128205 , 4175.38461538 , 4897.94871795 , 4121.53846154 , 4129.23076923 , 2042.0 , 2035.0 , 1017.1 , 0.0 , 0.0 , 0.0 , 0.0 , 

22.0 , 4121.02564103 , 4116.92307692 , 4119.48717949 , 4121.02564103 , 4116.92307692 , 4117.94871795 , 4115.8974359 , 4118.97435897 , 4120.0 , 4121.53846154 , 4176.92307692 , 4897.43589744 , 4121.02564103 , 4124.61538462 , 2042.0 , 2036.0 , 1017.107 , 0.0 , 0.0 , 0.0 , 0.0 , 

23.0 , 4119.48717949 , 4118.97435897 , 4118.97435897 , 4121.02564103 , 4118.46153846 , 4116.92307692 , 4118.97435897 , 4120.0 , 4120.0 , 4121.02564103 , 4180.0 , 4898.46153846 , 4121.02564103 , 4124.1025641 , 2042.0 , 2035.0 , 1017.115 , 0.0 , 0.0 , 0.0 , 0.0 , 

24.0 , 4115.8974359 , 4114.87179487 , 4117.94871795 , 4114.35897436 , 4121.02564103 , 4114.35897436 , 4120.0 , 4120.51282051 , 4121.53846154 , 4122.05128205 , 4178.97435897 , 4895.38461538 , 4121.53846154 , 4125.64102564 , 2043.0 , 2034.0 , 1017.123 , 0.0 , 0.0 , 0.0 , 0.0 , 

25.0 , 4117.43589744 , 4115.38461538 , 4122.05128205 , 4116.92307692 , 4118.97435897 , 4114.87179487 , 4118.46153846 , 4119.48717949 , 4121.02564103 , 4122.05128205 , 4177.94871795 , 4896.92307692 , 4121.02564103 , 4123.58974359 , 2043.0 , 2035.0 , 1017.131 , 0.0 , 0.0 , 0.0 , 0.0 , 

26.0 , 4116.41025641 , 4117.94871795 , 4118.97435897 , 4122.05128205 , 4120.0 , 4115.38461538 , 4118.46153846 , 4119.48717949 , 4120.51282051 , 4121.53846154 , 4176.92307692 , 4896.92307692 , 4121.53846154 , 4123.07692308 , 2043.0 , 2034.0 , 1017.14 , 0.0 , 0.0 , 0.0 , 0.0 , 

27.0 , 4118.97435897 , 4118.97435897 , 4121.53846154 , 4119.48717949 , 4121.53846154 , 4115.8974359 , 4118.97435897 , 4120.51282051 , 4120.0 , 4125.12820513 , 4176.92307692 , 4897.94871795 , 4121.53846154 , 4128.71794872 , 2043.0 , 2035.0 , 1017.147 , 0.0 , 0.0 , 0.0 , 0.0 , 

28.0 , 4119.48717949 , 4116.92307692 , 4124.1025641 , 4118.46153846 , 4120.51282051 , 4114.87179487 , 4117.94871795 , 4121.53846154 , 4118.46153846 , 4126.15384615 , 4177.43589744 , 4897.43589744 , 4121.02564103 , 4128.20512821 , 2042.0 , 2035.0 , 1017.155 , 0.0 , 0.0 , 0.0 , 0.0 , 

29.0 , 4121.02564103 , 4118.97435897 , 4124.1025641 , 4123.07692308 , 4117.43589744 , 4114.87179487 , 4117.94871795 , 4119.48717949 , 4117.43589744 , 4122.56410256 , 4176.41025641 , 4898.97435897 , 4122.56410256 , 4125.12820513 , 2042.0 , 2034.0 , 1017.163 , 0.0 , 0.0 , 0.0 , 0.0 , 

30.0 , 4118.97435897 , 4116.92307692 , 4118.46153846 , 4121.53846154 , 4118.97435897 , 4115.38461538 , 4119.48717949 , 4119.48717949 , 4119.48717949 , 4121.02564103 , 4176.92307692 , 4896.92307692 , 4124.61538462 , 4126.15384615 , 2043.0 , 2036.0 , 1017.17 , 0.0 , 0.0 , 0.0 , 0.0 , 

31.0 , 4120.51282051 , 4117.94871795 , 4120.0 , 4118.46153846 , 4120.51282051 , 4116.41025641 , 4117.43589744 , 4121.02564103 , 4120.0 , 4124.1025641 , 4177.94871795 , 4898.46153846 , 4124.1025641 , 4128.71794872 , 2043.0 , 2035.0 , 1017.178 , 0.0 , 0.0 , 0.0 , 0.0 , 

32.0 , 4119.48717949 , 4118.97435897 , 4120.51282051 , 4118.97435897 , 4119.48717949 , 4114.87179487 , 4112.82051282 , 4121.53846154 , 4120.0 , 4124.1025641 , 4176.92307692 , 4898.97435897 , 4122.56410256 , 4126.66666667 , 2043.0 , 2036.0 , 1017.186 , 0.0 , 0.0 , 0.0 , 0.0 , 

33.0 , 4117.94871795 , 4116.92307692 , 4120.0 , 4121.53846154 , 4118.97435897 , 4113.33333333 , 4115.8974359 , 4119.48717949 , 4118.97435897 , 4121.53846154 , 4177.43589744 , 4898.97435897 , 4123.07692308 , 4125.64102564 , 2043.0 , 2036.0 , 1017.194 , 0.0 , 0.0 , 0.0 , 0.0 , 

34.0 , 4118.46153846 , 4118.46153846 , 4120.51282051 , 4122.05128205 , 4117.43589744 , 4113.33333333 , 4122.05128205 , 4120.51282051 , 4117.43589744 , 4122.05128205 , 4179.48717949 , 4898.97435897 , 4122.05128205 , 4126.15384615 , 2043.0 , 2034.0 , 1017.202 , 0.0 , 0.0 , 0.0 , 0.0 , 

35.0 , 4118.46153846 , 4121.53846154 , 4122.56410256 , 4120.0 , 4116.41025641 , 4114.35897436 , 4120.0 , 4121.02564103 , 4117.94871795 , 4123.07692308 , 4177.43589744 , 4897.94871795 , 4121.02564103 , 4126.15384615 , 2042.0 , 2033.0 , 1017.21 , 0.0 , 0.0 , 0.0 , 0.0 , 

36.0 , 4116.92307692 , 4117.43589744 , 4122.05128205 , 4118.46153846 , 4120.0 , 4117.94871795 , 4116.41025641 , 4121.02564103 , 4121.02564103 , 4120.51282051 , 4176.92307692 , 4900.51282051 , 4122.56410256 , 4125.64102564 , 2042.0 , 2035.0 , 1017.218 , 0.0 , 0.0 , 0.0 , 0.0 , 

37.0 , 4118.46153846 , 4116.92307692 , 4119.48717949 , 4120.0 , 4122.05128205 , 4117.94871795 , 4117.43589744 , 4122.05128205 , 4118.97435897 , 4121.02564103 , 4178.46153846 , 4901.02564103 , 4122.56410256 , 4128.20512821 , 2043.0 , 2035.0 , 1017.226 , 0.0 , 0.0 , 0.0 , 0.0 , 

38.0 , 4122.05128205 , 4122.05128205 , 4121.02564103 , 4122.05128205 , 4118.46153846 , 4115.8974359 , 4119.48717949 , 4121.02564103 , 4115.8974359 , 4124.1025641 , 4176.41025641 , 4899.48717949 , 4120.0 , 4127.69230769 , 2044.0 , 2036.0 , 1017.234 , 0.0 , 0.0 , 0.0 , 0.0 , 

39.0 , 4118.46153846 , 4118.97435897 , 4120.51282051 , 4119.48717949 , 4117.43589744 , 4117.43589744 , 4118.97435897 , 4118.97435897 , 4120.0 , 4122.05128205 , 4175.38461538 , 4896.92307692 , 4120.51282051 , 4124.1025641 , 2042.0 , 2034.0 , 1017.242 , 0.0 , 0.0 , 0.0 , 0.0 , 

40.0 , 4119.48717949 , 4116.41025641 , 4121.53846154 , 4116.92307692 , 4119.48717949 , 4118.46153846 , 4116.92307692 , 4120.51282051 , 4120.51282051 , 4119.48717949 , 4177.94871795 , 4900.0 , 4122.56410256 , 4127.69230769 , 2042.0 , 2036.0 , 1017.25 , 0.0 , 0.0 , 0.0 , 0.0 , 

41.0 , 4121.53846154 , 4117.43589744 , 4115.8974359 , 4117.43589744 , 4118.97435897 , 4114.35897436 , 4114.87179487 , 4123.07692308 , 4119.48717949 , 4122.56410256 , 4178.46153846 , 4898.97435897 , 4120.51282051 , 4128.20512821 , 2043.0 , 2036.0 , 1017.257 , 0.0 , 0.0 , 0.0 , 0.0 , 

42.0 , 4120.51282051 , 4117.94871795 , 4115.8974359 , 4116.92307692 , 4115.8974359 , 4114.35897436 , 4115.38461538 , 4122.05128205 , 4119.48717949 , 4124.1025641 , 4176.41025641 , 4901.53846154 , 4120.0 , 4125.12820513 , 2043.0 , 2034.0 , 1017.265 , 0.0 , 0.0 , 0.0 , 0.0 , 

43.0 , 4115.38461538 , 4115.8974359 , 4116.92307692 , 4116.92307692 , 4117.94871795 , 4116.92307692 , 4115.38461538 , 4119.48717949 , 4120.0 , 4122.56410256 , 4176.92307692 , 4898.46153846 , 4122.05128205 , 4125.12820513 , 2043.0 , 2034.0 , 1017.273 , 0.0 , 0.0 , 0.0 , 0.0 , 

44.0 , 4120.0 , 4117.94871795 , 4121.02564103 , 4120.0 , 4118.46153846 , 4116.41025641 , 4115.38461538 , 4121.02564103 , 4117.43589744 , 4122.05128205 , 4177.94871795 , 4895.8974359 , 4120.51282051 , 4130.25641026 , 2043.0 , 2036.0 , 1017.281 , 0.0 , 0.0 , 0.0 , 0.0 , 

45.0 , 4121.02564103 , 4117.43589744 , 4119.48717949 , 4116.92307692 , 4117.94871795 , 4114.87179487 , 4114.87179487 , 4124.1025641 , 4119.48717949 , 4123.07692308 , 4176.92307692 , 4897.94871795 , 4120.51282051 , 4127.17948718 , 2043.0 , 2035.0 , 1017.289 , 0.0 , 0.0 , 0.0 , 0.0 , 

46.0 , 4118.97435897 , 4118.46153846 , 4121.53846154 , 4115.8974359 , 4119.48717949 , 4116.92307692 , 4115.38461538 , 4122.56410256 , 4121.53846154 , 4122.05128205 , 4177.43589744 , 4903.07692308 , 4122.05128205 , 4125.12820513 , 2044.0 , 2036.0 , 1017.297 , 0.0 , 0.0 , 0.0 , 0.0 , 

47.0 , 4117.94871795 , 4117.43589744 , 4118.97435897 , 4117.94871795 , 4120.51282051 , 4116.92307692 , 4114.87179487 , 4119.48717949 , 4120.0 , 4122.05128205 , 4177.94871795 , 4898.46153846 , 4121.02564103 , 4125.64102564 , 2044.0 , 2036.0 , 1017.304 , 0.0 , 0.0 , 0.0 , 0.0 , 

48.0 , 4122.56410256 , 4118.46153846 , 4118.46153846 , 4118.97435897 , 4117.94871795 , 4114.35897436 , 4114.87179487 , 4120.0 , 4118.46153846 , 4124.61538462 , 4177.43589744 , 4896.92307692 , 4120.0 , 4127.17948718 , 2042.0 , 2035.0 , 1017.312 , 0.0 , 0.0 , 0.0 , 0.0 , 

49.0 , 4121.53846154 , 4118.46153846 , 4118.46153846 , 4118.46153846 , 4120.0 , 4114.87179487 , 4115.8974359 , 4120.0 , 4118.46153846 , 4125.64102564 , 4176.92307692 , 4898.97435897 , 4122.05128205 , 4126.15384615 , 2044.0 , 2034.0 , 1017.32 , 0.0 , 0.0 , 0.0 , 0.0 , 

50.0 , 4117.43589744 , 4117.94871795 , 4122.05128205 , 4121.02564103 , 4121.53846154 , 4117.94871795 , 4118.46153846 , 4117.94871795 , 4117.43589744 , 4122.56410256 , 4178.46153846 , 4900.51282051 , 4121.53846154 , 4124.61538462 , 2043.0 , 2035.0 , 1017.328 , 0.0 , 0.0 , 0.0 , 0.0 , 

51.0 , 4117.94871795 , 4119.48717949 , 4122.56410256 , 4122.05128205 , 4118.97435897 , 4115.8974359 , 4121.02564103 , 4119.48717949 , 4121.02564103 , 4120.51282051 , 4177.94871795 , 4898.97435897 , 4121.02564103 , 4124.61538462 , 2043.0 , 2036.0 , 1017.336 , 0.0 , 0.0 , 0.0 , 0.0 , 

52.0 , 4121.02564103 , 4121.53846154 , 4121.53846154 , 4120.0 , 4116.41025641 , 4114.35897436 , 4121.02564103 , 4123.07692308 , 4124.1025641 , 4125.12820513 , 4175.8974359 , 4897.43589744 , 4122.05128205 , 4124.61538462 , 2043.0 , 2035.0 , 1017.344 , 0.0 , 0.0 , 0.0 , 0.0 , 

53.0 , 4117.94871795 , 4119.48717949 , 4121.53846154 , 4120.0 , 4116.92307692 , 4116.41025641 , 4116.92307692 , 4122.56410256 , 4120.0 , 4127.69230769 , 4176.41025641 , 4897.94871795 , 4122.56410256 , 4123.07692308 , 2043.0 , 2034.0 , 1017.352 , 0.0 , 0.0 , 0.0 , 0.0 , 

54.0 , 4113.33333333 , 4117.43589744 , 4123.07692308 , 4123.07692308 , 4117.43589744 , 4115.38461538 , 4113.33333333 , 4120.0 , 4117.43589744 , 4123.07692308 , 4176.92307692 , 4900.0 , 4122.05128205 , 4125.12820513 , 2043.0 , 2035.0 , 1017.36 , 0.0 , 0.0 , 0.0 , 0.0 , 

55.0 , 4116.92307692 , 4117.43589744 , 4122.05128205 , 4122.56410256 , 4118.46153846 , 4113.84615385 , 4115.38461538 , 4121.02564103 , 4121.02564103 , 4120.51282051 , 4176.92307692 , 4899.48717949 , 4121.02564103 , 4127.69230769 , 2042.0 , 2035.0 , 1017.368 , 0.0 , 0.0 , 0.0 , 0.0 , 

56.0 , 4121.02564103 , 4115.8974359 , 4116.92307692 , 4117.43589744 , 4118.46153846 , 4115.8974359 , 4115.8974359 , 4123.07692308 , 4120.51282051 , 4123.58974359 , 4177.43589744 , 4898.46153846 , 4120.51282051 , 4126.15384615 , 2042.0 , 2034.0 , 1017.375 , 0.0 , 0.0 , 0.0 , 0.0 , 

57.0 , 4120.51282051 , 4118.46153846 , 4118.97435897 , 4117.94871795 , 4115.8974359 , 4116.92307692 , 4114.35897436 , 4122.05128205 , 4115.8974359 , 4124.61538462 , 4177.94871795 , 4900.51282051 , 4120.51282051 , 4126.15384615 , 2042.0 , 2035.0 , 1017.383 , 0.0 , 0.0 , 0.0 , 0.0 , 

58.0 , 4115.8974359 , 4120.51282051 , 4119.48717949 , 4120.51282051 , 4117.94871795 , 4115.8974359 , 4115.8974359 , 4121.02564103 , 4118.97435897 , 4122.56410256 , 4176.41025641 , 4897.94871795 , 4120.51282051 , 4125.12820513 , 2042.0 , 2035.0 , 1017.391 , 0.0 , 0.0 , 0.0 , 0.0 , 

59.0 , 4118.46153846 , 4117.94871795 , 4121.02564103 , 4121.02564103 , 4120.0 , 4115.38461538 , 4119.48717949 , 4122.05128205 , 4121.53846154 , 4121.53846154 , 4174.35897436 , 4900.0 , 4121.02564103 , 4123.58974359 , 2042.0 , 2035.0 , 1017.399 , 0.0 , 0.0 , 0.0 , 0.0 , 

60.0 , 4118.97435897 , 4115.38461538 , 4120.51282051 , 4121.53846154 , 4116.92307692 , 4114.35897436 , 4120.0 , 4122.56410256 , 4120.0 , 4121.53846154 , 4176.41025641 , 4899.48717949 , 4121.53846154 , 4123.07692308 , 2043.0 , 2035.0 , 1017.409 , 0.0 , 0.0 , 0.0 , 0.0 , 

61.0 , 4118.97435897 , 4121.02564103 , 4123.58974359 , 4122.05128205 , 4114.87179487 , 4114.87179487 , 4115.38461538 , 4121.53846154 , 4117.43589744 , 4121.02564103 , 4177.94871795 , 4898.46153846 , 4121.02564103 , 4126.66666667 , 2042.0 , 2035.0 , 1017.415 , 0.0 , 0.0 , 0.0 , 0.0 , 

62.0 , 4115.8974359 , 4120.0 , 4119.48717949 , 4116.92307692 , 4118.46153846 , 4116.41025641 , 4112.30769231 , 4118.97435897 , 4118.97435897 , 4123.07692308 , 4174.35897436 , 4897.94871795 , 4122.05128205 , 4125.64102564 , 2042.0 , 2036.0 , 1017.423 , 0.0 , 0.0 , 0.0 , 0.0 , 

63.0 , 4119.48717949 , 4120.0 , 4120.51282051 , 4117.94871795 , 4118.46153846 , 4115.8974359 , 4115.8974359 , 4117.43589744 , 4117.94871795 , 4123.58974359 , 4173.84615385 , 4898.46153846 , 4122.56410256 , 4124.1025641 , 2043.0 , 2036.0 , 1017.431 , 0.0 , 0.0 , 0.0 , 0.0 , 

64.0 , 4121.02564103 , 4120.51282051 , 4121.02564103 , 4121.53846154 , 4114.87179487 , 4114.35897436 , 4119.48717949 , 4120.0 , 4117.43589744 , 4122.05128205 , 4176.41025641 , 4894.87179487 , 4121.53846154 , 4123.07692308 , 2042.0 , 2035.0 , 1017.438 , 0.0 , 0.0 , 0.0 , 0.0 , 

65.0 , 4121.02564103 , 4119.48717949 , 4123.58974359 , 4121.53846154 , 4116.41025641 , 4115.38461538 , 4118.97435897 , 4122.56410256 , 4119.48717949 , 4122.05128205 , 4178.46153846 , 4897.94871795 , 4122.56410256 , 4126.15384615 , 2042.0 , 2035.0 , 1017.448 , 0.0 , 0.0 , 0.0 , 0.0 , 

66.0 , 4116.41025641 , 4115.38461538 , 4120.0 , 4121.02564103 , 4123.07692308 , 4117.43589744 , 4117.94871795 , 4121.02564103 , 4122.05128205 , 4123.58974359 , 4178.97435897 , 4899.48717949 , 4123.58974359 , 4126.66666667 , 2041.0 , 2035.0 , 1017.454 , 0.0 , 0.0 , 0.0 , 0.0 , 

67.0 , 4115.8974359 , 4117.43589744 , 4120.51282051 , 4120.51282051 , 4122.05128205 , 4117.43589744 , 4118.46153846 , 4121.02564103 , 4121.02564103 , 4122.56410256 , 4180.0 , 4898.97435897 , 4122.56410256 , 4125.12820513 , 2043.0 , 2036.0 , 1017.462 , 0.0 , 0.0 , 0.0 , 0.0 , 

68.0 , 4117.94871795 , 4118.97435897 , 4121.53846154 , 4118.97435897 , 4117.43589744 , 4115.38461538 , 4117.94871795 , 4123.07692308 , 4117.43589744 , 4122.05128205 , 4177.94871795 , 4897.94871795 , 4121.53846154 , 4124.1025641 , 2042.0 , 2036.0 , 1017.47 , 0.0 , 0.0 , 0.0 , 0.0 , 

69.0 , 4120.0 , 4117.43589744 , 4118.97435897 , 4121.02564103 , 4117.43589744 , 4114.87179487 , 4118.46153846 , 4122.56410256 , 4114.35897436 , 4122.05128205 , 4177.43589744 , 4897.94871795 , 4122.05128205 , 4125.64102564 , 2042.0 , 2036.0 , 1017.478 , 0.0 , 0.0 , 0.0 , 0.0 , 

70.0 , 4117.43589744 , 4116.92307692 , 4113.84615385 , 4123.07692308 , 4118.46153846 , 4116.41025641 , 4118.46153846 , 4122.05128205 , 4118.46153846 , 4121.02564103 , 4177.43589744 , 4896.41025641 , 4122.05128205 , 4126.66666667 , 2044.0 , 2035.0 , 1017.486 , 0.0 , 0.0 , 0.0 , 0.0 , 

71.0 , 4117.94871795 , 4121.02564103 , 4117.94871795 , 4121.53846154 , 4114.35897436 , 4117.43589744 , 4118.46153846 , 4123.07692308 , 4123.07692308 , 4121.53846154 , 4174.87179487 , 4898.97435897 , 4122.05128205 , 4126.66666667 , 2042.0 , 2036.0 , 1017.494 , 0.0 , 0.0 , 0.0 , 0.0 , 

72.0 , 4120.0 , 4123.58974359 , 4124.1025641 , 4120.51282051 , 4114.35897436 , 4117.94871795 , 4118.46153846 , 4121.02564103 , 4121.53846154 , 4123.58974359 , 4175.8974359 , 4901.02564103 , 4123.07692308 , 4126.66666667 , 2041.0 , 2035.0 , 1017.502 , 0.0 , 0.0 , 0.0 , 0.0 , 

73.0 , 4117.94871795 , 4121.02564103 , 4120.0 , 4119.48717949 , 4117.43589744 , 4115.8974359 , 4118.46153846 , 4118.97435897 , 4119.48717949 , 4123.07692308 , 4178.46153846 , 4896.41025641 , 4121.53846154 , 4126.66666667 , 2043.0 , 2034.0 , 1017.509 , 0.0 , 0.0 , 0.0 , 0.0 , 

74.0 , 4116.92307692 , 4118.46153846 , 4117.43589744 , 4120.51282051 , 4116.92307692 , 4115.38461538 , 4118.46153846 , 4120.0 , 4117.43589744 , 4120.51282051 , 4175.8974359 , 4896.92307692 , 4119.48717949 , 4125.12820513 , 2043.0 , 2034.0 , 1017.517 , 0.0 , 0.0 , 0.0 , 0.0 , 

75.0 , 4117.43589744 , 4118.97435897 , 4118.46153846 , 4123.07692308 , 4115.8974359 , 4118.46153846 , 4118.46153846 , 4122.05128205 , 4116.41025641 , 4121.02564103 , 4174.35897436 , 4898.97435897 , 4120.51282051 , 4123.58974359 , 2042.0 , 2034.0 , 1017.525 , 0.0 , 0.0 , 0.0 , 0.0 , 

76.0 , 4117.94871795 , 4121.53846154 , 4120.0 , 4123.58974359 , 4117.94871795 , 4118.46153846 , 4118.46153846 , 4121.02564103 , 4117.94871795 , 4122.56410256 , 4176.92307692 , 4900.0 , 4122.05128205 , 4124.61538462 , 2042.0 , 2036.0 , 1017.533 , 0.0 , 0.0 , 0.0 , 0.0 , 

77.0 , 4116.92307692 , 4118.46153846 , 4117.94871795 , 4121.02564103 , 4122.05128205 , 4113.84615385 , 4118.46153846 , 4119.48717949 , 4119.48717949 , 4121.53846154 , 4178.46153846 , 4897.43589744 , 4121.53846154 , 4125.64102564 , 2042.0 , 2034.0 , 1017.541 , 0.0 , 0.0 , 0.0 , 0.0 , 

78.0 , 4120.51282051 , 4115.38461538 , 4121.02564103 , 4123.07692308 , 4120.0 , 4114.35897436 , 4118.46153846 , 4119.48717949 , 4116.92307692 , 4120.51282051 , 4177.94871795 , 4899.48717949 , 4121.02564103 , 4126.15384615 , 2042.0 , 2037.0 , 1017.549 , 0.0 , 0.0 , 0.0 , 0.0 , 

79.0 , 4118.97435897 , 4116.41025641 , 4119.48717949 , 4122.56410256 , 4116.92307692 , 4116.41025641 , 4118.46153846 , 4120.51282051 , 4117.94871795 , 4123.07692308 , 4175.8974359 , 4897.94871795 , 4122.56410256 , 4125.64102564 , 2042.0 , 2035.0 , 1017.557 , 0.0 , 0.0 , 0.0 , 0.0 , 

80.0 , 4118.97435897 , 4121.02564103 , 4122.05128205 , 4121.53846154 , 4117.43589744 , 4117.94871795 , 4118.97435897 , 4122.05128205 , 4118.97435897 , 4123.58974359 , 4177.43589744 , 4900.51282051 , 4123.07692308 , 4127.69230769 , 2043.0 , 2035.0 , 1017.564 , 0.0 , 0.0 , 0.0 , 0.0 , 

81.0 , 4117.43589744 , 4118.46153846 , 4119.48717949 , 4122.56410256 , 4120.51282051 , 4118.46153846 , 4118.46153846 , 4122.56410256 , 4118.97435897 , 4122.05128205 , 4178.46153846 , 4900.51282051 , 4121.02564103 , 4126.15384615 , 2042.0 , 2034.0 , 1017.572 , 0.0 , 0.0 , 0.0 , 0.0 , 

82.0 , 4115.8974359 , 4119.48717949 , 4118.97435897 , 4124.61538462 , 4116.92307692 , 4118.46153846 , 4118.46153846 , 4120.51282051 , 4118.46153846 , 4122.05128205 , 4177.94871795 , 4900.0 , 4120.0 , 4126.15384615 , 2042.0 , 2034.0 , 1017.58 , 0.0 , 0.0 , 0.0 , 0.0 , 

83.0 , 4114.35897436 , 4120.0 , 4117.43589744 , 4122.56410256 , 4115.8974359 , 4116.41025641 , 4119.48717949 , 4119.48717949 , 4120.0 , 4122.56410256 , 4175.8974359 , 4896.92307692 , 4122.56410256 , 4126.15384615 , 2043.0 , 2035.0 , 1017.588 , 0.0 , 0.0 , 0.0 , 0.0 , 

84.0 , 4119.48717949 , 4119.48717949 , 4120.0 , 4120.0 , 4117.94871795 , 4114.87179487 , 4117.43589744 , 4120.0 , 4119.48717949 , 4121.02564103 , 4176.41025641 , 4898.97435897 , 4124.1025641 , 4127.69230769 , 2042.0 , 2035.0 , 1017.596 , 0.0 , 0.0 , 0.0 , 0.0 , 

85.0 , 4118.97435897 , 4117.94871795 , 4119.48717949 , 4121.02564103 , 4118.46153846 , 4114.35897436 , 4113.84615385 , 4121.02564103 , 4120.0 , 4122.05128205 , 4177.43589744 , 4896.92307692 , 4121.53846154 , 4126.66666667 , 2042.0 , 2035.0 , 1017.604 , 0.0 , 0.0 , 0.0 , 0.0 , 

86.0 , 4116.92307692 , 4117.94871795 , 4120.0 , 4124.1025641 , 4117.94871795 , 4115.38461538 , 4112.82051282 , 4122.05128205 , 4120.51282051 , 4125.12820513 , 4177.43589744 , 4897.43589744 , 4120.0 , 4127.17948718 , 2043.0 , 2035.0 , 1017.612 , 0.0 , 0.0 , 0.0 , 0.0 , 

87.0 , 4116.92307692 , 4116.92307692 , 4118.46153846 , 4122.56410256 , 4119.48717949 , 4116.92307692 , 4114.35897436 , 4124.61538462 , 4121.53846154 , 4126.15384615 , 4176.41025641 , 4898.97435897 , 4120.51282051 , 4126.66666667 , 2042.0 , 2036.0 , 1017.62 , 0.0 , 0.0 , 0.0 , 0.0 , 

88.0 , 4117.94871795 , 4119.48717949 , 4119.48717949 , 4120.0 , 4118.46153846 , 4117.43589744 , 4113.84615385 , 4123.07692308 , 4119.48717949 , 4123.58974359 , 4175.8974359 , 4897.43589744 , 4121.53846154 , 4124.1025641 , 2041.0 , 2036.0 , 1017.628 , 0.0 , 0.0 , 0.0 , 0.0 , 

89.0 , 4117.94871795 , 4121.53846154 , 4121.53846154 , 4121.02564103 , 4116.41025641 , 4115.38461538 , 4113.84615385 , 4120.51282051 , 4117.43589744 , 4121.53846154 , 4177.43589744 , 4895.38461538 , 4122.56410256 , 4123.58974359 , 2043.0 , 2034.0 , 1017.635 , 0.0 , 0.0 , 0.0 , 0.0 , 

90.0 , 4118.97435897 , 4120.51282051 , 4121.53846154 , 4122.56410256 , 4117.43589744 , 4114.87179487 , 4114.35897436 , 4123.07692308 , 4117.94871795 , 4122.05128205 , 4176.92307692 , 4897.43589744 , 4122.05128205 , 4124.61538462 , 2044.0 , 2036.0 , 1017.643 , 0.0 , 0.0 , 0.0 , 0.0 , 

91.0 , 4120.51282051 , 4119.48717949 , 4119.48717949 , 4122.56410256 , 4117.43589744 , 4115.8974359 , 4114.35897436 , 4123.07692308 , 4119.48717949 , 4122.05128205 , 4176.92307692 , 4900.0 , 4120.51282051 , 4125.64102564 , 2043.0 , 2034.0 , 1017.651 , 0.0 , 0.0 , 0.0 , 0.0 , 

92.0 , 4119.48717949 , 4117.43589744 , 4117.94871795 , 4122.56410256 , 4115.8974359 , 4114.35897436 , 4114.35897436 , 4121.02564103 , 4120.51282051 , 4123.58974359 , 4178.46153846 , 4897.43589744 , 4120.51282051 , 4122.56410256 , 2043.0 , 2035.0 , 1017.659 , 0.0 , 0.0 , 0.0 , 0.0 , 

93.0 , 4118.97435897 , 4115.38461538 , 4120.0 , 4122.56410256 , 4116.41025641 , 4114.35897436 , 4114.35897436 , 4120.51282051 , 4120.51282051 , 4124.61538462 , 4178.46153846 , 4898.97435897 , 4121.02564103 , 4122.05128205 , 2042.0 , 2034.0 , 1017.667 , 0.0 , 0.0 , 0.0 , 0.0 , 

94.0 , 4117.43589744 , 4115.38461538 , 4120.0 , 4121.02564103 , 4118.97435897 , 4117.43589744 , 4114.87179487 , 4121.02564103 , 4120.51282051 , 4123.07692308 , 4176.92307692 , 4898.97435897 , 4121.53846154 , 4124.1025641 , 2042.0 , 2035.0 , 1017.675 , 0.0 , 0.0 , 0.0 , 0.0 , 

95.0 , 4120.51282051 , 4120.51282051 , 4123.58974359 , 4122.05128205 , 4117.43589744 , 4117.94871795 , 4114.35897436 , 4118.97435897 , 4118.46153846 , 4123.07692308 , 4176.41025641 , 4898.97435897 , 4123.58974359 , 4125.64102564 , 2043.0 , 2036.0 , 1017.683 , 0.0 , 0.0 , 0.0 , 0.0 , 

96.0 , 4120.51282051 , 4118.46153846 , 4120.0 , 4122.56410256 , 4117.43589744 , 4114.87179487 , 4113.33333333 , 4117.43589744 , 4118.46153846 , 4124.1025641 , 4175.8974359 , 4898.46153846 , 4123.07692308 , 4125.12820513 , 2042.0 , 2036.0 , 1017.691 , 0.0 , 0.0 , 0.0 , 0.0 , 

97.0 , 4120.51282051 , 4115.38461538 , 4117.43589744 , 4122.56410256 , 4119.48717949 , 4114.87179487 , 4117.43589744 , 4119.48717949 , 4119.48717949 , 4123.07692308 , 4176.41025641 , 4900.51282051 , 4119.48717949 , 4127.69230769 , 2044.0 , 2035.0 , 1017.698 , 0.0 , 0.0 , 0.0 , 0.0 , 

98.0 , 4118.46153846 , 4115.38461538 , 4116.41025641 , 4121.02564103 , 4120.0 , 4116.92307692 , 4121.02564103 , 4120.51282051 , 4121.02564103 , 4123.07692308 , 4176.92307692 , 4897.94871795 , 4121.53846154 , 4127.69230769 , 2043.0 , 2035.0 , 1017.707 , 0.0 , 0.0 , 0.0 , 0.0 , 

99.0 , 4121.02564103 , 4119.48717949 , 4121.53846154 , 4122.05128205 , 4115.38461538 , 4116.41025641 , 4116.41025641 , 4121.02564103 , 4118.46153846 , 4124.1025641 , 4177.94871795 , 4897.94871795 , 4124.1025641 , 4126.66666667 , 2042.0 , 2034.0 , 1017.714 , 0.0 , 0.0 , 0.0 , 0.0 , 

100.0 , 4118.46153846 , 4120.0 , 4118.46153846 , 4123.58974359 , 4115.38461538 , 4114.87179487 , 4111.28205128 , 4121.53846154 , 4118.97435897 , 4123.07692308 , 4176.92307692 , 4896.92307692 , 4121.02564103 , 4125.12820513 , 2043.0 , 2035.0 , 1017.723 , 0.0 , 0.0 , 0.0 , 0.0 , 

101.0 , 4119.48717949 , 4119.48717949 , 4118.97435897 , 4123.07692308 , 4119.48717949 , 4117.43589744 , 4114.87179487 , 4121.02564103 , 4120.51282051 , 4121.53846154 , 4177.43589744 , 4899.48717949 , 4119.48717949 , 4127.69230769 , 2042.0 , 2036.0 , 1017.73 , 0.0 , 0.0 , 0.0 , 0.0 , 

102.0 , 4118.46153846 , 4117.94871795 , 4119.48717949 , 4122.56410256 , 4119.48717949 , 4117.94871795 , 4117.43589744 , 4121.53846154 , 4120.0 , 4122.56410256 , 4177.94871795 , 4901.02564103 , 4121.02564103 , 4127.69230769 , 2043.0 , 2036.0 , 1017.738 , 0.0 , 0.0 , 0.0 , 0.0 , 

103.0 , 4120.0 , 4120.0 , 4121.02564103 , 4122.56410256 , 4116.92307692 , 4114.35897436 , 4116.41025641 , 4121.53846154 , 4115.8974359 , 4123.07692308 , 4177.43589744 , 4901.02564103 , 4121.53846154 , 4125.64102564 , 2043.0 , 2033.0 , 1017.746 , 0.0 , 0.0 , 0.0 , 0.0 , 

104.0 , 4117.94871795 , 4116.92307692 , 4118.97435897 , 4121.02564103 , 4120.0 , 4113.84615385 , 4116.41025641 , 4120.51282051 , 4118.46153846 , 4122.56410256 , 4174.35897436 , 4896.92307692 , 4121.53846154 , 4124.1025641 , 2043.0 , 2034.0 , 1017.755 , 0.0 , 0.0 , 0.0 , 0.0 , 

105.0 , 4119.48717949 , 4114.87179487 , 4121.53846154 , 4122.56410256 , 4121.02564103 , 4116.92307692 , 4116.92307692 , 4120.51282051 , 4121.02564103 , 4123.07692308 , 4176.41025641 , 4897.94871795 , 4122.05128205 , 4127.69230769 , 2044.0 , 2035.0 , 1017.762 , 0.0 , 0.0 , 0.0 , 0.0 , 

106.0 , 4120.0 , 4116.92307692 , 4121.02564103 , 4124.1025641 , 4120.0 , 4116.41025641 , 4116.92307692 , 4122.05128205 , 4118.97435897 , 4121.53846154 , 4180.0 , 4899.48717949 , 4121.02564103 , 4126.15384615 , 2043.0 , 2033.0 , 1017.769 , 0.0 , 0.0 , 0.0 , 0.0 , 

107.0 , 4117.94871795 , 4119.48717949 , 4117.94871795 , 4122.56410256 , 4120.0 , 4115.8974359 , 4116.92307692 , 4119.48717949 , 4117.43589744 , 4121.53846154 , 4175.8974359 , 4897.94871795 , 4121.02564103 , 4124.1025641 , 2043.0 , 2034.0 , 1017.777 , 0.0 , 0.0 , 0.0 , 0.0 , 

108.0 , 4116.92307692 , 4117.94871795 , 4116.41025641 , 4122.05128205 , 4115.8974359 , 4116.92307692 , 4115.8974359 , 4118.97435897 , 4117.94871795 , 4122.56410256 , 4174.35897436 , 4899.48717949 , 4120.51282051 , 4127.17948718 , 2043.0 , 2036.0 , 1017.785 , 0.0 , 0.0 , 0.0 , 0.0 , 

109.0 , 4118.46153846 , 4115.38461538 , 4118.97435897 , 4121.02564103 , 4112.82051282 , 4116.41025641 , 4114.35897436 , 4122.56410256 , 4118.46153846 , 4122.05128205 , 4177.43589744 , 4904.61538462 , 4119.48717949 , 4128.20512821 , 2042.0 , 2036.0 , 1017.794 , 0.0 , 0.0 , 0.0 , 0.0 , 

110.0 , 4118.97435897 , 4116.41025641 , 4121.53846154 , 4120.0 , 4118.46153846 , 4116.92307692 , 4114.35897436 , 4121.02564103 , 4120.51282051 , 4121.53846154 , 4177.94871795 , 4904.61538462 , 4120.51282051 , 4124.61538462 , 2042.0 , 2035.0 , 1017.801 , 0.0 , 0.0 , 0.0 , 0.0 , 

111.0 , 4116.92307692 , 4117.94871795 , 4118.46153846 , 4122.56410256 , 4118.97435897 , 4117.43589744 , 4114.35897436 , 4118.97435897 , 4118.97435897 , 4121.53846154 , 4175.8974359 , 4900.0 , 4122.56410256 , 4124.1025641 , 2043.0 , 2034.0 , 1017.81 , 0.0 , 0.0 , 0.0 , 0.0 , 

112.0 , 4118.46153846 , 4118.46153846 , 4120.0 , 4124.61538462 , 4113.33333333 , 4117.43589744 , 4113.84615385 , 4121.02564103 , 4114.87179487 , 4121.53846154 , 4176.41025641 , 4899.48717949 , 4121.53846154 , 4129.23076923 , 2044.0 , 2035.0 , 1017.817 , 0.0 , 0.0 , 0.0 , 0.0 , 

113.0 , 4118.46153846 , 4116.41025641 , 4122.05128205 , 4121.53846154 , 4118.46153846 , 4116.41025641 , 4115.8974359 , 4121.02564103 , 4118.46153846 , 4121.53846154 , 4176.92307692 , 4897.43589744 , 4121.02564103 , 4128.20512821 , 2042.0 , 2034.0 , 1017.826 , 0.0 , 0.0 , 0.0 , 0.0 , 

114.0 , 4118.97435897 , 4117.94871795 , 4124.1025641 , 4121.53846154 , 4121.53846154 , 4116.41025641 , 4119.48717949 , 4119.48717949 , 4122.56410256 , 4122.56410256 , 4176.41025641 , 4898.97435897 , 4122.05128205 , 4126.15384615 , 2043.0 , 2033.0 , 1017.832 , 0.0 , 0.0 , 0.0 , 0.0 , 

115.0 , 4116.92307692 , 4117.43589744 , 4120.0 , 4121.02564103 , 4117.94871795 , 4116.41025641 , 4120.0 , 4121.02564103 , 4121.53846154 , 4121.02564103 , 4177.94871795 , 4901.02564103 , 4121.53846154 , 4125.64102564 , 2043.0 , 2033.0 , 1017.84 , 0.0 , 0.0 , 0.0 , 0.0 , 

116.0 , 4121.02564103 , 4118.46153846 , 4120.0 , 4120.51282051 , 4116.92307692 , 4117.43589744 , 4116.41025641 , 4121.02564103 , 4116.92307692 , 4121.02564103 , 4179.48717949 , 4901.53846154 , 4120.51282051 , 4127.69230769 , 2043.0 , 2035.0 , 1017.849 , 0.0 , 0.0 , 0.0 , 0.0 , 

117.0 , 4121.53846154 , 4117.94871795 , 4116.41025641 , 4121.02564103 , 4118.97435897 , 4117.43589744 , 4113.33333333 , 4120.51282051 , 4117.43589744 , 4123.07692308 , 4178.46153846 , 4896.41025641 , 4121.53846154 , 4125.64102564 , 2043.0 , 2035.0 , 1017.86 , 0.0 , 0.0 , 0.0 , 0.0 , 

118.0 , 4120.0 , 4117.43589744 , 4117.43589744 , 4121.53846154 , 4117.94871795 , 4117.43589744 , 4113.33333333 , 4118.97435897 , 4118.46153846 , 4123.07692308 , 4177.43589744 , 4898.46153846 , 4122.56410256 , 4125.64102564 , 2041.0 , 2035.0 , 1017.865 , 0.0 , 0.0 , 0.0 , 0.0 , 

119.0 , 4115.8974359 , 4116.92307692 , 4117.43589744 , 4118.97435897 , 4119.48717949 , 4117.43589744 , 4112.82051282 , 4117.43589744 , 4117.43589744 , 4123.58974359 , 4176.92307692 , 4900.0 , 4121.53846154 , 4125.64102564 , 2041.0 , 2035.0 , 1017.872 , 0.0 , 0.0 , 0.0 , 0.0 , 

120.0 , 4118.46153846 , 4119.48717949 , 4120.51282051 , 4120.51282051 , 4121.53846154 , 4118.46153846 , 4112.30769231 , 4120.0 , 4116.41025641 , 4124.1025641 , 4178.46153846 , 4901.02564103 , 4121.02564103 , 4127.69230769 , 2042.0 , 2034.0 , 1017.88 , 0.0 , 0.0 , 0.0 , 0.0 , 

121.0 , 4117.94871795 , 4118.97435897 , 4117.43589744 , 4123.07692308 , 4122.05128205 , 4117.94871795 , 4116.41025641 , 4121.02564103 , 4119.48717949 , 4125.12820513 , 4175.8974359 , 4900.51282051 , 4121.53846154 , 4125.64102564 , 2043.0 , 2034.0 , 1017.888 , 0.0 , 0.0 , 0.0 , 0.0 , 

122.0 , 4117.43589744 , 4119.48717949 , 4118.97435897 , 4121.53846154 , 4118.97435897 , 4117.94871795 , 4119.48717949 , 4118.46153846 , 4120.0 , 4125.64102564 , 4175.38461538 , 4900.51282051 , 4121.02564103 , 4124.61538462 , 2043.0 , 2034.0 , 1017.895 , 0.0 , 0.0 , 0.0 , 0.0 , 

123.0 , 4118.46153846 , 4118.46153846 , 4120.0 , 4120.0 , 4117.43589744 , 4119.48717949 , 4117.94871795 , 4119.48717949 , 4118.97435897 , 4124.1025641 , 4177.43589744 , 4897.94871795 , 4120.0 , 4127.17948718 , 2043.0 , 2033.0 , 1017.903 , 0.0 , 0.0 , 0.0 , 0.0 , 

124.0 , 4118.97435897 , 4117.43589744 , 4118.97435897 , 4123.07692308 , 4116.41025641 , 4119.48717949 , 4115.38461538 , 4120.0 , 4120.51282051 , 4121.53846154 , 4176.92307692 , 4898.97435897 , 4120.0 , 4128.71794872 , 2042.0 , 2034.0 , 1017.911 , 0.0 , 0.0 , 0.0 , 0.0 , 

125.0 , 4117.94871795 , 4116.92307692 , 4118.46153846 , 4122.56410256 , 4116.41025641 , 4113.84615385 , 4114.87179487 , 4119.48717949 , 4121.02564103 , 4122.56410256 , 4174.35897436 , 4900.0 , 4121.02564103 , 4124.61538462 , 2042.0 , 2034.0 , 1017.919 , 0.0 , 0.0 , 0.0 , 0.0 , 

126.0 , 4121.02564103 , 4119.48717949 , 4121.02564103 , 4120.0 , 4115.38461538 , 4111.79487179 , 4116.41025641 , 4123.07692308 , 4117.94871795 , 4123.07692308 , 4177.43589744 , 4898.46153846 , 4121.02564103 , 4123.58974359 , 2042.0 , 2034.0 , 1017.927 , 0.0 , 0.0 , 0.0 , 0.0 , 

127.0 , 4122.56410256 , 4117.43589744 , 4122.56410256 , 4121.02564103 , 4114.87179487 , 4116.92307692 , 4120.51282051 , 4123.07692308 , 4117.43589744 , 4122.05128205 , 4181.02564103 , 4898.46153846 , 4120.51282051 , 4125.64102564 , 2042.0 , 2035.0 , 1017.935 , 0.0 , 0.0 , 0.0 , 0.0 , 

128.0 , 4120.0 , 4114.87179487 , 4120.51282051 , 4122.05128205 , 4116.41025641 , 4117.43589744 , 4120.0 , 4119.48717949 , 4117.94871795 , 4122.56410256 , 4178.46153846 , 4898.46153846 , 4120.0 , 4124.61538462 , 2043.0 , 2035.0 , 1017.943 , 0.0 , 0.0 , 0.0 , 0.0 , 

0.0 , 4121.02564103 , 4117.94871795 , 4122.05128205 , 4121.02564103 , 4118.46153846 , 4115.8974359 , 4115.38461538 , 4118.97435897 , 4117.94871795 , 4124.1025641 , 4176.92307692 , 4896.41025641 , 4121.02564103 , 4126.15384615 , 2043.0 , 2036.0 , 1017.952 , 0.0 , 0.0 , 0.0 , 0.0 , 

1.0 , 4121.53846154 , 4120.0 , 4122.56410256 , 4120.0 , 4120.0 , 4117.43589744 , 4114.35897436 , 4120.51282051 , 4121.53846154 , 4124.1025641 , 4176.92307692 , 4898.97435897 , 4121.53846154 , 4124.61538462 , 2042.0 , 2035.0 , 1017.959 , 0.0 , 0.0 , 0.0 , 0.0 , 

2.0 , 4118.97435897 , 4120.0 , 4122.05128205 , 4120.51282051 , 4118.46153846 , 4117.43589744 , 4115.38461538 , 4120.0 , 4120.51282051 , 4122.56410256 , 4177.43589744 , 4905.64102564 , 4121.02564103 , 4123.07692308 , 2041.0 , 2036.0 , 1017.966 , 0.0 , 0.0 , 0.0 , 0.0 , 

3.0 , 4115.38461538 , 4121.02564103 , 4118.46153846 , 4121.53846154 , 4118.46153846 , 4114.35897436 , 4115.38461538 , 4120.51282051 , 4116.92307692 , 4121.53846154 , 4177.94871795 , 4900.0 , 4121.53846154 , 4125.12820513 , 2042.0 , 2037.0 , 1017.974 , 0.0 , 0.0 , 0.0 , 0.0 , 

4.0 , 4117.94871795 , 4123.07692308 , 4120.0 , 4123.07692308 , 4118.97435897 , 4118.46153846 , 4114.87179487 , 4120.0 , 4116.41025641 , 4122.05128205 , 4178.97435897 , 4895.38461538 , 4122.05128205 , 4127.17948718 , 2042.0 , 2035.0 , 1017.982 , 0.0 , 0.0 , 0.0 , 0.0 , 

5.0 , 4117.43589744 , 4116.92307692 , 4118.97435897 , 4120.51282051 , 4118.97435897 , 4120.51282051 , 4113.33333333 , 4117.94871795 , 4117.94871795 , 4123.07692308 , 4178.46153846 , 4896.41025641 , 4122.56410256 , 4123.07692308 , 2043.0 , 2036.0 , 1017.99 , 0.0 , 0.0 , 0.0 , 0.0 , 

6.0 , 4118.97435897 , 4115.8974359 , 4122.05128205 , 4119.48717949 , 4115.38461538 , 4116.92307692 , 4113.84615385 , 4117.43589744 , 4116.92307692 , 4122.05128205 , 4179.48717949 , 4900.0 , 4122.05128205 , 4125.64102564 , 2042.0 , 2036.0 , 1017.998 , 0.0 , 0.0 , 0.0 , 0.0 , 

7.0 , 4116.92307692 , 4117.43589744 , 4120.0 , 4121.02564103 , 4116.41025641 , 4114.87179487 , 4115.8974359 , 4119.48717949 , 4118.46153846 , 4122.05128205 , 4178.46153846 , 4895.38461538 , 4120.51282051 , 4129.74358974 , 2042.0 , 2034.0 , 1018.006 , 0.0 , 0.0 , 0.0 , 0.0 , 

8.0 , 4119.48717949 , 4119.48717949 , 4122.05128205 , 4123.58974359 , 4118.97435897 , 4116.41025641 , 4115.38461538 , 4120.0 , 4117.94871795 , 4123.07692308 , 4176.41025641 , 4895.8974359 , 4120.0 , 4128.20512821 , 2042.0 , 2035.0 , 1018.014 , 0.0 , 0.0 , 0.0 , 0.0 , 

9.0 , 4121.53846154 , 4118.46153846 , 4121.02564103 , 4122.56410256 , 4117.43589744 , 4115.38461538 , 4114.35897436 , 4120.51282051 , 4117.43589744 , 4123.58974359 , 4176.92307692 , 4898.46153846 , 4120.51282051 , 4124.1025641 , 2042.0 , 2034.0 , 1018.021 , 0.0 , 0.0 , 0.0 , 0.0 , 

10.0 , 4121.02564103 , 4118.46153846 , 4122.56410256 , 4118.97435897 , 4114.87179487 , 4114.35897436 , 4116.92307692 , 4123.07692308 , 4118.46153846 , 4125.12820513 , 4178.46153846 , 4901.53846154 , 4121.02564103 , 4126.66666667 , 2042.0 , 2035.0 , 1018.029 , 0.0 , 0.0 , 0.0 , 0.0 , 

11.0 , 4116.92307692 , 4116.92307692 , 4118.46153846 , 4118.46153846 , 4118.97435897 , 4114.87179487 , 4117.43589744 , 4122.05128205 , 4119.48717949 , 4126.15384615 , 4178.97435897 , 4900.0 , 4121.53846154 , 4128.20512821 , 2042.0 , 2034.0 , 1018.037 , 0.0 , 0.0 , 0.0 , 0.0 , 

12.0 , 4119.48717949 , 4118.46153846 , 4118.46153846 , 4122.56410256 , 4121.53846154 , 4118.46153846 , 4113.33333333 , 4117.43589744 , 4118.46153846 , 4124.1025641 , 4178.97435897 , 4899.48717949 , 4121.53846154 , 4126.66666667 , 2042.0 , 2035.0 , 1018.045 , 0.0 , 0.0 , 0.0 , 0.0 , 

13.0 , 4120.0 , 4118.46153846 , 4121.53846154 , 4121.02564103 , 4118.46153846 , 4119.48717949 , 4113.84615385 , 4118.46153846 , 4120.0 , 4122.05128205 , 4178.46153846 , 4898.97435897 , 4121.53846154 , 4124.61538462 , 2041.0 , 2035.0 , 1018.053 , 0.0 , 0.0 , 0.0 , 0.0 , 

14.0 , 4117.43589744 , 4118.46153846 , 4124.61538462 , 4117.43589744 , 4117.43589744 , 4115.8974359 , 4117.43589744 , 4121.02564103 , 4118.97435897 , 4122.05128205 , 4178.97435897 , 4900.0 , 4120.51282051 , 4125.12820513 , 2042.0 , 2036.0 , 1018.062 , 0.0 , 0.0 , 0.0 , 0.0 , 

15.0 , 4117.43589744 , 4119.48717949 , 4119.48717949 , 4119.48717949 , 4120.0 , 4114.35897436 , 4115.8974359 , 4119.48717949 , 4118.97435897 , 4123.07692308 , 4179.48717949 , 4899.48717949 , 4120.51282051 , 4124.61538462 , 2041.0 , 2035.0 , 1018.069 , 0.0 , 0.0 , 0.0 , 0.0 , 

16.0 , 4118.97435897 , 4121.02564103 , 4115.38461538 , 4123.07692308 , 4117.94871795 , 4115.38461538 , 4113.33333333 , 4118.46153846 , 4120.51282051 , 4123.07692308 , 4178.46153846 , 4898.97435897 , 4121.02564103 , 4125.12820513 , 2041.0 , 2035.0 , 1018.078 , 0.0 , 0.0 , 0.0 , 0.0 , 

17.0 , 4118.46153846 , 4120.0 , 4119.48717949 , 4122.56410256 , 4117.43589744 , 4114.87179487 , 4113.84615385 , 4118.97435897 , 4118.46153846 , 4121.53846154 , 4178.46153846 , 4898.97435897 , 4121.02564103 , 4126.66666667 , 2042.0 , 2035.0 , 1018.085 , 0.0 , 0.0 , 0.0 , 0.0 , 

18.0 , 4118.46153846 , 4117.94871795 , 4120.0 , 4120.0 , 4119.48717949 , 4115.38461538 , 4115.38461538 , 4119.48717949 , 4116.41025641 , 4123.58974359 , 4179.48717949 , 4897.43589744 , 4121.02564103 , 4126.15384615 , 2043.0 , 2034.0 , 1018.094 , 0.0 , 0.0 , 0.0 , 0.0 , 

19.0 , 4118.46153846 , 4117.43589744 , 4119.48717949 , 4120.51282051 , 4117.94871795 , 4117.43589744 , 4114.35897436 , 4120.51282051 , 4118.97435897 , 4127.69230769 , 4177.43589744 , 4898.46153846 , 4121.02564103 , 4126.66666667 , 2042.0 , 2035.0 , 1018.1 , 0.0 , 0.0 , 0.0 , 0.0 , 

20.0 , 4115.8974359 , 4116.92307692 , 4117.94871795 , 4122.05128205 , 4120.0 , 4116.92307692 , 4113.33333333 , 4121.02564103 , 4118.97435897 , 4124.61538462 , 4177.94871795 , 4897.94871795 , 4120.51282051 , 4125.12820513 , 2043.0 , 2036.0 , 1018.108 , 0.0 , 0.0 , 0.0 , 0.0 , 

21.0 , 4118.97435897 , 4118.46153846 , 4121.02564103 , 4122.05128205 , 4121.53846154 , 4115.38461538 , 4113.84615385 , 4119.48717949 , 4113.84615385 , 4118.97435897 , 4181.53846154 , 4898.46153846 , 4120.51282051 , 4124.61538462 , 2042.0 , 2034.0 , 1018.116 , 0.0 , 0.0 , 0.0 , 0.0 , 

22.0 , 4120.0 , 4116.92307692 , 4118.97435897 , 4118.97435897 , 4117.43589744 , 4114.87179487 , 4113.33333333 , 4121.53846154 , 4116.41025641 , 4121.53846154 , 4178.46153846 , 4896.41025641 , 4121.02564103 , 4123.58974359 , 2042.0 , 2035.0 , 1018.124 , 0.0 , 0.0 , 0.0 , 0.0 , 

23.0 , 4120.51282051 , 4116.92307692 , 4120.51282051 , 4118.97435897 , 4114.35897436 , 4115.38461538 , 4113.84615385 , 4123.07692308 , 4120.51282051 , 4123.58974359 , 4174.35897436 , 4898.46153846 , 4121.02564103 , 4126.15384615 , 2043.0 , 2036.0 , 1018.132 , 0.0 , 0.0 , 0.0 , 0.0 , 

24.0 , 4118.46153846 , 4115.8974359 , 4120.0 , 4120.0 , 4118.46153846 , 4115.8974359 , 4113.33333333 , 4120.0 , 4120.0 , 4122.05128205 , 4176.41025641 , 4896.92307692 , 4121.53846154 , 4126.66666667 , 2043.0 , 2036.0 , 1018.14 , 0.0 , 0.0 , 0.0 , 0.0 , 

25.0 , 4118.97435897 , 4116.92307692 , 4125.12820513 , 4122.56410256 , 4118.97435897 , 4116.41025641 , 4113.33333333 , 4117.94871795 , 4117.94871795 , 4121.53846154 , 4177.94871795 , 4898.46153846 , 4121.53846154 , 4124.1025641 , 2043.0 , 2036.0 , 1018.148 , 0.0 , 0.0 , 0.0 , 0.0 , 

26.0 , 4116.92307692 , 4115.8974359 , 4123.58974359 , 4121.02564103 , 4116.92307692 , 4115.38461538 , 4113.84615385 , 4120.0 , 4120.51282051 , 4123.58974359 , 4176.92307692 , 4898.46153846 , 4121.53846154 , 4121.53846154 , 2043.0 , 2036.0 , 1018.155 , 0.0 , 0.0 , 0.0 , 0.0 , 

27.0 , 4120.0 , 4117.94871795 , 4121.02564103 , 4119.48717949 , 4116.92307692 , 4115.8974359 , 4113.84615385 , 4121.02564103 , 4121.02564103 , 4123.07692308 , 4178.46153846 , 4897.94871795 , 4120.51282051 , 4125.64102564 , 2042.0 , 2035.0 , 1018.163 , 0.0 , 0.0 , 0.0 , 0.0 , 

28.0 , 4120.51282051 , 4120.51282051 , 4118.46153846 , 4119.48717949 , 4116.92307692 , 4116.92307692 , 4113.33333333 , 4120.0 , 4121.02564103 , 4122.56410256 , 4178.97435897 , 4895.38461538 , 4120.0 , 4127.69230769 , 2043.0 , 2036.0 , 1018.171 , 0.0 , 0.0 , 0.0 , 0.0 , 

29.0 , 4123.07692308 , 4123.58974359 , 4122.56410256 , 4121.02564103 , 4115.38461538 , 4115.8974359 , 4113.84615385 , 4117.94871795 , 4122.05128205 , 4122.05128205 , 4176.41025641 , 4898.97435897 , 4121.02564103 , 4124.61538462 , 2043.0 , 2035.0 , 1018.179 , 0.0 , 0.0 , 0.0 , 0.0 , 

30.0 , 4122.05128205 , 4121.02564103 , 4121.02564103 , 4120.0 , 4117.43589744 , 4114.35897436 , 4113.33333333 , 4118.46153846 , 4122.05128205 , 4122.05128205 , 4175.38461538 , 4900.0 , 4121.53846154 , 4123.07692308 , 2043.0 , 2036.0 , 1018.187 , 0.0 , 0.0 , 0.0 , 0.0 , 

31.0 , 4121.53846154 , 4117.94871795 , 4121.02564103 , 4118.97435897 , 4119.48717949 , 4116.92307692 , 4113.84615385 , 4122.05128205 , 4117.43589744 , 4121.53846154 , 4177.94871795 , 4898.46153846 , 4120.51282051 , 4125.64102564 , 2042.0 , 2036.0 , 1018.195 , 0.0 , 0.0 , 0.0 , 0.0 , 

32.0 , 4121.53846154 , 4116.92307692 , 4122.05128205 , 4118.97435897 , 4117.43589744 , 4118.46153846 , 4113.33333333 , 4120.51282051 , 4117.43589744 , 4121.53846154 , 4178.97435897 , 4896.92307692 , 4121.02564103 , 4124.1025641 , 2043.0 , 2036.0 , 1018.203 , 0.0 , 0.0 , 0.0 , 0.0 , 

33.0 , 4122.05128205 , 4117.43589744 , 4121.53846154 , 4120.0 , 4116.41025641 , 4115.38461538 , 4113.84615385 , 4118.97435897 , 4121.53846154 , 4122.05128205 , 4179.48717949 , 4897.94871795 , 4122.05128205 , 4123.07692308 , 2044.0 , 2034.0 , 1018.211 , 0.0 , 0.0 , 0.0 , 0.0 , 

34.0 , 4119.48717949 , 4116.92307692 , 4120.0 , 4121.53846154 , 4117.43589744 , 4115.8974359 , 4113.84615385 , 4121.02564103 , 4122.05128205 , 4121.53846154 , 4178.97435897 , 4898.46153846 , 4120.0 , 4124.61538462 , 2044.0 , 2034.0 , 1018.219 , 0.0 , 0.0 , 0.0 , 0.0 , 

35.0 , 4117.94871795 , 4117.43589744 , 4120.0 , 4121.53846154 , 4117.94871795 , 4118.46153846 , 4113.33333333 , 4121.02564103 , 4120.0 , 4121.02564103 , 4176.92307692 , 4899.48717949 , 4120.51282051 , 4126.66666667 , 2042.0 , 2034.0 , 1018.226 , 0.0 , 0.0 , 0.0 , 0.0 , 

36.0 , 4118.97435897 , 4118.97435897 , 4120.51282051 , 4121.02564103 , 4117.94871795 , 4115.8974359 , 4113.84615385 , 4121.02564103 , 4118.46153846 , 4122.05128205 , 4176.41025641 , 4899.48717949 , 4122.56410256 , 4127.17948718 , 2042.0 , 2036.0 , 1018.234 , 0.0 , 0.0 , 0.0 , 0.0 , 

37.0 , 4117.94871795 , 4118.97435897 , 4120.51282051 , 4121.53846154 , 4118.97435897 , 4113.84615385 , 4113.33333333 , 4121.53846154 , 4118.97435897 , 4122.56410256 , 4177.43589744 , 4896.92307692 , 4122.05128205 , 4126.66666667 , 2043.0 , 2036.0 , 1018.242 , 0.0 , 0.0 , 0.0 , 0.0 , 

38.0 , 4120.51282051 , 4118.97435897 , 4121.53846154 , 4123.58974359 , 4118.46153846 , 4116.92307692 , 4113.84615385 , 4121.53846154 , 4118.97435897 , 4121.02564103 , 4177.43589744 , 4897.43589744 , 4120.0 , 4127.17948718 , 2043.0 , 2036.0 , 1018.25 , 0.0 , 0.0 , 0.0 , 0.0 , 

39.0 , 4120.51282051 , 4117.43589744 , 4117.43589744 , 4122.05128205 , 4116.92307692 , 4116.41025641 , 4113.33333333 , 4121.02564103 , 4120.51282051 , 4121.53846154 , 4177.43589744 , 4900.0 , 4120.0 , 4126.15384615 , 2042.0 , 2035.0 , 1018.258 , 0.0 , 0.0 , 0.0 , 0.0 , 

40.0 , 4118.97435897 , 4117.94871795 , 4120.51282051 , 4120.0 , 4115.38461538 , 4114.35897436 , 4113.84615385 , 4122.05128205 , 4121.53846154 , 4122.56410256 , 4176.41025641 , 4902.56410256 , 4122.05128205 , 4126.66666667 , 2042.0 , 2035.0 , 1018.266 , 0.0 , 0.0 , 0.0 , 0.0 , 

41.0 , 4117.43589744 , 4117.94871795 , 4121.53846154 , 4118.97435897 , 4116.92307692 , 4115.38461538 , 4113.84615385 , 4123.07692308 , 4122.05128205 , 4122.05128205 , 4175.8974359 , 4897.94871795 , 4123.07692308 , 4124.61538462 , 2043.0 , 2035.0 , 1018.274 , 0.0 , 0.0 , 0.0 , 0.0 , 

42.0 , 4121.02564103 , 4120.0 , 4122.56410256 , 4121.02564103 , 4116.92307692 , 4116.41025641 , 4113.33333333 , 4121.02564103 , 4121.53846154 , 4123.07692308 , 4176.92307692 , 4897.94871795 , 4121.02564103 , 4126.66666667 , 2042.0 , 2035.0 , 1018.282 , 0.0 , 0.0 , 0.0 , 0.0 , 

43.0 , 4118.46153846 , 4118.97435897 , 4120.51282051 , 4118.97435897 , 4114.87179487 , 4114.35897436 , 4113.84615385 , 4117.94871795 , 4120.51282051 , 4123.07692308 , 4175.38461538 , 4898.46153846 , 4120.0 , 4127.69230769 , 2041.0 , 2036.0 , 1018.289 , 0.0 , 0.0 , 0.0 , 0.0 , 

44.0 , 4120.0 , 4118.97435897 , 4124.1025641 , 4117.94871795 , 4117.94871795 , 4115.8974359 , 4113.33333333 , 4117.43589744 , 4118.97435897 , 4122.05128205 , 4173.84615385 , 4899.48717949 , 4122.05128205 , 4127.17948718 , 2043.0 , 2035.0 , 1018.297 , 0.0 , 0.0 , 0.0 , 0.0 , 

45.0 , 4120.51282051 , 4116.41025641 , 4120.0 , 4118.46153846 , 4123.07692308 , 4117.43589744 , 4113.84615385 , 4122.05128205 , 4121.53846154 , 4122.05128205 , 4174.87179487 , 4897.94871795 , 4122.56410256 , 4125.12820513 , 2043.0 , 2035.0 , 1018.305 , 0.0 , 0.0 , 0.0 , 0.0 , 

46.0 , 4121.53846154 , 4118.97435897 , 4120.51282051 , 4121.53846154 , 4120.51282051 , 4116.92307692 , 4113.33333333 , 4121.53846154 , 4123.07692308 , 4121.02564103 , 4176.92307692 , 4899.48717949 , 4121.02564103 , 4126.15384615 , 2042.0 , 2035.0 , 1018.313 , 0.0 , 0.0 , 0.0 , 0.0 , 

47.0 , 4118.97435897 , 4117.94871795 , 4120.0 , 4121.02564103 , 4119.48717949 , 4114.87179487 , 4113.84615385 , 4118.46153846 , 4120.0 , 4118.97435897 , 4176.41025641 , 4898.46153846 , 4121.02564103 , 4125.64102564 , 2043.0 , 2035.0 , 1018.321 , 0.0 , 0.0 , 0.0 , 0.0 , 

48.0 , 4120.0 , 4115.8974359 , 4120.51282051 , 4118.97435897 , 4120.0 , 4115.8974359 , 4113.84615385 , 4119.48717949 , 4115.38461538 , 4121.02564103 , 4176.41025641 , 4898.46153846 , 4121.53846154 , 4125.64102564 , 2042.0 , 2034.0 , 1018.329 , 0.0 , 0.0 , 0.0 , 0.0 , 

49.0 , 4119.48717949 , 4116.41025641 , 4120.51282051 , 4118.46153846 , 4118.97435897 , 4117.43589744 , 4113.33333333 , 4120.0 , 4118.46153846 , 4124.1025641 , 4177.94871795 , 4899.48717949 , 4122.56410256 , 4125.64102564 , 2043.0 , 2036.0 , 1018.337 , 0.0 , 0.0 , 0.0 , 0.0 , 

50.0 , 4121.02564103 , 4117.43589744 , 4121.53846154 , 4118.46153846 , 4116.41025641 , 4117.43589744 , 4113.84615385 , 4120.51282051 , 4120.51282051 , 4121.53846154 , 4179.48717949 , 4902.05128205 , 4121.53846154 , 4127.69230769 , 2043.0 , 2036.0 , 1018.345 , 0.0 , 0.0 , 0.0 , 0.0 , 

51.0 , 4120.0 , 4116.92307692 , 4120.0 , 4115.8974359 , 4116.92307692 , 4114.87179487 , 4113.33333333 , 4121.02564103 , 4119.48717949 , 4119.48717949 , 4179.48717949 , 4901.53846154 , 4121.02564103 , 4127.69230769 , 2042.0 , 2035.0 , 1018.352 , 0.0 , 0.0 , 0.0 , 0.0 , 

52.0 , 4117.94871795 , 4117.43589744 , 4120.51282051 , 4115.8974359 , 4118.97435897 , 4115.38461538 , 4113.84615385 , 4118.97435897 , 4119.48717949 , 4122.56410256 , 4177.94871795 , 4897.43589744 , 4122.05128205 , 4125.12820513 , 2042.0 , 2036.0 , 1018.36 , 0.0 , 0.0 , 0.0 , 0.0 , 

53.0 , 4117.94871795 , 4118.46153846 , 4122.05128205 , 4121.02564103 , 4117.43589744 , 4118.46153846 , 4113.33333333 , 4118.97435897 , 4121.02564103 , 4123.58974359 , 4176.92307692 , 4896.92307692 , 4122.05128205 , 4125.64102564 , 2045.0 , 2036.0 , 1018.368 , 0.0 , 0.0 , 0.0 , 0.0 , 

54.0 , 4118.46153846 , 4117.43589744 , 4119.48717949 , 4122.05128205 , 4117.43589744 , 4116.92307692 , 4113.84615385 , 4122.56410256 , 4121.02564103 , 4122.05128205 , 4177.43589744 , 4900.0 , 4121.53846154 , 4125.64102564 , 2043.0 , 2036.0 , 1018.376 , 0.0 , 0.0 , 0.0 , 0.0 , 

55.0 , 4119.48717949 , 4118.97435897 , 4120.51282051 , 4118.46153846 , 4119.48717949 , 4114.35897436 , 4113.84615385 , 4121.53846154 , 4120.51282051 , 4123.07692308 , 4178.97435897 , 4899.48717949 , 4121.53846154 , 4123.58974359 , 2043.0 , 2035.0 , 1018.384 , 0.0 , 0.0 , 0.0 , 0.0 , 

56.0 , 4120.0 , 4117.43589744 , 4123.07692308 , 4116.92307692 , 4118.46153846 , 4115.8974359 , 4113.33333333 , 4117.94871795 , 4121.53846154 , 4123.58974359 , 4178.46153846 , 4895.38461538 , 4121.02564103 , 4125.12820513 , 2043.0 , 2034.0 , 1018.392 , 0.0 , 0.0 , 0.0 , 0.0 , 

57.0 , 4122.56410256 , 4114.87179487 , 4121.02564103 , 4119.48717949 , 4114.35897436 , 4116.92307692 , 4113.84615385 , 4119.48717949 , 4123.07692308 , 4121.53846154 , 4179.48717949 , 4899.48717949 , 4121.02564103 , 4129.23076923 , 2043.0 , 2034.0 , 1018.4 , 0.0 , 0.0 , 0.0 , 0.0 , 

58.0 , 4121.02564103 , 4116.41025641 , 4116.92307692 , 4119.48717949 , 4116.41025641 , 4116.41025641 , 4113.33333333 , 4120.51282051 , 4123.07692308 , 4121.02564103 , 4180.51282051 , 4898.46153846 , 4122.05128205 , 4125.64102564 , 2041.0 , 2034.0 , 1018.408 , 0.0 , 0.0 , 0.0 , 0.0 , 

59.0 , 4121.02564103 , 4120.0 , 4124.61538462 , 4118.97435897 , 4121.02564103 , 4117.43589744 , 4113.84615385 , 4119.48717949 , 4118.97435897 , 4123.07692308 , 4177.94871795 , 4895.8974359 , 4122.05128205 , 4126.15384615 , 2042.0 , 2035.0 , 1018.416 , 0.0 , 0.0 , 0.0 , 0.0 , 

60.0 , 4116.41025641 , 4117.94871795 , 4123.07692308 , 4119.48717949 , 4121.02564103 , 4118.46153846 , 4113.33333333 , 4121.53846154 , 4120.0 , 4124.1025641 , 4175.8974359 , 4895.38461538 , 4122.05128205 , 4128.20512821 , 2042.0 , 2035.0 , 1018.423 , 0.0 , 0.0 , 0.0 , 0.0 , 

61.0 , 4117.94871795 , 4117.43589744 , 4121.02564103 , 4122.05128205 , 4117.94871795 , 4119.48717949 , 4113.84615385 , 4122.05128205 , 4121.53846154 , 4122.56410256 , 4177.43589744 , 4901.53846154 , 4122.05128205 , 4126.15384615 , 2043.0 , 2035.0 , 1018.431 , 0.0 , 0.0 , 0.0 , 0.0 , 

62.0 , 4119.48717949 , 4117.43589744 , 4123.07692308 , 4121.53846154 , 4118.46153846 , 4117.43589744 , 4113.84615385 , 4119.48717949 , 4120.0 , 4121.02564103 , 4176.92307692 , 4899.48717949 , 4120.51282051 , 4122.05128205 , 2042.0 , 2035.0 , 1018.439 , 0.0 , 0.0 , 0.0 , 0.0 , 

63.0 , 4121.02564103 , 4119.48717949 , 4125.12820513 , 4118.97435897 , 4120.51282051 , 4115.38461538 , 4113.33333333 , 4117.94871795 , 4118.97435897 , 4121.53846154 , 4176.41025641 , 4898.97435897 , 4120.0 , 4125.12820513 , 2043.0 , 2036.0 , 1018.447 , 0.0 , 0.0 , 0.0 , 0.0 , 

64.0 , 4116.92307692 , 4117.94871795 , 4118.46153846 , 4118.46153846 , 4122.56410256 , 4116.41025641 , 4113.84615385 , 4118.97435897 , 4121.53846154 , 4122.56410256 , 4176.92307692 , 4898.97435897 , 4122.05128205 , 4125.12820513 , 2043.0 , 2035.0 , 1018.455 , 0.0 , 0.0 , 0.0 , 0.0 , 

65.0 , 4117.94871795 , 4120.0 , 4122.05128205 , 4120.0 , 4119.48717949 , 4116.92307692 , 4113.33333333 , 4120.51282051 , 4120.51282051 , 4121.53846154 , 4177.94871795 , 4900.51282051 , 4122.56410256 , 4125.12820513 , 2041.0 , 2035.0 , 1018.463 , 0.0 , 0.0 , 0.0 , 0.0 , 

66.0 , 4120.0 , 4119.48717949 , 4122.56410256 , 4118.46153846 , 4118.46153846 , 4114.87179487 , 4113.84615385 , 4120.0 , 4121.53846154 , 4121.02564103 , 4177.43589744 , 4898.46153846 , 4121.53846154 , 4126.15384615 , 2043.0 , 2035.0 , 1018.471 , 0.0 , 0.0 , 0.0 , 0.0 , 

67.0 , 4121.53846154 , 4116.41025641 , 4118.97435897 , 4117.94871795 , 4118.46153846 , 4114.87179487 , 4113.33333333 , 4118.97435897 , 4124.61538462 , 4121.02564103 , 4178.46153846 , 4899.48717949 , 4121.53846154 , 4126.15384615 , 2042.0 , 2034.0 , 1018.479 , 0.0 , 0.0 , 0.0 , 0.0 , 

68.0 , 4118.97435897 , 4115.38461538 , 4118.97435897 , 4120.0 , 4115.8974359 , 4115.38461538 , 4113.84615385 , 4119.48717949 , 4121.02564103 , 4121.02564103 , 4178.97435897 , 4898.97435897 , 4123.07692308 , 4123.07692308 , 2043.0 , 2034.0 , 1018.486 , 0.0 , 0.0 , 0.0 , 0.0 , 

69.0 , 4120.0 , 4119.48717949 , 4118.97435897 , 4120.0 , 4115.38461538 , 4115.38461538 , 4113.84615385 , 4121.02564103 , 4116.92307692 , 4122.56410256 , 4178.97435897 , 4898.46153846 , 4121.53846154 , 4125.12820513 , 2042.0 , 2037.0 , 1018.494 , 0.0 , 0.0 , 0.0 , 0.0 , 

70.0 , 4121.53846154 , 4120.51282051 , 4115.38461538 , 4117.94871795 , 4120.51282051 , 4117.94871795 , 4113.33333333 , 4121.02564103 , 4120.51282051 , 4123.07692308 , 4179.48717949 , 4900.51282051 , 4120.51282051 , 4126.66666667 , 2043.0 , 2035.0 , 1018.502 , 0.0 , 0.0 , 0.0 , 0.0 , 

71.0 , 4119.48717949 , 4117.94871795 , 4118.97435897 , 4119.48717949 , 4121.02564103 , 4118.46153846 , 4113.84615385 , 4122.05128205 , 4123.58974359 , 4122.56410256 , 4178.97435897 , 4901.02564103 , 4122.05128205 , 4124.61538462 , 2043.0 , 2034.0 , 1018.51 , 0.0 , 0.0 , 0.0 , 0.0 , 

72.0 , 4115.8974359 , 4117.43589744 , 4125.12820513 , 4121.02564103 , 4118.97435897 , 4116.41025641 , 4113.33333333 , 4122.56410256 , 4123.07692308 , 4124.61538462 , 4175.8974359 , 4900.0 , 4122.05128205 , 4123.58974359 , 2044.0 , 2035.0 , 1018.519 , 0.0 , 0.0 , 0.0 , 0.0 , 

73.0 , 4115.38461538 , 4118.97435897 , 4121.53846154 , 4118.46153846 , 4120.0 , 4115.8974359 , 4113.84615385 , 4120.51282051 , 4120.0 , 4125.64102564 , 4175.8974359 , 4897.43589744 , 4121.53846154 , 4124.61538462 , 2044.0 , 2036.0 , 1018.526 , 0.0 , 0.0 , 0.0 , 0.0 , 

74.0 , 4120.51282051 , 4121.53846154 , 4118.46153846 , 4120.0 , 4118.97435897 , 4117.94871795 , 4113.33333333 , 4120.0 , 4118.46153846 , 4121.53846154 , 4177.43589744 , 4898.46153846 , 4121.53846154 , 4126.15384615 , 2042.0 , 2035.0 , 1018.534 , 0.0 , 0.0 , 0.0 , 0.0 , 

75.0 , 4121.53846154 , 4120.0 , 4118.97435897 , 4121.02564103 , 4115.8974359 , 4117.94871795 , 4113.84615385 , 4119.48717949 , 4122.56410256 , 4121.53846154 , 4177.43589744 , 4900.0 , 4123.07692308 , 4126.15384615 , 2042.0 , 2036.0 , 1018.542 , 0.0 , 0.0 , 0.0 , 0.0 , 

76.0 , 4119.48717949 , 4118.46153846 , 4123.07692308 , 4120.51282051 , 4115.38461538 , 4117.43589744 , 4113.84615385 , 4118.97435897 , 4124.1025641 , 4124.1025641 , 4178.46153846 , 4902.56410256 , 4123.07692308 , 4127.17948718 , 2043.0 , 2035.0 , 1018.55 , 0.0 , 0.0 , 0.0 , 0.0 , 

77.0 , 4116.92307692 , 4117.94871795 , 4120.51282051 , 4122.56410256 , 4119.48717949 , 4115.38461538 , 4113.33333333 , 4120.51282051 , 4121.53846154 , 4123.58974359 , 4176.41025641 , 4898.46153846 , 4122.05128205 , 4126.66666667 , 2041.0 , 2036.0 , 1018.557 , 0.0 , 0.0 , 0.0 , 0.0 , 

78.0 , 4122.05128205 , 4120.0 , 4121.53846154 , 4125.12820513 , 4120.51282051 , 4116.41025641 , 4113.84615385 , 4120.51282051 , 4118.46153846 , 4121.53846154 , 4174.35897436 , 4897.94871795 , 4123.58974359 , 4127.69230769 , 2044.0 , 2035.0 , 1018.565 , 0.0 , 0.0 , 0.0 , 0.0 , 

79.0 , 4121.02564103 , 4118.97435897 , 4119.48717949 , 4122.05128205 , 4117.43589744 , 4118.46153846 , 4113.33333333 , 4120.0 , 4121.53846154 , 4122.56410256 , 4176.92307692 , 4897.43589744 , 4124.1025641 , 4127.69230769 , 2042.0 , 2036.0 , 1018.573 , 0.0 , 0.0 , 0.0 , 0.0 , 

80.0 , 4119.48717949 , 4121.02564103 , 4122.56410256 , 4122.05128205 , 4114.35897436 , 4116.92307692 , 4113.84615385 , 4121.02564103 , 4121.02564103 , 4122.56410256 , 4178.97435897 , 4900.0 , 4120.51282051 , 4127.69230769 , 2041.0 , 2036.0 , 1018.581 , 0.0 , 0.0 , 0.0 , 0.0 , 

81.0 , 4117.43589744 , 4119.48717949 , 4121.02564103 , 4123.07692308 , 4118.97435897 , 4112.82051282 , 4113.33333333 , 4120.0 , 4118.46153846 , 4122.56410256 , 4176.92307692 , 4900.51282051 , 4118.97435897 , 4124.61538462 , 2042.0 , 2033.0 , 1018.589 , 0.0 , 0.0 , 0.0 , 0.0 , 

82.0 , 4117.94871795 , 4116.41025641 , 4122.56410256 , 4120.0 , 4118.97435897 , 4113.33333333 , 4113.84615385 , 4117.43589744 , 4116.92307692 , 4124.1025641 , 4178.46153846 , 4902.05128205 , 4122.05128205 , 4125.12820513 , 2042.0 , 2034.0 , 1018.597 , 0.0 , 0.0 , 0.0 , 0.0 , 

83.0 , 4116.92307692 , 4114.35897436 , 4118.97435897 , 4118.97435897 , 4116.41025641 , 4114.35897436 , 4113.84615385 , 4120.0 , 4117.43589744 , 4124.61538462 , 4179.48717949 , 4898.97435897 , 4122.05128205 , 4125.12820513 , 2043.0 , 2035.0 , 1018.605 , 0.0 , 0.0 , 0.0 , 0.0 , 

84.0 , 4118.97435897 , 4116.92307692 , 4118.46153846 , 4123.58974359 , 4117.94871795 , 4113.84615385 , 4113.33333333 , 4122.05128205 , 4116.41025641 , 4123.07692308 , 4176.92307692 , 4898.46153846 , 4121.02564103 , 4125.64102564 , 2042.0 , 2035.0 , 1018.613 , 0.0 , 0.0 , 0.0 , 0.0 , 

85.0 , 4118.97435897 , 4114.87179487 , 4118.97435897 , 4123.07692308 , 4120.0 , 4115.38461538 , 4113.84615385 , 4118.97435897 , 4117.43589744 , 4122.05128205 , 4175.38461538 , 4898.97435897 , 4122.05128205 , 4123.58974359 , 2042.0 , 2035.0 , 1018.62 , 0.0 , 0.0 , 0.0 , 0.0 , 

86.0 , 4120.51282051 , 4114.87179487 , 4121.02564103 , 4118.97435897 , 4116.92307692 , 4117.43589744 , 4113.33333333 , 4118.97435897 , 4116.92307692 , 4122.05128205 , 4177.43589744 , 4901.02564103 , 4120.51282051 , 4126.15384615 , 2042.0 , 2035.0 , 1018.628 , 0.0 , 0.0 , 0.0 , 0.0 , 

87.0 , 4118.97435897 , 4118.97435897 , 4119.48717949 , 4118.46153846 , 4116.92307692 , 4115.38461538 , 4113.84615385 , 4122.05128205 , 4116.41025641 , 4122.05128205 , 4176.41025641 , 4900.51282051 , 4120.0 , 4127.69230769 , 2041.0 , 2036.0 , 1018.636 , 0.0 , 0.0 , 0.0 , 0.0 , 

88.0 , 4116.92307692 , 4119.48717949 , 4118.46153846 , 4122.56410256 , 4118.97435897 , 4114.87179487 , 4113.33333333 , 4122.56410256 , 4118.97435897 , 4122.56410256 , 4176.41025641 , 4900.51282051 , 4121.53846154 , 4127.17948718 , 2042.0 , 2035.0 , 1018.644 , 0.0 , 0.0 , 0.0 , 0.0 , 

89.0 , 4117.43589744 , 4116.92307692 , 4121.53846154 , 4123.58974359 , 4121.02564103 , 4117.94871795 , 4113.84615385 , 4120.0 , 4121.02564103 , 4123.07692308 , 4177.94871795 , 4898.97435897 , 4122.05128205 , 4126.66666667 , 2042.0 , 2036.0 , 1018.653 , 0.0 , 0.0 , 0.0 , 0.0 , 

90.0 , 4120.0 , 4117.94871795 , 4122.56410256 , 4120.51282051 , 4121.02564103 , 4116.92307692 , 4113.84615385 , 4120.51282051 , 4121.53846154 , 4123.07692308 , 4177.94871795 , 4897.43589744 , 4121.53846154 , 4127.17948718 , 2043.0 , 2035.0 , 1018.661 , 0.0 , 0.0 , 0.0 , 0.0 , 

91.0 , 4121.53846154 , 4119.48717949 , 4120.0 , 4120.51282051 , 4118.97435897 , 4113.33333333 , 4113.33333333 , 4121.53846154 , 4122.56410256 , 4124.1025641 , 4175.38461538 , 4897.94871795 , 4122.05128205 , 4125.64102564 , 2043.0 , 2035.0 , 1018.669 , 0.0 , 0.0 , 0.0 , 0.0 , 

92.0 , 4120.0 , 4119.48717949 , 4118.46153846 , 4122.56410256 , 4117.43589744 , 4112.82051282 , 4113.84615385 , 4118.46153846 , 4122.05128205 , 4125.64102564 , 4173.84615385 , 4898.46153846 , 4122.56410256 , 4125.12820513 , 2042.0 , 2034.0 , 1018.676 , 0.0 , 0.0 , 0.0 , 0.0 , 

93.0 , 4118.97435897 , 4121.02564103 , 4121.53846154 , 4121.53846154 , 4115.8974359 , 4114.87179487 , 4113.33333333 , 4116.41025641 , 4118.97435897 , 4124.61538462 , 4175.8974359 , 4900.51282051 , 4121.53846154 , 4125.64102564 , 2043.0 , 2033.0 , 1018.684 , 0.0 , 0.0 , 0.0 , 0.0 , 

94.0 , 4117.94871795 , 4117.94871795 , 4122.56410256 , 4121.53846154 , 4116.41025641 , 4116.41025641 , 4113.84615385 , 4118.46153846 , 4118.97435897 , 4121.53846154 , 4178.97435897 , 4900.0 , 4121.53846154 , 4125.64102564 , 2043.0 , 2035.0 , 1018.691 , 0.0 , 0.0 , 0.0 , 0.0 , 

95.0 , 4121.53846154 , 4118.46153846 , 4124.61538462 , 4122.56410256 , 4116.92307692 , 4117.94871795 , 4113.33333333 , 4121.53846154 , 4118.46153846 , 4122.05128205 , 4178.46153846 , 4901.53846154 , 4121.53846154 , 4128.71794872 , 2044.0 , 2034.0 , 1018.699 , 0.0 , 0.0 , 0.0 , 0.0 , 

96.0 , 4121.02564103 , 4117.43589744 , 4118.97435897 , 4117.94871795 , 4115.38461538 , 4117.43589744 , 4113.84615385 , 4120.51282051 , 4117.43589744 , 4123.58974359 , 4175.38461538 , 4901.02564103 , 4121.53846154 , 4128.20512821 , 2042.0 , 2035.0 , 1018.707 , 0.0 , 0.0 , 0.0 , 0.0 , 

97.0 , 4121.02564103 , 4114.35897436 , 4118.97435897 , 4117.43589744 , 4114.87179487 , 4115.8974359 , 4113.84615385 , 4118.46153846 , 4118.97435897 , 4123.07692308 , 4177.43589744 , 4900.0 , 4121.02564103 , 4126.15384615 , 2043.0 , 2036.0 , 1018.715 , 0.0 , 0.0 , 0.0 , 0.0 , 

98.0 , 4116.41025641 , 4113.33333333 , 4119.48717949 , 4121.53846154 , 4121.02564103 , 4114.87179487 , 4113.33333333 , 4122.05128205 , 4121.02564103 , 4122.05128205 , 4178.46153846 , 4895.8974359 , 4121.02564103 , 4126.66666667 , 2043.0 , 2036.0 , 1018.723 , 0.0 , 0.0 , 0.0 , 0.0 , 

99.0 , 4118.46153846 , 4120.0 , 4122.56410256 , 4123.07692308 , 4121.53846154 , 4116.41025641 , 4113.84615385 , 4124.61538462 , 4120.51282051 , 4123.07692308 , 4177.94871795 , 4899.48717949 , 4121.02564103 , 4128.71794872 , 2042.0 , 2035.0 , 1018.731 , 0.0 , 0.0 , 0.0 , 0.0 , 

100.0 , 4118.97435897 , 4119.48717949 , 4117.43589744 , 4121.02564103 , 4118.97435897 , 4117.43589744 , 4113.33333333 , 4120.0 , 4118.46153846 , 4123.58974359 , 4178.97435897 , 4901.02564103 , 4121.02564103 , 4125.12820513 , 2043.0 , 2036.0 , 1018.739 , 0.0 , 0.0 , 0.0 , 0.0 , 

101.0 , 4118.46153846 , 4118.97435897 , 4119.48717949 , 4123.58974359 , 4117.94871795 , 4115.38461538 , 4113.84615385 , 4117.43589744 , 4115.38461538 , 4123.58974359 , 4178.46153846 , 4901.53846154 , 4122.05128205 , 4125.12820513 , 2043.0 , 2036.0 , 1018.746 , 0.0 , 0.0 , 0.0 , 0.0 , 

102.0 , 4117.43589744 , 4118.46153846 , 4122.05128205 , 4123.58974359 , 4119.48717949 , 4113.33333333 , 4113.84615385 , 4122.05128205 , 4118.46153846 , 4123.58974359 , 4176.41025641 , 4900.51282051 , 4122.56410256 , 4125.12820513 , 2042.0 , 2036.0 , 1018.754 , 0.0 , 0.0 , 0.0 , 0.0 , 

103.0 , 4120.51282051 , 4117.43589744 , 4124.61538462 , 4121.53846154 , 4118.97435897 , 4114.35897436 , 4112.30769231 , 4123.07692308 , 4122.56410256 , 4122.56410256 , 4176.92307692 , 4902.05128205 , 4121.53846154 , 4126.15384615 , 2041.0 , 2036.0 , 1018.762 , 0.0 , 0.0 , 0.0 , 0.0 , 

104.0 , 4119.48717949 , 4118.46153846 , 4124.61538462 , 4120.51282051 , 4118.97435897 , 4115.8974359 , 4114.35897436 , 4121.53846154 , 4121.02564103 , 4122.05128205 , 4177.43589744 , 4898.46153846 , 4121.53846154 , 4126.66666667 , 2044.0 , 2034.0 , 1018.77 , 0.0 , 0.0 , 0.0 , 0.0 , 

105.0 , 4118.97435897 , 4120.51282051 , 4125.64102564 , 4121.02564103 , 4117.43589744 , 4116.41025641 , 4117.43589744 , 4121.53846154 , 4117.94871795 , 4122.05128205 , 4177.43589744 , 4897.94871795 , 4122.56410256 , 4127.69230769 , 2043.0 , 2035.0 , 1018.778 , 0.0 , 0.0 , 0.0 , 0.0 , 

106.0 , 4118.46153846 , 4120.0 , 4122.56410256 , 4122.05128205 , 4116.41025641 , 4114.87179487 , 4115.38461538 , 4122.56410256 , 4117.94871795 , 4123.07692308 , 4179.48717949 , 4901.02564103 , 4122.05128205 , 4126.66666667 , 2043.0 , 2036.0 , 1018.786 , 0.0 , 0.0 , 0.0 , 0.0 , 

107.0 , 4117.94871795 , 4118.97435897 , 4120.0 , 4122.05128205 , 4117.94871795 , 4114.35897436 , 4112.82051282 , 4123.07692308 , 4118.46153846 , 4123.58974359 , 4179.48717949 , 4901.02564103 , 4120.51282051 , 4126.15384615 , 2042.0 , 2036.0 , 1018.795 , 0.0 , 0.0 , 0.0 , 0.0 , 

108.0 , 4118.97435897 , 4120.0 , 4122.56410256 , 4121.53846154 , 4120.51282051 , 4117.43589744 , 4113.84615385 , 4121.53846154 , 4119.48717949 , 4123.58974359 , 4177.43589744 , 4899.48717949 , 4121.02564103 , 4126.66666667 , 2042.0 , 2035.0 , 1018.816 , 0.0 , 0.0 , 0.0 , 0.0 , 

109.0 , 4118.97435897 , 4121.53846154 , 4123.07692308 , 4123.07692308 , 4117.94871795 , 4116.41025641 , 4114.87179487 , 4119.48717949 , 4118.97435897 , 4124.1025641 , 4177.43589744 , 4899.48717949 , 4121.53846154 , 4126.15384615 , 2042.0 , 2036.0 , 1018.818 , 0.0 , 0.0 , 0.0 , 0.0 , 

110.0 , 4118.46153846 , 4121.02564103 , 4121.02564103 , 4123.07692308 , 4113.84615385 , 4114.87179487 , 4114.87179487 , 4120.0 , 4116.92307692 , 4124.61538462 , 4178.46153846 , 4901.02564103 , 4120.51282051 , 4125.64102564 , 2042.0 , 2036.0 , 1018.818 , 0.0 , 0.0 , 0.0 , 0.0 , 

111.0 , 4117.43589744 , 4118.46153846 , 4118.97435897 , 4120.51282051 , 4115.38461538 , 4115.8974359 , 4114.35897436 , 4122.05128205 , 4120.0 , 4123.58974359 , 4177.94871795 , 4901.53846154 , 4120.51282051 , 4126.15384615 , 2044.0 , 2037.0 , 1018.825 , 0.0 , 0.0 , 0.0 , 0.0 , 

112.0 , 4120.0 , 4118.46153846 , 4122.05128205 , 4121.53846154 , 4116.92307692 , 4116.92307692 , 4114.87179487 , 4123.07692308 , 4121.02564103 , 4122.56410256 , 4176.92307692 , 4904.61538462 , 4121.02564103 , 4128.71794872 , 2045.0 , 2037.0 , 1018.834 , 0.0 , 0.0 , 0.0 , 0.0 , 

113.0 , 4120.0 , 4117.94871795 , 4120.51282051 , 4123.07692308 , 4115.8974359 , 4114.35897436 , 4113.33333333 , 4122.56410256 , 4119.48717949 , 4123.58974359 , 4177.94871795 , 4901.02564103 , 4122.56410256 , 4125.64102564 , 2042.0 , 2035.0 , 1018.841 , 0.0 , 0.0 , 0.0 , 0.0 , 

114.0 , 4120.51282051 , 4117.43589744 , 4121.02564103 , 4123.07692308 , 4118.46153846 , 4113.84615385 , 4112.82051282 , 4120.0 , 4118.97435897 , 4124.1025641 , 4179.48717949 , 4897.94871795 , 4121.53846154 , 4123.58974359 , 2042.0 , 2034.0 , 1018.849 , 0.0 , 0.0 , 0.0 , 0.0 , 

115.0 , 4118.46153846 , 4116.41025641 , 4119.48717949 , 4121.02564103 , 4121.53846154 , 4113.84615385 , 4115.8974359 , 4121.02564103 , 4120.51282051 , 4123.07692308 , 4177.43589744 , 4897.43589744 , 4121.02564103 , 4125.64102564 , 2042.0 , 2035.0 , 1018.857 , 0.0 , 0.0 , 0.0 , 0.0 , 

116.0 , 4120.51282051 , 4118.97435897 , 4122.05128205 , 4120.51282051 , 4120.0 , 4115.8974359 , 4116.41025641 , 4122.56410256 , 4118.46153846 , 4122.56410256 , 4176.92307692 , 4901.53846154 , 4123.07692308 , 4130.25641026 , 2043.0 , 2036.0 , 1018.865 , 0.0 , 0.0 , 0.0 , 0.0 , 

117.0 , 4120.0 , 4116.92307692 , 4118.97435897 , 4122.05128205 , 4118.97435897 , 4116.92307692 , 4115.38461538 , 4121.02564103 , 4118.46153846 , 4122.05128205 , 4176.92307692 , 4898.97435897 , 4124.1025641 , 4127.69230769 , 2043.0 , 2036.0 , 1018.873 , 0.0 , 0.0 , 0.0 , 0.0 , 

118.0 , 4120.51282051 , 4116.41025641 , 4121.02564103 , 4124.1025641 , 4117.43589744 , 4115.8974359 , 4118.46153846 , 4118.46153846 , 4119.48717949 , 4121.53846154 , 4177.43589744 , 4897.94871795 , 4121.02564103 , 4127.17948718 , 2043.0 , 2035.0 , 1018.88 , 0.0 , 0.0 , 0.0 , 0.0 , 

119.0 , 4118.46153846 , 4116.92307692 , 4119.48717949 , 4121.02564103 , 4118.46153846 , 4114.35897436 , 4121.53846154 , 4120.0 , 4120.0 , 4122.56410256 , 4177.94871795 , 4897.43589744 , 4121.53846154 , 4127.69230769 , 2044.0 , 2035.0 , 1018.888 , 0.0 , 0.0 , 0.0 , 0.0 , 

120.0 , 4120.0 , 4117.43589744 , 4121.53846154 , 4119.48717949 , 4120.51282051 , 4115.38461538 , 4118.46153846 , 4120.51282051 , 4118.97435897 , 4123.58974359 , 4175.8974359 , 4902.05128205 , 4124.1025641 , 4125.12820513 , 2043.0 , 2035.0 , 1018.897 , 0.0 , 0.0 , 0.0 , 0.0 , 

121.0 , 4117.94871795 , 4115.8974359 , 4119.48717949 , 4120.51282051 , 4120.0 , 4115.8974359 , 4115.38461538 , 4118.46153846 , 4117.94871795 , 4124.1025641 , 4174.35897436 , 4898.97435897 , 4122.56410256 , 4123.07692308 , 2041.0 , 2035.0 , 1018.904 , 0.0 , 0.0 , 0.0 , 0.0 , 

122.0 , 4118.97435897 , 4117.94871795 , 4121.02564103 , 4120.51282051 , 4118.46153846 , 4115.38461538 , 4113.84615385 , 4119.48717949 , 4117.43589744 , 4123.07692308 , 4178.46153846 , 4896.41025641 , 4121.53846154 , 4128.20512821 , 2044.0 , 2035.0 , 1018.912 , 0.0 , 0.0 , 0.0 , 0.0 , 

123.0 , 4118.46153846 , 4117.94871795 , 4123.07692308 , 4117.43589744 , 4121.02564103 , 4113.84615385 , 4110.76923077 , 4119.48717949 , 4117.94871795 , 4122.05128205 , 4181.53846154 , 4896.92307692 , 4121.53846154 , 4127.69230769 , 2043.0 , 2034.0 , 1018.92 , 0.0 , 0.0 , 0.0 , 0.0 , 

124.0 , 4117.94871795 , 4114.87179487 , 4124.61538462 , 4118.46153846 , 4120.51282051 , 4114.87179487 , 4112.30769231 , 4118.46153846 , 4120.51282051 , 4121.02564103 , 4177.43589744 , 4896.41025641 , 4122.05128205 , 4123.58974359 , 2042.0 , 2034.0 , 1018.928 , 0.0 , 0.0 , 0.0 , 0.0 , 

125.0 , 4118.46153846 , 4114.87179487 , 4119.48717949 , 4122.05128205 , 4119.48717949 , 4118.97435897 , 4115.38461538 , 4119.48717949 , 4121.53846154 , 4121.53846154 , 4175.8974359 , 4895.8974359 , 4122.56410256 , 4123.58974359 , 2042.0 , 2034.0 , 1018.936 , 0.0 , 0.0 , 0.0 , 0.0 , 

126.0 , 4119.48717949 , 4116.92307692 , 4116.92307692 , 4121.53846154 , 4120.51282051 , 4118.97435897 , 4112.82051282 , 4121.02564103 , 4118.46153846 , 4123.58974359 , 4177.94871795 , 4900.0 , 4121.53846154 , 4126.15384615 , 2043.0 , 2035.0 , 1018.944 , 0.0 , 0.0 , 0.0 , 0.0 , 

127.0 , 4118.97435897 , 4117.43589744 , 4120.51282051 , 4118.97435897 , 4119.48717949 , 4114.87179487 , 4110.25641026 , 4116.92307692 , 4118.97435897 , 4123.58974359 , 4177.43589744 , 4902.56410256 , 4120.51282051 , 4125.64102564 , 2042.0 , 2036.0 , 1018.951 , 0.0 , 0.0 , 0.0 , 0.0 , 

128.0 , 4118.46153846 , 4117.94871795 , 4119.48717949 , 4120.0 , 4117.94871795 , 4114.87179487 , 4114.87179487 , 4114.35897436 , 4121.02564103 , 4122.05128205 , 4176.41025641 , 4896.92307692 , 4121.02564103 , 4123.58974359 , 2042.0 , 2035.0 , 1018.959 , 0.0 , 0.0 , 0.0 , 0.0 , 

0.0 , 4120.51282051 , 4119.48717949 , 4120.0 , 4120.51282051 , 4118.46153846 , 4117.94871795 , 4116.92307692 , 4118.97435897 , 4117.94871795 , 4123.07692308 , 4177.94871795 , 4895.8974359 , 4122.05128205 , 4125.12820513 , 2044.0 , 2035.0 , 1018.967 , 0.0 , 0.0 , 0.0 , 0.0 , 

1.0 , 4118.97435897 , 4116.92307692 , 4120.0 , 4117.43589744 , 4121.02564103 , 4115.38461538 , 4112.82051282 , 4123.58974359 , 4118.46153846 , 4122.05128205 , 4177.43589744 , 4896.92307692 , 4121.02564103 , 4125.64102564 , 2042.0 , 2035.0 , 1018.975 , 0.0 , 0.0 , 0.0 , 0.0 , 

2.0 , 4120.0 , 4116.41025641 , 4120.0 , 4118.97435897 , 4118.97435897 , 4114.87179487 , 4113.33333333 , 4122.56410256 , 4120.51282051 , 4121.02564103 , 4175.8974359 , 4896.92307692 , 4121.02564103 , 4125.64102564 , 2041.0 , 2036.0 , 1018.983 , 0.0 , 0.0 , 0.0 , 0.0 , 

3.0 , 4119.48717949 , 4118.46153846 , 4118.46153846 , 4121.02564103 , 4116.92307692 , 4115.8974359 , 4115.38461538 , 4120.0 , 4120.0 , 4122.05128205 , 4176.41025641 , 4895.8974359 , 4122.56410256 , 4124.61538462 , 2042.0 , 2034.0 , 1018.991 , 0.0 , 0.0 , 0.0 , 0.0 , 

4.0 , 4120.0 , 4121.02564103 , 4123.07692308 , 4120.51282051 , 4118.46153846 , 4117.94871795 , 4114.87179487 , 4120.0 , 4117.94871795 , 4122.56410256 , 4178.97435897 , 4897.94871795 , 4123.07692308 , 4126.66666667 , 2043.0 , 2034.0 , 1019.0 , 0.0 , 0.0 , 0.0 , 0.0 , 

5.0 , 4120.51282051 , 4118.97435897 , 4119.48717949 , 4120.51282051 , 4120.51282051 , 4119.48717949 , 4113.84615385 , 4121.53846154 , 4120.0 , 4122.56410256 , 4177.43589744 , 4896.41025641 , 4123.07692308 , 4125.64102564 , 2044.0 , 2035.0 , 1019.007 , 0.0 , 0.0 , 0.0 , 0.0 , 

6.0 , 4122.56410256 , 4120.0 , 4118.97435897 , 4122.05128205 , 4118.46153846 , 4118.97435897 , 4113.84615385 , 4123.07692308 , 4119.48717949 , 4123.07692308 , 4175.8974359 , 4898.46153846 , 4123.07692308 , 4125.64102564 , 2044.0 , 2035.0 , 1019.014 , 0.0 , 0.0 , 0.0 , 0.0 , 

7.0 , 4118.46153846 , 4117.94871795 , 4116.92307692 , 4118.46153846 , 4119.48717949 , 4116.92307692 , 4113.33333333 , 4120.51282051 , 4118.46153846 , 4122.56410256 , 4176.92307692 , 4897.43589744 , 4122.05128205 , 4127.69230769 , 2042.0 , 2035.0 , 1019.022 , 0.0 , 0.0 , 0.0 , 0.0 , 

8.0 , 4120.51282051 , 4117.94871795 , 4121.53846154 , 4116.92307692 , 4120.0 , 4118.46153846 , 4113.33333333 , 4116.92307692 , 4117.43589744 , 4122.05128205 , 4177.43589744 , 4897.43589744 , 4121.53846154 , 4128.20512821 , 2044.0 , 2034.0 , 1019.03 , 0.0 , 0.0 , 0.0 , 0.0 , 

9.0 , 4121.02564103 , 4117.94871795 , 4122.05128205 , 4118.97435897 , 4117.94871795 , 4119.48717949 , 4113.33333333 , 4120.0 , 4118.46153846 , 4124.1025641 , 4176.41025641 , 4895.8974359 , 4122.56410256 , 4124.61538462 , 2044.0 , 2034.0 , 1019.038 , 0.0 , 0.0 , 0.0 , 0.0 , 

10.0 , 4119.48717949 , 4121.53846154 , 4120.0 , 4122.56410256 , 4117.43589744 , 4116.41025641 , 4113.84615385 , 4123.07692308 , 4117.94871795 , 4123.58974359 , 4175.8974359 , 4896.92307692 , 4121.53846154 , 4126.66666667 , 2042.0 , 2034.0 , 1019.046 , 0.0 , 0.0 , 0.0 , 0.0 , 

11.0 , 4116.92307692 , 4119.48717949 , 4115.38461538 , 4122.56410256 , 4122.56410256 , 4115.8974359 , 4114.87179487 , 4122.56410256 , 4118.97435897 , 4121.02564103 , 4176.92307692 , 4896.92307692 , 4121.02564103 , 4127.17948718 , 2043.0 , 2035.0 , 1019.054 , 0.0 , 0.0 , 0.0 , 0.0 , 

12.0 , 4118.97435897 , 4116.41025641 , 4119.48717949 , 4120.51282051 , 4122.05128205 , 4119.48717949 , 4113.84615385 , 4121.53846154 , 4120.51282051 , 4122.05128205 , 4178.46153846 , 4899.48717949 , 4122.05128205 , 4125.64102564 , 2044.0 , 2035.0 , 1019.062 , 0.0 , 0.0 , 0.0 , 0.0 , 

13.0 , 4118.46153846 , 4117.94871795 , 4120.51282051 , 4120.51282051 , 4117.94871795 , 4117.94871795 , 4113.33333333 , 4121.53846154 , 4121.02564103 , 4124.1025641 , 4178.97435897 , 4901.02564103 , 4123.07692308 , 4125.12820513 , 2044.0 , 2035.0 , 1019.069 , 0.0 , 0.0 , 0.0 , 0.0 , 

14.0 , 4117.94871795 , 4121.53846154 , 4118.97435897 , 4121.53846154 , 4116.41025641 , 4114.35897436 , 4113.33333333 , 4122.05128205 , 4120.51282051 , 4123.58974359 , 4177.43589744 , 4899.48717949 , 4122.05128205 , 4127.17948718 , 2042.0 , 2035.0 , 1019.077 , 0.0 , 0.0 , 0.0 , 0.0 , 

15.0 , 4121.02564103 , 4117.43589744 , 4120.0 , 4121.02564103 , 4119.48717949 , 4116.92307692 , 4113.84615385 , 4120.0 , 4121.02564103 , 4122.56410256 , 4176.41025641 , 4895.8974359 , 4121.02564103 , 4125.12820513 , 2044.0 , 2035.0 , 1019.085 , 0.0 , 0.0 , 0.0 , 0.0 , 

16.0 , 4121.53846154 , 4116.41025641 , 4119.48717949 , 4118.97435897 , 4121.02564103 , 4118.46153846 , 4113.84615385 , 4116.41025641 , 4118.97435897 , 4122.56410256 , 4175.8974359 , 4895.8974359 , 4120.51282051 , 4122.56410256 , 2041.0 , 2036.0 , 1019.094 , 0.0 , 0.0 , 0.0 , 0.0 , 

17.0 , 4119.48717949 , 4121.02564103 , 4119.48717949 , 4118.97435897 , 4120.51282051 , 4115.8974359 , 4113.84615385 , 4116.92307692 , 4116.92307692 , 4122.05128205 , 4176.92307692 , 4897.94871795 , 4121.53846154 , 4125.12820513 , 2042.0 , 2035.0 , 1019.101 , 0.0 , 0.0 , 0.0 , 0.0 , 

18.0 , 4117.94871795 , 4119.48717949 , 4119.48717949 , 4120.0 , 4120.0 , 4116.92307692 , 4115.8974359 , 4122.56410256 , 4120.51282051 , 4122.05128205 , 4178.97435897 , 4896.41025641 , 4121.02564103 , 4124.61538462 , 2043.0 , 2035.0 , 1019.11 , 0.0 , 0.0 , 0.0 , 0.0 , 

19.0 , 4119.48717949 , 4114.87179487 , 4122.56410256 , 4122.05128205 , 4118.97435897 , 4118.97435897 , 4120.51282051 , 4123.07692308 , 4119.48717949 , 4123.07692308 , 4177.43589744 , 4896.92307692 , 4119.48717949 , 4123.07692308 , 2043.0 , 2035.0 , 1019.117 , 0.0 , 0.0 , 0.0 , 0.0 , 

20.0 , 4118.97435897 , 4115.38461538 , 4118.97435897 , 4123.58974359 , 4121.02564103 , 4117.43589744 , 4119.48717949 , 4120.0 , 4115.38461538 , 4124.1025641 , 4177.43589744 , 4897.94871795 , 4121.53846154 , 4124.61538462 , 2043.0 , 2035.0 , 1019.125 , 0.0 , 0.0 , 0.0 , 0.0 , 

21.0 , 4120.0 , 4120.0 , 4118.46153846 , 4124.1025641 , 4123.07692308 , 4117.43589744 , 4113.84615385 , 4121.53846154 , 4117.43589744 , 4123.58974359 , 4181.02564103 , 4898.46153846 , 4123.58974359 , 4127.17948718 , 2041.0 , 2036.0 , 1019.133 , 0.0 , 0.0 , 0.0 , 0.0 , 

22.0 , 4119.48717949 , 4116.92307692 , 4117.43589744 , 4121.53846154 , 4121.53846154 , 4116.92307692 , 4114.35897436 , 4123.58974359 , 4121.02564103 , 4123.07692308 , 4180.51282051 , 4896.41025641 , 4122.05128205 , 4124.1025641 , 2042.0 , 2036.0 , 1019.141 , 0.0 , 0.0 , 0.0 , 0.0 , 

23.0 , 4121.02564103 , 4115.38461538 , 4119.48717949 , 4119.48717949 , 4118.97435897 , 4115.38461538 , 4111.79487179 , 4122.05128205 , 4118.46153846 , 4123.07692308 , 4177.43589744 , 4899.48717949 , 4121.53846154 , 4123.58974359 , 2043.0 , 2035.0 , 1019.149 , 0.0 , 0.0 , 0.0 , 0.0 , 

24.0 , 4118.97435897 , 4117.43589744 , 4114.35897436 , 4120.51282051 , 4121.53846154 , 4114.35897436 , 4105.12820513 , 4122.05128205 , 4120.0 , 4123.58974359 , 4176.41025641 , 4897.43589744 , 4122.56410256 , 4125.64102564 , 2043.0 , 2036.0 , 1019.157 , 0.0 , 0.0 , 0.0 , 0.0 , 

25.0 , 4120.51282051 , 4120.0 , 4115.8974359 , 4121.53846154 , 4123.07692308 , 4114.87179487 , 4109.23076923 , 4122.56410256 , 4121.53846154 , 4122.05128205 , 4177.43589744 , 4897.94871795 , 4121.53846154 , 4129.23076923 , 2044.0 , 2036.0 , 1019.164 , 0.0 , 0.0 , 0.0 , 0.0 , 

26.0 , 4118.97435897 , 4116.92307692 , 4117.43589744 , 4121.53846154 , 4122.56410256 , 4115.8974359 , 4115.38461538 , 4122.05128205 , 4117.94871795 , 4121.53846154 , 4176.92307692 , 4896.92307692 , 4121.53846154 , 4127.17948718 , 2044.0 , 2035.0 , 1019.172 , 0.0 , 0.0 , 0.0 , 0.0 , 

27.0 , 4121.02564103 , 4120.0 , 4117.43589744 , 4124.1025641 , 4121.02564103 , 4115.8974359 , 4113.84615385 , 4121.53846154 , 4116.92307692 , 4122.56410256 , 4176.41025641 , 4895.8974359 , 4123.58974359 , 4123.58974359 , 2043.0 , 2035.0 , 1019.18 , 0.0 , 0.0 , 0.0 , 0.0 , 

28.0 , 4120.0 , 4120.51282051 , 4112.30769231 , 4123.07692308 , 4121.02564103 , 4114.87179487 , 4111.79487179 , 4123.07692308 , 4119.48717949 , 4122.05128205 , 4175.8974359 , 4893.84615385 , 4123.58974359 , 4122.05128205 , 2042.0 , 2034.0 , 1019.188 , 0.0 , 0.0 , 0.0 , 0.0 , 

29.0 , 4118.97435897 , 4118.46153846 , 4117.43589744 , 4120.51282051 , 4121.02564103 , 4115.38461538 , 4113.33333333 , 4122.56410256 , 4117.94871795 , 4121.02564103 , 4176.92307692 , 4897.43589744 , 4121.02564103 , 4126.66666667 , 2043.0 , 2034.0 , 1019.196 , 0.0 , 0.0 , 0.0 , 0.0 , 

30.0 , 4115.8974359 , 4119.48717949 , 4120.51282051 , 4121.02564103 , 4121.53846154 , 4115.38461538 , 4113.84615385 , 4121.53846154 , 4119.48717949 , 4120.51282051 , 4177.94871795 , 4896.92307692 , 4120.51282051 , 4126.15384615 , 2044.0 , 2036.0 , 1019.204 , 0.0 , 0.0 , 0.0 , 0.0 , 

31.0 , 4116.41025641 , 4121.53846154 , 4119.48717949 , 4123.07692308 , 4120.51282051 , 4116.92307692 , 4114.35897436 , 4121.53846154 , 4120.51282051 , 4120.51282051 , 4178.46153846 , 4895.38461538 , 4123.07692308 , 4123.58974359 , 2043.0 , 2036.0 , 1019.212 , 0.0 , 0.0 , 0.0 , 0.0 , 

32.0 , 4116.92307692 , 4120.0 , 4116.41025641 , 4123.07692308 , 4118.46153846 , 4117.94871795 , 4114.35897436 , 4121.53846154 , 4118.97435897 , 4121.02564103 , 4177.43589744 , 4894.87179487 , 4122.56410256 , 4124.61538462 , 2044.0 , 2035.0 , 1019.22 , 0.0 , 0.0 , 0.0 , 0.0 , 

33.0 , 4117.94871795 , 4119.48717949 , 4116.41025641 , 4122.05128205 , 4117.43589744 , 4116.92307692 , 4112.30769231 , 4120.51282051 , 4118.97435897 , 4120.51282051 , 4177.94871795 , 4896.41025641 , 4122.05128205 , 4126.15384615 , 2042.0 , 2034.0 , 1019.227 , 0.0 , 0.0 , 0.0 , 0.0 , 

34.0 , 4118.97435897 , 4119.48717949 , 4117.94871795 , 4123.07692308 , 4119.48717949 , 4116.41025641 , 4115.8974359 , 4120.0 , 4119.48717949 , 4120.51282051 , 4178.97435897 , 4899.48717949 , 4123.58974359 , 4124.61538462 , 2043.0 , 2035.0 , 1019.235 , 0.0 , 0.0 , 0.0 , 0.0 , 

35.0 , 4117.43589744 , 4118.97435897 , 4116.92307692 , 4122.56410256 , 4119.48717949 , 4115.38461538 , 4119.48717949 , 4121.02564103 , 4116.41025641 , 4121.53846154 , 4177.43589744 , 4897.43589744 , 4122.56410256 , 4125.12820513 , 2043.0 , 2034.0 , 1019.243 , 0.0 , 0.0 , 0.0 , 0.0 , 

36.0 , 4116.41025641 , 4118.97435897 , 4116.92307692 , 4119.48717949 , 4118.97435897 , 4115.38461538 , 4119.48717949 , 4119.48717949 , 4116.92307692 , 4122.56410256 , 4176.41025641 , 4893.84615385 , 4120.51282051 , 4127.69230769 , 2043.0 , 2035.0 , 1019.251 , 0.0 , 0.0 , 0.0 , 0.0 , 

37.0 , 4118.46153846 , 4117.43589744 , 4116.41025641 , 4118.97435897 , 4122.05128205 , 4115.8974359 , 4118.46153846 , 4117.43589744 , 4121.02564103 , 4123.07692308 , 4176.92307692 , 4892.82051282 , 4122.56410256 , 4126.15384615 , 2043.0 , 2036.0 , 1019.258 , 0.0 , 0.0 , 0.0 , 0.0 , 

38.0 , 4122.05128205 , 4118.97435897 , 4118.97435897 , 4122.05128205 , 4121.53846154 , 4117.43589744 , 4117.94871795 , 4119.48717949 , 4120.51282051 , 4121.53846154 , 4177.94871795 , 4897.94871795 , 4126.15384615 , 4125.64102564 , 2043.0 , 2035.0 , 1019.266 , 0.0 , 0.0 , 0.0 , 0.0 , 

39.0 , 4121.02564103 , 4119.48717949 , 4118.46153846 , 4123.58974359 , 4117.43589744 , 4117.43589744 , 4115.38461538 , 4121.53846154 , 4119.48717949 , 4122.56410256 , 4175.8974359 , 4898.46153846 , 4122.56410256 , 4126.15384615 , 2041.0 , 2035.0 , 1019.275 , 0.0 , 0.0 , 0.0 , 0.0 , 

40.0 , 4120.0 , 4118.46153846 , 4121.53846154 , 4124.1025641 , 4116.41025641 , 4117.94871795 , 4113.33333333 , 4119.48717949 , 4117.94871795 , 4124.1025641 , 4173.84615385 , 4896.41025641 , 4118.97435897 , 4126.66666667 , 2043.0 , 2035.0 , 1019.282 , 0.0 , 0.0 , 0.0 , 0.0 , 

41.0 , 4119.48717949 , 4117.94871795 , 4118.46153846 , 4123.07692308 , 4117.94871795 , 4116.41025641 , 4115.8974359 , 4118.97435897 , 4117.94871795 , 4123.58974359 , 4175.8974359 , 4894.87179487 , 4121.02564103 , 4124.1025641 , 2042.0 , 2036.0 , 1019.29 , 0.0 , 0.0 , 0.0 , 0.0 , 

42.0 , 4121.02564103 , 4121.53846154 , 4118.97435897 , 4122.56410256 , 4118.46153846 , 4115.38461538 , 4115.8974359 , 4120.51282051 , 4118.46153846 , 4122.05128205 , 4178.46153846 , 4898.97435897 , 4122.05128205 , 4125.64102564 , 2042.0 , 2035.0 , 1019.298 , 0.0 , 0.0 , 0.0 , 0.0 , 

43.0 , 4119.48717949 , 4115.8974359 , 4120.0 , 4122.56410256 , 4120.0 , 4115.38461538 , 4113.33333333 , 4121.53846154 , 4119.48717949 , 4122.05128205 , 4177.43589744 , 4896.92307692 , 4121.53846154 , 4124.61538462 , 2042.0 , 2034.0 , 1019.306 , 0.0 , 0.0 , 0.0 , 0.0 , 

44.0 , 4121.02564103 , 4113.33333333 , 4123.58974359 , 4122.56410256 , 4119.48717949 , 4116.41025641 , 4115.8974359 , 4121.53846154 , 4118.46153846 , 4121.53846154 , 4176.41025641 , 4896.92307692 , 4123.07692308 , 4124.1025641 , 2043.0 , 2033.0 , 1019.314 , 0.0 , 0.0 , 0.0 , 0.0 , 

45.0 , 4119.48717949 , 4117.43589744 , 4117.94871795 , 4118.97435897 , 4121.02564103 , 4118.46153846 , 4119.48717949 , 4121.02564103 , 4120.51282051 , 4120.51282051 , 4176.92307692 , 4897.94871795 , 4123.58974359 , 4123.58974359 , 2042.0 , 2034.0 , 1019.322 , 0.0 , 0.0 , 0.0 , 0.0 , 

46.0 , 4120.0 , 4121.53846154 , 4120.51282051 , 4118.97435897 , 4121.02564103 , 4120.51282051 , 4118.97435897 , 4120.0 , 4120.51282051 , 4122.56410256 , 4176.41025641 , 4898.46153846 , 4122.56410256 , 4127.17948718 , 2042.0 , 2036.0 , 1019.329 , 0.0 , 0.0 , 0.0 , 0.0 , 

47.0 , 4117.94871795 , 4116.92307692 , 4121.02564103 , 4121.53846154 , 4117.94871795 , 4117.43589744 , 4117.94871795 , 4120.0 , 4120.0 , 4124.1025641 , 4176.41025641 , 4894.87179487 , 4122.05128205 , 4128.71794872 , 2043.0 , 2035.0 , 1019.337 , 0.0 , 0.0 , 0.0 , 0.0 , 

48.0 , 4118.46153846 , 4117.94871795 , 4119.48717949 , 4122.05128205 , 4117.43589744 , 4114.35897436 , 4117.94871795 , 4118.46153846 , 4121.53846154 , 4123.07692308 , 4177.43589744 , 4897.94871795 , 4121.02564103 , 4127.17948718 , 2043.0 , 2035.0 , 1019.346 , 0.0 , 0.0 , 0.0 , 0.0 , 

49.0 , 4119.48717949 , 4118.97435897 , 4118.46153846 , 4120.0 , 4123.58974359 , 4113.33333333 , 4120.0 , 4119.48717949 , 4120.51282051 , 4122.05128205 , 4177.94871795 , 4898.46153846 , 4120.0 , 4123.07692308 , 2043.0 , 2035.0 , 1019.353 , 0.0 , 0.0 , 0.0 , 0.0 , 

50.0 , 4122.05128205 , 4117.94871795 , 4120.51282051 , 4121.53846154 , 4122.56410256 , 4114.35897436 , 4119.48717949 , 4123.07692308 , 4115.8974359 , 4122.05128205 , 4176.92307692 , 4898.97435897 , 4122.56410256 , 4123.58974359 , 2042.0 , 2035.0 , 1019.361 , 0.0 , 0.0 , 0.0 , 0.0 , 

51.0 , 4121.02564103 , 4116.41025641 , 4120.0 , 4122.56410256 , 4120.0 , 4114.35897436 , 4115.38461538 , 4121.02564103 , 4117.43589744 , 4122.56410256 , 4175.8974359 , 4900.51282051 , 4123.07692308 , 4127.17948718 , 2043.0 , 2035.0 , 1019.37 , 0.0 , 0.0 , 0.0 , 0.0 , 

52.0 , 4118.97435897 , 4116.92307692 , 4120.51282051 , 4122.56410256 , 4120.51282051 , 4114.35897436 , 4114.35897436 , 4117.43589744 , 4118.97435897 , 4121.02564103 , 4175.8974359 , 4900.0 , 4121.53846154 , 4128.71794872 , 2042.0 , 2034.0 , 1019.377 , 0.0 , 0.0 , 0.0 , 0.0 , 

53.0 , 4118.46153846 , 4117.94871795 , 4122.05128205 , 4121.53846154 , 4121.53846154 , 4118.97435897 , 4117.43589744 , 4118.97435897 , 4118.46153846 , 4119.48717949 , 4177.43589744 , 4896.92307692 , 4122.05128205 , 4126.66666667 , 2042.0 , 2035.0 , 1019.385 , 0.0 , 0.0 , 0.0 , 0.0 , 

54.0 , 4119.48717949 , 4117.43589744 , 4120.51282051 , 4119.48717949 , 4122.05128205 , 4120.51282051 , 4117.43589744 , 4120.0 , 4120.51282051 , 4121.53846154 , 4177.43589744 , 4895.38461538 , 4121.53846154 , 4124.61538462 , 2043.0 , 2034.0 , 1019.393 , 0.0 , 0.0 , 0.0 , 0.0 , 

55.0 , 4121.53846154 , 4117.94871795 , 4119.48717949 , 4120.51282051 , 4120.51282051 , 4115.8974359 , 4114.35897436 , 4120.0 , 4120.51282051 , 4123.58974359 , 4176.41025641 , 4900.51282051 , 4118.97435897 , 4127.17948718 , 2043.0 , 2034.0 , 1019.4 , 0.0 , 0.0 , 0.0 , 0.0 , 

56.0 , 4118.97435897 , 4119.48717949 , 4119.48717949 , 4121.02564103 , 4119.48717949 , 4112.82051282 , 4113.84615385 , 4122.05128205 , 4118.97435897 , 4120.0 , 4176.92307692 , 4901.53846154 , 4118.97435897 , 4128.71794872 , 2042.0 , 2036.0 , 1019.408 , 0.0 , 0.0 , 0.0 , 0.0 , 

57.0 , 4120.0 , 4120.51282051 , 4123.58974359 , 4120.51282051 , 4118.97435897 , 4115.8974359 , 4114.87179487 , 4118.97435897 , 4120.0 , 4118.46153846 , 4177.94871795 , 4900.51282051 , 4121.02564103 , 4126.15384615 , 2043.0 , 2037.0 , 1019.416 , 0.0 , 0.0 , 0.0 , 0.0 , 

58.0 , 4121.02564103 , 4118.46153846 , 4122.56410256 , 4121.53846154 , 4118.97435897 , 4115.38461538 , 4113.84615385 , 4113.84615385 , 4122.56410256 , 4121.53846154 , 4176.41025641 , 4898.46153846 , 4121.02564103 , 4123.07692308 , 2043.0 , 2033.0 , 1019.424 , 0.0 , 0.0 , 0.0 , 0.0 , 

59.0 , 4123.07692308 , 4120.0 , 4122.05128205 , 4123.58974359 , 4119.48717949 , 4113.33333333 , 4114.35897436 , 4115.38461538 , 4120.0 , 4122.56410256 , 4175.38461538 , 4900.51282051 , 4121.53846154 , 4126.15384615 , 2042.0 , 2035.0 , 1019.432 , 0.0 , 0.0 , 0.0 , 0.0 , 

60.0 , 4119.48717949 , 4120.0 , 4119.48717949 , 4122.56410256 , 4121.02564103 , 4114.35897436 , 4117.94871795 , 4121.53846154 , 4117.43589744 , 4121.02564103 , 4177.94871795 , 4901.02564103 , 4124.1025641 , 4127.17948718 , 2041.0 , 2034.0 , 1019.44 , 0.0 , 0.0 , 0.0 , 0.0 , 

61.0 , 4119.48717949 , 4117.94871795 , 4122.56410256 , 4122.56410256 , 4120.0 , 4116.41025641 , 4120.51282051 , 4122.05128205 , 4116.92307692 , 4123.58974359 , 4181.02564103 , 4904.61538462 , 4123.58974359 , 4127.69230769 , 2042.0 , 2034.0 , 1019.448 , 0.0 , 0.0 , 0.0 , 0.0 , 

62.0 , 4118.46153846 , 4116.41025641 , 4118.97435897 , 4122.56410256 , 4120.0 , 4115.8974359 , 4118.97435897 , 4118.97435897 , 4120.51282051 , 4125.12820513 , 4175.8974359 , 4900.0 , 4121.02564103 , 4126.66666667 , 2043.0 , 2034.0 , 1019.456 , 0.0 , 0.0 , 0.0 , 0.0 , 

63.0 , 4119.48717949 , 4120.0 , 4117.94871795 , 4122.56410256 , 4118.97435897 , 4115.38461538 , 4118.97435897 , 4119.48717949 , 4122.05128205 , 4122.05128205 , 4173.84615385 , 4895.8974359 , 4121.53846154 , 4127.69230769 , 2043.0 , 2035.0 , 1019.464 , 0.0 , 0.0 , 0.0 , 0.0 , 

64.0 , 4118.46153846 , 4118.97435897 , 4117.94871795 , 4120.51282051 , 4118.46153846 , 4115.38461538 , 4121.02564103 , 4121.53846154 , 4120.51282051 , 4121.02564103 , 4177.94871795 , 4895.8974359 , 4122.56410256 , 4125.12820513 , 2044.0 , 2036.0 , 1019.473 , 0.0 , 0.0 , 0.0 , 0.0 , 

65.0 , 4120.0 , 4118.97435897 , 4122.56410256 , 4119.48717949 , 4118.46153846 , 4116.41025641 , 4118.97435897 , 4118.97435897 , 4117.94871795 , 4123.58974359 , 4180.0 , 4903.07692308 , 4122.05128205 , 4124.1025641 , 2042.0 , 2035.0 , 1019.479 , 0.0 , 0.0 , 0.0 , 0.0 , 

66.0 , 4118.97435897 , 4118.97435897 , 4121.53846154 , 4120.0 , 4117.94871795 , 4114.87179487 , 4113.84615385 , 4117.94871795 , 4119.48717949 , 4124.61538462 , 4176.92307692 , 4901.53846154 , 4121.53846154 , 4125.64102564 , 2042.0 , 2035.0 , 1019.487 , 0.0 , 0.0 , 0.0 , 0.0 , 

67.0 , 4121.02564103 , 4117.94871795 , 4122.56410256 , 4122.05128205 , 4116.92307692 , 4115.38461538 , 4115.38461538 , 4119.48717949 , 4120.51282051 , 4121.53846154 , 4175.8974359 , 4899.48717949 , 4122.56410256 , 4127.69230769 , 2043.0 , 2035.0 , 1019.495 , 0.0 , 0.0 , 0.0 , 0.0 , 

68.0 , 4122.05128205 , 4117.43589744 , 4123.07692308 , 4118.46153846 , 4118.46153846 , 4115.8974359 , 4116.92307692 , 4120.0 , 4119.48717949 , 4120.51282051 , 4178.46153846 , 4900.51282051 , 4123.58974359 , 4124.61538462 , 2043.0 , 2034.0 , 1019.503 , 0.0 , 0.0 , 0.0 , 0.0 , 

69.0 , 4122.05128205 , 4121.02564103 , 4123.58974359 , 4117.94871795 , 4116.92307692 , 4114.35897436 , 4113.33333333 , 4119.48717949 , 4115.8974359 , 4122.56410256 , 4177.94871795 , 4898.46153846 , 4121.53846154 , 4126.66666667 , 2044.0 , 2035.0 , 1019.511 , 0.0 , 0.0 , 0.0 , 0.0 , 

70.0 , 4121.02564103 , 4122.05128205 , 4125.12820513 , 4121.53846154 , 4115.38461538 , 4112.30769231 , 4111.79487179 , 4121.02564103 , 4118.97435897 , 4125.12820513 , 4175.8974359 , 4896.92307692 , 4119.48717949 , 4131.79487179 , 2044.0 , 2036.0 , 1019.519 , 0.0 , 0.0 , 0.0 , 0.0 , 

71.0 , 4122.05128205 , 4120.0 , 4124.1025641 , 4121.02564103 , 4115.8974359 , 4115.38461538 , 4114.35897436 , 4122.05128205 , 4124.61538462 , 4124.1025641 , 4177.94871795 , 4901.02564103 , 4121.53846154 , 4129.74358974 , 2043.0 , 2035.0 , 1019.527 , 0.0 , 0.0 , 0.0 , 0.0 , 

72.0 , 4123.07692308 , 4119.48717949 , 4122.56410256 , 4116.92307692 , 4114.35897436 , 4118.46153846 , 4113.84615385 , 4122.05128205 , 4121.02564103 , 4122.05128205 , 4180.51282051 , 4904.61538462 , 4123.07692308 , 4125.64102564 , 2042.0 , 2034.0 , 1019.535 , 0.0 , 0.0 , 0.0 , 0.0 , 

73.0 , 4121.02564103 , 4120.51282051 , 4123.07692308 , 4118.46153846 , 4115.38461538 , 4115.8974359 , 4113.33333333 , 4122.56410256 , 4115.8974359 , 4122.56410256 , 4176.41025641 , 4902.56410256 , 4120.0 , 4127.69230769 , 2042.0 , 2035.0 , 1019.542 , 0.0 , 0.0 , 0.0 , 0.0 , 

74.0 , 4121.02564103 , 4121.53846154 , 4124.61538462 , 4124.61538462 , 4115.8974359 , 4114.35897436 , 4114.87179487 , 4121.02564103 , 4117.94871795 , 4123.07692308 , 4174.35897436 , 4904.1025641 , 4119.48717949 , 4129.23076923 , 2042.0 , 2034.0 , 1019.55 , 0.0 , 0.0 , 0.0 , 0.0 , 

75.0 , 4118.97435897 , 4117.94871795 , 4122.05128205 , 4123.58974359 , 4116.41025641 , 4115.8974359 , 4112.82051282 , 4119.48717949 , 4119.48717949 , 4122.56410256 , 4177.94871795 , 4905.64102564 , 4121.53846154 , 4126.15384615 , 2041.0 , 2034.0 , 1019.558 , 0.0 , 0.0 , 0.0 , 0.0 , 

76.0 , 4121.53846154 , 4118.46153846 , 4126.15384615 , 4122.05128205 , 4117.43589744 , 4115.8974359 , 4113.33333333 , 4120.51282051 , 4116.92307692 , 4122.56410256 , 4180.51282051 , 4905.12820513 , 4123.07692308 , 4127.69230769 , 2041.0 , 2034.0 , 1019.566 , 0.0 , 0.0 , 0.0 , 0.0 , 

77.0 , 4123.58974359 , 4120.51282051 , 4125.12820513 , 4123.07692308 , 4116.92307692 , 4114.35897436 , 4115.38461538 , 4120.51282051 , 4118.46153846 , 4122.05128205 , 4178.97435897 , 4903.58974359 , 4121.53846154 , 4130.76923077 , 2040.0 , 2035.0 , 1019.574 , 0.0 , 0.0 , 0.0 , 0.0 , 

78.0 , 4123.58974359 , 4121.02564103 , 4123.58974359 , 4123.58974359 , 4113.84615385 , 4116.41025641 , 4110.76923077 , 4118.46153846 , 4120.0 , 4121.53846154 , 4176.92307692 , 4906.15384615 , 4120.51282051 , 4131.79487179 , 2043.0 , 2036.0 , 1019.582 , 0.0 , 0.0 , 0.0 , 0.0 , 

79.0 , 4118.46153846 , 4117.43589744 , 4123.07692308 , 4122.05128205 , 4115.38461538 , 4116.41025641 , 4109.23076923 , 4117.94871795 , 4121.53846154 , 4123.07692308 , 4176.41025641 , 4901.53846154 , 4122.56410256 , 4129.23076923 , 2044.0 , 2036.0 , 1019.59 , 0.0 , 0.0 , 0.0 , 0.0 , 

80.0 , 4121.02564103 , 4118.46153846 , 4125.64102564 , 4121.53846154 , 4116.92307692 , 4115.8974359 , 4115.38461538 , 4120.0 , 4120.51282051 , 4123.58974359 , 4178.97435897 , 4900.0 , 4122.05128205 , 4128.20512821 , 2043.0 , 2035.0 , 1019.598 , 0.0 , 0.0 , 0.0 , 0.0 , 

81.0 , 4121.02564103 , 4117.43589744 , 4123.07692308 , 4118.46153846 , 4116.92307692 , 4115.8974359 , 4117.43589744 , 4123.07692308 , 4119.48717949 , 4122.56410256 , 4177.94871795 , 4900.51282051 , 4120.0 , 4127.17948718 , 2041.0 , 2035.0 , 1019.605 , 0.0 , 0.0 , 0.0 , 0.0 , 

82.0 , 4119.48717949 , 4117.43589744 , 4127.69230769 , 4116.41025641 , 4115.8974359 , 4116.92307692 , 4112.82051282 , 4123.58974359 , 4117.94871795 , 4123.07692308 , 4175.8974359 , 4903.07692308 , 4122.05128205 , 4126.66666667 , 2043.0 , 2034.0 , 1019.613 , 0.0 , 0.0 , 0.0 , 0.0 , 

83.0 , 4116.92307692 , 4117.94871795 , 4123.07692308 , 4118.46153846 , 4115.8974359 , 4116.41025641 , 4114.35897436 , 4120.0 , 4118.46153846 , 4122.56410256 , 4175.8974359 , 4900.51282051 , 4123.58974359 , 4124.1025641 , 2043.0 , 2037.0 , 1019.622 , 0.0 , 0.0 , 0.0 , 0.0 , 

84.0 , 4121.02564103 , 4120.0 , 4118.97435897 , 4120.0 , 4115.8974359 , 4115.38461538 , 4113.33333333 , 4119.48717949 , 4118.97435897 , 4122.56410256 , 4178.46153846 , 4903.07692308 , 4121.53846154 , 4128.20512821 , 2043.0 , 2036.0 , 1019.63 , 0.0 , 0.0 , 0.0 , 0.0 , 

85.0 , 4122.05128205 , 4118.97435897 , 4123.07692308 , 4116.41025641 , 4115.8974359 , 4114.87179487 , 4106.15384615 , 4121.53846154 , 4119.48717949 , 4123.07692308 , 4177.94871795 , 4903.07692308 , 4120.51282051 , 4131.79487179 , 2043.0 , 2035.0 , 1019.638 , 0.0 , 0.0 , 0.0 , 0.0 , 

86.0 , 4119.48717949 , 4115.38461538 , 4127.69230769 , 4117.94871795 , 4116.92307692 , 4116.92307692 , 4111.28205128 , 4121.02564103 , 4118.97435897 , 4123.07692308 , 4176.41025641 , 4900.51282051 , 4123.07692308 , 4127.69230769 , 2042.0 , 2034.0 , 1019.645 , 0.0 , 0.0 , 0.0 , 0.0 , 

87.0 , 4116.41025641 , 4114.87179487 , 4119.48717949 , 4120.51282051 , 4120.0 , 4117.94871795 , 4122.56410256 , 4122.05128205 , 4117.94871795 , 4122.56410256 , 4177.94871795 , 4899.48717949 , 4124.1025641 , 4122.56410256 , 2042.0 , 2035.0 , 1019.653 , 0.0 , 0.0 , 0.0 , 0.0 , 

88.0 , 4118.46153846 , 4118.46153846 , 4116.92307692 , 4117.94871795 , 4118.97435897 , 4116.41025641 , 4118.97435897 , 4122.56410256 , 4119.48717949 , 4123.07692308 , 4178.46153846 , 4899.48717949 , 4122.05128205 , 4126.66666667 , 2043.0 , 2034.0 , 1019.661 , 0.0 , 0.0 , 0.0 , 0.0 , 

89.0 , 4120.51282051 , 4119.48717949 , 4122.05128205 , 4113.33333333 , 4117.94871795 , 4114.35897436 , 4107.69230769 , 4122.05128205 , 4118.97435897 , 4122.56410256 , 4175.38461538 , 4900.0 , 4120.0 , 4128.20512821 , 2044.0 , 2036.0 , 1019.668 , 0.0 , 0.0 , 0.0 , 0.0 , 

90.0 , 4116.92307692 , 4121.02564103 , 4120.51282051 , 4113.33333333 , 4120.0 , 4113.33333333 , 4108.20512821 , 4122.56410256 , 4115.8974359 , 4121.53846154 , 4176.92307692 , 4902.05128205 , 4122.05128205 , 4123.07692308 , 2044.0 , 2034.0 , 1019.676 , 0.0 , 0.0 , 0.0 , 0.0 , 

91.0 , 4116.41025641 , 4121.02564103 , 4119.48717949 , 4115.8974359 , 4121.02564103 , 4114.35897436 , 4113.84615385 , 4122.05128205 , 4117.43589744 , 4121.02564103 , 4180.0 , 4900.51282051 , 4124.61538462 , 4123.58974359 , 2043.0 , 2035.0 , 1019.684 , 0.0 , 0.0 , 0.0 , 0.0 , 

92.0 , 4117.94871795 , 4116.92307692 , 4119.48717949 , 4116.92307692 , 4118.97435897 , 4114.35897436 , 4115.38461538 , 4120.0 , 4123.58974359 , 4122.05128205 , 4176.41025641 , 4895.8974359 , 4123.58974359 , 4127.17948718 , 2041.0 , 2034.0 , 1019.692 , 0.0 , 0.0 , 0.0 , 0.0 , 

93.0 , 4119.48717949 , 4118.97435897 , 4120.51282051 , 4118.97435897 , 4116.41025641 , 4116.92307692 , 4117.94871795 , 4118.97435897 , 4121.02564103 , 4123.58974359 , 4176.92307692 , 4897.94871795 , 4123.07692308 , 4128.20512821 , 2042.0 , 2035.0 , 1019.7 , 0.0 , 0.0 , 0.0 , 0.0 , 

94.0 , 4118.46153846 , 4120.51282051 , 4118.46153846 , 4118.46153846 , 4115.8974359 , 4118.46153846 , 4118.46153846 , 4119.48717949 , 4115.38461538 , 4124.1025641 , 4180.0 , 4898.97435897 , 4124.1025641 , 4126.15384615 , 2041.0 , 2036.0 , 1019.708 , 0.0 , 0.0 , 0.0 , 0.0 , 

95.0 , 4120.51282051 , 4120.0 , 4118.97435897 , 4116.41025641 , 4118.97435897 , 4115.8974359 , 4114.35897436 , 4120.0 , 4117.94871795 , 4122.56410256 , 4175.8974359 , 4899.48717949 , 4122.05128205 , 4127.69230769 , 2042.0 , 2035.0 , 1019.716 , 0.0 , 0.0 , 0.0 , 0.0 , 

96.0 , 4117.43589744 , 4118.97435897 , 4117.94871795 , 4116.41025641 , 4120.51282051 , 4113.84615385 , 4112.82051282 , 4121.53846154 , 4121.02564103 , 4122.05128205 , 4175.38461538 , 4900.51282051 , 4120.51282051 , 4127.69230769 , 2044.0 , 2035.0 , 1019.724 , 0.0 , 0.0 , 0.0 , 0.0 , 

97.0 , 4117.43589744 , 4122.05128205 , 4122.05128205 , 4122.05128205 , 4117.43589744 , 4115.8974359 , 4114.35897436 , 4122.56410256 , 4119.48717949 , 4123.07692308 , 4181.02564103 , 4902.56410256 , 4123.07692308 , 4129.23076923 , 2044.0 , 2034.0 , 1019.732 , 0.0 , 0.0 , 0.0 , 0.0 , 

98.0 , 4115.8974359 , 4116.92307692 , 4120.51282051 , 4122.56410256 , 4117.94871795 , 4115.8974359 , 4114.35897436 , 4122.56410256 , 4122.56410256 , 4123.07692308 , 4179.48717949 , 4898.97435897 , 4124.61538462 , 4127.69230769 , 2044.0 , 2034.0 , 1019.739 , 0.0 , 0.0 , 0.0 , 0.0 , 

99.0 , 4118.46153846 , 4114.35897436 , 4122.56410256 , 4116.41025641 , 4118.46153846 , 4115.38461538 , 4113.84615385 , 4122.05128205 , 4123.07692308 , 4122.56410256 , 4177.94871795 , 4902.56410256 , 4123.07692308 , 4125.64102564 , 2044.0 , 2035.0 , 1019.748 , 0.0 , 0.0 , 0.0 , 0.0 , 

100.0 , 4116.41025641 , 4114.87179487 , 4123.07692308 , 4111.79487179 , 4116.41025641 , 4115.38461538 , 4114.35897436 , 4122.05128205 , 4119.48717949 , 4122.56410256 , 4180.0 , 4904.1025641 , 4123.58974359 , 4124.1025641 , 2043.0 , 2034.0 , 1019.755 , 0.0 , 0.0 , 0.0 , 0.0 , 

101.0 , 4114.87179487 , 4120.0 , 4124.1025641 , 4115.38461538 , 4115.38461538 , 4115.38461538 , 4113.33333333 , 4122.05128205 , 4117.43589744 , 4123.58974359 , 4176.41025641 , 4903.58974359 , 4123.58974359 , 4128.71794872 , 2043.0 , 2035.0 , 1019.763 , 0.0 , 0.0 , 0.0 , 0.0 , 

102.0 , 4115.38461538 , 4120.51282051 , 4119.48717949 , 4120.51282051 , 4119.48717949 , 4115.8974359 , 4113.33333333 , 4121.02564103 , 4120.51282051 , 4122.56410256 , 4173.84615385 , 4898.97435897 , 4122.05128205 , 4129.23076923 , 2041.0 , 2033.0 , 1019.771 , 0.0 , 0.0 , 0.0 , 0.0 , 

103.0 , 4121.53846154 , 4118.46153846 , 4119.48717949 , 4121.02564103 , 4117.94871795 , 4115.38461538 , 4113.84615385 , 4118.97435897 , 4120.51282051 , 4122.05128205 , 4178.97435897 , 4900.0 , 4122.05128205 , 4127.17948718 , 2042.0 , 2034.0 , 1019.779 , 0.0 , 0.0 , 0.0 , 0.0 , 

104.0 , 4120.0 , 4116.41025641 , 4119.48717949 , 4117.94871795 , 4116.92307692 , 4113.33333333 , 4114.35897436 , 4121.53846154 , 4118.97435897 , 4122.05128205 , 4180.51282051 , 4900.0 , 4122.05128205 , 4126.66666667 , 2043.0 , 2034.0 , 1019.787 , 0.0 , 0.0 , 0.0 , 0.0 , 

105.0 , 4117.43589744 , 4118.46153846 , 4120.0 , 4116.92307692 , 4116.92307692 , 4114.35897436 , 4113.84615385 , 4123.58974359 , 4118.46153846 , 4122.05128205 , 4177.94871795 , 4898.97435897 , 4122.05128205 , 4126.66666667 , 2044.0 , 2034.0 , 1019.795 , 0.0 , 0.0 , 0.0 , 0.0 , 

106.0 , 4120.51282051 , 4116.41025641 , 4121.53846154 , 4117.43589744 , 4117.43589744 , 4116.41025641 , 4113.84615385 , 4120.51282051 , 4118.97435897 , 4123.07692308 , 4178.46153846 , 4896.92307692 , 4122.05128205 , 4125.12820513 , 2043.0 , 2035.0 , 1019.802 , 0.0 , 0.0 , 0.0 , 0.0 , 

107.0 , 4122.05128205 , 4117.43589744 , 4122.05128205 , 4117.94871795 , 4118.97435897 , 4114.87179487 , 4114.35897436 , 4118.46153846 , 4119.48717949 , 4122.56410256 , 4178.46153846 , 4896.41025641 , 4122.05128205 , 4126.15384615 , 2044.0 , 2034.0 , 1019.81 , 0.0 , 0.0 , 0.0 , 0.0 , 

108.0 , 4117.94871795 , 4121.02564103 , 4119.48717949 , 4118.46153846 , 4121.53846154 , 4117.43589744 , 4109.74358974 , 4120.0 , 4119.48717949 , 4122.05128205 , 4177.43589744 , 4899.48717949 , 4122.05128205 , 4128.20512821 , 2044.0 , 2035.0 , 1019.818 , 0.0 , 0.0 , 0.0 , 0.0 , 

109.0 , 4117.94871795 , 4119.48717949 , 4118.46153846 , 4118.46153846 , 4120.0 , 4121.02564103 , 4109.74358974 , 4120.51282051 , 4118.97435897 , 4124.1025641 , 4177.43589744 , 4901.53846154 , 4122.05128205 , 4126.15384615 , 2042.0 , 2036.0 , 1019.826 , 0.0 , 0.0 , 0.0 , 0.0 , 

110.0 , 4120.51282051 , 4116.92307692 , 4122.05128205 , 4119.48717949 , 4117.94871795 , 4118.97435897 , 4117.94871795 , 4120.0 , 4117.43589744 , 4124.61538462 , 4176.41025641 , 4902.05128205 , 4122.05128205 , 4124.61538462 , 2042.0 , 2036.0 , 1019.834 , 0.0 , 0.0 , 0.0 , 0.0 , 

111.0 , 4118.46153846 , 4116.92307692 , 4116.92307692 , 4120.51282051 , 4118.97435897 , 4116.41025641 , 4122.56410256 , 4121.53846154 , 4118.46153846 , 4121.53846154 , 4177.94871795 , 4901.02564103 , 4121.53846154 , 4126.66666667 , 2041.0 , 2034.0 , 1019.842 , 0.0 , 0.0 , 0.0 , 0.0 , 

112.0 , 4117.94871795 , 4118.46153846 , 4118.46153846 , 4123.58974359 , 4116.92307692 , 4117.94871795 , 4116.41025641 , 4121.53846154 , 4118.46153846 , 4121.02564103 , 4180.0 , 4898.97435897 , 4120.51282051 , 4128.20512821 , 2043.0 , 2033.0 , 1019.85 , 0.0 , 0.0 , 0.0 , 0.0 , 

113.0 , 4117.43589744 , 4115.8974359 , 4122.56410256 , 4124.1025641 , 4114.87179487 , 4116.41025641 , 4111.28205128 , 4119.48717949 , 4118.46153846 , 4123.58974359 , 4175.8974359 , 4895.38461538 , 4121.02564103 , 4126.66666667 , 2042.0 , 2035.0 , 1019.858 , 0.0 , 0.0 , 0.0 , 0.0 , 

114.0 , 4120.51282051 , 4115.8974359 , 4124.61538462 , 4119.48717949 , 4117.43589744 , 4114.35897436 , 4113.33333333 , 4120.51282051 , 4118.46153846 , 4122.05128205 , 4174.35897436 , 4900.51282051 , 4123.07692308 , 4129.74358974 , 2042.0 , 2036.0 , 1019.866 , 0.0 , 0.0 , 0.0 , 0.0 , 

115.0 , 4117.94871795 , 4114.35897436 , 4118.46153846 , 4115.38461538 , 4118.97435897 , 4114.87179487 , 4113.84615385 , 4124.1025641 , 4120.0 , 4120.51282051 , 4178.46153846 , 4905.12820513 , 4122.56410256 , 4127.69230769 , 2042.0 , 2035.0 , 1019.873 , 0.0 , 0.0 , 0.0 , 0.0 , 

116.0 , 4119.48717949 , 4116.41025641 , 4117.43589744 , 4117.94871795 , 4115.8974359 , 4116.41025641 , 4112.30769231 , 4124.1025641 , 4119.48717949 , 4123.58974359 , 4179.48717949 , 4905.12820513 , 4121.53846154 , 4125.64102564 , 2043.0 , 2035.0 , 1019.881 , 0.0 , 0.0 , 0.0 , 0.0 , 

117.0 , 4117.94871795 , 4116.92307692 , 4114.87179487 , 4120.51282051 , 4116.41025641 , 4114.87179487 , 4113.84615385 , 4123.07692308 , 4120.51282051 , 4124.1025641 , 4176.41025641 , 4897.94871795 , 4123.58974359 , 4126.66666667 , 2043.0 , 2035.0 , 1019.889 , 0.0 , 0.0 , 0.0 , 0.0 , 

118.0 , 4118.97435897 , 4117.43589744 , 4118.46153846 , 4120.0 , 4118.46153846 , 4113.84615385 , 4115.38461538 , 4122.05128205 , 4119.48717949 , 4121.02564103 , 4177.94871795 , 4895.38461538 , 4123.58974359 , 4129.23076923 , 2043.0 , 2035.0 , 1019.897 , 0.0 , 0.0 , 0.0 , 0.0 , 

119.0 , 4117.43589744 , 4116.92307692 , 4118.97435897 , 4116.41025641 , 4117.43589744 , 4114.87179487 , 4113.33333333 , 4122.56410256 , 4120.0 , 4122.05128205 , 4179.48717949 , 4897.43589744 , 4121.02564103 , 4127.17948718 , 2044.0 , 2035.0 , 1019.905 , 0.0 , 0.0 , 0.0 , 0.0 , 

120.0 , 4118.97435897 , 4117.43589744 , 4118.46153846 , 4116.92307692 , 4115.38461538 , 4116.41025641 , 4111.79487179 , 4122.05128205 , 4119.48717949 , 4123.07692308 , 4178.97435897 , 4906.66666667 , 4120.51282051 , 4127.69230769 , 2043.0 , 2034.0 , 1019.913 , 0.0 , 0.0 , 0.0 , 0.0 , 

121.0 , 4117.43589744 , 4115.8974359 , 4115.8974359 , 4118.46153846 , 4118.46153846 , 4113.84615385 , 4112.30769231 , 4120.51282051 , 4117.94871795 , 4122.56410256 , 4176.41025641 , 4906.15384615 , 4122.56410256 , 4127.69230769 , 2043.0 , 2036.0 , 1019.921 , 0.0 , 0.0 , 0.0 , 0.0 , 

122.0 , 4117.94871795 , 4118.46153846 , 4118.97435897 , 4118.46153846 , 4117.94871795 , 4113.84615385 , 4114.87179487 , 4121.02564103 , 4117.94871795 , 4121.53846154 , 4175.38461538 , 4901.53846154 , 4122.05128205 , 4127.69230769 , 2043.0 , 2036.0 , 1019.929 , 0.0 , 0.0 , 0.0 , 0.0 , 

123.0 , 4118.97435897 , 4121.53846154 , 4121.02564103 , 4118.97435897 , 4116.41025641 , 4116.92307692 , 4119.48717949 , 4122.56410256 , 4119.48717949 , 4121.53846154 , 4175.8974359 , 4899.48717949 , 4122.05128205 , 4127.69230769 , 2041.0 , 2034.0 , 1019.936 , 0.0 , 0.0 , 0.0 , 0.0 , 

124.0 , 4117.94871795 , 4120.51282051 , 4120.0 , 4121.53846154 , 4117.43589744 , 4115.8974359 , 4120.51282051 , 4122.56410256 , 4117.43589744 , 4122.56410256 , 4176.92307692 , 4903.07692308 , 4122.56410256 , 4124.1025641 , 2040.0 , 2035.0 , 1019.944 , 0.0 , 0.0 , 0.0 , 0.0 , 

125.0 , 4116.41025641 , 4116.41025641 , 4119.48717949 , 4119.48717949 , 4117.94871795 , 4112.30769231 , 4116.41025641 , 4121.02564103 , 4117.43589744 , 4123.58974359 , 4177.94871795 , 4906.15384615 , 4122.05128205 , 4123.07692308 , 2042.0 , 2035.0 , 1019.952 , 0.0 , 0.0 , 0.0 , 0.0 , 

126.0 , 4118.46153846 , 4116.41025641 , 4121.02564103 , 4115.38461538 , 4117.43589744 , 4113.33333333 , 4113.33333333 , 4121.02564103 , 4118.46153846 , 4122.56410256 , 4177.43589744 , 4903.58974359 , 4121.02564103 , 4128.71794872 , 2044.0 , 2034.0 , 1019.96 , 0.0 , 0.0 , 0.0 , 0.0 , 

127.0 , 4119.48717949 , 4119.48717949 , 4118.46153846 , 4118.97435897 , 4117.43589744 , 4114.87179487 , 4114.35897436 , 4122.05128205 , 4116.41025641 , 4122.05128205 , 4175.8974359 , 4899.48717949 , 4120.51282051 , 4130.25641026 , 2044.0 , 2035.0 , 1019.968 , 0.0 , 0.0 , 0.0 , 0.0 , 

128.0 , 4116.92307692 , 4120.0 , 4115.8974359 , 4124.1025641 , 4117.94871795 , 4112.82051282 , 4116.92307692 , 4123.07692308 , 4116.41025641 , 4124.61538462 , 4176.41025641 , 4896.92307692 , 4122.05128205 , 4125.64102564 , 2043.0 , 2036.0 , 1019.976 , 0.0 , 0.0 , 0.0 , 0.0 , 

0.0 , 4116.92307692 , 4116.41025641 , 4120.51282051 , 4123.58974359 , 4115.8974359 , 4114.87179487 , 4117.43589744 , 4120.0 , 4118.97435897 , 4126.15384615 , 4178.97435897 , 4897.43589744 , 4123.58974359 , 4125.12820513 , 2043.0 , 2035.0 , 1019.984 , 0.0 , 0.0 , 0.0 , 0.0 , 

1.0 , 4117.43589744 , 4114.35897436 , 4121.53846154 , 4117.94871795 , 4115.8974359 , 4118.46153846 , 4113.33333333 , 4118.97435897 , 4120.51282051 , 4124.61538462 , 4180.0 , 4897.43589744 , 4123.07692308 , 4127.69230769 , 2042.0 , 2035.0 , 1019.992 , 0.0 , 0.0 , 0.0 , 0.0 , 

2.0 , 4118.46153846 , 4119.48717949 , 4123.07692308 , 4117.94871795 , 4118.46153846 , 4115.8974359 , 4113.84615385 , 4120.51282051 , 4121.02564103 , 4121.53846154 , 4178.97435897 , 4904.1025641 , 4121.02564103 , 4127.69230769 , 2042.0 , 2035.0 , 1019.999 , 0.0 , 0.0 , 0.0 , 0.0 , 

3.0 , 4116.92307692 , 4119.48717949 , 4121.53846154 , 4122.05128205 , 4121.02564103 , 4113.84615385 , 4118.97435897 , 4118.46153846 , 4120.51282051 , 4121.53846154 , 4178.46153846 , 4903.58974359 , 4122.05128205 , 4124.61538462 , 2042.0 , 2035.0 , 1020.007 , 0.0 , 0.0 , 0.0 , 0.0 , 

4.0 , 4120.51282051 , 4117.94871795 , 4123.58974359 , 4121.02564103 , 4119.48717949 , 4115.8974359 , 4111.79487179 , 4117.94871795 , 4117.94871795 , 4122.05128205 , 4178.46153846 , 4900.0 , 4122.05128205 , 4127.69230769 , 2044.0 , 2036.0 , 1020.015 , 0.0 , 0.0 , 0.0 , 0.0 , 

5.0 , 4121.02564103 , 4118.97435897 , 4120.0 , 4116.92307692 , 4120.0 , 4113.33333333 , 4105.12820513 , 4122.56410256 , 4119.48717949 , 4121.02564103 , 4177.43589744 , 4900.51282051 , 4120.51282051 , 4131.28205128 , 2043.0 , 2035.0 , 1020.023 , 0.0 , 0.0 , 0.0 , 0.0 , 

6.0 , 4121.53846154 , 4121.02564103 , 4120.0 , 4118.97435897 , 4119.48717949 , 4111.28205128 , 4114.87179487 , 4123.58974359 , 4121.02564103 , 4122.05128205 , 4177.94871795 , 4905.12820513 , 4122.56410256 , 4129.74358974 , 2043.0 , 2034.0 , 1020.031 , 0.0 , 0.0 , 0.0 , 0.0 , 

7.0 , 4116.92307692 , 4117.43589744 , 4120.0 , 4120.51282051 , 4117.43589744 , 4114.87179487 , 4122.56410256 , 4121.02564103 , 4121.02564103 , 4123.58974359 , 4180.0 , 4900.51282051 , 4125.12820513 , 4123.58974359 , 2043.0 , 2035.0 , 1020.039 , 0.0 , 0.0 , 0.0 , 0.0 , 

8.0 , 4118.46153846 , 4116.41025641 , 4125.64102564 , 4121.02564103 , 4117.94871795 , 4117.94871795 , 4119.48717949 , 4121.53846154 , 4117.43589744 , 4122.56410256 , 4180.51282051 , 4900.0 , 4123.58974359 , 4124.61538462 , 2042.0 , 2034.0 , 1020.047 , 0.0 , 0.0 , 0.0 , 0.0 , 

9.0 , 4120.0 , 4115.38461538 , 4119.48717949 , 4120.0 , 4121.02564103 , 4114.87179487 , 4118.46153846 , 4120.51282051 , 4119.48717949 , 4122.05128205 , 4177.43589744 , 4898.97435897 , 4121.02564103 , 4126.66666667 , 2041.0 , 2034.0 , 1020.055 , 0.0 , 0.0 , 0.0 , 0.0 , 

10.0 , 4122.05128205 , 4117.94871795 , 4115.38461538 , 4121.02564103 , 4118.46153846 , 4112.30769231 , 4120.51282051 , 4119.48717949 , 4120.51282051 , 4121.53846154 , 4177.43589744 , 4897.43589744 , 4122.56410256 , 4129.23076923 , 2043.0 , 2034.0 , 1020.063 , 0.0 , 0.0 , 0.0 , 0.0 , 

11.0 , 4119.48717949 , 4117.43589744 , 4116.92307692 , 4121.53846154 , 4116.41025641 , 4110.76923077 , 4120.0 , 4121.02564103 , 4120.0 , 4121.02564103 , 4178.97435897 , 4897.43589744 , 4124.1025641 , 4129.74358974 , 2043.0 , 2036.0 , 1020.07 , 0.0 , 0.0 , 0.0 , 0.0 , 

12.0 , 4117.94871795 , 4116.41025641 , 4118.46153846 , 4121.02564103 , 4118.97435897 , 4113.84615385 , 4120.0 , 4121.53846154 , 4120.0 , 4122.05128205 , 4177.94871795 , 4903.07692308 , 4121.53846154 , 4127.17948718 , 2042.0 , 2035.0 , 1020.078 , 0.0 , 0.0 , 0.0 , 0.0 , 

13.0 , 4116.41025641 , 4117.43589744 , 4115.8974359 , 4120.0 , 4120.51282051 , 4117.43589744 , 4121.02564103 , 4122.05128205 , 4120.51282051 , 4124.1025641 , 4176.92307692 , 4901.53846154 , 4121.53846154 , 4123.07692308 , 2042.0 , 2036.0 , 1020.086 , 0.0 , 0.0 , 0.0 , 0.0 , 

14.0 , 4117.43589744 , 4118.46153846 , 4120.0 , 4119.48717949 , 4116.92307692 , 4117.43589744 , 4121.02564103 , 4122.05128205 , 4119.48717949 , 4122.56410256 , 4178.97435897 , 4898.97435897 , 4123.58974359 , 4125.12820513 , 2043.0 , 2035.0 , 1020.095 , 0.0 , 0.0 , 0.0 , 0.0 , 

15.0 , 4117.94871795 , 4116.92307692 , 4122.56410256 , 4120.0 , 4118.46153846 , 4115.38461538 , 4117.94871795 , 4118.97435897 , 4120.0 , 4122.05128205 , 4178.97435897 , 4899.48717949 , 4122.05128205 , 4127.17948718 , 2042.0 , 2035.0 , 1020.102 , 0.0 , 0.0 , 0.0 , 0.0 , 

16.0 , 4118.46153846 , 4117.43589744 , 4120.0 , 4121.53846154 , 4117.94871795 , 4113.84615385 , 4112.82051282 , 4116.92307692 , 4119.48717949 , 4123.07692308 , 4175.8974359 , 4899.48717949 , 4118.46153846 , 4125.12820513 , 2044.0 , 2035.0 , 1020.11 , 0.0 , 0.0 , 0.0 , 0.0 , 

17.0 , 4120.0 , 4119.48717949 , 4118.97435897 , 4121.53846154 , 4115.8974359 , 4117.43589744 , 4111.79487179 , 4118.97435897 , 4118.46153846 , 4122.56410256 , 4176.41025641 , 4901.02564103 , 4120.51282051 , 4124.1025641 , 2041.0 , 2034.0 , 1020.118 , 0.0 , 0.0 , 0.0 , 0.0 , 

18.0 , 4118.97435897 , 4116.92307692 , 4116.92307692 , 4119.48717949 , 4118.97435897 , 4118.97435897 , 4114.87179487 , 4124.1025641 , 4123.07692308 , 4122.56410256 , 4177.94871795 , 4900.0 , 4123.07692308 , 4124.61538462 , 2042.0 , 2034.0 , 1020.126 , 0.0 , 0.0 , 0.0 , 0.0 , 

19.0 , 4117.43589744 , 4117.94871795 , 4120.0 , 4122.05128205 , 4120.0 , 4114.87179487 , 4118.97435897 , 4125.12820513 , 4122.56410256 , 4122.05128205 , 4177.94871795 , 4898.97435897 , 4122.56410256 , 4126.66666667 , 2044.0 , 2035.0 , 1020.133 , 0.0 , 0.0 , 0.0 , 0.0 , 

20.0 , 4118.46153846 , 4118.46153846 , 4120.0 , 4122.56410256 , 4117.43589744 , 4112.30769231 , 4120.0 , 4120.51282051 , 4117.94871795 , 4123.58974359 , 4178.46153846 , 4896.92307692 , 4122.05128205 , 4126.66666667 , 2043.0 , 2035.0 , 1020.141 , 0.0 , 0.0 , 0.0 , 0.0 , 

21.0 , 4121.53846154 , 4117.43589744 , 4120.51282051 , 4121.02564103 , 4117.43589744 , 4116.92307692 , 4110.76923077 , 4119.48717949 , 4118.97435897 , 4125.64102564 , 4178.97435897 , 4900.0 , 4121.53846154 , 4126.15384615 , 2043.0 , 2034.0 , 1020.15 , 0.0 , 0.0 , 0.0 , 0.0 , 

22.0 , 4116.41025641 , 4115.8974359 , 4118.46153846 , 4121.53846154 , 4116.41025641 , 4118.97435897 , 4106.66666667 , 4124.1025641 , 4120.0 , 4123.58974359 , 4177.94871795 , 4900.51282051 , 4121.02564103 , 4123.58974359 , 2043.0 , 2034.0 , 1020.157 , 0.0 , 0.0 , 0.0 , 0.0 , 

23.0 , 4118.46153846 , 4117.94871795 , 4120.51282051 , 4122.05128205 , 4112.82051282 , 4117.43589744 , 4114.35897436 , 4123.58974359 , 4117.43589744 , 4123.58974359 , 4179.48717949 , 4901.53846154 , 4119.48717949 , 4126.15384615 , 2043.0 , 2035.0 , 1020.165 , 0.0 , 0.0 , 0.0 , 0.0 , 

24.0 , 4119.48717949 , 4117.94871795 , 4115.8974359 , 4121.02564103 , 4117.43589744 , 4115.8974359 , 4114.87179487 , 4120.51282051 , 4120.51282051 , 4125.64102564 , 4178.46153846 , 4901.02564103 , 4120.0 , 4126.66666667 , 2041.0 , 2035.0 , 1020.174 , 0.0 , 0.0 , 0.0 , 0.0 , 

25.0 , 4120.0 , 4119.48717949 , 4117.94871795 , 4122.56410256 , 4120.51282051 , 4117.43589744 , 4110.25641026 , 4120.51282051 , 4122.56410256 , 4123.58974359 , 4175.8974359 , 4902.05128205 , 4122.56410256 , 4125.64102564 , 2041.0 , 2034.0 , 1020.181 , 0.0 , 0.0 , 0.0 , 0.0 , 

26.0 , 4117.43589744 , 4117.94871795 , 4118.97435897 , 4122.56410256 , 4119.48717949 , 4117.43589744 , 4115.38461538 , 4123.58974359 , 4121.02564103 , 4122.05128205 , 4176.41025641 , 4897.43589744 , 4123.07692308 , 4125.12820513 , 2044.0 , 2035.0 , 1020.192 , 0.0 , 0.0 , 0.0 , 0.0 , 

27.0 , 4120.51282051 , 4119.48717949 , 4118.97435897 , 4121.02564103 , 4116.41025641 , 4115.38461538 , 4118.97435897 , 4123.58974359 , 4119.48717949 , 4123.07692308 , 4177.43589744 , 4897.43589744 , 4120.0 , 4129.74358974 , 2044.0 , 2035.0 , 1020.196 , 0.0 , 0.0 , 0.0 , 0.0 , 

28.0 , 4120.0 , 4117.94871795 , 4117.43589744 , 4120.0 , 4114.87179487 , 4112.30769231 , 4114.35897436 , 4117.94871795 , 4121.02564103 , 4122.05128205 , 4174.35897436 , 4896.92307692 , 4118.97435897 , 4128.71794872 , 2043.0 , 2035.0 , 1020.204 , 0.0 , 0.0 , 0.0 , 0.0 , 

29.0 , 4117.43589744 , 4117.94871795 , 4122.05128205 , 4121.53846154 , 4116.41025641 , 4113.84615385 , 4113.33333333 , 4116.41025641 , 4121.02564103 , 4121.02564103 , 4176.41025641 , 4898.46153846 , 4124.1025641 , 4124.1025641 , 2043.0 , 2035.0 , 1020.212 , 0.0 , 0.0 , 0.0 , 0.0 , 

30.0 , 4114.87179487 , 4116.41025641 , 4121.53846154 , 4120.51282051 , 4118.46153846 , 4115.8974359 , 4113.84615385 , 4121.53846154 , 4121.53846154 , 4123.07692308 , 4180.0 , 4898.97435897 , 4126.15384615 , 4121.53846154 , 2042.0 , 2034.0 , 1020.22 , 0.0 , 0.0 , 0.0 , 0.0 , 

31.0 , 4119.48717949 , 4117.43589744 , 4118.97435897 , 4119.48717949 , 4116.41025641 , 4114.87179487 , 4114.35897436 , 4121.53846154 , 4120.51282051 , 4123.07692308 , 4177.43589744 , 4901.02564103 , 4121.02564103 , 4127.17948718 , 2041.0 , 2034.0 , 1020.229 , 0.0 , 0.0 , 0.0 , 0.0 , 

32.0 , 4121.02564103 , 4118.97435897 , 4117.94871795 , 4121.02564103 , 4117.43589744 , 4114.35897436 , 4118.46153846 , 4120.0 , 4120.0 , 4121.53846154 , 4174.87179487 , 4901.02564103 , 4120.0 , 4129.74358974 , 2043.0 , 2035.0 , 1020.236 , 0.0 , 0.0 , 0.0 , 0.0 , 

33.0 , 4117.94871795 , 4118.97435897 , 4118.97435897 , 4123.58974359 , 4119.48717949 , 4116.92307692 , 4118.46153846 , 4123.58974359 , 4121.02564103 , 4123.58974359 , 4176.41025641 , 4901.02564103 , 4123.58974359 , 4125.12820513 , 2043.0 , 2035.0 , 1020.244 , 0.0 , 0.0 , 0.0 , 0.0 , 

34.0 , 4118.46153846 , 4116.41025641 , 4117.94871795 , 4122.56410256 , 4118.97435897 , 4116.41025641 , 4113.33333333 , 4122.56410256 , 4120.51282051 , 4125.12820513 , 4177.43589744 , 4898.97435897 , 4121.53846154 , 4123.07692308 , 2041.0 , 2036.0 , 1020.252 , 0.0 , 0.0 , 0.0 , 0.0 , 

35.0 , 4120.0 , 4114.87179487 , 4118.46153846 , 4120.51282051 , 4117.94871795 , 4114.87179487 , 4112.82051282 , 4118.97435897 , 4120.0 , 4123.58974359 , 4177.43589744 , 4895.38461538 , 4119.48717949 , 4123.58974359 , 2043.0 , 2035.0 , 1020.26 , 0.0 , 0.0 , 0.0 , 0.0 , 

36.0 , 4117.94871795 , 4119.48717949 , 4122.56410256 , 4121.53846154 , 4117.94871795 , 4115.8974359 , 4114.35897436 , 4120.51282051 , 4120.51282051 , 4122.56410256 , 4176.92307692 , 4898.46153846 , 4123.58974359 , 4126.15384615 , 2044.0 , 2035.0 , 1020.267 , 0.0 , 0.0 , 0.0 , 0.0 , 

37.0 , 4116.92307692 , 4119.48717949 , 4120.0 , 4122.56410256 , 4116.92307692 , 4115.8974359 , 4113.33333333 , 4120.0 , 4121.02564103 , 4123.58974359 , 4176.92307692 , 4898.97435897 , 4124.1025641 , 4129.23076923 , 2043.0 , 2036.0 , 1020.275 , 0.0 , 0.0 , 0.0 , 0.0 , 

38.0 , 4121.02564103 , 4116.41025641 , 4116.92307692 , 4122.05128205 , 4116.41025641 , 4115.38461538 , 4113.33333333 , 4118.97435897 , 4119.48717949 , 4123.07692308 , 4178.46153846 , 4897.43589744 , 4121.02564103 , 4127.69230769 , 2043.0 , 2035.0 , 1020.283 , 0.0 , 0.0 , 0.0 , 0.0 , 

39.0 , 4119.48717949 , 4116.92307692 , 4115.8974359 , 4120.51282051 , 4119.48717949 , 4114.87179487 , 4114.87179487 , 4120.51282051 , 4117.94871795 , 4124.1025641 , 4177.94871795 , 4897.43589744 , 4121.02564103 , 4124.1025641 , 2042.0 , 2033.0 , 1020.295 , 0.0 , 0.0 , 0.0 , 0.0 , 

40.0 , 4118.46153846 , 4120.0 , 4120.51282051 , 4120.0 , 4120.0 , 4116.92307692 , 4115.8974359 , 4120.0 , 4117.94871795 , 4126.15384615 , 4176.92307692 , 4903.07692308 , 4121.02564103 , 4126.66666667 , 2043.0 , 2034.0 , 1020.299 , 0.0 , 0.0 , 0.0 , 0.0 , 

41.0 , 4117.94871795 , 4115.8974359 , 4117.43589744 , 4117.94871795 , 4118.46153846 , 4117.94871795 , 4116.92307692 , 4119.48717949 , 4121.02564103 , 4125.12820513 , 4176.41025641 , 4900.51282051 , 4120.0 , 4127.17948718 , 2042.0 , 2035.0 , 1020.307 , 0.0 , 0.0 , 0.0 , 0.0 , 

42.0 , 4121.02564103 , 4116.41025641 , 4117.94871795 , 4120.51282051 , 4114.87179487 , 4114.87179487 , 4116.41025641 , 4118.97435897 , 4121.02564103 , 4122.56410256 , 4176.92307692 , 4898.97435897 , 4120.51282051 , 4127.17948718 , 2042.0 , 2033.0 , 1020.315 , 0.0 , 0.0 , 0.0 , 0.0 , 

43.0 , 4117.94871795 , 4118.97435897 , 4117.43589744 , 4124.1025641 , 4117.43589744 , 4112.82051282 , 4114.35897436 , 4118.46153846 , 4118.97435897 , 4122.56410256 , 4176.41025641 , 4897.43589744 , 4122.05128205 , 4126.15384615 , 2043.0 , 2034.0 , 1020.323 , 0.0 , 0.0 , 0.0 , 0.0 , 

44.0 , 4116.92307692 , 4120.0 , 4122.05128205 , 4123.07692308 , 4120.51282051 , 4117.43589744 , 4116.41025641 , 4120.0 , 4118.46153846 , 4123.58974359 , 4177.43589744 , 4900.51282051 , 4120.51282051 , 4127.17948718 , 2044.0 , 2035.0 , 1020.331 , 0.0 , 0.0 , 0.0 , 0.0 , 

45.0 , 4117.43589744 , 4117.94871795 , 4122.05128205 , 4119.48717949 , 4118.97435897 , 4117.43589744 , 4120.51282051 , 4120.51282051 , 4122.56410256 , 4124.1025641 , 4178.46153846 , 4900.0 , 4120.0 , 4124.61538462 , 2043.0 , 2034.0 , 1020.338 , 0.0 , 0.0 , 0.0 , 0.0 , 

46.0 , 4120.51282051 , 4117.94871795 , 4121.53846154 , 4121.02564103 , 4115.38461538 , 4112.82051282 , 4117.94871795 , 4118.97435897 , 4122.56410256 , 4124.1025641 , 4178.46153846 , 4901.53846154 , 4122.05128205 , 4126.15384615 , 2044.0 , 2035.0 , 1020.346 , 0.0 , 0.0 , 0.0 , 0.0 , 

47.0 , 4120.0 , 4116.92307692 , 4118.97435897 , 4120.51282051 , 4116.41025641 , 4115.8974359 , 4113.84615385 , 4121.02564103 , 4121.02564103 , 4123.07692308 , 4177.43589744 , 4901.02564103 , 4122.05128205 , 4127.17948718 , 2043.0 , 2036.0 , 1020.354 , 0.0 , 0.0 , 0.0 , 0.0 , 

48.0 , 4120.51282051 , 4118.46153846 , 4121.53846154 , 4119.48717949 , 4117.43589744 , 4118.97435897 , 4115.8974359 , 4121.02564103 , 4121.02564103 , 4122.56410256 , 4179.48717949 , 4903.07692308 , 4121.53846154 , 4127.69230769 , 2043.0 , 2035.0 , 1020.362 , 0.0 , 0.0 , 0.0 , 0.0 , 

49.0 , 4122.05128205 , 4118.97435897 , 4118.97435897 , 4122.05128205 , 4119.48717949 , 4113.84615385 , 4117.43589744 , 4120.51282051 , 4122.56410256 , 4122.05128205 , 4177.94871795 , 4901.02564103 , 4122.56410256 , 4126.15384615 , 2042.0 , 2035.0 , 1020.37 , 0.0 , 0.0 , 0.0 , 0.0 , 

50.0 , 4122.56410256 , 4119.48717949 , 4117.43589744 , 4122.56410256 , 4120.51282051 , 4112.82051282 , 4113.33333333 , 4122.05128205 , 4121.53846154 , 4123.07692308 , 4175.8974359 , 4898.46153846 , 4121.53846154 , 4125.64102564 , 2042.0 , 2034.0 , 1020.378 , 0.0 , 0.0 , 0.0 , 0.0 , 

51.0 , 4118.46153846 , 4117.94871795 , 4120.0 , 4118.97435897 , 4120.51282051 , 4116.92307692 , 4110.25641026 , 4123.07692308 , 4121.02564103 , 4125.64102564 , 4178.46153846 , 4900.0 , 4121.53846154 , 4126.15384615 , 2043.0 , 2035.0 , 1020.386 , 0.0 , 0.0 , 0.0 , 0.0 , 

