['COUNTER', 'AF3', 'F7', 'F3', 'FC5', 'T7', 'P7', 'O1', 'O2', 'P8', 'T8', 'FC6', 'F4', 'F8', 'AF4', 'GYROX', 'GYROY', 'TIMESTAMP', 'FUNC_ID', 'FUNC_VALUE', 'MARKER', 'SYNC_SIGNAL']
94.0 , 4131.28205128 , 4131.28205128 , 4134.35897436 , 4126.66666667 , 4125.12820513 , 4126.15384615 , 4126.66666667 , 4129.74358974 , 4132.82051282 , 4135.8974359 , 4188.20512821 , 4909.23076923 , 4131.79487179 , 4135.8974359 , 2043.0 , 2037.0 , 85.557 , 0.0 , 0.0 , 0.0 , 0.0 , 

95.0 , 4130.76923077 , 4131.28205128 , 4129.23076923 , 4129.74358974 , 4127.69230769 , 4126.66666667 , 4128.71794872 , 4132.30769231 , 4134.87179487 , 4135.8974359 , 4187.17948718 , 4907.17948718 , 4131.79487179 , 4135.38461538 , 2043.0 , 2036.0 , 85.565 , 0.0 , 0.0 , 0.0 , 0.0 , 

96.0 , 4129.74358974 , 4130.25641026 , 4129.74358974 , 4130.76923077 , 4129.74358974 , 4127.69230769 , 4128.71794872 , 4132.30769231 , 4132.82051282 , 4135.8974359 , 4186.15384615 , 4908.71794872 , 4129.23076923 , 4135.38461538 , 2043.0 , 2036.0 , 85.572 , 0.0 , 0.0 , 0.0 , 0.0 , 

97.0 , 4127.69230769 , 4128.71794872 , 4132.82051282 , 4128.20512821 , 4129.23076923 , 4127.17948718 , 4127.69230769 , 4131.28205128 , 4132.82051282 , 4135.8974359 , 4188.20512821 , 4905.64102564 , 4129.23076923 , 4135.38461538 , 2043.0 , 2035.0 , 85.581 , 0.0 , 0.0 , 0.0 , 0.0 , 

98.0 , 4129.23076923 , 4129.23076923 , 4132.82051282 , 4128.71794872 , 4128.20512821 , 4124.61538462 , 4130.25641026 , 4131.28205128 , 4134.35897436 , 4135.8974359 , 4188.20512821 , 4905.64102564 , 4133.33333333 , 4137.43589744 , 2042.0 , 2033.0 , 85.588 , 0.0 , 0.0 , 0.0 , 0.0 , 

99.0 , 4129.23076923 , 4128.20512821 , 4127.69230769 , 4129.74358974 , 4128.20512821 , 4124.61538462 , 4130.76923077 , 4131.28205128 , 4135.38461538 , 4135.8974359 , 4188.20512821 , 4907.69230769 , 4133.33333333 , 4135.38461538 , 2041.0 , 2035.0 , 85.596 , 0.0 , 0.0 , 0.0 , 0.0 , 

100.0 , 4131.79487179 , 4130.76923077 , 4131.79487179 , 4128.20512821 , 4127.17948718 , 4127.69230769 , 4128.20512821 , 4130.25641026 , 4134.35897436 , 4135.8974359 , 4192.30769231 , 4908.20512821 , 4130.76923077 , 4134.35897436 , 2042.0 , 2035.0 , 85.605 , 0.0 , 0.0 , 0.0 , 0.0 , 

101.0 , 4133.84615385 , 4132.82051282 , 4133.33333333 , 4129.23076923 , 4127.17948718 , 4129.23076923 , 4127.69230769 , 4130.76923077 , 4134.87179487 , 4135.8974359 , 4191.79487179 , 4908.20512821 , 4132.30769231 , 4137.43589744 , 2042.0 , 2035.0 , 85.614 , 0.0 , 0.0 , 0.0 , 0.0 , 

102.0 , 4130.25641026 , 4130.25641026 , 4129.74358974 , 4129.23076923 , 4127.17948718 , 4127.17948718 , 4128.20512821 , 4131.28205128 , 4135.38461538 , 4135.8974359 , 4186.15384615 , 4909.23076923 , 4133.33333333 , 4138.97435897 , 2041.0 , 2034.0 , 85.62 , 0.0 , 0.0 , 0.0 , 0.0 , 

103.0 , 4128.71794872 , 4127.69230769 , 4131.28205128 , 4129.74358974 , 4126.15384615 , 4123.58974359 , 4127.17948718 , 4130.76923077 , 4135.38461538 , 4135.8974359 , 4185.64102564 , 4906.66666667 , 4129.74358974 , 4137.94871795 , 2041.0 , 2035.0 , 85.627 , 0.0 , 0.0 , 0.0 , 0.0 , 

104.0 , 4130.76923077 , 4128.20512821 , 4130.76923077 , 4129.23076923 , 4128.20512821 , 4126.15384615 , 4129.23076923 , 4131.79487179 , 4134.35897436 , 4136.41025641 , 4187.69230769 , 4905.64102564 , 4128.20512821 , 4136.92307692 , 2042.0 , 2036.0 , 85.635 , 0.0 , 0.0 , 0.0 , 0.0 , 

105.0 , 4131.28205128 , 4128.71794872 , 4129.74358974 , 4128.71794872 , 4130.25641026 , 4129.74358974 , 4132.82051282 , 4130.76923077 , 4132.82051282 , 4135.8974359 , 4186.66666667 , 4910.76923077 , 4130.76923077 , 4136.92307692 , 2042.0 , 2038.0 , 85.645 , 0.0 , 0.0 , 0.0 , 0.0 , 

106.0 , 4129.74358974 , 4129.23076923 , 4130.25641026 , 4130.76923077 , 4128.20512821 , 4128.20512821 , 4132.30769231 , 4129.74358974 , 4133.84615385 , 4135.8974359 , 4186.15384615 , 4909.23076923 , 4132.82051282 , 4135.38461538 , 2042.0 , 2034.0 , 85.651 , 0.0 , 0.0 , 0.0 , 0.0 , 

107.0 , 4132.30769231 , 4133.33333333 , 4131.28205128 , 4130.76923077 , 4127.17948718 , 4126.15384615 , 4129.23076923 , 4131.28205128 , 4134.87179487 , 4138.97435897 , 4188.71794872 , 4907.69230769 , 4133.33333333 , 4136.92307692 , 2042.0 , 2034.0 , 85.659 , 0.0 , 0.0 , 0.0 , 0.0 , 

108.0 , 4130.25641026 , 4129.23076923 , 4127.17948718 , 4126.15384615 , 4129.74358974 , 4125.64102564 , 4126.66666667 , 4132.82051282 , 4133.84615385 , 4138.97435897 , 4189.23076923 , 4905.64102564 , 4131.79487179 , 4137.43589744 , 2041.0 , 2034.0 , 85.667 , 0.0 , 0.0 , 0.0 , 0.0 , 

109.0 , 4130.25641026 , 4123.58974359 , 4132.30769231 , 4127.69230769 , 4129.23076923 , 4127.17948718 , 4125.12820513 , 4131.79487179 , 4131.79487179 , 4135.8974359 , 4190.25641026 , 4909.23076923 , 4131.28205128 , 4135.38461538 , 2042.0 , 2035.0 , 85.677 , 0.0 , 0.0 , 0.0 , 0.0 , 

110.0 , 4129.23076923 , 4127.17948718 , 4133.33333333 , 4132.82051282 , 4127.17948718 , 4126.66666667 , 4124.61538462 , 4132.82051282 , 4135.38461538 , 4136.92307692 , 4188.20512821 , 4908.71794872 , 4131.28205128 , 4131.28205128 , 2040.0 , 2036.0 , 85.683 , 0.0 , 0.0 , 0.0 , 0.0 , 

111.0 , 4130.76923077 , 4135.38461538 , 4131.79487179 , 4131.79487179 , 4127.17948718 , 4125.12820513 , 4127.69230769 , 4131.79487179 , 4135.38461538 , 4137.94871795 , 4186.15384615 , 4911.79487179 , 4131.79487179 , 4134.35897436 , 2042.0 , 2036.0 , 85.69 , 0.0 , 0.0 , 0.0 , 0.0 , 

112.0 , 4130.76923077 , 4130.76923077 , 4128.20512821 , 4128.20512821 , 4127.17948718 , 4125.64102564 , 4126.15384615 , 4130.25641026 , 4133.33333333 , 4136.92307692 , 4185.64102564 , 4910.25641026 , 4132.30769231 , 4136.92307692 , 2042.0 , 2035.0 , 85.698 , 0.0 , 0.0 , 0.0 , 0.0 , 

113.0 , 4134.35897436 , 4125.12820513 , 4132.30769231 , 4129.23076923 , 4125.64102564 , 4127.69230769 , 4123.07692308 , 4130.76923077 , 4132.82051282 , 4136.92307692 , 4189.74358974 , 4909.74358974 , 4131.28205128 , 4135.8974359 , 2041.0 , 2037.0 , 85.708 , 0.0 , 0.0 , 0.0 , 0.0 , 

114.0 , 4132.82051282 , 4127.69230769 , 4131.28205128 , 4130.76923077 , 4127.69230769 , 4128.20512821 , 4126.66666667 , 4133.33333333 , 4133.33333333 , 4136.92307692 , 4189.23076923 , 4906.66666667 , 4131.28205128 , 4137.43589744 , 2042.0 , 2036.0 , 85.714 , 0.0 , 0.0 , 0.0 , 0.0 , 

115.0 , 4130.76923077 , 4132.82051282 , 4130.76923077 , 4131.28205128 , 4129.23076923 , 4126.66666667 , 4130.76923077 , 4130.25641026 , 4132.30769231 , 4136.41025641 , 4186.66666667 , 4909.23076923 , 4133.33333333 , 4141.53846154 , 2041.0 , 2034.0 , 85.722 , 0.0 , 0.0 , 0.0 , 0.0 , 

116.0 , 4130.25641026 , 4129.23076923 , 4128.20512821 , 4130.76923077 , 4127.17948718 , 4127.69230769 , 4127.17948718 , 4130.76923077 , 4133.33333333 , 4137.43589744 , 4187.17948718 , 4907.69230769 , 4131.79487179 , 4135.8974359 , 2040.0 , 2034.0 , 85.73 , 0.0 , 0.0 , 0.0 , 0.0 , 

117.0 , 4131.28205128 , 4127.17948718 , 4128.20512821 , 4127.69230769 , 4127.17948718 , 4128.71794872 , 4124.1025641 , 4134.35897436 , 4133.84615385 , 4136.92307692 , 4188.71794872 , 4907.69230769 , 4130.25641026 , 4132.82051282 , 2040.0 , 2034.0 , 85.739 , 0.0 , 0.0 , 0.0 , 0.0 , 

118.0 , 4127.17948718 , 4129.23076923 , 4128.71794872 , 4125.64102564 , 4131.79487179 , 4129.74358974 , 4127.69230769 , 4132.82051282 , 4133.84615385 , 4135.8974359 , 4187.69230769 , 4908.71794872 , 4130.76923077 , 4138.46153846 , 2041.0 , 2034.0 , 85.747 , 0.0 , 0.0 , 0.0 , 0.0 , 

119.0 , 4124.61538462 , 4129.23076923 , 4129.23076923 , 4129.74358974 , 4130.76923077 , 4129.74358974 , 4127.69230769 , 4129.23076923 , 4134.35897436 , 4135.8974359 , 4186.15384615 , 4908.20512821 , 4130.76923077 , 4139.48717949 , 2041.0 , 2035.0 , 85.753 , 0.0 , 0.0 , 0.0 , 0.0 , 

120.0 , 4128.20512821 , 4127.17948718 , 4129.23076923 , 4133.33333333 , 4127.69230769 , 4127.69230769 , 4125.12820513 , 4130.76923077 , 4136.41025641 , 4135.8974359 , 4189.23076923 , 4907.69230769 , 4130.25641026 , 4134.87179487 , 2042.0 , 2034.0 , 85.761 , 0.0 , 0.0 , 0.0 , 0.0 , 

121.0 , 4133.84615385 , 4128.71794872 , 4128.20512821 , 4132.30769231 , 4129.74358974 , 4124.61538462 , 4127.17948718 , 4132.30769231 , 4137.43589744 , 4135.8974359 , 4191.28205128 , 4909.23076923 , 4131.28205128 , 4133.84615385 , 2041.0 , 2034.0 , 85.771 , 0.0 , 0.0 , 0.0 , 0.0 , 

122.0 , 4132.82051282 , 4129.23076923 , 4127.69230769 , 4132.82051282 , 4132.82051282 , 4123.07692308 , 4127.69230769 , 4129.23076923 , 4131.79487179 , 4135.8974359 , 4187.69230769 , 4907.69230769 , 4130.76923077 , 4134.35897436 , 2042.0 , 2035.0 , 85.777 , 0.0 , 0.0 , 0.0 , 0.0 , 

123.0 , 4127.69230769 , 4126.66666667 , 4127.69230769 , 4133.33333333 , 4129.74358974 , 4125.12820513 , 4128.20512821 , 4130.25641026 , 4127.69230769 , 4135.8974359 , 4185.64102564 , 4904.1025641 , 4131.28205128 , 4134.35897436 , 2041.0 , 2033.0 , 85.785 , 0.0 , 0.0 , 0.0 , 0.0 , 

124.0 , 4128.71794872 , 4128.71794872 , 4131.28205128 , 4131.28205128 , 4125.64102564 , 4128.20512821 , 4134.35897436 , 4130.76923077 , 4129.74358974 , 4135.8974359 , 4186.66666667 , 4909.74358974 , 4133.33333333 , 4133.33333333 , 2042.0 , 2035.0 , 85.794 , 0.0 , 0.0 , 0.0 , 0.0 , 

125.0 , 4131.28205128 , 4129.23076923 , 4130.25641026 , 4128.20512821 , 4126.15384615 , 4128.20512821 , 4134.35897436 , 4130.25641026 , 4131.79487179 , 4135.8974359 , 4186.66666667 , 4910.76923077 , 4130.76923077 , 4134.87179487 , 2041.0 , 2036.0 , 85.803 , 0.0 , 0.0 , 0.0 , 0.0 , 

126.0 , 4131.28205128 , 4126.66666667 , 4131.28205128 , 4128.20512821 , 4128.20512821 , 4124.1025641 , 4126.66666667 , 4129.23076923 , 4130.25641026 , 4135.8974359 , 4187.17948718 , 4908.20512821 , 4130.25641026 , 4137.94871795 , 2041.0 , 2036.0 , 85.808 , 0.0 , 0.0 , 0.0 , 0.0 , 

127.0 , 4129.23076923 , 4126.66666667 , 4129.23076923 , 4129.74358974 , 4130.25641026 , 4124.1025641 , 4127.17948718 , 4130.76923077 , 4132.30769231 , 4135.8974359 , 4187.17948718 , 4906.66666667 , 4130.76923077 , 4136.41025641 , 2042.0 , 2037.0 , 85.817 , 0.0 , 0.0 , 0.0 , 0.0 , 

128.0 , 4130.25641026 , 4130.76923077 , 4129.74358974 , 4131.28205128 , 4129.23076923 , 4128.20512821 , 4130.25641026 , 4129.23076923 , 4134.35897436 , 4135.8974359 , 4189.23076923 , 4910.25641026 , 4131.28205128 , 4136.41025641 , 2041.0 , 2035.0 , 85.825 , 0.0 , 0.0 , 0.0 , 0.0 , 

0.0 , 4128.20512821 , 4128.20512821 , 4129.23076923 , 4131.28205128 , 4129.74358974 , 4130.25641026 , 4125.12820513 , 4128.71794872 , 4134.35897436 , 4135.8974359 , 4188.71794872 , 4907.17948718 , 4131.28205128 , 4136.41025641 , 2042.0 , 2034.0 , 85.834 , 0.0 , 0.0 , 0.0 , 0.0 , 

1.0 , 4130.25641026 , 4127.69230769 , 4132.30769231 , 4130.25641026 , 4130.25641026 , 4126.15384615 , 4123.07692308 , 4129.23076923 , 4132.82051282 , 4135.8974359 , 4188.20512821 , 4908.71794872 , 4131.79487179 , 4135.8974359 , 2043.0 , 2035.0 , 85.839 , 0.0 , 0.0 , 0.0 , 0.0 , 

2.0 , 4129.23076923 , 4129.74358974 , 4128.20512821 , 4129.74358974 , 4130.25641026 , 4123.07692308 , 4127.17948718 , 4130.76923077 , 4131.28205128 , 4135.8974359 , 4186.15384615 , 4908.20512821 , 4130.25641026 , 4133.84615385 , 2041.0 , 2036.0 , 85.847 , 0.0 , 0.0 , 0.0 , 0.0 , 

3.0 , 4130.25641026 , 4130.76923077 , 4130.25641026 , 4131.28205128 , 4129.74358974 , 4131.28205128 , 4128.20512821 , 4129.74358974 , 4130.25641026 , 4135.8974359 , 4187.69230769 , 4908.71794872 , 4130.76923077 , 4136.41025641 , 2040.0 , 2034.0 , 85.856 , 0.0 , 0.0 , 0.0 , 0.0 , 

4.0 , 4133.84615385 , 4128.20512821 , 4130.25641026 , 4130.76923077 , 4131.28205128 , 4136.41025641 , 4127.69230769 , 4129.74358974 , 4132.82051282 , 4136.41025641 , 4188.20512821 , 4907.17948718 , 4132.30769231 , 4134.87179487 , 2041.0 , 2035.0 , 85.865 , 0.0 , 0.0 , 0.0 , 0.0 , 

5.0 , 4133.84615385 , 4128.71794872 , 4131.28205128 , 4129.23076923 , 4131.28205128 , 4128.71794872 , 4127.69230769 , 4130.76923077 , 4132.82051282 , 4137.43589744 , 4188.71794872 , 4910.25641026 , 4131.79487179 , 4134.35897436 , 2043.0 , 2034.0 , 85.872 , 0.0 , 0.0 , 0.0 , 0.0 , 

6.0 , 4128.20512821 , 4128.71794872 , 4130.25641026 , 4128.71794872 , 4129.23076923 , 4124.1025641 , 4124.1025641 , 4130.25641026 , 4130.76923077 , 4137.43589744 , 4189.74358974 , 4909.23076923 , 4129.23076923 , 4136.92307692 , 2042.0 , 2035.0 , 85.88 , 0.0 , 0.0 , 0.0 , 0.0 , 

7.0 , 4130.76923077 , 4128.71794872 , 4132.30769231 , 4129.74358974 , 4130.25641026 , 4126.15384615 , 4122.56410256 , 4127.69230769 , 4130.76923077 , 4136.41025641 , 4190.25641026 , 4907.69230769 , 4129.74358974 , 4135.8974359 , 2041.0 , 2036.0 , 85.888 , 0.0 , 0.0 , 0.0 , 0.0 , 

8.0 , 4135.38461538 , 4127.69230769 , 4130.76923077 , 4129.74358974 , 4132.30769231 , 4127.69230769 , 4124.1025641 , 4128.20512821 , 4133.84615385 , 4135.8974359 , 4186.66666667 , 4908.20512821 , 4131.28205128 , 4134.35897436 , 2041.0 , 2035.0 , 85.897 , 0.0 , 0.0 , 0.0 , 0.0 , 

9.0 , 4133.33333333 , 4127.69230769 , 4130.25641026 , 4129.23076923 , 4131.28205128 , 4129.23076923 , 4123.58974359 , 4130.76923077 , 4133.33333333 , 4136.41025641 , 4185.64102564 , 4910.25641026 , 4130.76923077 , 4137.43589744 , 2043.0 , 2034.0 , 85.903 , 0.0 , 0.0 , 0.0 , 0.0 , 

10.0 , 4130.25641026 , 4129.74358974 , 4129.23076923 , 4130.25641026 , 4130.76923077 , 4130.25641026 , 4125.64102564 , 4129.74358974 , 4131.79487179 , 4135.8974359 , 4189.23076923 , 4907.69230769 , 4130.25641026 , 4138.97435897 , 2041.0 , 2034.0 , 85.911 , 0.0 , 0.0 , 0.0 , 0.0 , 

11.0 , 4129.74358974 , 4129.23076923 , 4127.17948718 , 4131.79487179 , 4130.76923077 , 4125.64102564 , 4128.71794872 , 4129.74358974 , 4132.82051282 , 4135.8974359 , 4189.23076923 , 4906.66666667 , 4132.30769231 , 4133.84615385 , 2041.0 , 2036.0 , 85.92 , 0.0 , 0.0 , 0.0 , 0.0 , 

12.0 , 4131.28205128 , 4128.71794872 , 4130.76923077 , 4131.28205128 , 4130.76923077 , 4125.12820513 , 4127.17948718 , 4131.28205128 , 4131.79487179 , 4135.8974359 , 4186.15384615 , 4911.28205128 , 4132.30769231 , 4133.84615385 , 2042.0 , 2035.0 , 85.929 , 0.0 , 0.0 , 0.0 , 0.0 , 

13.0 , 4130.25641026 , 4128.20512821 , 4130.25641026 , 4129.23076923 , 4130.25641026 , 4127.69230769 , 4123.58974359 , 4132.30769231 , 4130.76923077 , 4135.8974359 , 4184.61538462 , 4910.25641026 , 4130.25641026 , 4138.97435897 , 2041.0 , 2034.0 , 85.935 , 0.0 , 0.0 , 0.0 , 0.0 , 

14.0 , 4131.28205128 , 4128.20512821 , 4129.23076923 , 4129.74358974 , 4127.17948718 , 4126.66666667 , 4125.64102564 , 4130.76923077 , 4130.25641026 , 4135.8974359 , 4187.69230769 , 4909.23076923 , 4130.76923077 , 4138.46153846 , 2041.0 , 2037.0 , 85.943 , 0.0 , 0.0 , 0.0 , 0.0 , 

15.0 , 4131.28205128 , 4128.71794872 , 4127.69230769 , 4130.76923077 , 4128.71794872 , 4128.71794872 , 4129.74358974 , 4130.25641026 , 4132.30769231 , 4135.8974359 , 4188.71794872 , 4908.20512821 , 4131.28205128 , 4134.87179487 , 2041.0 , 2036.0 , 85.951 , 0.0 , 0.0 , 0.0 , 0.0 , 

16.0 , 4131.28205128 , 4131.28205128 , 4130.25641026 , 4130.25641026 , 4131.79487179 , 4130.25641026 , 4129.23076923 , 4128.71794872 , 4134.35897436 , 4135.8974359 , 4188.71794872 , 4910.76923077 , 4129.74358974 , 4135.8974359 , 2042.0 , 2035.0 , 85.961 , 0.0 , 0.0 , 0.0 , 0.0 , 

17.0 , 4129.74358974 , 4129.23076923 , 4128.20512821 , 4128.71794872 , 4130.25641026 , 4127.69230769 , 4124.61538462 , 4131.28205128 , 4133.84615385 , 4135.8974359 , 4185.64102564 , 4907.69230769 , 4128.71794872 , 4136.92307692 , 2041.0 , 2036.0 , 85.965 , 0.0 , 0.0 , 0.0 , 0.0 , 

18.0 , 4132.82051282 , 4128.20512821 , 4131.79487179 , 4130.76923077 , 4129.74358974 , 4130.25641026 , 4123.58974359 , 4133.33333333 , 4131.79487179 , 4135.8974359 , 4185.12820513 , 4909.23076923 , 4131.28205128 , 4137.94871795 , 2043.0 , 2035.0 , 85.974 , 0.0 , 0.0 , 0.0 , 0.0 , 

19.0 , 4131.28205128 , 4128.20512821 , 4132.30769231 , 4132.30769231 , 4132.30769231 , 4134.35897436 , 4128.71794872 , 4133.33333333 , 4135.38461538 , 4135.8974359 , 4187.69230769 , 4907.69230769 , 4133.33333333 , 4136.41025641 , 2042.0 , 2035.0 , 85.983 , 0.0 , 0.0 , 0.0 , 0.0 , 

20.0 , 4132.30769231 , 4129.23076923 , 4134.35897436 , 4130.76923077 , 4131.79487179 , 4131.28205128 , 4131.28205128 , 4130.76923077 , 4136.41025641 , 4135.8974359 , 4188.71794872 , 4909.23076923 , 4132.30769231 , 4136.41025641 , 2041.0 , 2037.0 , 85.992 , 0.0 , 0.0 , 0.0 , 0.0 , 

21.0 , 4131.79487179 , 4129.23076923 , 4129.74358974 , 4129.23076923 , 4129.74358974 , 4124.61538462 , 4128.71794872 , 4132.30769231 , 4133.84615385 , 4135.8974359 , 4188.20512821 , 4907.69230769 , 4129.23076923 , 4137.43589744 , 2042.0 , 2035.0 , 85.998 , 0.0 , 0.0 , 0.0 , 0.0 , 

22.0 , 4130.76923077 , 4129.74358974 , 4128.71794872 , 4129.74358974 , 4128.20512821 , 4122.56410256 , 4126.66666667 , 4132.30769231 , 4131.79487179 , 4135.8974359 , 4190.76923077 , 4910.76923077 , 4128.71794872 , 4136.41025641 , 2042.0 , 2035.0 , 86.007 , 0.0 , 0.0 , 0.0 , 0.0 , 

23.0 , 4129.23076923 , 4128.20512821 , 4127.17948718 , 4128.71794872 , 4128.20512821 , 4126.66666667 , 4124.61538462 , 4131.79487179 , 4131.79487179 , 4135.8974359 , 4188.71794872 , 4910.25641026 , 4129.23076923 , 4130.76923077 , 2041.0 , 2036.0 , 86.014 , 0.0 , 0.0 , 0.0 , 0.0 , 

24.0 , 4130.25641026 , 4130.76923077 , 4128.71794872 , 4127.69230769 , 4129.74358974 , 4129.23076923 , 4125.64102564 , 4130.25641026 , 4129.74358974 , 4135.8974359 , 4186.15384615 , 4910.76923077 , 4128.71794872 , 4133.84615385 , 2041.0 , 2035.0 , 86.024 , 0.0 , 0.0 , 0.0 , 0.0 , 

25.0 , 4129.23076923 , 4130.76923077 , 4128.20512821 , 4129.23076923 , 4130.76923077 , 4126.66666667 , 4127.69230769 , 4131.28205128 , 4130.76923077 , 4135.8974359 , 4185.12820513 , 4909.23076923 , 4128.71794872 , 4138.46153846 , 2042.0 , 2036.0 , 86.028 , 0.0 , 0.0 , 0.0 , 0.0 , 

26.0 , 4128.20512821 , 4129.23076923 , 4130.76923077 , 4130.76923077 , 4129.74358974 , 4125.64102564 , 4126.66666667 , 4131.28205128 , 4133.33333333 , 4135.8974359 , 4186.15384615 , 4908.71794872 , 4132.30769231 , 4135.38461538 , 2042.0 , 2035.0 , 86.037 , 0.0 , 0.0 , 0.0 , 0.0 , 

27.0 , 4128.20512821 , 4129.74358974 , 4131.79487179 , 4131.28205128 , 4130.76923077 , 4129.74358974 , 4125.64102564 , 4129.74358974 , 4134.35897436 , 4135.8974359 , 4188.20512821 , 4907.17948718 , 4132.82051282 , 4132.82051282 , 2042.0 , 2035.0 , 86.045 , 0.0 , 0.0 , 0.0 , 0.0 , 

28.0 , 4130.25641026 , 4130.76923077 , 4132.30769231 , 4130.76923077 , 4129.74358974 , 4130.25641026 , 4126.66666667 , 4128.20512821 , 4133.33333333 , 4135.8974359 , 4189.74358974 , 4907.69230769 , 4129.23076923 , 4135.8974359 , 2040.0 , 2033.0 , 86.055 , 0.0 , 0.0 , 0.0 , 0.0 , 

29.0 , 4130.76923077 , 4129.23076923 , 4133.84615385 , 4130.25641026 , 4128.71794872 , 4127.17948718 , 4126.66666667 , 4127.69230769 , 4133.84615385 , 4135.8974359 , 4189.74358974 , 4909.74358974 , 4129.74358974 , 4136.41025641 , 2042.0 , 2034.0 , 86.061 , 0.0 , 0.0 , 0.0 , 0.0 , 

30.0 , 4129.23076923 , 4127.17948718 , 4131.28205128 , 4127.69230769 , 4129.74358974 , 4127.69230769 , 4126.66666667 , 4128.20512821 , 4134.87179487 , 4135.8974359 , 4189.74358974 , 4908.20512821 , 4132.82051282 , 4135.8974359 , 2041.0 , 2036.0 , 86.069 , 0.0 , 0.0 , 0.0 , 0.0 , 

31.0 , 4129.74358974 , 4126.15384615 , 4130.25641026 , 4128.20512821 , 4127.69230769 , 4127.69230769 , 4129.74358974 , 4129.23076923 , 4133.84615385 , 4135.8974359 , 4189.74358974 , 4907.69230769 , 4130.25641026 , 4136.41025641 , 2041.0 , 2035.0 , 86.076 , 0.0 , 0.0 , 0.0 , 0.0 , 

32.0 , 4132.30769231 , 4125.64102564 , 4130.76923077 , 4131.28205128 , 4127.17948718 , 4127.17948718 , 4130.25641026 , 4131.79487179 , 4133.84615385 , 4135.8974359 , 4188.20512821 , 4908.71794872 , 4127.17948718 , 4135.38461538 , 2042.0 , 2034.0 , 86.087 , 0.0 , 0.0 , 0.0 , 0.0 , 

33.0 , 4133.33333333 , 4130.25641026 , 4130.76923077 , 4132.30769231 , 4130.25641026 , 4128.71794872 , 4128.20512821 , 4131.79487179 , 4133.84615385 , 4135.8974359 , 4189.74358974 , 4912.82051282 , 4130.76923077 , 4134.35897436 , 2041.0 , 2035.0 , 86.091 , 0.0 , 0.0 , 0.0 , 0.0 , 

34.0 , 4129.23076923 , 4130.76923077 , 4126.66666667 , 4132.30769231 , 4130.25641026 , 4125.64102564 , 4128.20512821 , 4130.76923077 , 4133.84615385 , 4135.8974359 , 4188.20512821 , 4912.30769231 , 4131.79487179 , 4133.84615385 , 2041.0 , 2036.0 , 86.1 , 0.0 , 0.0 , 0.0 , 0.0 , 

35.0 , 4129.74358974 , 4129.23076923 , 4129.74358974 , 4132.82051282 , 4129.74358974 , 4124.1025641 , 4127.17948718 , 4128.20512821 , 4131.79487179 , 4135.8974359 , 4186.66666667 , 4912.30769231 , 4131.79487179 , 4136.41025641 , 2042.0 , 2034.0 , 86.107 , 0.0 , 0.0 , 0.0 , 0.0 , 

36.0 , 4129.23076923 , 4129.23076923 , 4130.25641026 , 4130.25641026 , 4132.30769231 , 4129.23076923 , 4125.12820513 , 4129.23076923 , 4132.30769231 , 4135.8974359 , 4187.69230769 , 4907.17948718 , 4131.79487179 , 4135.38461538 , 2042.0 , 2034.0 , 86.117 , 0.0 , 0.0 , 0.0 , 0.0 , 

37.0 , 4129.23076923 , 4131.79487179 , 4132.30769231 , 4129.74358974 , 4129.74358974 , 4129.74358974 , 4126.15384615 , 4129.74358974 , 4131.28205128 , 4135.8974359 , 4188.20512821 , 4907.17948718 , 4132.82051282 , 4133.84615385 , 2042.0 , 2035.0 , 86.124 , 0.0 , 0.0 , 0.0 , 0.0 , 

38.0 , 4126.66666667 , 4127.69230769 , 4129.23076923 , 4133.33333333 , 4127.17948718 , 4127.17948718 , 4127.69230769 , 4129.74358974 , 4131.28205128 , 4135.8974359 , 4185.12820513 , 4908.20512821 , 4133.33333333 , 4133.84615385 , 2042.0 , 2035.0 , 86.132 , 0.0 , 0.0 , 0.0 , 0.0 , 

39.0 , 4129.23076923 , 4128.20512821 , 4131.28205128 , 4132.82051282 , 4130.76923077 , 4129.74358974 , 4128.20512821 , 4128.20512821 , 4131.28205128 , 4135.8974359 , 4188.71794872 , 4911.28205128 , 4133.84615385 , 4138.46153846 , 2042.0 , 2037.0 , 86.14 , 0.0 , 0.0 , 0.0 , 0.0 , 

40.0 , 4129.23076923 , 4132.30769231 , 4131.28205128 , 4128.71794872 , 4131.28205128 , 4128.20512821 , 4127.17948718 , 4128.20512821 , 4133.33333333 , 4135.8974359 , 4191.28205128 , 4908.20512821 , 4132.30769231 , 4137.43589744 , 2042.0 , 2037.0 , 86.149 , 0.0 , 0.0 , 0.0 , 0.0 , 

41.0 , 4129.23076923 , 4132.82051282 , 4131.79487179 , 4128.71794872 , 4127.69230769 , 4125.12820513 , 4126.15384615 , 4128.71794872 , 4132.30769231 , 4135.8974359 , 4188.71794872 , 4908.20512821 , 4131.79487179 , 4135.8974359 , 2042.0 , 2034.0 , 86.155 , 0.0 , 0.0 , 0.0 , 0.0 , 

42.0 , 4129.23076923 , 4128.20512821 , 4128.71794872 , 4130.25641026 , 4128.71794872 , 4128.71794872 , 4125.64102564 , 4130.76923077 , 4132.30769231 , 4135.8974359 , 4189.23076923 , 4907.69230769 , 4131.28205128 , 4135.8974359 , 2042.0 , 2035.0 , 86.164 , 0.0 , 0.0 , 0.0 , 0.0 , 

43.0 , 4129.74358974 , 4128.71794872 , 4131.28205128 , 4129.74358974 , 4128.71794872 , 4128.71794872 , 4126.66666667 , 4130.25641026 , 4131.28205128 , 4135.8974359 , 4190.76923077 , 4909.23076923 , 4129.23076923 , 4135.8974359 , 2042.0 , 2035.0 , 86.172 , 0.0 , 0.0 , 0.0 , 0.0 , 

44.0 , 4128.71794872 , 4130.25641026 , 4129.74358974 , 4129.74358974 , 4128.71794872 , 4125.12820513 , 4125.64102564 , 4130.76923077 , 4131.79487179 , 4135.8974359 , 4185.64102564 , 4907.17948718 , 4129.23076923 , 4134.87179487 , 2040.0 , 2035.0 , 86.181 , 0.0 , 0.0 , 0.0 , 0.0 , 

45.0 , 4128.20512821 , 4130.25641026 , 4126.66666667 , 4128.20512821 , 4129.74358974 , 4127.17948718 , 4125.12820513 , 4131.28205128 , 4131.79487179 , 4135.8974359 , 4184.1025641 , 4907.17948718 , 4130.76923077 , 4135.8974359 , 2041.0 , 2035.0 , 86.187 , 0.0 , 0.0 , 0.0 , 0.0 , 

46.0 , 4128.71794872 , 4129.23076923 , 4126.15384615 , 4127.69230769 , 4128.20512821 , 4130.25641026 , 4125.64102564 , 4131.28205128 , 4132.30769231 , 4135.8974359 , 4187.69230769 , 4909.23076923 , 4129.23076923 , 4134.87179487 , 2042.0 , 2035.0 , 86.195 , 0.0 , 0.0 , 0.0 , 0.0 , 

47.0 , 4131.79487179 , 4129.23076923 , 4130.25641026 , 4130.25641026 , 4128.20512821 , 4128.20512821 , 4124.1025641 , 4129.74358974 , 4134.35897436 , 4135.8974359 , 4187.17948718 , 4910.25641026 , 4128.71794872 , 4133.33333333 , 2042.0 , 2034.0 , 86.203 , 0.0 , 0.0 , 0.0 , 0.0 , 

48.0 , 4132.30769231 , 4129.74358974 , 4131.79487179 , 4131.79487179 , 4131.28205128 , 4124.1025641 , 4123.58974359 , 4128.71794872 , 4133.84615385 , 4135.8974359 , 4186.15384615 , 4910.76923077 , 4132.82051282 , 4135.38461538 , 2041.0 , 2034.0 , 86.213 , 0.0 , 0.0 , 0.0 , 0.0 , 

49.0 , 4131.79487179 , 4128.20512821 , 4128.71794872 , 4128.71794872 , 4128.71794872 , 4125.12820513 , 4126.15384615 , 4129.23076923 , 4132.82051282 , 4135.8974359 , 4187.69230769 , 4908.20512821 , 4132.82051282 , 4134.35897436 , 2042.0 , 2034.0 , 86.217 , 0.0 , 0.0 , 0.0 , 0.0 , 

50.0 , 4133.33333333 , 4130.25641026 , 4129.74358974 , 4128.71794872 , 4125.12820513 , 4132.82051282 , 4126.66666667 , 4129.74358974 , 4133.84615385 , 4135.8974359 , 4188.20512821 , 4906.15384615 , 4130.76923077 , 4132.30769231 , 2043.0 , 2036.0 , 86.227 , 0.0 , 0.0 , 0.0 , 0.0 , 

51.0 , 4130.76923077 , 4131.79487179 , 4130.25641026 , 4130.25641026 , 4130.76923077 , 4134.35897436 , 4123.58974359 , 4130.25641026 , 4133.33333333 , 4135.8974359 , 4187.17948718 , 4906.15384615 , 4131.79487179 , 4136.41025641 , 2041.0 , 2036.0 , 86.234 , 0.0 , 0.0 , 0.0 , 0.0 , 

52.0 , 4129.23076923 , 4129.74358974 , 4132.82051282 , 4129.23076923 , 4132.82051282 , 4129.23076923 , 4123.07692308 , 4129.74358974 , 4129.74358974 , 4135.8974359 , 4189.23076923 , 4910.25641026 , 4132.82051282 , 4138.97435897 , 2041.0 , 2035.0 , 86.244 , 0.0 , 0.0 , 0.0 , 0.0 , 

53.0 , 4128.20512821 , 4127.17948718 , 4130.25641026 , 4129.74358974 , 4128.71794872 , 4127.69230769 , 4122.05128205 , 4131.28205128 , 4132.82051282 , 4135.8974359 , 4188.20512821 , 4907.69230769 , 4131.28205128 , 4134.87179487 , 2042.0 , 2035.0 , 86.251 , 0.0 , 0.0 , 0.0 , 0.0 , 

54.0 , 4131.28205128 , 4129.74358974 , 4131.79487179 , 4131.79487179 , 4128.71794872 , 4132.30769231 , 4123.07692308 , 4129.23076923 , 4135.8974359 , 4135.8974359 , 4188.71794872 , 4907.69230769 , 4130.76923077 , 4134.87179487 , 2042.0 , 2035.0 , 86.258 , 0.0 , 0.0 , 0.0 , 0.0 , 

55.0 , 4131.28205128 , 4128.71794872 , 4130.25641026 , 4131.79487179 , 4132.30769231 , 4131.79487179 , 4125.12820513 , 4129.23076923 , 4132.30769231 , 4135.8974359 , 4190.76923077 , 4907.69230769 , 4130.76923077 , 4136.41025641 , 2041.0 , 2034.0 , 86.266 , 0.0 , 0.0 , 0.0 , 0.0 , 

56.0 , 4131.28205128 , 4128.71794872 , 4131.28205128 , 4130.25641026 , 4131.28205128 , 4127.69230769 , 4125.12820513 , 4130.25641026 , 4129.74358974 , 4135.8974359 , 4190.76923077 , 4910.25641026 , 4131.28205128 , 4135.8974359 , 2042.0 , 2034.0 , 86.276 , 0.0 , 0.0 , 0.0 , 0.0 , 

57.0 , 4129.23076923 , 4129.23076923 , 4126.15384615 , 4129.23076923 , 4127.69230769 , 4128.20512821 , 4127.17948718 , 4132.82051282 , 4133.33333333 , 4135.8974359 , 4185.64102564 , 4907.17948718 , 4132.82051282 , 4133.33333333 , 2041.0 , 2033.0 , 86.281 , 0.0 , 0.0 , 0.0 , 0.0 , 

58.0 , 4130.76923077 , 4129.23076923 , 4129.74358974 , 4130.25641026 , 4127.17948718 , 4129.23076923 , 4129.74358974 , 4131.79487179 , 4132.82051282 , 4135.8974359 , 4187.17948718 , 4909.74358974 , 4132.82051282 , 4134.87179487 , 2040.0 , 2037.0 , 86.289 , 0.0 , 0.0 , 0.0 , 0.0 , 

59.0 , 4129.23076923 , 4127.17948718 , 4130.25641026 , 4130.25641026 , 4129.23076923 , 4127.17948718 , 4125.64102564 , 4132.30769231 , 4132.30769231 , 4135.8974359 , 4190.76923077 , 4908.71794872 , 4130.76923077 , 4136.41025641 , 2040.0 , 2037.0 , 86.297 , 0.0 , 0.0 , 0.0 , 0.0 , 

60.0 , 4128.20512821 , 4130.76923077 , 4130.25641026 , 4130.76923077 , 4127.17948718 , 4126.15384615 , 4121.53846154 , 4132.30769231 , 4134.87179487 , 4135.8974359 , 4191.28205128 , 4908.20512821 , 4131.79487179 , 4135.38461538 , 2042.0 , 2036.0 , 86.307 , 0.0 , 0.0 , 0.0 , 0.0 , 

61.0 , 4128.20512821 , 4132.82051282 , 4130.25641026 , 4131.28205128 , 4126.15384615 , 4128.71794872 , 4124.1025641 , 4130.25641026 , 4133.84615385 , 4135.8974359 , 4190.25641026 , 4905.64102564 , 4133.33333333 , 4133.33333333 , 2041.0 , 2036.0 , 86.313 , 0.0 , 0.0 , 0.0 , 0.0 , 

62.0 , 4129.23076923 , 4130.76923077 , 4132.82051282 , 4129.74358974 , 4128.20512821 , 4127.17948718 , 4126.66666667 , 4129.23076923 , 4128.71794872 , 4135.8974359 , 4189.74358974 , 4909.74358974 , 4132.82051282 , 4136.92307692 , 2040.0 , 2035.0 , 86.321 , 0.0 , 0.0 , 0.0 , 0.0 , 

63.0 , 4130.76923077 , 4129.74358974 , 4128.20512821 , 4127.17948718 , 4129.74358974 , 4124.1025641 , 4125.64102564 , 4130.76923077 , 4130.25641026 , 4135.8974359 , 4187.69230769 , 4911.79487179 , 4130.25641026 , 4139.48717949 , 2041.0 , 2035.0 , 86.329 , 0.0 , 0.0 , 0.0 , 0.0 , 

64.0 , 4132.30769231 , 4130.25641026 , 4126.66666667 , 4130.25641026 , 4127.69230769 , 4127.69230769 , 4124.1025641 , 4130.76923077 , 4134.87179487 , 4135.8974359 , 4187.17948718 , 4910.25641026 , 4130.25641026 , 4135.8974359 , 2042.0 , 2036.0 , 86.339 , 0.0 , 0.0 , 0.0 , 0.0 , 

65.0 , 4130.76923077 , 4130.25641026 , 4129.23076923 , 4132.30769231 , 4127.17948718 , 4131.28205128 , 4125.64102564 , 4131.28205128 , 4134.35897436 , 4135.8974359 , 4188.20512821 , 4908.71794872 , 4131.28205128 , 4133.84615385 , 2041.0 , 2038.0 , 86.344 , 0.0 , 0.0 , 0.0 , 0.0 , 

66.0 , 4129.74358974 , 4127.69230769 , 4129.23076923 , 4130.76923077 , 4127.69230769 , 4127.69230769 , 4127.69230769 , 4133.33333333 , 4131.28205128 , 4135.8974359 , 4187.17948718 , 4908.20512821 , 4132.30769231 , 4134.35897436 , 2042.0 , 2037.0 , 86.352 , 0.0 , 0.0 , 0.0 , 0.0 , 

67.0 , 4131.79487179 , 4128.71794872 , 4129.23076923 , 4129.74358974 , 4127.17948718 , 4125.12820513 , 4127.17948718 , 4132.30769231 , 4131.79487179 , 4135.8974359 , 4188.20512821 , 4909.74358974 , 4132.30769231 , 4134.35897436 , 2042.0 , 2036.0 , 86.36 , 0.0 , 0.0 , 0.0 , 0.0 , 

68.0 , 4130.25641026 , 4130.25641026 , 4128.20512821 , 4130.25641026 , 4129.23076923 , 4128.71794872 , 4126.15384615 , 4131.79487179 , 4135.38461538 , 4135.8974359 , 4191.79487179 , 4908.71794872 , 4131.28205128 , 4135.38461538 , 2042.0 , 2036.0 , 86.369 , 0.0 , 0.0 , 0.0 , 0.0 , 

69.0 , 4128.71794872 , 4128.71794872 , 4130.76923077 , 4133.33333333 , 4128.20512821 , 4130.76923077 , 4126.15384615 , 4131.79487179 , 4133.33333333 , 4135.8974359 , 4190.25641026 , 4908.71794872 , 4130.76923077 , 4136.92307692 , 2042.0 , 2037.0 , 86.376 , 0.0 , 0.0 , 0.0 , 0.0 , 

70.0 , 4131.79487179 , 4127.17948718 , 4131.28205128 , 4133.33333333 , 4126.66666667 , 4129.23076923 , 4125.64102564 , 4131.79487179 , 4132.30769231 , 4135.8974359 , 4186.15384615 , 4908.71794872 , 4130.25641026 , 4135.8974359 , 2042.0 , 2038.0 , 86.384 , 0.0 , 0.0 , 0.0 , 0.0 , 

71.0 , 4133.33333333 , 4131.79487179 , 4132.30769231 , 4130.76923077 , 4128.71794872 , 4131.28205128 , 4125.64102564 , 4130.25641026 , 4133.84615385 , 4135.8974359 , 4188.71794872 , 4911.79487179 , 4133.84615385 , 4135.8974359 , 2042.0 , 2034.0 , 86.392 , 0.0 , 0.0 , 0.0 , 0.0 , 

72.0 , 4128.20512821 , 4131.79487179 , 4129.23076923 , 4128.71794872 , 4130.25641026 , 4131.79487179 , 4122.05128205 , 4131.28205128 , 4132.30769231 , 4135.8974359 , 4189.23076923 , 4908.71794872 , 4133.84615385 , 4134.87179487 , 2042.0 , 2035.0 , 86.401 , 0.0 , 0.0 , 0.0 , 0.0 , 

73.0 , 4132.82051282 , 4128.71794872 , 4132.30769231 , 4129.23076923 , 4129.23076923 , 4126.66666667 , 4120.51282051 , 4129.74358974 , 4128.71794872 , 4135.8974359 , 4186.66666667 , 4910.76923077 , 4130.25641026 , 4135.8974359 , 2042.0 , 2034.0 , 86.408 , 0.0 , 0.0 , 0.0 , 0.0 , 

74.0 , 4133.84615385 , 4127.17948718 , 4130.25641026 , 4129.74358974 , 4129.23076923 , 4127.69230769 , 4127.69230769 , 4130.25641026 , 4133.84615385 , 4135.8974359 , 4186.15384615 , 4909.23076923 , 4129.23076923 , 4135.8974359 , 2041.0 , 2037.0 , 86.415 , 0.0 , 0.0 , 0.0 , 0.0 , 

75.0 , 4129.23076923 , 4130.25641026 , 4130.25641026 , 4128.71794872 , 4129.23076923 , 4130.25641026 , 4130.76923077 , 4130.76923077 , 4134.35897436 , 4135.8974359 , 4188.71794872 , 4908.20512821 , 4131.79487179 , 4135.8974359 , 2041.0 , 2035.0 , 86.424 , 0.0 , 0.0 , 0.0 , 0.0 , 

76.0 , 4127.17948718 , 4130.76923077 , 4125.64102564 , 4127.69230769 , 4128.71794872 , 4128.71794872 , 4125.12820513 , 4131.28205128 , 4133.33333333 , 4135.8974359 , 4188.71794872 , 4905.12820513 , 4132.30769231 , 4134.35897436 , 2040.0 , 2036.0 , 86.433 , 0.0 , 0.0 , 0.0 , 0.0 , 

77.0 , 4131.79487179 , 4132.82051282 , 4127.69230769 , 4129.74358974 , 4127.17948718 , 4128.71794872 , 4125.12820513 , 4129.74358974 , 4134.87179487 , 4135.8974359 , 4188.20512821 , 4910.25641026 , 4131.79487179 , 4137.43589744 , 2041.0 , 2035.0 , 86.439 , 0.0 , 0.0 , 0.0 , 0.0 , 

78.0 , 4129.23076923 , 4129.23076923 , 4128.71794872 , 4131.28205128 , 4128.20512821 , 4128.71794872 , 4127.17948718 , 4130.25641026 , 4134.87179487 , 4135.8974359 , 4187.69230769 , 4910.25641026 , 4132.30769231 , 4135.8974359 , 2042.0 , 2035.0 , 86.447 , 0.0 , 0.0 , 0.0 , 0.0 , 

79.0 , 4130.25641026 , 4128.71794872 , 4130.76923077 , 4129.74358974 , 4131.79487179 , 4124.61538462 , 4126.15384615 , 4131.79487179 , 4131.79487179 , 4135.8974359 , 4189.23076923 , 4908.71794872 , 4131.79487179 , 4132.82051282 , 2041.0 , 2036.0 , 86.455 , 0.0 , 0.0 , 0.0 , 0.0 , 

80.0 , 4129.74358974 , 4131.28205128 , 4127.69230769 , 4130.76923077 , 4132.30769231 , 4124.61538462 , 4125.12820513 , 4132.30769231 , 4132.30769231 , 4135.8974359 , 4190.25641026 , 4908.20512821 , 4129.23076923 , 4132.82051282 , 2042.0 , 2036.0 , 86.465 , 0.0 , 0.0 , 0.0 , 0.0 , 

81.0 , 4127.69230769 , 4131.28205128 , 4127.17948718 , 4133.84615385 , 4127.17948718 , 4127.17948718 , 4127.17948718 , 4130.25641026 , 4132.30769231 , 4135.8974359 , 4188.20512821 , 4909.74358974 , 4130.25641026 , 4135.38461538 , 2042.0 , 2035.0 , 86.471 , 0.0 , 0.0 , 0.0 , 0.0 , 

82.0 , 4129.74358974 , 4128.71794872 , 4127.69230769 , 4132.30769231 , 4126.66666667 , 4125.64102564 , 4124.61538462 , 4128.71794872 , 4131.79487179 , 4136.41025641 , 4186.66666667 , 4908.20512821 , 4132.30769231 , 4135.38461538 , 2042.0 , 2036.0 , 86.478 , 0.0 , 0.0 , 0.0 , 0.0 , 

83.0 , 4129.74358974 , 4128.71794872 , 4130.25641026 , 4129.74358974 , 4128.71794872 , 4124.61538462 , 4122.05128205 , 4131.79487179 , 4133.84615385 , 4135.8974359 , 4189.23076923 , 4908.20512821 , 4131.79487179 , 4137.43589744 , 2041.0 , 2035.0 , 86.487 , 0.0 , 0.0 , 0.0 , 0.0 , 

84.0 , 4127.17948718 , 4129.74358974 , 4130.25641026 , 4129.74358974 , 4127.17948718 , 4127.69230769 , 4124.61538462 , 4133.84615385 , 4134.35897436 , 4135.8974359 , 4188.71794872 , 4910.76923077 , 4131.28205128 , 4139.48717949 , 2041.0 , 2035.0 , 86.496 , 0.0 , 0.0 , 0.0 , 0.0 , 

85.0 , 4127.17948718 , 4131.28205128 , 4127.69230769 , 4129.23076923 , 4128.20512821 , 4129.74358974 , 4126.66666667 , 4131.28205128 , 4132.82051282 , 4136.41025641 , 4186.66666667 , 4911.79487179 , 4131.79487179 , 4137.43589744 , 2041.0 , 2035.0 , 86.502 , 0.0 , 0.0 , 0.0 , 0.0 , 

86.0 , 4129.23076923 , 4130.76923077 , 4131.28205128 , 4130.25641026 , 4129.23076923 , 4129.23076923 , 4124.1025641 , 4131.28205128 , 4133.33333333 , 4135.8974359 , 4186.66666667 , 4911.28205128 , 4131.28205128 , 4134.35897436 , 2041.0 , 2035.0 , 86.511 , 0.0 , 0.0 , 0.0 , 0.0 , 

87.0 , 4127.17948718 , 4129.23076923 , 4132.82051282 , 4130.76923077 , 4128.20512821 , 4124.61538462 , 4121.53846154 , 4134.35897436 , 4132.82051282 , 4135.8974359 , 4188.20512821 , 4908.20512821 , 4130.25641026 , 4134.35897436 , 2041.0 , 2036.0 , 86.518 , 0.0 , 0.0 , 0.0 , 0.0 , 

88.0 , 4128.20512821 , 4131.28205128 , 4132.30769231 , 4130.25641026 , 4128.20512821 , 4125.64102564 , 4126.15384615 , 4133.84615385 , 4130.76923077 , 4135.8974359 , 4186.66666667 , 4910.76923077 , 4130.25641026 , 4137.94871795 , 2042.0 , 2035.0 , 86.528 , 0.0 , 0.0 , 0.0 , 0.0 , 

89.0 , 4129.74358974 , 4131.79487179 , 4130.76923077 , 4129.23076923 , 4129.23076923 , 4130.25641026 , 4130.25641026 , 4132.30769231 , 4132.82051282 , 4135.8974359 , 4186.15384615 , 4911.79487179 , 4129.74358974 , 4136.41025641 , 2042.0 , 2034.0 , 86.534 , 0.0 , 0.0 , 0.0 , 0.0 , 

90.0 , 4131.79487179 , 4128.71794872 , 4133.33333333 , 4130.25641026 , 4127.17948718 , 4130.25641026 , 4127.17948718 , 4130.76923077 , 4134.35897436 , 4135.38461538 , 4188.71794872 , 4911.79487179 , 4132.82051282 , 4133.84615385 , 2042.0 , 2036.0 , 86.542 , 0.0 , 0.0 , 0.0 , 0.0 , 

91.0 , 4131.28205128 , 4126.15384615 , 4129.23076923 , 4130.76923077 , 4127.17948718 , 4130.25641026 , 4126.66666667 , 4130.25641026 , 4131.28205128 , 4136.41025641 , 4187.17948718 , 4907.69230769 , 4132.82051282 , 4133.33333333 , 2040.0 , 2036.0 , 86.549 , 0.0 , 0.0 , 0.0 , 0.0 , 

92.0 , 4131.28205128 , 4130.25641026 , 4129.23076923 , 4131.28205128 , 4129.74358974 , 4130.25641026 , 4128.20512821 , 4128.20512821 , 4128.20512821 , 4138.46153846 , 4187.69230769 , 4909.23076923 , 4129.74358974 , 4134.87179487 , 2042.0 , 2035.0 , 86.558 , 0.0 , 0.0 , 0.0 , 0.0 , 

93.0 , 4127.69230769 , 4130.76923077 , 4131.79487179 , 4130.76923077 , 4129.23076923 , 4127.69230769 , 4126.66666667 , 4131.79487179 , 4133.33333333 , 4138.46153846 , 4186.66666667 , 4907.69230769 , 4129.23076923 , 4133.84615385 , 2041.0 , 2035.0 , 86.564 , 0.0 , 0.0 , 0.0 , 0.0 , 

94.0 , 4128.71794872 , 4130.25641026 , 4137.94871795 , 4130.76923077 , 4127.69230769 , 4128.71794872 , 4124.61538462 , 4133.84615385 , 4134.87179487 , 4136.92307692 , 4188.20512821 , 4908.20512821 , 4131.79487179 , 4135.38461538 , 2041.0 , 2035.0 , 86.573 , 0.0 , 0.0 , 0.0 , 0.0 , 

95.0 , 4129.23076923 , 4128.71794872 , 4131.28205128 , 4128.71794872 , 4130.76923077 , 4130.25641026 , 4127.17948718 , 4133.84615385 , 4133.84615385 , 4136.41025641 , 4189.74358974 , 4907.17948718 , 4131.79487179 , 4136.41025641 , 2041.0 , 2036.0 , 86.581 , 0.0 , 0.0 , 0.0 , 0.0 , 

96.0 , 4130.25641026 , 4129.74358974 , 4129.74358974 , 4127.69230769 , 4131.79487179 , 4125.12820513 , 4126.15384615 , 4130.76923077 , 4135.8974359 , 4135.38461538 , 4190.25641026 , 4910.25641026 , 4130.76923077 , 4137.43589744 , 2041.0 , 2035.0 , 86.591 , 0.0 , 0.0 , 0.0 , 0.0 , 

97.0 , 4131.28205128 , 4129.23076923 , 4131.28205128 , 4129.74358974 , 4131.28205128 , 4125.64102564 , 4124.1025641 , 4130.76923077 , 4137.94871795 , 4134.87179487 , 4187.69230769 , 4910.76923077 , 4129.23076923 , 4136.92307692 , 2041.0 , 2035.0 , 86.597 , 0.0 , 0.0 , 0.0 , 0.0 , 

98.0 , 4134.35897436 , 4128.20512821 , 4132.30769231 , 4131.28205128 , 4129.23076923 , 4131.28205128 , 4129.74358974 , 4131.79487179 , 4135.8974359 , 4134.35897436 , 4189.74358974 , 4910.76923077 , 4128.71794872 , 4135.8974359 , 2041.0 , 2036.0 , 86.606 , 0.0 , 0.0 , 0.0 , 0.0 , 

99.0 , 4131.79487179 , 4129.23076923 , 4129.74358974 , 4130.25641026 , 4129.23076923 , 4130.76923077 , 4130.76923077 , 4131.79487179 , 4135.38461538 , 4134.87179487 , 4191.79487179 , 4906.66666667 , 4129.74358974 , 4133.33333333 , 2042.0 , 2034.0 , 86.612 , 0.0 , 0.0 , 0.0 , 0.0 , 

100.0 , 4129.74358974 , 4129.74358974 , 4132.82051282 , 4131.79487179 , 4131.79487179 , 4129.23076923 , 4125.12820513 , 4129.23076923 , 4135.38461538 , 4136.92307692 , 4189.74358974 , 4907.69230769 , 4130.76923077 , 4135.38461538 , 2043.0 , 2035.0 , 86.62 , 0.0 , 0.0 , 0.0 , 0.0 , 

101.0 , 4129.74358974 , 4127.17948718 , 4131.79487179 , 4133.84615385 , 4131.28205128 , 4128.20512821 , 4123.58974359 , 4129.23076923 , 4134.87179487 , 4138.46153846 , 4189.74358974 , 4908.71794872 , 4130.76923077 , 4137.43589744 , 2040.0 , 2035.0 , 86.628 , 0.0 , 0.0 , 0.0 , 0.0 , 

102.0 , 4131.28205128 , 4126.66666667 , 4128.20512821 , 4133.33333333 , 4126.66666667 , 4126.15384615 , 4127.17948718 , 4132.30769231 , 4133.84615385 , 4137.43589744 , 4189.23076923 , 4907.69230769 , 4131.79487179 , 4134.87179487 , 2040.0 , 2035.0 , 86.636 , 0.0 , 0.0 , 0.0 , 0.0 , 

103.0 , 4130.76923077 , 4131.28205128 , 4131.79487179 , 4132.82051282 , 4128.71794872 , 4127.69230769 , 4128.20512821 , 4133.84615385 , 4133.84615385 , 4136.92307692 , 4187.17948718 , 4908.20512821 , 4131.79487179 , 4132.82051282 , 2039.0 , 2035.0 , 86.644 , 0.0 , 0.0 , 0.0 , 0.0 , 

104.0 , 4127.69230769 , 4131.79487179 , 4131.79487179 , 4132.30769231 , 4132.30769231 , 4128.20512821 , 4124.61538462 , 4130.25641026 , 4133.33333333 , 4136.41025641 , 4186.66666667 , 4909.23076923 , 4130.76923077 , 4133.33333333 , 2041.0 , 2034.0 , 86.653 , 0.0 , 0.0 , 0.0 , 0.0 , 

105.0 , 4129.23076923 , 4130.76923077 , 4129.74358974 , 4130.25641026 , 4129.74358974 , 4126.66666667 , 4125.12820513 , 4127.17948718 , 4132.82051282 , 4135.8974359 , 4186.66666667 , 4909.23076923 , 4133.33333333 , 4133.84615385 , 2043.0 , 2034.0 , 86.66 , 0.0 , 0.0 , 0.0 , 0.0 , 

106.0 , 4131.79487179 , 4131.28205128 , 4128.71794872 , 4131.79487179 , 4127.17948718 , 4128.20512821 , 4126.66666667 , 4130.25641026 , 4134.87179487 , 4135.8974359 , 4185.12820513 , 4906.15384615 , 4133.84615385 , 4133.33333333 , 2042.0 , 2035.0 , 86.668 , 0.0 , 0.0 , 0.0 , 0.0 , 

107.0 , 4130.76923077 , 4131.79487179 , 4131.28205128 , 4136.92307692 , 4127.69230769 , 4128.71794872 , 4126.66666667 , 4130.76923077 , 4134.87179487 , 4135.8974359 , 4187.69230769 , 4908.20512821 , 4131.28205128 , 4136.41025641 , 2043.0 , 2035.0 , 86.675 , 0.0 , 0.0 , 0.0 , 0.0 , 

108.0 , 4127.69230769 , 4129.74358974 , 4129.74358974 , 4135.8974359 , 4130.76923077 , 4126.15384615 , 4128.20512821 , 4129.74358974 , 4134.35897436 , 4135.8974359 , 4190.25641026 , 4908.20512821 , 4129.74358974 , 4135.8974359 , 2041.0 , 2035.0 , 86.686 , 0.0 , 0.0 , 0.0 , 0.0 , 

109.0 , 4127.69230769 , 4130.25641026 , 4131.79487179 , 4132.82051282 , 4132.82051282 , 4128.20512821 , 4129.74358974 , 4129.23076923 , 4133.84615385 , 4136.41025641 , 4187.17948718 , 4909.23076923 , 4131.28205128 , 4133.84615385 , 2041.0 , 2036.0 , 86.691 , 0.0 , 0.0 , 0.0 , 0.0 , 

110.0 , 4128.71794872 , 4129.23076923 , 4128.71794872 , 4132.30769231 , 4130.76923077 , 4128.20512821 , 4124.1025641 , 4132.30769231 , 4135.8974359 , 4137.43589744 , 4184.61538462 , 4905.64102564 , 4130.76923077 , 4133.33333333 , 2042.0 , 2036.0 , 86.7 , 0.0 , 0.0 , 0.0 , 0.0 , 

111.0 , 4137.43589744 , 4128.71794872 , 4130.76923077 , 4130.76923077 , 4127.17948718 , 4126.15384615 , 4122.05128205 , 4131.79487179 , 4133.84615385 , 4136.92307692 , 4187.17948718 , 4910.25641026 , 4130.76923077 , 4134.87179487 , 2041.0 , 2035.0 , 86.708 , 0.0 , 0.0 , 0.0 , 0.0 , 

112.0 , 4136.92307692 , 4128.20512821 , 4131.28205128 , 4126.66666667 , 4128.71794872 , 4130.25641026 , 4127.69230769 , 4132.82051282 , 4131.79487179 , 4136.41025641 , 4186.15384615 , 4911.79487179 , 4129.74358974 , 4133.33333333 , 2040.0 , 2035.0 , 86.717 , 0.0 , 0.0 , 0.0 , 0.0 , 

113.0 , 4127.17948718 , 4130.76923077 , 4136.41025641 , 4127.69230769 , 4130.25641026 , 4130.25641026 , 4126.15384615 , 4132.82051282 , 4133.33333333 , 4136.92307692 , 4186.66666667 , 4913.33333333 , 4131.28205128 , 4136.92307692 , 2039.0 , 2036.0 , 86.724 , 0.0 , 0.0 , 0.0 , 0.0 , 

114.0 , 4123.58974359 , 4129.23076923 , 4134.35897436 , 4127.69230769 , 4129.74358974 , 4124.61538462 , 4119.48717949 , 4131.28205128 , 4136.41025641 , 4136.41025641 , 4189.74358974 , 4909.23076923 , 4136.41025641 , 4138.46153846 , 2039.0 , 2036.0 , 86.733 , 0.0 , 0.0 , 0.0 , 0.0 , 

115.0 , 4125.12820513 , 4128.20512821 , 4132.82051282 , 4125.64102564 , 4128.71794872 , 4126.15384615 , 4122.05128205 , 4129.74358974 , 4134.87179487 , 4135.8974359 , 4191.79487179 , 4908.71794872 , 4138.46153846 , 4135.8974359 , 2041.0 , 2035.0 , 86.739 , 0.0 , 0.0 , 0.0 , 0.0 , 

116.0 , 4122.05128205 , 4126.15384615 , 4128.71794872 , 4130.25641026 , 4128.20512821 , 4130.76923077 , 4126.15384615 , 4131.79487179 , 4133.33333333 , 4135.8974359 , 4189.74358974 , 4908.20512821 , 4135.38461538 , 4133.84615385 , 2042.0 , 2036.0 , 86.745 , 0.0 , 0.0 , 0.0 , 0.0 , 

117.0 , 4129.23076923 , 4127.69230769 , 4128.71794872 , 4134.35897436 , 4131.28205128 , 4131.79487179 , 4125.64102564 , 4131.79487179 , 4132.82051282 , 4136.41025641 , 4187.69230769 , 4910.25641026 , 4129.74358974 , 4134.35897436 , 2043.0 , 2037.0 , 86.754 , 0.0 , 0.0 , 0.0 , 0.0 , 

118.0 , 4134.35897436 , 4129.23076923 , 4128.20512821 , 4132.30769231 , 4133.84615385 , 4133.84615385 , 4126.66666667 , 4130.25641026 , 4133.84615385 , 4137.43589744 , 4185.64102564 , 4907.17948718 , 4124.61538462 , 4133.33333333 , 2042.0 , 2033.0 , 86.762 , 0.0 , 0.0 , 0.0 , 0.0 , 

119.0 , 4132.30769231 , 4129.74358974 , 4127.69230769 , 4134.35897436 , 4130.76923077 , 4133.33333333 , 4127.69230769 , 4129.74358974 , 4134.35897436 , 4138.46153846 , 4186.66666667 , 4906.15384615 , 4126.66666667 , 4132.30769231 , 2043.0 , 2033.0 , 86.77 , 0.0 , 0.0 , 0.0 , 0.0 , 

120.0 , 4134.87179487 , 4132.30769231 , 4126.66666667 , 4136.92307692 , 4128.71794872 , 4132.82051282 , 4126.66666667 , 4132.30769231 , 4132.82051282 , 4137.94871795 , 4187.69230769 , 4908.71794872 , 4128.71794872 , 4130.25641026 , 2041.0 , 2035.0 , 86.78 , 0.0 , 0.0 , 0.0 , 0.0 , 

121.0 , 4138.46153846 , 4133.84615385 , 4125.64102564 , 4132.82051282 , 4131.28205128 , 4132.82051282 , 4126.15384615 , 4133.33333333 , 4132.30769231 , 4136.92307692 , 4185.64102564 , 4908.20512821 , 4125.64102564 , 4130.76923077 , 2040.0 , 2035.0 , 86.785 , 0.0 , 0.0 , 0.0 , 0.0 , 

122.0 , 4134.87179487 , 4131.79487179 , 4129.74358974 , 4129.74358974 , 4131.79487179 , 4128.20512821 , 4125.12820513 , 4130.25641026 , 4134.87179487 , 4136.92307692 , 4189.23076923 , 4908.71794872 , 4126.66666667 , 4134.87179487 , 2041.0 , 2035.0 , 86.794 , 0.0 , 0.0 , 0.0 , 0.0 , 

123.0 , 4128.71794872 , 4129.74358974 , 4132.30769231 , 4130.25641026 , 4130.25641026 , 4128.20512821 , 4122.56410256 , 4129.23076923 , 4136.41025641 , 4137.43589744 , 4193.33333333 , 4909.23076923 , 4134.35897436 , 4136.41025641 , 2041.0 , 2035.0 , 86.802 , 0.0 , 0.0 , 0.0 , 0.0 , 

124.0 , 4126.66666667 , 4134.35897436 , 4132.82051282 , 4129.74358974 , 4129.74358974 , 4132.82051282 , 4122.05128205 , 4132.30769231 , 4133.84615385 , 4136.41025641 , 4188.71794872 , 4911.28205128 , 4135.8974359 , 4137.43589744 , 2041.0 , 2035.0 , 86.812 , 0.0 , 0.0 , 0.0 , 0.0 , 

125.0 , 4126.15384615 , 4133.84615385 , 4129.74358974 , 4128.71794872 , 4128.20512821 , 4129.74358974 , 4124.61538462 , 4133.84615385 , 4133.84615385 , 4135.8974359 , 4185.64102564 , 4910.25641026 , 4131.79487179 , 4140.51282051 , 2041.0 , 2036.0 , 86.816 , 0.0 , 0.0 , 0.0 , 0.0 , 

126.0 , 4130.25641026 , 4129.23076923 , 4130.76923077 , 4128.20512821 , 4127.69230769 , 4127.17948718 , 4125.12820513 , 4130.25641026 , 4134.35897436 , 4135.8974359 , 4189.74358974 , 4910.25641026 , 4130.76923077 , 4140.51282051 , 2040.0 , 2036.0 , 86.825 , 0.0 , 0.0 , 0.0 , 0.0 , 

127.0 , 4127.17948718 , 4127.17948718 , 4129.74358974 , 4127.69230769 , 4128.71794872 , 4125.64102564 , 4125.64102564 , 4131.28205128 , 4133.33333333 , 4135.8974359 , 4188.71794872 , 4906.15384615 , 4132.82051282 , 4135.38461538 , 2041.0 , 2037.0 , 86.833 , 0.0 , 0.0 , 0.0 , 0.0 , 

128.0 , 4125.64102564 , 4131.28205128 , 4132.30769231 , 4129.23076923 , 4127.69230769 , 4123.58974359 , 4126.66666667 , 4131.79487179 , 4131.79487179 , 4135.8974359 , 4185.64102564 , 4907.17948718 , 4135.8974359 , 4134.35897436 , 2041.0 , 2036.0 , 86.843 , 0.0 , 0.0 , 0.0 , 0.0 , 

0.0 , 4130.76923077 , 4131.28205128 , 4128.71794872 , 4129.74358974 , 4128.20512821 , 4129.74358974 , 4126.15384615 , 4129.74358974 , 4133.84615385 , 4135.8974359 , 4186.15384615 , 4907.17948718 , 4132.30769231 , 4133.84615385 , 2043.0 , 2035.0 , 86.849 , 0.0 , 0.0 , 0.0 , 0.0 , 

1.0 , 4134.35897436 , 4131.28205128 , 4129.23076923 , 4131.28205128 , 4129.74358974 , 4131.28205128 , 4124.1025641 , 4129.74358974 , 4132.82051282 , 4135.8974359 , 4187.17948718 , 4909.23076923 , 4129.23076923 , 4135.8974359 , 2043.0 , 2034.0 , 86.857 , 0.0 , 0.0 , 0.0 , 0.0 , 

2.0 , 4130.25641026 , 4128.71794872 , 4127.69230769 , 4133.33333333 , 4130.25641026 , 4126.66666667 , 4126.66666667 , 4131.79487179 , 4133.84615385 , 4135.8974359 , 4184.61538462 , 4904.61538462 , 4130.76923077 , 4135.38461538 , 2042.0 , 2034.0 , 86.865 , 0.0 , 0.0 , 0.0 , 0.0 , 

3.0 , 4133.33333333 , 4128.20512821 , 4130.25641026 , 4132.82051282 , 4129.23076923 , 4127.69230769 , 4130.25641026 , 4131.79487179 , 4134.87179487 , 4135.8974359 , 4187.17948718 , 4905.64102564 , 4131.79487179 , 4132.82051282 , 2041.0 , 2036.0 , 86.874 , 0.0 , 0.0 , 0.0 , 0.0 , 

4.0 , 4134.87179487 , 4129.23076923 , 4127.69230769 , 4131.28205128 , 4128.71794872 , 4129.74358974 , 4126.15384615 , 4132.30769231 , 4134.87179487 , 4135.8974359 , 4189.23076923 , 4907.69230769 , 4128.20512821 , 4132.30769231 , 2042.0 , 2035.0 , 86.879 , 0.0 , 0.0 , 0.0 , 0.0 , 

5.0 , 4129.74358974 , 4130.76923077 , 4131.28205128 , 4132.30769231 , 4130.76923077 , 4129.74358974 , 4122.56410256 , 4131.79487179 , 4132.30769231 , 4135.8974359 , 4187.69230769 , 4909.23076923 , 4128.71794872 , 4135.38461538 , 2042.0 , 2037.0 , 86.888 , 0.0 , 0.0 , 0.0 , 0.0 , 

6.0 , 4128.20512821 , 4128.71794872 , 4131.79487179 , 4133.84615385 , 4132.30769231 , 4130.76923077 , 4123.07692308 , 4130.76923077 , 4129.74358974 , 4135.8974359 , 4189.23076923 , 4904.61538462 , 4131.28205128 , 4134.35897436 , 2042.0 , 2036.0 , 86.896 , 0.0 , 0.0 , 0.0 , 0.0 , 

7.0 , 4133.33333333 , 4128.71794872 , 4130.76923077 , 4131.79487179 , 4129.74358974 , 4127.17948718 , 4123.07692308 , 4130.76923077 , 4130.25641026 , 4135.8974359 , 4191.79487179 , 4906.66666667 , 4131.79487179 , 4134.35897436 , 2042.0 , 2036.0 , 86.905 , 0.0 , 0.0 , 0.0 , 0.0 , 

8.0 , 4133.33333333 , 4128.71794872 , 4128.20512821 , 4127.69230769 , 4128.71794872 , 4123.58974359 , 4124.61538462 , 4131.28205128 , 4133.33333333 , 4135.8974359 , 4189.23076923 , 4910.76923077 , 4133.33333333 , 4138.46153846 , 2041.0 , 2037.0 , 86.912 , 0.0 , 0.0 , 0.0 , 0.0 , 

9.0 , 4129.74358974 , 4127.69230769 , 4129.74358974 , 4127.69230769 , 4131.28205128 , 4128.71794872 , 4125.64102564 , 4130.25641026 , 4133.84615385 , 4135.8974359 , 4185.12820513 , 4912.30769231 , 4135.38461538 , 4141.02564103 , 2042.0 , 2036.0 , 86.92 , 0.0 , 0.0 , 0.0 , 0.0 , 

10.0 , 4129.74358974 , 4127.69230769 , 4131.28205128 , 4129.23076923 , 4129.23076923 , 4126.66666667 , 4123.07692308 , 4130.25641026 , 4133.84615385 , 4135.8974359 , 4188.71794872 , 4910.76923077 , 4134.35897436 , 4138.46153846 , 2042.0 , 2036.0 , 86.929 , 0.0 , 0.0 , 0.0 , 0.0 , 

11.0 , 4130.76923077 , 4127.69230769 , 4131.79487179 , 4128.20512821 , 4124.61538462 , 4122.56410256 , 4124.1025641 , 4130.76923077 , 4134.87179487 , 4136.92307692 , 4192.30769231 , 4906.66666667 , 4133.84615385 , 4136.41025641 , 2040.0 , 2036.0 , 86.938 , 0.0 , 0.0 , 0.0 , 0.0 , 

12.0 , 4128.20512821 , 4127.69230769 , 4131.79487179 , 4128.71794872 , 4126.15384615 , 4131.28205128 , 4125.12820513 , 4130.25641026 , 4132.30769231 , 4136.41025641 , 4189.23076923 , 4906.15384615 , 4133.84615385 , 4136.41025641 , 2042.0 , 2035.0 , 86.943 , 0.0 , 0.0 , 0.0 , 0.0 , 

13.0 , 4127.17948718 , 4127.69230769 , 4127.17948718 , 4132.30769231 , 4128.20512821 , 4135.38461538 , 4121.53846154 , 4130.76923077 , 4131.28205128 , 4137.43589744 , 4186.15384615 , 4907.17948718 , 4132.30769231 , 4134.87179487 , 2042.0 , 2036.0 , 86.951 , 0.0 , 0.0 , 0.0 , 0.0 , 

14.0 , 4132.82051282 , 4127.69230769 , 4128.20512821 , 4134.35897436 , 4127.17948718 , 4132.82051282 , 4120.51282051 , 4130.25641026 , 4131.79487179 , 4138.46153846 , 4188.20512821 , 4909.23076923 , 4131.28205128 , 4132.82051282 , 2042.0 , 2035.0 , 86.959 , 0.0 , 0.0 , 0.0 , 0.0 , 

15.0 , 4132.82051282 , 4126.66666667 , 4128.20512821 , 4131.79487179 , 4127.17948718 , 4132.30769231 , 4123.07692308 , 4131.28205128 , 4133.84615385 , 4137.94871795 , 4187.69230769 , 4905.64102564 , 4128.71794872 , 4133.33333333 , 2043.0 , 2035.0 , 86.969 , 0.0 , 0.0 , 0.0 , 0.0 , 

16.0 , 4131.79487179 , 4128.71794872 , 4129.74358974 , 4130.76923077 , 4127.69230769 , 4131.28205128 , 4123.07692308 , 4131.28205128 , 4133.84615385 , 4136.92307692 , 4186.66666667 , 4907.17948718 , 4127.17948718 , 4136.41025641 , 2043.0 , 2035.0 , 86.975 , 0.0 , 0.0 , 0.0 , 0.0 , 

17.0 , 4133.84615385 , 4130.25641026 , 4128.20512821 , 4130.25641026 , 4129.74358974 , 4127.69230769 , 4123.07692308 , 4131.28205128 , 4134.35897436 , 4136.41025641 , 4189.23076923 , 4908.71794872 , 4129.74358974 , 4133.84615385 , 2042.0 , 2034.0 , 86.983 , 0.0 , 0.0 , 0.0 , 0.0 , 

18.0 , 4135.38461538 , 4130.25641026 , 4130.76923077 , 4132.30769231 , 4133.33333333 , 4129.74358974 , 4124.1025641 , 4130.25641026 , 4133.33333333 , 4134.87179487 , 4189.74358974 , 4908.71794872 , 4131.79487179 , 4130.76923077 , 2041.0 , 2036.0 , 86.991 , 0.0 , 0.0 , 0.0 , 0.0 , 

19.0 , 4130.25641026 , 4129.23076923 , 4127.69230769 , 4131.28205128 , 4130.76923077 , 4131.28205128 , 4122.56410256 , 4131.79487179 , 4133.84615385 , 4135.38461538 , 4186.15384615 , 4905.12820513 , 4132.30769231 , 4132.82051282 , 2041.0 , 2037.0 , 87.0 , 0.0 , 0.0 , 0.0 , 0.0 , 

20.0 , 4130.25641026 , 4131.28205128 , 4132.30769231 , 4128.20512821 , 4126.66666667 , 4127.69230769 , 4122.56410256 , 4132.30769231 , 4132.82051282 , 4137.43589744 , 4188.71794872 , 4913.33333333 , 4133.33333333 , 4138.46153846 , 2041.0 , 2036.0 , 87.006 , 0.0 , 0.0 , 0.0 , 0.0 , 

21.0 , 4128.71794872 , 4128.71794872 , 4133.33333333 , 4126.15384615 , 4131.28205128 , 4125.64102564 , 4123.58974359 , 4133.84615385 , 4132.30769231 , 4136.92307692 , 4191.79487179 , 4913.84615385 , 4130.25641026 , 4135.8974359 , 2040.0 , 2034.0 , 87.014 , 0.0 , 0.0 , 0.0 , 0.0 , 

22.0 , 4127.17948718 , 4129.74358974 , 4131.79487179 , 4127.17948718 , 4130.76923077 , 4125.12820513 , 4122.56410256 , 4132.82051282 , 4131.28205128 , 4135.38461538 , 4189.23076923 , 4909.74358974 , 4131.28205128 , 4135.8974359 , 2041.0 , 2033.0 , 87.022 , 0.0 , 0.0 , 0.0 , 0.0 , 

23.0 , 4126.15384615 , 4132.82051282 , 4128.71794872 , 4127.69230769 , 4126.15384615 , 4127.17948718 , 4123.07692308 , 4131.28205128 , 4133.33333333 , 4135.8974359 , 4186.66666667 , 4906.66666667 , 4134.87179487 , 4137.94871795 , 2041.0 , 2036.0 , 87.032 , 0.0 , 0.0 , 0.0 , 0.0 , 

24.0 , 4125.12820513 , 4131.79487179 , 4132.82051282 , 4128.71794872 , 4128.20512821 , 4126.15384615 , 4126.15384615 , 4130.25641026 , 4135.8974359 , 4136.41025641 , 4188.20512821 , 4911.28205128 , 4132.82051282 , 4137.43589744 , 2042.0 , 2035.0 , 87.037 , 0.0 , 0.0 , 0.0 , 0.0 , 

25.0 , 4126.66666667 , 4126.15384615 , 4130.76923077 , 4130.76923077 , 4129.74358974 , 4124.1025641 , 4125.64102564 , 4131.79487179 , 4135.38461538 , 4135.8974359 , 4187.17948718 , 4910.76923077 , 4128.20512821 , 4132.30769231 , 2042.0 , 2034.0 , 87.046 , 0.0 , 0.0 , 0.0 , 0.0 , 

26.0 , 4134.35897436 , 4127.69230769 , 4129.23076923 , 4132.30769231 , 4128.20512821 , 4129.23076923 , 4124.1025641 , 4131.79487179 , 4132.30769231 , 4135.8974359 , 4184.61538462 , 4909.23076923 , 4127.69230769 , 4133.33333333 , 2043.0 , 2035.0 , 87.054 , 0.0 , 0.0 , 0.0 , 0.0 , 

27.0 , 4136.41025641 , 4130.25641026 , 4131.79487179 , 4132.82051282 , 4130.25641026 , 4131.28205128 , 4125.12820513 , 4129.74358974 , 4133.33333333 , 4135.8974359 , 4185.12820513 , 4908.20512821 , 4130.25641026 , 4135.38461538 , 2041.0 , 2035.0 , 87.064 , 0.0 , 0.0 , 0.0 , 0.0 , 

28.0 , 4132.30769231 , 4129.23076923 , 4130.76923077 , 4131.79487179 , 4131.28205128 , 4128.20512821 , 4124.61538462 , 4130.76923077 , 4133.84615385 , 4135.8974359 , 4190.25641026 , 4908.71794872 , 4130.76923077 , 4134.35897436 , 2042.0 , 2036.0 , 87.068 , 0.0 , 0.0 , 0.0 , 0.0 , 

29.0 , 4130.25641026 , 4130.25641026 , 4128.71794872 , 4130.25641026 , 4128.71794872 , 4128.71794872 , 4124.1025641 , 4133.84615385 , 4131.79487179 , 4135.8974359 , 4190.76923077 , 4909.74358974 , 4130.25641026 , 4135.38461538 , 2041.0 , 2034.0 , 87.078 , 0.0 , 0.0 , 0.0 , 0.0 , 

30.0 , 4130.25641026 , 4131.79487179 , 4131.79487179 , 4129.74358974 , 4127.69230769 , 4128.71794872 , 4123.07692308 , 4133.84615385 , 4133.33333333 , 4135.8974359 , 4187.17948718 , 4908.71794872 , 4131.79487179 , 4136.92307692 , 2042.0 , 2035.0 , 87.085 , 0.0 , 0.0 , 0.0 , 0.0 , 

31.0 , 4129.23076923 , 4131.79487179 , 4132.82051282 , 4130.76923077 , 4128.20512821 , 4123.58974359 , 4122.56410256 , 4131.28205128 , 4135.38461538 , 4135.8974359 , 4187.69230769 , 4910.25641026 , 4133.84615385 , 4136.41025641 , 2042.0 , 2035.0 , 87.095 , 0.0 , 0.0 , 0.0 , 0.0 , 

32.0 , 4129.23076923 , 4128.71794872 , 4128.20512821 , 4130.25641026 , 4129.23076923 , 4124.61538462 , 4125.64102564 , 4131.28205128 , 4133.33333333 , 4136.41025641 , 4189.23076923 , 4909.23076923 , 4131.79487179 , 4134.35897436 , 2041.0 , 2035.0 , 87.101 , 0.0 , 0.0 , 0.0 , 0.0 , 

33.0 , 4133.33333333 , 4128.71794872 , 4131.79487179 , 4130.76923077 , 4130.76923077 , 4130.25641026 , 4126.15384615 , 4129.23076923 , 4128.71794872 , 4135.8974359 , 4186.15384615 , 4907.69230769 , 4130.76923077 , 4135.38461538 , 2042.0 , 2037.0 , 87.109 , 0.0 , 0.0 , 0.0 , 0.0 , 

34.0 , 4132.82051282 , 4128.71794872 , 4130.76923077 , 4131.79487179 , 4130.76923077 , 4127.17948718 , 4122.05128205 , 4128.20512821 , 4130.76923077 , 4135.8974359 , 4185.12820513 , 4906.66666667 , 4132.30769231 , 4134.87179487 , 2042.0 , 2036.0 , 87.118 , 0.0 , 0.0 , 0.0 , 0.0 , 

35.0 , 4130.76923077 , 4129.23076923 , 4129.23076923 , 4130.76923077 , 4129.23076923 , 4123.07692308 , 4122.56410256 , 4130.25641026 , 4133.33333333 , 4136.92307692 , 4188.71794872 , 4910.76923077 , 4132.82051282 , 4134.35897436 , 2040.0 , 2036.0 , 87.127 , 0.0 , 0.0 , 0.0 , 0.0 , 

36.0 , 4127.69230769 , 4128.20512821 , 4127.17948718 , 4129.23076923 , 4129.23076923 , 4125.64102564 , 4126.66666667 , 4133.84615385 , 4132.30769231 , 4136.92307692 , 4187.17948718 , 4907.17948718 , 4132.82051282 , 4133.84615385 , 2041.0 , 2036.0 , 87.133 , 0.0 , 0.0 , 0.0 , 0.0 , 

37.0 , 4128.71794872 , 4130.76923077 , 4130.25641026 , 4128.71794872 , 4130.76923077 , 4128.20512821 , 4126.15384615 , 4133.33333333 , 4131.28205128 , 4136.41025641 , 4185.12820513 , 4907.69230769 , 4132.82051282 , 4135.38461538 , 2042.0 , 2035.0 , 87.14 , 0.0 , 0.0 , 0.0 , 0.0 , 

38.0 , 4129.74358974 , 4130.25641026 , 4126.15384615 , 4128.20512821 , 4130.25641026 , 4127.17948718 , 4124.1025641 , 4132.82051282 , 4132.82051282 , 4136.92307692 , 4187.17948718 , 4908.20512821 , 4131.28205128 , 4135.38461538 , 2041.0 , 2035.0 , 87.147 , 0.0 , 0.0 , 0.0 , 0.0 , 

39.0 , 4129.23076923 , 4129.23076923 , 4129.23076923 , 4128.71794872 , 4126.15384615 , 4125.64102564 , 4123.58974359 , 4130.76923077 , 4131.79487179 , 4137.94871795 , 4190.25641026 , 4912.30769231 , 4130.76923077 , 4134.87179487 , 2041.0 , 2036.0 , 87.156 , 0.0 , 0.0 , 0.0 , 0.0 , 

40.0 , 4129.74358974 , 4127.17948718 , 4132.30769231 , 4128.71794872 , 4129.23076923 , 4127.17948718 , 4121.02564103 , 4130.76923077 , 4132.30769231 , 4137.94871795 , 4189.23076923 , 4909.74358974 , 4131.79487179 , 4133.33333333 , 2042.0 , 2036.0 , 87.164 , 0.0 , 0.0 , 0.0 , 0.0 , 

41.0 , 4132.82051282 , 4128.71794872 , 4131.79487179 , 4129.23076923 , 4133.33333333 , 4129.23076923 , 4120.0 , 4130.76923077 , 4129.74358974 , 4137.94871795 , 4187.69230769 , 4908.20512821 , 4132.30769231 , 4135.8974359 , 2042.0 , 2036.0 , 87.172 , 0.0 , 0.0 , 0.0 , 0.0 , 

42.0 , 4128.20512821 , 4130.76923077 , 4127.17948718 , 4127.69230769 , 4129.74358974 , 4130.25641026 , 4123.07692308 , 4131.28205128 , 4127.17948718 , 4136.92307692 , 4185.64102564 , 4907.69230769 , 4130.25641026 , 4136.92307692 , 2041.0 , 2034.0 , 87.18 , 0.0 , 0.0 , 0.0 , 0.0 , 

43.0 , 4126.15384615 , 4131.28205128 , 4130.25641026 , 4127.69230769 , 4127.17948718 , 4129.23076923 , 4124.61538462 , 4130.76923077 , 4129.23076923 , 4135.8974359 , 4187.69230769 , 4910.25641026 , 4130.25641026 , 4135.38461538 , 2041.0 , 2035.0 , 87.189 , 0.0 , 0.0 , 0.0 , 0.0 , 

44.0 , 4128.71794872 , 4127.69230769 , 4132.82051282 , 4128.20512821 , 4130.76923077 , 4129.23076923 , 4123.07692308 , 4131.79487179 , 4133.84615385 , 4136.41025641 , 4189.23076923 , 4909.23076923 , 4131.28205128 , 4133.33333333 , 2041.0 , 2035.0 , 87.195 , 0.0 , 0.0 , 0.0 , 0.0 , 

45.0 , 4131.28205128 , 4128.20512821 , 4131.79487179 , 4129.23076923 , 4130.25641026 , 4127.17948718 , 4123.07692308 , 4132.82051282 , 4131.79487179 , 4135.8974359 , 4189.23076923 , 4909.23076923 , 4131.79487179 , 4134.87179487 , 2041.0 , 2034.0 , 87.203 , 0.0 , 0.0 , 0.0 , 0.0 , 

46.0 , 4130.25641026 , 4130.25641026 , 4128.20512821 , 4128.71794872 , 4127.69230769 , 4125.64102564 , 4124.1025641 , 4131.79487179 , 4128.71794872 , 4134.35897436 , 4187.17948718 , 4909.74358974 , 4131.79487179 , 4136.92307692 , 2041.0 , 2036.0 , 87.211 , 0.0 , 0.0 , 0.0 , 0.0 , 

47.0 , 4129.74358974 , 4127.69230769 , 4128.71794872 , 4126.66666667 , 4129.23076923 , 4129.23076923 , 4122.56410256 , 4132.30769231 , 4130.25641026 , 4134.35897436 , 4186.15384615 , 4909.74358974 , 4131.79487179 , 4137.94871795 , 2042.0 , 2035.0 , 87.221 , 0.0 , 0.0 , 0.0 , 0.0 , 

48.0 , 4129.23076923 , 4125.12820513 , 4131.79487179 , 4128.71794872 , 4128.71794872 , 4129.23076923 , 4123.07692308 , 4130.76923077 , 4132.30769231 , 4134.87179487 , 4189.74358974 , 4909.74358974 , 4130.25641026 , 4136.92307692 , 2041.0 , 2034.0 , 87.227 , 0.0 , 0.0 , 0.0 , 0.0 , 

49.0 , 4131.28205128 , 4128.20512821 , 4130.25641026 , 4131.79487179 , 4128.20512821 , 4125.64102564 , 4125.12820513 , 4129.74358974 , 4132.82051282 , 4134.87179487 , 4192.82051282 , 4907.69230769 , 4128.71794872 , 4133.84615385 , 2041.0 , 2036.0 , 87.236 , 0.0 , 0.0 , 0.0 , 0.0 , 

50.0 , 4133.84615385 , 4129.74358974 , 4128.71794872 , 4130.76923077 , 4129.23076923 , 4126.15384615 , 4127.69230769 , 4130.25641026 , 4129.74358974 , 4134.87179487 , 4189.23076923 , 4907.69230769 , 4130.76923077 , 4133.84615385 , 2042.0 , 2035.0 , 87.244 , 0.0 , 0.0 , 0.0 , 0.0 , 

51.0 , 4131.79487179 , 4127.17948718 , 4126.15384615 , 4129.74358974 , 4130.25641026 , 4128.71794872 , 4127.69230769 , 4130.76923077 , 4129.23076923 , 4134.87179487 , 4185.12820513 , 4908.20512821 , 4132.30769231 , 4134.35897436 , 2041.0 , 2036.0 , 87.253 , 0.0 , 0.0 , 0.0 , 0.0 , 

52.0 , 4132.82051282 , 4128.20512821 , 4129.23076923 , 4132.82051282 , 4130.25641026 , 4130.25641026 , 4127.69230769 , 4129.23076923 , 4129.74358974 , 4134.87179487 , 4186.15384615 , 4910.25641026 , 4131.28205128 , 4134.35897436 , 2042.0 , 2036.0 , 87.259 , 0.0 , 0.0 , 0.0 , 0.0 , 

53.0 , 4132.82051282 , 4128.71794872 , 4129.74358974 , 4132.30769231 , 4129.74358974 , 4130.76923077 , 4128.20512821 , 4131.28205128 , 4129.23076923 , 4134.87179487 , 4187.17948718 , 4908.20512821 , 4130.76923077 , 4133.84615385 , 2041.0 , 2035.0 , 87.267 , 0.0 , 0.0 , 0.0 , 0.0 , 

54.0 , 4130.25641026 , 4130.25641026 , 4133.33333333 , 4128.71794872 , 4126.15384615 , 4128.20512821 , 4128.20512821 , 4132.30769231 , 4128.20512821 , 4134.87179487 , 4187.69230769 , 4909.74358974 , 4131.79487179 , 4137.94871795 , 2042.0 , 2036.0 , 87.274 , 0.0 , 0.0 , 0.0 , 0.0 , 

55.0 , 4127.69230769 , 4130.25641026 , 4133.33333333 , 4127.69230769 , 4127.17948718 , 4128.71794872 , 4129.23076923 , 4132.82051282 , 4131.28205128 , 4134.35897436 , 4187.17948718 , 4908.71794872 , 4129.74358974 , 4138.97435897 , 2041.0 , 2035.0 , 87.284 , 0.0 , 0.0 , 0.0 , 0.0 , 

56.0 , 4131.79487179 , 4130.25641026 , 4135.38461538 , 4129.74358974 , 4128.71794872 , 4131.28205128 , 4127.17948718 , 4131.28205128 , 4132.30769231 , 4135.8974359 , 4188.71794872 , 4909.74358974 , 4131.79487179 , 4136.41025641 , 2041.0 , 2035.0 , 87.29 , 0.0 , 0.0 , 0.0 , 0.0 , 

57.0 , 4132.82051282 , 4127.69230769 , 4129.74358974 , 4131.28205128 , 4127.69230769 , 4128.20512821 , 4124.1025641 , 4129.74358974 , 4131.79487179 , 4137.43589744 , 4191.28205128 , 4908.71794872 , 4135.8974359 , 4134.35897436 , 2042.0 , 2036.0 , 87.298 , 0.0 , 0.0 , 0.0 , 0.0 , 

58.0 , 4131.28205128 , 4130.76923077 , 4129.23076923 , 4131.28205128 , 4127.17948718 , 4123.58974359 , 4124.61538462 , 4129.23076923 , 4129.74358974 , 4136.41025641 , 4191.79487179 , 4910.25641026 , 4135.38461538 , 4136.92307692 , 2041.0 , 2037.0 , 87.306 , 0.0 , 0.0 , 0.0 , 0.0 , 

59.0 , 4129.74358974 , 4129.23076923 , 4128.71794872 , 4130.25641026 , 4130.25641026 , 4124.61538462 , 4126.15384615 , 4132.30769231 , 4129.74358974 , 4136.92307692 , 4189.23076923 , 4909.23076923 , 4130.25641026 , 4136.41025641 , 2041.0 , 2037.0 , 87.316 , 0.0 , 0.0 , 0.0 , 0.0 , 

60.0 , 4132.82051282 , 4127.17948718 , 4129.74358974 , 4129.74358974 , 4128.71794872 , 4127.17948718 , 4126.15384615 , 4131.79487179 , 4131.28205128 , 4137.94871795 , 4189.74358974 , 4912.30769231 , 4129.23076923 , 4134.35897436 , 2041.0 , 2034.0 , 87.322 , 0.0 , 0.0 , 0.0 , 0.0 , 

61.0 , 4132.82051282 , 4133.33333333 , 4129.74358974 , 4129.23076923 , 4127.69230769 , 4128.20512821 , 4124.61538462 , 4130.25641026 , 4130.76923077 , 4137.94871795 , 4187.69230769 , 4912.82051282 , 4129.74358974 , 4133.84615385 , 2041.0 , 2035.0 , 87.33 , 0.0 , 0.0 , 0.0 , 0.0 , 

62.0 , 4132.30769231 , 4137.43589744 , 4130.25641026 , 4130.25641026 , 4128.71794872 , 4128.71794872 , 4122.56410256 , 4129.74358974 , 4129.23076923 , 4137.43589744 , 4187.17948718 , 4912.30769231 , 4130.76923077 , 4135.8974359 , 2042.0 , 2036.0 , 87.338 , 0.0 , 0.0 , 0.0 , 0.0 , 

63.0 , 4132.30769231 , 4128.20512821 , 4127.69230769 , 4131.28205128 , 4128.71794872 , 4127.17948718 , 4124.61538462 , 4131.79487179 , 4130.25641026 , 4137.94871795 , 4190.25641026 , 4909.23076923 , 4132.82051282 , 4134.87179487 , 2040.0 , 2035.0 , 87.348 , 0.0 , 0.0 , 0.0 , 0.0 , 

64.0 , 4131.79487179 , 4123.58974359 , 4130.76923077 , 4130.76923077 , 4129.23076923 , 4128.20512821 , 4130.76923077 , 4132.30769231 , 4128.20512821 , 4137.94871795 , 4189.23076923 , 4909.23076923 , 4132.82051282 , 4134.35897436 , 2041.0 , 2035.0 , 87.353 , 0.0 , 0.0 , 0.0 , 0.0 , 

65.0 , 4132.30769231 , 4129.23076923 , 4133.84615385 , 4128.71794872 , 4130.25641026 , 4133.84615385 , 4129.23076923 , 4131.79487179 , 4127.69230769 , 4137.94871795 , 4186.66666667 , 4909.74358974 , 4130.76923077 , 4136.92307692 , 2043.0 , 2035.0 , 87.361 , 0.0 , 0.0 , 0.0 , 0.0 , 

66.0 , 4133.33333333 , 4130.25641026 , 4129.74358974 , 4128.20512821 , 4128.20512821 , 4131.79487179 , 4124.1025641 , 4132.30769231 , 4130.25641026 , 4137.94871795 , 4188.20512821 , 4908.71794872 , 4131.79487179 , 4136.41025641 , 2041.0 , 2036.0 , 87.369 , 0.0 , 0.0 , 0.0 , 0.0 , 

67.0 , 4132.30769231 , 4128.20512821 , 4128.71794872 , 4130.76923077 , 4126.66666667 , 4126.66666667 , 4125.64102564 , 4132.30769231 , 4129.74358974 , 4137.94871795 , 4190.25641026 , 4909.23076923 , 4131.79487179 , 4134.35897436 , 2042.0 , 2037.0 , 87.379 , 0.0 , 0.0 , 0.0 , 0.0 , 

68.0 , 4131.28205128 , 4127.69230769 , 4129.74358974 , 4131.28205128 , 4129.74358974 , 4128.20512821 , 4124.1025641 , 4130.76923077 , 4128.71794872 , 4137.94871795 , 4188.20512821 , 4908.20512821 , 4129.74358974 , 4133.33333333 , 2042.0 , 2037.0 , 87.386 , 0.0 , 0.0 , 0.0 , 0.0 , 

69.0 , 4130.76923077 , 4128.20512821 , 4130.25641026 , 4130.25641026 , 4130.76923077 , 4129.74358974 , 4122.05128205 , 4130.25641026 , 4130.25641026 , 4137.94871795 , 4187.69230769 , 4908.71794872 , 4130.76923077 , 4133.84615385 , 2042.0 , 2037.0 , 87.393 , 0.0 , 0.0 , 0.0 , 0.0 , 

70.0 , 4128.71794872 , 4129.74358974 , 4128.20512821 , 4130.25641026 , 4127.69230769 , 4128.20512821 , 4127.17948718 , 4132.30769231 , 4131.28205128 , 4137.94871795 , 4188.71794872 , 4908.20512821 , 4130.76923077 , 4132.30769231 , 2040.0 , 2035.0 , 87.4 , 0.0 , 0.0 , 0.0 , 0.0 , 

71.0 , 4129.74358974 , 4131.28205128 , 4132.30769231 , 4129.74358974 , 4127.17948718 , 4127.69230769 , 4131.28205128 , 4132.30769231 , 4127.69230769 , 4137.43589744 , 4187.69230769 , 4911.28205128 , 4130.76923077 , 4134.35897436 , 2042.0 , 2036.0 , 87.409 , 0.0 , 0.0 , 0.0 , 0.0 , 

72.0 , 4129.23076923 , 4129.23076923 , 4128.71794872 , 4126.66666667 , 4129.23076923 , 4128.20512821 , 4127.69230769 , 4132.82051282 , 4128.20512821 , 4137.94871795 , 4185.64102564 , 4909.74358974 , 4132.82051282 , 4135.38461538 , 2042.0 , 2036.0 , 87.416 , 0.0 , 0.0 , 0.0 , 0.0 , 

73.0 , 4130.76923077 , 4128.20512821 , 4129.74358974 , 4125.12820513 , 4128.71794872 , 4127.69230769 , 4124.61538462 , 4131.28205128 , 4131.28205128 , 4138.46153846 , 4188.20512821 , 4911.79487179 , 4133.84615385 , 4135.38461538 , 2041.0 , 2036.0 , 87.424 , 0.0 , 0.0 , 0.0 , 0.0 , 

74.0 , 4129.74358974 , 4128.20512821 , 4130.25641026 , 4124.61538462 , 4129.23076923 , 4125.64102564 , 4125.64102564 , 4131.79487179 , 4132.30769231 , 4137.94871795 , 4188.20512821 , 4909.23076923 , 4131.28205128 , 4134.35897436 , 2042.0 , 2036.0 , 87.432 , 0.0 , 0.0 , 0.0 , 0.0 , 

75.0 , 4129.74358974 , 4130.25641026 , 4133.84615385 , 4128.20512821 , 4129.74358974 , 4128.71794872 , 4125.64102564 , 4129.74358974 , 4128.20512821 , 4136.92307692 , 4184.61538462 , 4906.66666667 , 4132.30769231 , 4136.92307692 , 2042.0 , 2038.0 , 87.44 , 0.0 , 0.0 , 0.0 , 0.0 , 

76.0 , 4129.23076923 , 4127.69230769 , 4131.28205128 , 4131.28205128 , 4128.20512821 , 4134.87179487 , 4123.58974359 , 4129.74358974 , 4128.20512821 , 4136.92307692 , 4185.64102564 , 4905.12820513 , 4131.79487179 , 4135.8974359 , 2042.0 , 2036.0 , 87.448 , 0.0 , 0.0 , 0.0 , 0.0 , 

77.0 , 4132.30769231 , 4129.23076923 , 4133.33333333 , 4131.79487179 , 4127.17948718 , 4133.33333333 , 4123.07692308 , 4130.76923077 , 4130.76923077 , 4136.92307692 , 4191.79487179 , 4912.82051282 , 4130.76923077 , 4133.84615385 , 2041.0 , 2037.0 , 87.456 , 0.0 , 0.0 , 0.0 , 0.0 , 

78.0 , 4133.33333333 , 4131.28205128 , 4132.30769231 , 4132.30769231 , 4129.23076923 , 4126.15384615 , 4124.1025641 , 4130.76923077 , 4131.79487179 , 4136.41025641 , 4188.20512821 , 4909.74358974 , 4131.28205128 , 4133.84615385 , 2041.0 , 2035.0 , 87.462 , 0.0 , 0.0 , 0.0 , 0.0 , 

79.0 , 4132.30769231 , 4130.25641026 , 4129.74358974 , 4131.79487179 , 4130.25641026 , 4126.15384615 , 4125.64102564 , 4127.69230769 , 4131.28205128 , 4136.41025641 , 4186.15384615 , 4905.64102564 , 4131.79487179 , 4135.38461538 , 2041.0 , 2037.0 , 87.472 , 0.0 , 0.0 , 0.0 , 0.0 , 

80.0 , 4129.74358974 , 4126.66666667 , 4126.66666667 , 4130.76923077 , 4129.74358974 , 4128.20512821 , 4123.58974359 , 4130.25641026 , 4131.79487179 , 4136.92307692 , 4190.76923077 , 4907.17948718 , 4131.28205128 , 4133.33333333 , 2042.0 , 2034.0 , 87.479 , 0.0 , 0.0 , 0.0 , 0.0 , 

81.0 , 4131.28205128 , 4130.25641026 , 4130.76923077 , 4131.28205128 , 4128.71794872 , 4127.69230769 , 4123.58974359 , 4132.30769231 , 4131.79487179 , 4136.92307692 , 4190.76923077 , 4910.25641026 , 4132.82051282 , 4134.35897436 , 2042.0 , 2036.0 , 87.487 , 0.0 , 0.0 , 0.0 , 0.0 , 

82.0 , 4131.79487179 , 4133.33333333 , 4132.30769231 , 4129.74358974 , 4128.71794872 , 4127.17948718 , 4126.15384615 , 4130.76923077 , 4133.33333333 , 4136.41025641 , 4185.12820513 , 4909.23076923 , 4132.82051282 , 4136.41025641 , 2042.0 , 2035.0 , 87.496 , 0.0 , 0.0 , 0.0 , 0.0 , 

83.0 , 4130.76923077 , 4132.30769231 , 4132.82051282 , 4127.69230769 , 4130.76923077 , 4126.15384615 , 4123.07692308 , 4132.30769231 , 4132.30769231 , 4135.8974359 , 4184.61538462 , 4908.71794872 , 4131.79487179 , 4135.38461538 , 2042.0 , 2036.0 , 87.505 , 0.0 , 0.0 , 0.0 , 0.0 , 

84.0 , 4129.74358974 , 4129.74358974 , 4131.79487179 , 4127.17948718 , 4131.28205128 , 4128.71794872 , 4122.56410256 , 4133.33333333 , 4128.20512821 , 4136.41025641 , 4186.66666667 , 4908.71794872 , 4132.82051282 , 4134.87179487 , 2042.0 , 2036.0 , 87.511 , 0.0 , 0.0 , 0.0 , 0.0 , 

85.0 , 4127.69230769 , 4127.69230769 , 4129.74358974 , 4127.69230769 , 4128.71794872 , 4130.76923077 , 4129.23076923 , 4130.76923077 , 4129.23076923 , 4136.92307692 , 4186.15384615 , 4907.69230769 , 4132.30769231 , 4138.46153846 , 2041.0 , 2037.0 , 87.519 , 0.0 , 0.0 , 0.0 , 0.0 , 

86.0 , 4127.69230769 , 4128.71794872 , 4130.25641026 , 4129.23076923 , 4127.17948718 , 4126.66666667 , 4132.30769231 , 4129.74358974 , 4130.25641026 , 4136.92307692 , 4186.66666667 , 4908.20512821 , 4131.79487179 , 4139.48717949 , 2041.0 , 2036.0 , 87.527 , 0.0 , 0.0 , 0.0 , 0.0 , 

87.0 , 4129.23076923 , 4129.23076923 , 4129.74358974 , 4130.76923077 , 4127.69230769 , 4127.17948718 , 4127.17948718 , 4131.79487179 , 4128.20512821 , 4136.92307692 , 4187.17948718 , 4908.20512821 , 4131.28205128 , 4134.87179487 , 2040.0 , 2035.0 , 87.537 , 0.0 , 0.0 , 0.0 , 0.0 , 

88.0 , 4130.76923077 , 4129.23076923 , 4131.79487179 , 4131.79487179 , 4127.69230769 , 4128.71794872 , 4129.23076923 , 4129.74358974 , 4129.23076923 , 4136.92307692 , 4187.17948718 , 4910.25641026 , 4129.23076923 , 4135.38461538 , 2042.0 , 2035.0 , 87.541 , 0.0 , 0.0 , 0.0 , 0.0 , 

89.0 , 4128.71794872 , 4126.66666667 , 4130.76923077 , 4132.82051282 , 4127.69230769 , 4127.17948718 , 4132.30769231 , 4127.17948718 , 4132.82051282 , 4136.92307692 , 4186.66666667 , 4909.23076923 , 4130.25641026 , 4137.43589744 , 2043.0 , 2035.0 , 87.551 , 0.0 , 0.0 , 0.0 , 0.0 , 

90.0 , 4130.76923077 , 4129.23076923 , 4130.25641026 , 4133.33333333 , 4128.71794872 , 4127.17948718 , 4127.17948718 , 4127.69230769 , 4130.25641026 , 4136.92307692 , 4187.17948718 , 4910.76923077 , 4132.82051282 , 4135.38461538 , 2042.0 , 2034.0 , 87.558 , 0.0 , 0.0 , 0.0 , 0.0 , 

91.0 , 4130.25641026 , 4131.79487179 , 4125.12820513 , 4130.76923077 , 4129.23076923 , 4128.20512821 , 4126.66666667 , 4129.74358974 , 4129.23076923 , 4136.92307692 , 4184.61538462 , 4907.69230769 , 4130.25641026 , 4132.30769231 , 2042.0 , 2035.0 , 87.568 , 0.0 , 0.0 , 0.0 , 0.0 , 

92.0 , 4131.28205128 , 4131.28205128 , 4129.23076923 , 4130.76923077 , 4127.69230769 , 4127.69230769 , 4128.71794872 , 4129.23076923 , 4132.30769231 , 4136.92307692 , 4185.64102564 , 4908.71794872 , 4128.20512821 , 4136.41025641 , 2041.0 , 2035.0 , 87.574 , 0.0 , 0.0 , 0.0 , 0.0 , 

93.0 , 4129.74358974 , 4129.23076923 , 4130.25641026 , 4133.84615385 , 4128.71794872 , 4127.17948718 , 4127.17948718 , 4131.28205128 , 4134.35897436 , 4136.92307692 , 4186.66666667 , 4907.69230769 , 4130.25641026 , 4137.43589744 , 2041.0 , 2036.0 , 87.582 , 0.0 , 0.0 , 0.0 , 0.0 , 

94.0 , 4130.76923077 , 4133.33333333 , 4131.79487179 , 4132.30769231 , 4130.25641026 , 4126.15384615 , 4125.12820513 , 4130.76923077 , 4131.79487179 , 4136.92307692 , 4187.69230769 , 4909.74358974 , 4131.79487179 , 4134.87179487 , 2042.0 , 2036.0 , 87.59 , 0.0 , 0.0 , 0.0 , 0.0 , 

95.0 , 4130.25641026 , 4133.84615385 , 4131.79487179 , 4127.17948718 , 4130.25641026 , 4125.12820513 , 4124.61538462 , 4129.23076923 , 4132.30769231 , 4136.92307692 , 4187.69230769 , 4907.69230769 , 4131.28205128 , 4135.8974359 , 2039.0 , 2037.0 , 87.6 , 0.0 , 0.0 , 0.0 , 0.0 , 

96.0 , 4130.76923077 , 4130.25641026 , 4135.8974359 , 4128.20512821 , 4129.23076923 , 4128.20512821 , 4124.61538462 , 4128.71794872 , 4134.35897436 , 4136.92307692 , 4188.71794872 , 4911.28205128 , 4130.25641026 , 4136.92307692 , 2041.0 , 2037.0 , 87.606 , 0.0 , 0.0 , 0.0 , 0.0 , 

97.0 , 4131.79487179 , 4128.20512821 , 4134.35897436 , 4130.25641026 , 4128.71794872 , 4128.20512821 , 4122.56410256 , 4131.28205128 , 4133.33333333 , 4136.92307692 , 4188.71794872 , 4911.28205128 , 4131.28205128 , 4134.87179487 , 2041.0 , 2036.0 , 87.615 , 0.0 , 0.0 , 0.0 , 0.0 , 

98.0 , 4133.33333333 , 4128.20512821 , 4132.30769231 , 4129.23076923 , 4128.20512821 , 4123.07692308 , 4122.56410256 , 4131.28205128 , 4130.25641026 , 4136.92307692 , 4189.74358974 , 4910.76923077 , 4133.84615385 , 4137.94871795 , 2041.0 , 2036.0 , 87.622 , 0.0 , 0.0 , 0.0 , 0.0 , 

99.0 , 4130.25641026 , 4127.17948718 , 4129.23076923 , 4128.71794872 , 4127.69230769 , 4123.07692308 , 4123.07692308 , 4130.76923077 , 4131.28205128 , 4136.92307692 , 4189.23076923 , 4910.76923077 , 4131.28205128 , 4140.0 , 2041.0 , 2035.0 , 87.632 , 0.0 , 0.0 , 0.0 , 0.0 , 

100.0 , 4128.20512821 , 4127.17948718 , 4131.79487179 , 4129.74358974 , 4128.20512821 , 4127.69230769 , 4123.07692308 , 4130.25641026 , 4134.35897436 , 4136.92307692 , 4187.69230769 , 4911.28205128 , 4128.20512821 , 4137.43589744 , 2042.0 , 2036.0 , 87.638 , 0.0 , 0.0 , 0.0 , 0.0 , 

101.0 , 4129.74358974 , 4125.12820513 , 4133.84615385 , 4128.20512821 , 4130.25641026 , 4128.71794872 , 4123.07692308 , 4130.25641026 , 4132.30769231 , 4137.94871795 , 4187.69230769 , 4908.20512821 , 4129.74358974 , 4135.38461538 , 2042.0 , 2035.0 , 87.645 , 0.0 , 0.0 , 0.0 , 0.0 , 

102.0 , 4131.79487179 , 4127.17948718 , 4131.79487179 , 4129.74358974 , 4129.74358974 , 4128.71794872 , 4124.1025641 , 4129.74358974 , 4129.74358974 , 4137.94871795 , 4188.20512821 , 4907.17948718 , 4131.28205128 , 4138.46153846 , 2041.0 , 2035.0 , 87.653 , 0.0 , 0.0 , 0.0 , 0.0 , 

103.0 , 4131.79487179 , 4132.30769231 , 4130.25641026 , 4132.82051282 , 4127.17948718 , 4129.23076923 , 4125.12820513 , 4128.71794872 , 4131.28205128 , 4136.92307692 , 4186.66666667 , 4908.71794872 , 4131.28205128 , 4138.97435897 , 2041.0 , 2036.0 , 87.663 , 0.0 , 0.0 , 0.0 , 0.0 , 

104.0 , 4130.25641026 , 4131.28205128 , 4130.25641026 , 4132.30769231 , 4128.20512821 , 4126.66666667 , 4126.15384615 , 4130.76923077 , 4130.76923077 , 4136.92307692 , 4186.66666667 , 4907.69230769 , 4130.76923077 , 4134.35897436 , 2043.0 , 2035.0 , 87.667 , 0.0 , 0.0 , 0.0 , 0.0 , 

105.0 , 4130.25641026 , 4130.76923077 , 4130.76923077 , 4130.76923077 , 4129.74358974 , 4131.28205128 , 4125.64102564 , 4129.74358974 , 4129.23076923 , 4136.92307692 , 4187.69230769 , 4908.71794872 , 4128.20512821 , 4134.87179487 , 2041.0 , 2035.0 , 87.676 , 0.0 , 0.0 , 0.0 , 0.0 , 

106.0 , 4130.25641026 , 4131.28205128 , 4130.76923077 , 4131.28205128 , 4127.69230769 , 4134.87179487 , 4123.07692308 , 4129.23076923 , 4131.79487179 , 4136.41025641 , 4186.15384615 , 4908.71794872 , 4126.15384615 , 4138.46153846 , 2042.0 , 2034.0 , 87.684 , 0.0 , 0.0 , 0.0 , 0.0 , 

107.0 , 4128.71794872 , 4130.25641026 , 4136.41025641 , 4131.79487179 , 4125.12820513 , 4128.71794872 , 4123.58974359 , 4130.25641026 , 4131.79487179 , 4136.92307692 , 4187.69230769 , 4911.79487179 , 4130.25641026 , 4139.48717949 , 2042.0 , 2036.0 , 87.693 , 0.0 , 0.0 , 0.0 , 0.0 , 

108.0 , 4128.20512821 , 4128.20512821 , 4132.82051282 , 4130.76923077 , 4129.23076923 , 4124.1025641 , 4123.07692308 , 4132.30769231 , 4131.79487179 , 4137.94871795 , 4189.23076923 , 4908.20512821 , 4132.82051282 , 4136.41025641 , 2041.0 , 2036.0 , 87.7 , 0.0 , 0.0 , 0.0 , 0.0 , 

109.0 , 4131.79487179 , 4129.74358974 , 4129.74358974 , 4130.25641026 , 4131.79487179 , 4127.69230769 , 4122.56410256 , 4129.23076923 , 4133.33333333 , 4137.43589744 , 4189.23076923 , 4908.71794872 , 4129.74358974 , 4136.92307692 , 2041.0 , 2034.0 , 87.708 , 0.0 , 0.0 , 0.0 , 0.0 , 

110.0 , 4131.28205128 , 4129.74358974 , 4129.74358974 , 4130.76923077 , 4129.23076923 , 4127.17948718 , 4124.1025641 , 4130.25641026 , 4133.84615385 , 4137.94871795 , 4189.23076923 , 4909.74358974 , 4128.20512821 , 4136.92307692 , 2041.0 , 2035.0 , 87.715 , 0.0 , 0.0 , 0.0 , 0.0 , 

111.0 , 4131.79487179 , 4131.28205128 , 4133.33333333 , 4130.76923077 , 4127.69230769 , 4124.61538462 , 4124.61538462 , 4131.79487179 , 4133.33333333 , 4137.94871795 , 4191.28205128 , 4912.30769231 , 4131.28205128 , 4136.92307692 , 2042.0 , 2035.0 , 87.725 , 0.0 , 0.0 , 0.0 , 0.0 , 

112.0 , 4131.79487179 , 4130.76923077 , 4129.74358974 , 4129.23076923 , 4129.74358974 , 4124.61538462 , 4124.61538462 , 4132.82051282 , 4135.38461538 , 4136.41025641 , 4190.25641026 , 4907.69230769 , 4131.28205128 , 4134.87179487 , 2041.0 , 2035.0 , 87.731 , 0.0 , 0.0 , 0.0 , 0.0 , 

113.0 , 4134.35897436 , 4130.25641026 , 4131.28205128 , 4130.76923077 , 4131.79487179 , 4124.61538462 , 4126.66666667 , 4130.76923077 , 4131.28205128 , 4137.94871795 , 4189.74358974 , 4908.20512821 , 4128.20512821 , 4133.33333333 , 2041.0 , 2036.0 , 87.74 , 0.0 , 0.0 , 0.0 , 0.0 , 

114.0 , 4131.28205128 , 4130.76923077 , 4130.25641026 , 4132.82051282 , 4130.76923077 , 4126.15384615 , 4126.15384615 , 4130.25641026 , 4128.20512821 , 4138.46153846 , 4187.17948718 , 4908.71794872 , 4128.71794872 , 4133.84615385 , 2040.0 , 2035.0 , 87.747 , 0.0 , 0.0 , 0.0 , 0.0 , 

115.0 , 4131.28205128 , 4132.82051282 , 4130.76923077 , 4130.76923077 , 4127.17948718 , 4127.69230769 , 4121.02564103 , 4128.71794872 , 4129.23076923 , 4136.92307692 , 4187.69230769 , 4909.23076923 , 4131.79487179 , 4137.94871795 , 2040.0 , 2036.0 , 87.757 , 0.0 , 0.0 , 0.0 , 0.0 , 

116.0 , 4131.79487179 , 4131.79487179 , 4130.25641026 , 4129.74358974 , 4128.20512821 , 4126.66666667 , 4123.58974359 , 4129.23076923 , 4130.76923077 , 4136.41025641 , 4190.25641026 , 4907.17948718 , 4130.25641026 , 4136.41025641 , 2043.0 , 2035.0 , 87.763 , 0.0 , 0.0 , 0.0 , 0.0 , 

117.0 , 4130.76923077 , 4130.25641026 , 4131.79487179 , 4131.28205128 , 4131.79487179 , 4125.64102564 , 4130.25641026 , 4130.76923077 , 4130.76923077 , 4137.43589744 , 4189.74358974 , 4911.28205128 , 4130.25641026 , 4135.8974359 , 2042.0 , 2035.0 , 87.771 , 0.0 , 0.0 , 0.0 , 0.0 , 

118.0 , 4129.74358974 , 4127.69230769 , 4130.25641026 , 4132.30769231 , 4130.76923077 , 4126.15384615 , 4127.17948718 , 4130.76923077 , 4132.30769231 , 4137.43589744 , 4186.66666667 , 4910.25641026 , 4131.79487179 , 4136.41025641 , 2042.0 , 2035.0 , 87.779 , 0.0 , 0.0 , 0.0 , 0.0 , 

119.0 , 4131.79487179 , 4128.20512821 , 4130.25641026 , 4132.30769231 , 4128.71794872 , 4127.17948718 , 4121.53846154 , 4128.71794872 , 4134.35897436 , 4136.41025641 , 4187.69230769 , 4905.12820513 , 4132.82051282 , 4136.41025641 , 2042.0 , 2033.0 , 87.788 , 0.0 , 0.0 , 0.0 , 0.0 , 

120.0 , 4130.25641026 , 4130.76923077 , 4128.71794872 , 4131.79487179 , 4131.79487179 , 4129.23076923 , 4124.1025641 , 4128.71794872 , 4131.79487179 , 4136.41025641 , 4186.66666667 , 4906.66666667 , 4133.84615385 , 4136.92307692 , 2041.0 , 2036.0 , 87.795 , 0.0 , 0.0 , 0.0 , 0.0 , 

121.0 , 4129.23076923 , 4129.74358974 , 4129.23076923 , 4130.76923077 , 4131.28205128 , 4130.76923077 , 4127.17948718 , 4133.33333333 , 4126.66666667 , 4135.8974359 , 4185.12820513 , 4911.79487179 , 4133.84615385 , 4137.43589744 , 2042.0 , 2036.0 , 87.803 , 0.0 , 0.0 , 0.0 , 0.0 , 

122.0 , 4133.33333333 , 4130.25641026 , 4134.87179487 , 4129.74358974 , 4128.20512821 , 4130.76923077 , 4126.15384615 , 4134.35897436 , 4126.66666667 , 4136.41025641 , 4188.20512821 , 4910.76923077 , 4133.33333333 , 4137.43589744 , 2041.0 , 2036.0 , 87.81 , 0.0 , 0.0 , 0.0 , 0.0 , 

123.0 , 4132.30769231 , 4131.28205128 , 4133.84615385 , 4129.23076923 , 4129.74358974 , 4128.20512821 , 4125.12820513 , 4131.79487179 , 4131.79487179 , 4135.8974359 , 4187.69230769 , 4907.69230769 , 4133.84615385 , 4136.41025641 , 2042.0 , 2036.0 , 87.82 , 0.0 , 0.0 , 0.0 , 0.0 , 

124.0 , 4129.74358974 , 4132.82051282 , 4130.25641026 , 4129.74358974 , 4130.25641026 , 4128.20512821 , 4125.12820513 , 4131.28205128 , 4132.30769231 , 4135.8974359 , 4185.12820513 , 4911.28205128 , 4133.84615385 , 4137.43589744 , 2040.0 , 2036.0 , 87.826 , 0.0 , 0.0 , 0.0 , 0.0 , 

125.0 , 4129.23076923 , 4132.30769231 , 4129.74358974 , 4129.74358974 , 4128.20512821 , 4131.28205128 , 4126.15384615 , 4132.30769231 , 4129.74358974 , 4135.8974359 , 4186.66666667 , 4910.25641026 , 4130.25641026 , 4135.38461538 , 2041.0 , 2034.0 , 87.837 , 0.0 , 0.0 , 0.0 , 0.0 , 

126.0 , 4129.74358974 , 4132.30769231 , 4133.33333333 , 4129.74358974 , 4127.17948718 , 4128.71794872 , 4126.66666667 , 4131.79487179 , 4129.23076923 , 4135.8974359 , 4189.23076923 , 4909.74358974 , 4128.71794872 , 4135.38461538 , 2041.0 , 2035.0 , 87.843 , 0.0 , 0.0 , 0.0 , 0.0 , 

127.0 , 4128.20512821 , 4129.74358974 , 4127.69230769 , 4129.74358974 , 4129.23076923 , 4125.12820513 , 4122.56410256 , 4131.28205128 , 4133.33333333 , 4135.8974359 , 4186.66666667 , 4909.23076923 , 4129.74358974 , 4134.87179487 , 2042.0 , 2036.0 , 87.851 , 0.0 , 0.0 , 0.0 , 0.0 , 

128.0 , 4129.74358974 , 4130.25641026 , 4128.71794872 , 4132.30769231 , 4130.25641026 , 4127.17948718 , 4121.02564103 , 4129.74358974 , 4133.84615385 , 4135.8974359 , 4187.17948718 , 4911.28205128 , 4130.25641026 , 4132.82051282 , 2041.0 , 2036.0 , 87.858 , 0.0 , 0.0 , 0.0 , 0.0 , 

0.0 , 4129.74358974 , 4128.71794872 , 4130.76923077 , 4132.30769231 , 4130.25641026 , 4127.69230769 , 4130.25641026 , 4130.76923077 , 4131.28205128 , 4135.8974359 , 4189.74358974 , 4906.66666667 , 4129.74358974 , 4131.28205128 , 2041.0 , 2036.0 , 87.864 , 0.0 , 0.0 , 0.0 , 0.0 , 

1.0 , 4133.84615385 , 4129.74358974 , 4132.82051282 , 4131.79487179 , 4129.74358974 , 4124.61538462 , 4131.79487179 , 4131.28205128 , 4129.23076923 , 4135.8974359 , 4190.25641026 , 4909.23076923 , 4131.28205128 , 4133.84615385 , 2042.0 , 2035.0 , 87.873 , 0.0 , 0.0 , 0.0 , 0.0 , 

2.0 , 4134.35897436 , 4129.74358974 , 4129.23076923 , 4130.25641026 , 4131.28205128 , 4125.64102564 , 4122.56410256 , 4130.76923077 , 4130.76923077 , 4135.8974359 , 4190.25641026 , 4911.28205128 , 4129.74358974 , 4135.38461538 , 2042.0 , 2035.0 , 87.882 , 0.0 , 0.0 , 0.0 , 0.0 , 

3.0 , 4131.79487179 , 4131.28205128 , 4131.79487179 , 4129.23076923 , 4132.82051282 , 4128.20512821 , 4122.05128205 , 4129.23076923 , 4130.76923077 , 4135.8974359 , 4190.76923077 , 4911.79487179 , 4128.20512821 , 4135.38461538 , 2043.0 , 2035.0 , 87.889 , 0.0 , 0.0 , 0.0 , 0.0 , 

4.0 , 4128.71794872 , 4129.74358974 , 4129.74358974 , 4131.28205128 , 4130.25641026 , 4128.71794872 , 4124.61538462 , 4130.76923077 , 4130.25641026 , 4135.8974359 , 4187.69230769 , 4906.15384615 , 4129.23076923 , 4134.87179487 , 2040.0 , 2034.0 , 87.897 , 0.0 , 0.0 , 0.0 , 0.0 , 

5.0 , 4131.79487179 , 4130.76923077 , 4129.74358974 , 4131.79487179 , 4128.20512821 , 4129.23076923 , 4123.07692308 , 4131.28205128 , 4129.23076923 , 4135.8974359 , 4186.15384615 , 4908.71794872 , 4132.30769231 , 4135.8974359 , 2041.0 , 2035.0 , 87.905 , 0.0 , 0.0 , 0.0 , 0.0 , 

6.0 , 4132.30769231 , 4131.28205128 , 4131.28205128 , 4127.69230769 , 4129.23076923 , 4126.15384615 , 4123.58974359 , 4131.79487179 , 4128.20512821 , 4135.8974359 , 4188.71794872 , 4913.33333333 , 4131.79487179 , 4136.92307692 , 2041.0 , 2035.0 , 87.914 , 0.0 , 0.0 , 0.0 , 0.0 , 

7.0 , 4131.28205128 , 4130.76923077 , 4135.38461538 , 4127.17948718 , 4129.23076923 , 4124.1025641 , 4127.17948718 , 4130.76923077 , 4128.71794872 , 4135.8974359 , 4189.23076923 , 4912.30769231 , 4129.74358974 , 4138.46153846 , 2042.0 , 2037.0 , 87.92 , 0.0 , 0.0 , 0.0 , 0.0 , 

8.0 , 4130.25641026 , 4128.71794872 , 4131.79487179 , 4129.74358974 , 4128.71794872 , 4127.69230769 , 4125.12820513 , 4130.76923077 , 4131.28205128 , 4135.8974359 , 4185.64102564 , 4908.20512821 , 4130.76923077 , 4135.8974359 , 2042.0 , 2036.0 , 87.929 , 0.0 , 0.0 , 0.0 , 0.0 , 

9.0 , 4129.23076923 , 4128.71794872 , 4128.71794872 , 4129.23076923 , 4127.69230769 , 4130.76923077 , 4123.58974359 , 4131.28205128 , 4131.28205128 , 4135.8974359 , 4187.17948718 , 4909.74358974 , 4133.33333333 , 4135.38461538 , 2043.0 , 2035.0 , 87.935 , 0.0 , 0.0 , 0.0 , 0.0 , 

10.0 , 4127.69230769 , 4129.74358974 , 4129.74358974 , 4128.20512821 , 4127.69230769 , 4128.20512821 , 4125.64102564 , 4130.76923077 , 4129.23076923 , 4135.8974359 , 4188.20512821 , 4910.76923077 , 4130.25641026 , 4137.94871795 , 2041.0 , 2035.0 , 87.944 , 0.0 , 0.0 , 0.0 , 0.0 , 

11.0 , 4129.23076923 , 4129.74358974 , 4131.28205128 , 4130.25641026 , 4127.17948718 , 4128.20512821 , 4125.64102564 , 4131.28205128 , 4129.23076923 , 4135.8974359 , 4186.15384615 , 4907.17948718 , 4127.17948718 , 4136.41025641 , 2042.0 , 2035.0 , 87.953 , 0.0 , 0.0 , 0.0 , 0.0 , 

12.0 , 4130.76923077 , 4129.74358974 , 4131.79487179 , 4133.84615385 , 4127.17948718 , 4134.87179487 , 4124.1025641 , 4131.28205128 , 4131.79487179 , 4135.8974359 , 4187.17948718 , 4906.66666667 , 4129.23076923 , 4131.79487179 , 2041.0 , 2036.0 , 87.959 , 0.0 , 0.0 , 0.0 , 0.0 , 

13.0 , 4131.79487179 , 4130.25641026 , 4130.25641026 , 4132.82051282 , 4129.23076923 , 4135.38461538 , 4124.1025641 , 4129.74358974 , 4131.79487179 , 4135.8974359 , 4187.69230769 , 4908.20512821 , 4129.23076923 , 4131.79487179 , 2042.0 , 2037.0 , 87.968 , 0.0 , 0.0 , 0.0 , 0.0 , 

14.0 , 4134.87179487 , 4131.79487179 , 4131.79487179 , 4128.71794872 , 4129.23076923 , 4129.23076923 , 4126.66666667 , 4128.71794872 , 4131.28205128 , 4135.8974359 , 4188.71794872 , 4910.25641026 , 4127.69230769 , 4134.87179487 , 2041.0 , 2035.0 , 87.978 , 0.0 , 0.0 , 0.0 , 0.0 , 

15.0 , 4132.82051282 , 4133.33333333 , 4129.74358974 , 4128.71794872 , 4128.71794872 , 4128.20512821 , 4126.15384615 , 4131.79487179 , 4132.82051282 , 4135.8974359 , 4189.74358974 , 4908.20512821 , 4129.23076923 , 4134.87179487 , 2042.0 , 2036.0 , 87.984 , 0.0 , 0.0 , 0.0 , 0.0 , 

16.0 , 4132.30769231 , 4132.82051282 , 4131.28205128 , 4131.79487179 , 4129.23076923 , 4128.71794872 , 4124.61538462 , 4131.28205128 , 4132.30769231 , 4135.8974359 , 4190.25641026 , 4909.23076923 , 4131.28205128 , 4137.43589744 , 2041.0 , 2036.0 , 87.991 , 0.0 , 0.0 , 0.0 , 0.0 , 

17.0 , 4130.76923077 , 4128.71794872 , 4130.25641026 , 4131.28205128 , 4130.25641026 , 4123.58974359 , 4125.64102564 , 4131.79487179 , 4132.30769231 , 4135.8974359 , 4188.20512821 , 4906.15384615 , 4130.25641026 , 4136.41025641 , 2042.0 , 2035.0 , 87.998 , 0.0 , 0.0 , 0.0 , 0.0 , 

18.0 , 4130.25641026 , 4130.25641026 , 4132.82051282 , 4129.74358974 , 4128.71794872 , 4124.1025641 , 4127.69230769 , 4131.79487179 , 4132.30769231 , 4135.8974359 , 4189.23076923 , 4906.66666667 , 4130.25641026 , 4136.92307692 , 2042.0 , 2036.0 , 88.008 , 0.0 , 0.0 , 0.0 , 0.0 , 

19.0 , 4129.74358974 , 4128.71794872 , 4130.25641026 , 4128.20512821 , 4130.25641026 , 4127.17948718 , 4126.66666667 , 4131.79487179 , 4132.30769231 , 4135.8974359 , 4188.71794872 , 4908.20512821 , 4131.28205128 , 4137.43589744 , 2040.0 , 2035.0 , 88.015 , 0.0 , 0.0 , 0.0 , 0.0 , 

20.0 , 4133.33333333 , 4127.69230769 , 4133.84615385 , 4128.20512821 , 4129.74358974 , 4125.64102564 , 4126.15384615 , 4130.25641026 , 4132.30769231 , 4135.8974359 , 4187.69230769 , 4912.30769231 , 4130.76923077 , 4136.92307692 , 2040.0 , 2035.0 , 88.023 , 0.0 , 0.0 , 0.0 , 0.0 , 

21.0 , 4130.76923077 , 4128.20512821 , 4130.76923077 , 4129.23076923 , 4126.66666667 , 4126.15384615 , 4128.71794872 , 4132.30769231 , 4134.35897436 , 4135.8974359 , 4185.12820513 , 4905.12820513 , 4128.20512821 , 4132.82051282 , 2042.0 , 2036.0 , 88.031 , 0.0 , 0.0 , 0.0 , 0.0 , 

22.0 , 4131.79487179 , 4131.79487179 , 4129.74358974 , 4129.74358974 , 4129.23076923 , 4128.20512821 , 4129.23076923 , 4133.33333333 , 4131.79487179 , 4135.8974359 , 4185.64102564 , 4903.58974359 , 4129.23076923 , 4132.30769231 , 2041.0 , 2034.0 , 88.04 , 0.0 , 0.0 , 0.0 , 0.0 , 

23.0 , 4131.28205128 , 4133.33333333 , 4128.71794872 , 4130.25641026 , 4131.79487179 , 4128.71794872 , 4127.17948718 , 4131.79487179 , 4131.28205128 , 4135.8974359 , 4186.66666667 , 4907.69230769 , 4130.76923077 , 4133.84615385 , 2042.0 , 2035.0 , 88.047 , 0.0 , 0.0 , 0.0 , 0.0 , 

24.0 , 4129.74358974 , 4134.35897436 , 4134.35897436 , 4134.35897436 , 4129.23076923 , 4128.71794872 , 4126.15384615 , 4129.74358974 , 4135.38461538 , 4135.8974359 , 4186.66666667 , 4909.23076923 , 4130.76923077 , 4137.43589744 , 2041.0 , 2035.0 , 88.055 , 0.0 , 0.0 , 0.0 , 0.0 , 

25.0 , 4130.25641026 , 4132.30769231 , 4134.87179487 , 4134.35897436 , 4129.23076923 , 4128.20512821 , 4126.66666667 , 4129.74358974 , 4135.8974359 , 4135.8974359 , 4183.58974359 , 4904.1025641 , 4129.74358974 , 4135.8974359 , 2042.0 , 2035.0 , 88.062 , 0.0 , 0.0 , 0.0 , 0.0 , 

26.0 , 4130.76923077 , 4130.25641026 , 4130.76923077 , 4129.74358974 , 4132.30769231 , 4126.15384615 , 4127.17948718 , 4130.25641026 , 4129.74358974 , 4135.8974359 , 4185.12820513 , 4906.66666667 , 4129.74358974 , 4133.84615385 , 2042.0 , 2037.0 , 88.072 , 0.0 , 0.0 , 0.0 , 0.0 , 

27.0 , 4129.23076923 , 4130.76923077 , 4127.17948718 , 4130.76923077 , 4131.79487179 , 4128.20512821 , 4125.12820513 , 4130.76923077 , 4125.64102564 , 4135.8974359 , 4189.74358974 , 4910.76923077 , 4130.76923077 , 4134.87179487 , 2042.0 , 2036.0 , 88.077 , 0.0 , 0.0 , 0.0 , 0.0 , 

28.0 , 4130.25641026 , 4131.79487179 , 4132.30769231 , 4133.33333333 , 4130.76923077 , 4128.71794872 , 4124.1025641 , 4132.30769231 , 4129.23076923 , 4135.8974359 , 4190.25641026 , 4909.23076923 , 4130.76923077 , 4135.38461538 , 2041.0 , 2035.0 , 88.086 , 0.0 , 0.0 , 0.0 , 0.0 , 

29.0 , 4130.76923077 , 4130.76923077 , 4134.35897436 , 4128.71794872 , 4130.76923077 , 4126.66666667 , 4126.15384615 , 4132.82051282 , 4131.79487179 , 4135.8974359 , 4189.23076923 , 4909.23076923 , 4129.74358974 , 4134.87179487 , 2040.0 , 2035.0 , 88.094 , 0.0 , 0.0 , 0.0 , 0.0 , 

30.0 , 4129.74358974 , 4127.17948718 , 4129.74358974 , 4125.12820513 , 4129.23076923 , 4128.71794872 , 4126.15384615 , 4130.76923077 , 4130.25641026 , 4135.8974359 , 4189.74358974 , 4910.76923077 , 4130.25641026 , 4135.38461538 , 2041.0 , 2035.0 , 88.103 , 0.0 , 0.0 , 0.0 , 0.0 , 

31.0 , 4130.76923077 , 4127.69230769 , 4132.82051282 , 4127.69230769 , 4127.69230769 , 4130.25641026 , 4124.61538462 , 4129.74358974 , 4127.17948718 , 4135.8974359 , 4190.25641026 , 4909.74358974 , 4129.23076923 , 4135.8974359 , 2041.0 , 2035.0 , 88.111 , 0.0 , 0.0 , 0.0 , 0.0 , 

32.0 , 4129.23076923 , 4130.25641026 , 4136.41025641 , 4128.71794872 , 4129.23076923 , 4127.69230769 , 4125.64102564 , 4130.25641026 , 4127.69230769 , 4135.8974359 , 4187.17948718 , 4905.12820513 , 4126.15384615 , 4135.38461538 , 2041.0 , 2036.0 , 88.119 , 0.0 , 0.0 , 0.0 , 0.0 , 

33.0 , 4128.71794872 , 4130.25641026 , 4134.35897436 , 4128.71794872 , 4129.23076923 , 4126.66666667 , 4127.17948718 , 4130.76923077 , 4127.69230769 , 4135.8974359 , 4188.20512821 , 4910.25641026 , 4128.20512821 , 4135.8974359 , 2042.0 , 2035.0 , 88.124 , 0.0 , 0.0 , 0.0 , 0.0 , 

34.0 , 4129.74358974 , 4131.28205128 , 4129.23076923 , 4129.74358974 , 4129.23076923 , 4129.23076923 , 4127.17948718 , 4131.79487179 , 4127.69230769 , 4135.8974359 , 4190.76923077 , 4911.28205128 , 4132.30769231 , 4132.82051282 , 2041.0 , 2035.0 , 88.134 , 0.0 , 0.0 , 0.0 , 0.0 , 

35.0 , 4128.71794872 , 4131.79487179 , 4132.82051282 , 4130.25641026 , 4130.76923077 , 4127.69230769 , 4127.17948718 , 4128.71794872 , 4127.69230769 , 4135.8974359 , 4191.28205128 , 4907.17948718 , 4130.25641026 , 4132.30769231 , 2042.0 , 2036.0 , 88.141 , 0.0 , 0.0 , 0.0 , 0.0 , 

36.0 , 4129.74358974 , 4126.66666667 , 4130.25641026 , 4130.25641026 , 4132.82051282 , 4122.56410256 , 4127.17948718 , 4128.71794872 , 4128.71794872 , 4136.41025641 , 4187.17948718 , 4905.12820513 , 4127.17948718 , 4133.33333333 , 2042.0 , 2036.0 , 88.149 , 0.0 , 0.0 , 0.0 , 0.0 , 

37.0 , 4138.97435897 , 4129.23076923 , 4130.76923077 , 4133.84615385 , 4130.25641026 , 4129.74358974 , 4130.76923077 , 4130.76923077 , 4128.71794872 , 4135.8974359 , 4186.66666667 , 4911.28205128 , 4129.74358974 , 4132.82051282 , 2040.0 , 2034.0 , 88.157 , 0.0 , 0.0 , 0.0 , 0.0 , 

38.0 , 4134.35897436 , 4132.30769231 , 4129.74358974 , 4135.38461538 , 4127.17948718 , 4135.8974359 , 4132.30769231 , 4132.30769231 , 4129.23076923 , 4135.8974359 , 4187.69230769 , 4906.66666667 , 4132.30769231 , 4134.35897436 , 2041.0 , 2035.0 , 88.167 , 0.0 , 0.0 , 0.0 , 0.0 , 

39.0 , 4127.69230769 , 4129.23076923 , 4133.33333333 , 4130.76923077 , 4126.66666667 , 4127.69230769 , 4127.69230769 , 4129.23076923 , 4129.23076923 , 4136.92307692 , 4189.74358974 , 4905.64102564 , 4131.28205128 , 4140.51282051 , 2041.0 , 2035.0 , 88.173 , 0.0 , 0.0 , 0.0 , 0.0 , 

40.0 , 4131.28205128 , 4126.66666667 , 4131.79487179 , 4126.66666667 , 4128.71794872 , 4123.07692308 , 4124.61538462 , 4130.76923077 , 4132.82051282 , 4137.94871795 , 4188.20512821 , 4907.69230769 , 4130.76923077 , 4139.48717949 , 2042.0 , 2036.0 , 88.181 , 0.0 , 0.0 , 0.0 , 0.0 , 

41.0 , 4134.35897436 , 4130.76923077 , 4130.76923077 , 4128.71794872 , 4127.69230769 , 4129.23076923 , 4126.15384615 , 4132.30769231 , 4133.84615385 , 4137.94871795 , 4189.23076923 , 4910.76923077 , 4132.82051282 , 4137.94871795 , 2042.0 , 2037.0 , 88.188 , 0.0 , 0.0 , 0.0 , 0.0 , 

42.0 , 4129.23076923 , 4129.74358974 , 4128.20512821 , 4127.69230769 , 4127.69230769 , 4128.20512821 , 4125.12820513 , 4132.82051282 , 4131.79487179 , 4137.43589744 , 4190.76923077 , 4908.20512821 , 4131.28205128 , 4138.46153846 , 2042.0 , 2036.0 , 88.198 , 0.0 , 0.0 , 0.0 , 0.0 , 

43.0 , 4131.79487179 , 4130.76923077 , 4135.8974359 , 4125.64102564 , 4129.23076923 , 4125.64102564 , 4125.12820513 , 4131.28205128 , 4131.79487179 , 4134.87179487 , 4189.74358974 , 4908.20512821 , 4129.74358974 , 4137.43589744 , 2041.0 , 2036.0 , 88.204 , 0.0 , 0.0 , 0.0 , 0.0 , 

44.0 , 4134.35897436 , 4131.28205128 , 4137.94871795 , 4127.69230769 , 4129.23076923 , 4128.71794872 , 4128.20512821 , 4130.76923077 , 4134.35897436 , 4134.35897436 , 4188.71794872 , 4907.69230769 , 4130.25641026 , 4134.87179487 , 2041.0 , 2036.0 , 88.212 , 0.0 , 0.0 , 0.0 , 0.0 , 

45.0 , 4131.28205128 , 4129.74358974 , 4133.33333333 , 4129.23076923 , 4127.17948718 , 4127.17948718 , 4129.23076923 , 4131.79487179 , 4132.30769231 , 4135.8974359 , 4189.74358974 , 4908.20512821 , 4130.76923077 , 4136.41025641 , 2042.0 , 2035.0 , 88.22 , 0.0 , 0.0 , 0.0 , 0.0 , 

46.0 , 4128.71794872 , 4127.69230769 , 4130.76923077 , 4128.71794872 , 4128.71794872 , 4125.12820513 , 4126.66666667 , 4133.84615385 , 4129.23076923 , 4135.8974359 , 4189.74358974 , 4906.66666667 , 4130.76923077 , 4135.38461538 , 2042.0 , 2035.0 , 88.229 , 0.0 , 0.0 , 0.0 , 0.0 , 

47.0 , 4130.25641026 , 4128.20512821 , 4132.30769231 , 4130.76923077 , 4131.28205128 , 4128.20512821 , 4126.66666667 , 4131.28205128 , 4131.28205128 , 4136.92307692 , 4186.66666667 , 4905.64102564 , 4131.28205128 , 4133.33333333 , 2041.0 , 2036.0 , 88.236 , 0.0 , 0.0 , 0.0 , 0.0 , 

48.0 , 4133.84615385 , 4131.79487179 , 4132.82051282 , 4131.79487179 , 4130.76923077 , 4128.71794872 , 4127.17948718 , 4128.71794872 , 4134.35897436 , 4137.94871795 , 4184.61538462 , 4910.25641026 , 4131.28205128 , 4134.35897436 , 2041.0 , 2036.0 , 88.244 , 0.0 , 0.0 , 0.0 , 0.0 , 

49.0 , 4131.79487179 , 4132.82051282 , 4129.23076923 , 4129.74358974 , 4130.76923077 , 4126.66666667 , 4124.1025641 , 4129.74358974 , 4133.84615385 , 4137.94871795 , 4185.64102564 , 4911.28205128 , 4130.76923077 , 4133.33333333 , 2040.0 , 2036.0 , 88.253 , 0.0 , 0.0 , 0.0 , 0.0 , 

50.0 , 4129.23076923 , 4129.23076923 , 4130.25641026 , 4130.25641026 , 4131.79487179 , 4127.69230769 , 4124.61538462 , 4130.76923077 , 4133.84615385 , 4137.94871795 , 4187.17948718 , 4907.69230769 , 4131.79487179 , 4134.35897436 , 2040.0 , 2037.0 , 88.262 , 0.0 , 0.0 , 0.0 , 0.0 , 

51.0 , 4129.23076923 , 4127.69230769 , 4130.76923077 , 4130.76923077 , 4130.25641026 , 4127.69230769 , 4129.23076923 , 4131.79487179 , 4134.87179487 , 4137.43589744 , 4187.69230769 , 4904.61538462 , 4132.30769231 , 4137.43589744 , 2041.0 , 2037.0 , 88.266 , 0.0 , 0.0 , 0.0 , 0.0 , 

52.0 , 4130.76923077 , 4130.25641026 , 4133.33333333 , 4128.20512821 , 4127.17948718 , 4127.17948718 , 4131.28205128 , 4131.79487179 , 4131.28205128 , 4135.38461538 , 4186.66666667 , 4910.25641026 , 4131.28205128 , 4141.02564103 , 2041.0 , 2034.0 , 88.275 , 0.0 , 0.0 , 0.0 , 0.0 , 

53.0 , 4129.23076923 , 4128.71794872 , 4131.28205128 , 4126.15384615 , 4126.66666667 , 4127.17948718 , 4129.23076923 , 4130.25641026 , 4131.28205128 , 4136.41025641 , 4186.66666667 , 4909.74358974 , 4130.76923077 , 4140.0 , 2041.0 , 2033.0 , 88.286 , 0.0 , 0.0 , 0.0 , 0.0 , 

54.0 , 4130.76923077 , 4129.23076923 , 4132.30769231 , 4128.20512821 , 4128.20512821 , 4126.66666667 , 4129.23076923 , 4129.23076923 , 4133.33333333 , 4137.94871795 , 4187.69230769 , 4909.74358974 , 4131.79487179 , 4139.48717949 , 2041.0 , 2036.0 , 88.293 , 0.0 , 0.0 , 0.0 , 0.0 , 

55.0 , 4129.74358974 , 4128.71794872 , 4129.74358974 , 4127.17948718 , 4128.71794872 , 4126.15384615 , 4127.17948718 , 4132.30769231 , 4131.79487179 , 4136.41025641 , 4187.17948718 , 4908.20512821 , 4131.79487179 , 4136.92307692 , 2040.0 , 2035.0 , 88.298 , 0.0 , 0.0 , 0.0 , 0.0 , 

56.0 , 4129.74358974 , 4129.74358974 , 4130.76923077 , 4125.12820513 , 4127.17948718 , 4127.69230769 , 4124.61538462 , 4132.82051282 , 4129.74358974 , 4135.38461538 , 4188.20512821 , 4910.25641026 , 4131.79487179 , 4136.92307692 , 2041.0 , 2034.0 , 88.307 , 0.0 , 0.0 , 0.0 , 0.0 , 

57.0 , 4130.76923077 , 4129.23076923 , 4128.71794872 , 4128.20512821 , 4128.20512821 , 4129.23076923 , 4124.1025641 , 4132.82051282 , 4132.82051282 , 4136.41025641 , 4187.17948718 , 4907.17948718 , 4131.79487179 , 4136.41025641 , 2040.0 , 2033.0 , 88.315 , 0.0 , 0.0 , 0.0 , 0.0 , 

58.0 , 4131.28205128 , 4128.71794872 , 4129.23076923 , 4132.30769231 , 4132.30769231 , 4128.20512821 , 4124.61538462 , 4131.79487179 , 4132.30769231 , 4135.8974359 , 4186.15384615 , 4907.17948718 , 4132.82051282 , 4136.41025641 , 2042.0 , 2035.0 , 88.325 , 0.0 , 0.0 , 0.0 , 0.0 , 

59.0 , 4129.74358974 , 4126.66666667 , 4127.17948718 , 4131.28205128 , 4133.33333333 , 4125.12820513 , 4127.17948718 , 4132.82051282 , 4132.30769231 , 4135.8974359 , 4186.15384615 , 4906.15384615 , 4132.30769231 , 4134.35897436 , 2042.0 , 2037.0 , 88.332 , 0.0 , 0.0 , 0.0 , 0.0 , 

60.0 , 4132.82051282 , 4129.23076923 , 4129.74358974 , 4130.76923077 , 4128.20512821 , 4123.58974359 , 4129.74358974 , 4132.30769231 , 4131.79487179 , 4135.8974359 , 4188.71794872 , 4908.71794872 , 4130.76923077 , 4133.84615385 , 2041.0 , 2036.0 , 88.337 , 0.0 , 0.0 , 0.0 , 0.0 , 

61.0 , 4132.30769231 , 4129.74358974 , 4129.74358974 , 4131.28205128 , 4128.20512821 , 4127.17948718 , 4127.69230769 , 4131.79487179 , 4130.76923077 , 4135.8974359 , 4187.69230769 , 4909.23076923 , 4129.74358974 , 4133.84615385 , 2041.0 , 2036.0 , 88.346 , 0.0 , 0.0 , 0.0 , 0.0 , 

62.0 , 4130.25641026 , 4128.20512821 , 4130.76923077 , 4130.25641026 , 4130.76923077 , 4129.74358974 , 4128.71794872 , 4131.79487179 , 4132.30769231 , 4135.8974359 , 4186.15384615 , 4910.76923077 , 4131.79487179 , 4135.38461538 , 2042.0 , 2037.0 , 88.356 , 0.0 , 0.0 , 0.0 , 0.0 , 

63.0 , 4130.76923077 , 4130.76923077 , 4128.20512821 , 4130.25641026 , 4129.74358974 , 4127.17948718 , 4130.76923077 , 4130.76923077 , 4131.79487179 , 4135.8974359 , 4187.17948718 , 4909.74358974 , 4132.82051282 , 4135.38461538 , 2041.0 , 2038.0 , 88.362 , 0.0 , 0.0 , 0.0 , 0.0 , 

64.0 , 4131.28205128 , 4131.28205128 , 4128.71794872 , 4130.25641026 , 4127.17948718 , 4124.61538462 , 4125.64102564 , 4129.23076923 , 4128.71794872 , 4135.8974359 , 4187.69230769 , 4909.23076923 , 4131.79487179 , 4135.38461538 , 2040.0 , 2037.0 , 88.37 , 0.0 , 0.0 , 0.0 , 0.0 , 

65.0 , 4129.74358974 , 4128.20512821 , 4133.33333333 , 4128.71794872 , 4129.23076923 , 4128.20512821 , 4123.58974359 , 4131.79487179 , 4129.23076923 , 4136.41025641 , 4186.66666667 , 4910.76923077 , 4132.82051282 , 4136.41025641 , 2041.0 , 2036.0 , 88.378 , 0.0 , 0.0 , 0.0 , 0.0 , 

66.0 , 4129.74358974 , 4129.74358974 , 4131.79487179 , 4129.74358974 , 4131.28205128 , 4128.71794872 , 4128.71794872 , 4133.33333333 , 4130.25641026 , 4135.8974359 , 4188.20512821 , 4910.76923077 , 4134.35897436 , 4136.92307692 , 2041.0 , 2036.0 , 88.388 , 0.0 , 0.0 , 0.0 , 0.0 , 

67.0 , 4132.30769231 , 4132.30769231 , 4129.74358974 , 4130.25641026 , 4130.25641026 , 4127.17948718 , 4129.74358974 , 4129.23076923 , 4129.23076923 , 4135.38461538 , 4192.30769231 , 4909.74358974 , 4131.28205128 , 4135.38461538 , 2041.0 , 2035.0 , 88.392 , 0.0 , 0.0 , 0.0 , 0.0 , 

68.0 , 4132.82051282 , 4130.76923077 , 4132.30769231 , 4127.69230769 , 4128.71794872 , 4129.74358974 , 4127.17948718 , 4129.74358974 , 4131.79487179 , 4137.43589744 , 4191.28205128 , 4909.23076923 , 4127.69230769 , 4133.84615385 , 2041.0 , 2035.0 , 88.401 , 0.0 , 0.0 , 0.0 , 0.0 , 

69.0 , 4130.76923077 , 4133.33333333 , 4134.35897436 , 4127.69230769 , 4127.69230769 , 4130.76923077 , 4129.23076923 , 4133.33333333 , 4130.76923077 , 4139.48717949 , 4187.17948718 , 4910.25641026 , 4129.23076923 , 4135.8974359 , 2041.0 , 2035.0 , 88.409 , 0.0 , 0.0 , 0.0 , 0.0 , 

70.0 , 4126.66666667 , 4135.8974359 , 4127.69230769 , 4130.25641026 , 4129.23076923 , 4127.69230769 , 4131.79487179 , 4133.84615385 , 4128.20512821 , 4138.46153846 , 4185.12820513 , 4907.17948718 , 4130.76923077 , 4134.87179487 , 2041.0 , 2034.0 , 88.418 , 0.0 , 0.0 , 0.0 , 0.0 , 

71.0 , 4128.20512821 , 4132.30769231 , 4130.25641026 , 4129.74358974 , 4129.74358974 , 4126.66666667 , 4130.25641026 , 4132.82051282 , 4129.74358974 , 4137.43589744 , 4187.17948718 , 4909.74358974 , 4129.23076923 , 4134.87179487 , 2041.0 , 2034.0 , 88.425 , 0.0 , 0.0 , 0.0 , 0.0 , 

72.0 , 4128.20512821 , 4127.69230769 , 4131.28205128 , 4128.20512821 , 4129.74358974 , 4130.76923077 , 4127.69230769 , 4133.84615385 , 4131.79487179 , 4138.46153846 , 4186.15384615 , 4908.71794872 , 4128.71794872 , 4136.41025641 , 2042.0 , 2036.0 , 88.433 , 0.0 , 0.0 , 0.0 , 0.0 , 

73.0 , 4130.76923077 , 4129.23076923 , 4129.74358974 , 4131.28205128 , 4129.74358974 , 4130.76923077 , 4128.71794872 , 4132.30769231 , 4129.23076923 , 4140.0 , 4187.17948718 , 4908.20512821 , 4129.74358974 , 4136.92307692 , 2042.0 , 2036.0 , 88.544 , 0.0 , 0.0 , 0.0 , 0.0 , 

74.0 , 4133.33333333 , 4127.69230769 , 4128.20512821 , 4132.82051282 , 4130.25641026 , 4126.66666667 , 4130.25641026 , 4130.76923077 , 4130.25641026 , 4137.94871795 , 4187.69230769 , 4908.20512821 , 4130.76923077 , 4133.33333333 , 2042.0 , 2036.0 , 88.552 , 0.0 , 0.0 , 0.0 , 0.0 , 

75.0 , 4132.82051282 , 4131.28205128 , 4133.84615385 , 4131.28205128 , 4130.25641026 , 4127.69230769 , 4129.74358974 , 4129.74358974 , 4130.25641026 , 4135.38461538 , 4188.20512821 , 4912.30769231 , 4131.79487179 , 4134.87179487 , 2041.0 , 2035.0 , 88.552 , 0.0 , 0.0 , 0.0 , 0.0 , 

76.0 , 4127.69230769 , 4133.33333333 , 4129.74358974 , 4129.23076923 , 4130.25641026 , 4132.30769231 , 4127.69230769 , 4132.82051282 , 4128.20512821 , 4135.8974359 , 4187.17948718 , 4907.17948718 , 4130.76923077 , 4135.8974359 , 2042.0 , 2035.0 , 88.552 , 0.0 , 0.0 , 0.0 , 0.0 , 

77.0 , 4130.25641026 , 4130.25641026 , 4129.74358974 , 4129.23076923 , 4130.76923077 , 4131.28205128 , 4123.58974359 , 4131.79487179 , 4128.20512821 , 4137.94871795 , 4188.20512821 , 4907.17948718 , 4129.23076923 , 4136.41025641 , 2042.0 , 2033.0 , 88.552 , 0.0 , 0.0 , 0.0 , 0.0 , 

78.0 , 4131.79487179 , 4126.66666667 , 4129.23076923 , 4129.74358974 , 4131.28205128 , 4127.69230769 , 4124.1025641 , 4131.79487179 , 4132.82051282 , 4136.92307692 , 4186.66666667 , 4909.23076923 , 4128.71794872 , 4136.41025641 , 2042.0 , 2035.0 , 88.552 , 0.0 , 0.0 , 0.0 , 0.0 , 

79.0 , 4130.25641026 , 4128.20512821 , 4132.30769231 , 4128.71794872 , 4128.20512821 , 4126.15384615 , 4129.23076923 , 4133.84615385 , 4133.84615385 , 4135.38461538 , 4186.66666667 , 4910.25641026 , 4130.25641026 , 4135.8974359 , 2040.0 , 2035.0 , 88.552 , 0.0 , 0.0 , 0.0 , 0.0 , 

80.0 , 4128.20512821 , 4127.69230769 , 4131.28205128 , 4127.17948718 , 4127.69230769 , 4125.12820513 , 4130.76923077 , 4133.84615385 , 4133.33333333 , 4136.41025641 , 4188.20512821 , 4908.20512821 , 4133.33333333 , 4137.43589744 , 2040.0 , 2036.0 , 88.552 , 0.0 , 0.0 , 0.0 , 0.0 , 

81.0 , 4129.74358974 , 4127.17948718 , 4130.76923077 , 4127.69230769 , 4130.25641026 , 4123.58974359 , 4125.64102564 , 4129.74358974 , 4131.79487179 , 4136.41025641 , 4188.71794872 , 4908.20512821 , 4133.33333333 , 4141.02564103 , 2041.0 , 2036.0 , 88.552 , 0.0 , 0.0 , 0.0 , 0.0 , 

82.0 , 4130.25641026 , 4127.69230769 , 4130.25641026 , 4127.69230769 , 4130.25641026 , 4123.58974359 , 4126.15384615 , 4128.71794872 , 4131.28205128 , 4135.8974359 , 4188.71794872 , 4906.66666667 , 4131.28205128 , 4136.41025641 , 2041.0 , 2037.0 , 88.552 , 0.0 , 0.0 , 0.0 , 0.0 , 

83.0 , 4130.25641026 , 4128.71794872 , 4131.28205128 , 4127.69230769 , 4127.69230769 , 4125.12820513 , 4131.79487179 , 4131.79487179 , 4130.76923077 , 4135.8974359 , 4190.76923077 , 4908.71794872 , 4132.82051282 , 4132.82051282 , 2040.0 , 2036.0 , 88.552 , 0.0 , 0.0 , 0.0 , 0.0 , 

84.0 , 4129.74358974 , 4129.74358974 , 4130.76923077 , 4128.20512821 , 4128.20512821 , 4128.71794872 , 4131.79487179 , 4131.79487179 , 4131.28205128 , 4135.8974359 , 4188.71794872 , 4911.79487179 , 4131.79487179 , 4136.92307692 , 2041.0 , 2035.0 , 88.552 , 0.0 , 0.0 , 0.0 , 0.0 , 

85.0 , 4129.74358974 , 4129.74358974 , 4130.25641026 , 4130.25641026 , 4127.69230769 , 4127.69230769 , 4127.17948718 , 4131.79487179 , 4130.25641026 , 4135.8974359 , 4184.1025641 , 4909.74358974 , 4128.71794872 , 4136.92307692 , 2043.0 , 2035.0 , 88.552 , 0.0 , 0.0 , 0.0 , 0.0 , 

86.0 , 4130.76923077 , 4129.23076923 , 4131.28205128 , 4132.82051282 , 4127.69230769 , 4128.20512821 , 4128.20512821 , 4132.30769231 , 4130.76923077 , 4135.8974359 , 4186.66666667 , 4909.74358974 , 4130.25641026 , 4133.84615385 , 2041.0 , 2036.0 , 88.552 , 0.0 , 0.0 , 0.0 , 0.0 , 

87.0 , 4130.76923077 , 4128.71794872 , 4129.23076923 , 4131.28205128 , 4128.20512821 , 4131.79487179 , 4130.76923077 , 4132.30769231 , 4134.87179487 , 4136.41025641 , 4192.30769231 , 4908.71794872 , 4133.33333333 , 4133.84615385 , 2042.0 , 2035.0 , 88.557 , 0.0 , 0.0 , 0.0 , 0.0 , 

88.0 , 4132.30769231 , 4127.69230769 , 4131.79487179 , 4129.74358974 , 4127.17948718 , 4130.25641026 , 4130.25641026 , 4129.74358974 , 4131.28205128 , 4135.8974359 , 4189.23076923 , 4908.71794872 , 4133.84615385 , 4135.8974359 , 2040.0 , 2035.0 , 88.56 , 0.0 , 0.0 , 0.0 , 0.0 , 

89.0 , 4132.30769231 , 4126.66666667 , 4130.25641026 , 4129.74358974 , 4128.20512821 , 4127.17948718 , 4128.20512821 , 4129.74358974 , 4127.69230769 , 4135.8974359 , 4186.15384615 , 4908.71794872 , 4132.82051282 , 4136.41025641 , 2042.0 , 2034.0 , 88.567 , 0.0 , 0.0 , 0.0 , 0.0 , 

90.0 , 4131.79487179 , 4126.66666667 , 4130.76923077 , 4130.76923077 , 4128.71794872 , 4128.20512821 , 4129.23076923 , 4130.76923077 , 4130.76923077 , 4136.92307692 , 4189.74358974 , 4911.79487179 , 4130.76923077 , 4137.94871795 , 2040.0 , 2036.0 , 88.575 , 0.0 , 0.0 , 0.0 , 0.0 , 

91.0 , 4128.20512821 , 4126.15384615 , 4129.23076923 , 4130.25641026 , 4128.71794872 , 4128.71794872 , 4128.71794872 , 4131.79487179 , 4132.82051282 , 4136.92307692 , 4188.71794872 , 4906.66666667 , 4130.76923077 , 4136.41025641 , 2041.0 , 2034.0 , 88.586 , 0.0 , 0.0 , 0.0 , 0.0 , 

92.0 , 4130.25641026 , 4131.79487179 , 4133.33333333 , 4130.76923077 , 4127.17948718 , 4127.17948718 , 4127.17948718 , 4130.25641026 , 4130.76923077 , 4135.8974359 , 4187.69230769 , 4908.20512821 , 4131.79487179 , 4136.41025641 , 2041.0 , 2034.0 , 88.591 , 0.0 , 0.0 , 0.0 , 0.0 , 

93.0 , 4129.74358974 , 4130.25641026 , 4131.28205128 , 4130.76923077 , 4128.71794872 , 4127.17948718 , 4127.69230769 , 4130.25641026 , 4132.82051282 , 4136.41025641 , 4189.74358974 , 4909.74358974 , 4131.28205128 , 4134.87179487 , 2041.0 , 2035.0 , 88.599 , 0.0 , 0.0 , 0.0 , 0.0 , 

94.0 , 4128.20512821 , 4124.1025641 , 4131.28205128 , 4129.23076923 , 4131.79487179 , 4128.20512821 , 4127.17948718 , 4129.74358974 , 4133.33333333 , 4137.94871795 , 4190.25641026 , 4911.28205128 , 4131.79487179 , 4135.8974359 , 2042.0 , 2034.0 , 88.606 , 0.0 , 0.0 , 0.0 , 0.0 , 

95.0 , 4129.23076923 , 4123.58974359 , 4130.76923077 , 4129.23076923 , 4131.79487179 , 4128.20512821 , 4124.1025641 , 4132.30769231 , 4132.30769231 , 4137.43589744 , 4185.12820513 , 4907.69230769 , 4130.76923077 , 4135.8974359 , 2041.0 , 2036.0 , 88.615 , 0.0 , 0.0 , 0.0 , 0.0 , 

96.0 , 4130.76923077 , 4130.25641026 , 4135.38461538 , 4131.28205128 , 4129.74358974 , 4126.15384615 , 4125.12820513 , 4132.82051282 , 4131.79487179 , 4137.43589744 , 4185.64102564 , 4907.17948718 , 4129.74358974 , 4134.87179487 , 2042.0 , 2035.0 , 88.622 , 0.0 , 0.0 , 0.0 , 0.0 , 

97.0 , 4126.66666667 , 4130.25641026 , 4134.35897436 , 4131.79487179 , 4129.74358974 , 4125.12820513 , 4127.69230769 , 4130.25641026 , 4131.79487179 , 4137.94871795 , 4186.66666667 , 4907.69230769 , 4130.76923077 , 4133.84615385 , 2042.0 , 2034.0 , 88.63 , 0.0 , 0.0 , 0.0 , 0.0 , 

98.0 , 4130.76923077 , 4129.23076923 , 4129.74358974 , 4130.76923077 , 4130.76923077 , 4128.20512821 , 4127.17948718 , 4128.71794872 , 4129.23076923 , 4137.94871795 , 4187.69230769 , 4912.30769231 , 4132.82051282 , 4135.38461538 , 2042.0 , 2036.0 , 88.638 , 0.0 , 0.0 , 0.0 , 0.0 , 

99.0 , 4136.92307692 , 4129.23076923 , 4128.20512821 , 4132.82051282 , 4128.20512821 , 4129.74358974 , 4125.12820513 , 4131.79487179 , 4131.28205128 , 4137.43589744 , 4187.69230769 , 4908.20512821 , 4130.76923077 , 4133.84615385 , 2041.0 , 2035.0 , 88.647 , 0.0 , 0.0 , 0.0 , 0.0 , 

100.0 , 4133.84615385 , 4128.71794872 , 4132.82051282 , 4133.84615385 , 4128.20512821 , 4128.20512821 , 4124.61538462 , 4130.76923077 , 4134.87179487 , 4137.94871795 , 4187.17948718 , 4905.64102564 , 4131.28205128 , 4134.35897436 , 2042.0 , 2034.0 , 88.654 , 0.0 , 0.0 , 0.0 , 0.0 , 

101.0 , 4129.23076923 , 4129.23076923 , 4129.74358974 , 4131.28205128 , 4131.28205128 , 4129.23076923 , 4124.61538462 , 4128.71794872 , 4135.38461538 , 4136.92307692 , 4185.12820513 , 4908.71794872 , 4133.33333333 , 4137.43589744 , 2042.0 , 2035.0 , 88.661 , 0.0 , 0.0 , 0.0 , 0.0 , 

102.0 , 4129.74358974 , 4129.23076923 , 4126.15384615 , 4131.79487179 , 4130.76923077 , 4129.74358974 , 4124.61538462 , 4131.79487179 , 4133.33333333 , 4135.8974359 , 4184.1025641 , 4910.76923077 , 4131.79487179 , 4134.87179487 , 2041.0 , 2035.0 , 88.669 , 0.0 , 0.0 , 0.0 , 0.0 , 

103.0 , 4130.25641026 , 4127.69230769 , 4130.25641026 , 4133.33333333 , 4128.71794872 , 4129.23076923 , 4124.61538462 , 4131.79487179 , 4131.28205128 , 4136.92307692 , 4187.17948718 , 4909.74358974 , 4130.76923077 , 4132.30769231 , 2042.0 , 2035.0 , 88.678 , 0.0 , 0.0 , 0.0 , 0.0 , 

104.0 , 4129.23076923 , 4128.71794872 , 4132.82051282 , 4128.71794872 , 4130.25641026 , 4129.23076923 , 4126.15384615 , 4128.71794872 , 4133.84615385 , 4137.43589744 , 4190.25641026 , 4909.23076923 , 4133.84615385 , 4137.94871795 , 2042.0 , 2036.0 , 88.686 , 0.0 , 0.0 , 0.0 , 0.0 , 

105.0 , 4130.25641026 , 4131.79487179 , 4133.33333333 , 4126.15384615 , 4131.28205128 , 4127.17948718 , 4127.69230769 , 4130.25641026 , 4134.35897436 , 4135.8974359 , 4186.66666667 , 4910.25641026 , 4133.84615385 , 4141.53846154 , 2041.0 , 2036.0 , 88.693 , 0.0 , 0.0 , 0.0 , 0.0 , 

106.0 , 4130.25641026 , 4129.74358974 , 4130.76923077 , 4128.20512821 , 4126.66666667 , 4126.66666667 , 4126.15384615 , 4132.30769231 , 4130.76923077 , 4135.8974359 , 4183.58974359 , 4908.20512821 , 4128.20512821 , 4137.94871795 , 2042.0 , 2036.0 , 88.701 , 0.0 , 0.0 , 0.0 , 0.0 , 

107.0 , 4130.25641026 , 4127.69230769 , 4130.76923077 , 4130.25641026 , 4126.15384615 , 4127.69230769 , 4127.17948718 , 4131.28205128 , 4127.69230769 , 4136.41025641 , 4187.69230769 , 4908.71794872 , 4129.74358974 , 4136.92307692 , 2042.0 , 2035.0 , 88.711 , 0.0 , 0.0 , 0.0 , 0.0 , 

108.0 , 4129.23076923 , 4128.71794872 , 4128.71794872 , 4131.79487179 , 4129.23076923 , 4127.69230769 , 4129.74358974 , 4133.84615385 , 4131.28205128 , 4135.8974359 , 4187.17948718 , 4906.66666667 , 4132.30769231 , 4135.8974359 , 2041.0 , 2036.0 , 88.717 , 0.0 , 0.0 , 0.0 , 0.0 , 

109.0 , 4132.82051282 , 4131.79487179 , 4131.28205128 , 4133.33333333 , 4128.71794872 , 4128.71794872 , 4127.69230769 , 4133.33333333 , 4132.82051282 , 4135.8974359 , 4185.12820513 , 4908.20512821 , 4129.74358974 , 4134.35897436 , 2041.0 , 2036.0 , 88.724 , 0.0 , 0.0 , 0.0 , 0.0 , 

110.0 , 4132.30769231 , 4129.74358974 , 4127.69230769 , 4131.79487179 , 4128.20512821 , 4130.25641026 , 4127.69230769 , 4131.28205128 , 4131.28205128 , 4135.8974359 , 4188.20512821 , 4905.64102564 , 4129.23076923 , 4132.82051282 , 2042.0 , 2036.0 , 88.732 , 0.0 , 0.0 , 0.0 , 0.0 , 

111.0 , 4130.76923077 , 4128.20512821 , 4129.23076923 , 4130.25641026 , 4128.71794872 , 4128.20512821 , 4128.71794872 , 4129.23076923 , 4130.76923077 , 4135.8974359 , 4190.76923077 , 4908.20512821 , 4132.82051282 , 4133.84615385 , 2043.0 , 2036.0 , 88.74 , 0.0 , 0.0 , 0.0 , 0.0 , 

112.0 , 4131.28205128 , 4127.17948718 , 4130.76923077 , 4129.74358974 , 4127.69230769 , 4124.1025641 , 4125.12820513 , 4129.74358974 , 4132.30769231 , 4135.8974359 , 4187.17948718 , 4908.20512821 , 4132.82051282 , 4134.35897436 , 2042.0 , 2034.0 , 88.748 , 0.0 , 0.0 , 0.0 , 0.0 , 

113.0 , 4135.38461538 , 4127.69230769 , 4133.84615385 , 4129.74358974 , 4127.17948718 , 4124.1025641 , 4124.61538462 , 4130.25641026 , 4130.76923077 , 4135.8974359 , 4186.66666667 , 4909.74358974 , 4130.25641026 , 4134.35897436 , 2042.0 , 2035.0 , 88.756 , 0.0 , 0.0 , 0.0 , 0.0 , 

114.0 , 4131.79487179 , 4126.15384615 , 4130.76923077 , 4128.20512821 , 4128.71794872 , 4128.20512821 , 4130.76923077 , 4132.30769231 , 4129.23076923 , 4135.8974359 , 4186.15384615 , 4907.69230769 , 4130.76923077 , 4133.84615385 , 2041.0 , 2035.0 , 88.764 , 0.0 , 0.0 , 0.0 , 0.0 , 

115.0 , 4128.20512821 , 4128.20512821 , 4133.33333333 , 4127.69230769 , 4126.66666667 , 4129.23076923 , 4130.76923077 , 4131.79487179 , 4129.74358974 , 4135.8974359 , 4188.20512821 , 4908.71794872 , 4131.79487179 , 4136.92307692 , 2042.0 , 2037.0 , 88.803 , 0.0 , 0.0 , 0.0 , 0.0 , 

116.0 , 4129.74358974 , 4129.23076923 , 4131.79487179 , 4128.71794872 , 4126.15384615 , 4127.69230769 , 4124.1025641 , 4129.74358974 , 4129.23076923 , 4135.8974359 , 4190.76923077 , 4906.66666667 , 4128.71794872 , 4138.46153846 , 2042.0 , 2036.0 , 88.805 , 0.0 , 0.0 , 0.0 , 0.0 , 

117.0 , 4132.30769231 , 4128.71794872 , 4130.76923077 , 4130.76923077 , 4129.23076923 , 4128.71794872 , 4124.61538462 , 4129.23076923 , 4127.17948718 , 4135.8974359 , 4190.25641026 , 4908.71794872 , 4126.66666667 , 4137.94871795 , 2040.0 , 2035.0 , 88.805 , 0.0 , 0.0 , 0.0 , 0.0 , 

118.0 , 4128.20512821 , 4126.15384615 , 4130.25641026 , 4130.25641026 , 4129.74358974 , 4132.30769231 , 4127.69230769 , 4131.28205128 , 4132.30769231 , 4135.8974359 , 4189.74358974 , 4909.23076923 , 4130.76923077 , 4136.92307692 , 2040.0 , 2035.0 , 88.805 , 0.0 , 0.0 , 0.0 , 0.0 , 

119.0 , 4129.74358974 , 4126.15384615 , 4130.25641026 , 4129.23076923 , 4129.74358974 , 4129.74358974 , 4125.64102564 , 4131.28205128 , 4136.41025641 , 4135.8974359 , 4191.28205128 , 4908.20512821 , 4132.30769231 , 4136.92307692 , 2041.0 , 2036.0 , 88.805 , 0.0 , 0.0 , 0.0 , 0.0 , 

120.0 , 4135.8974359 , 4129.23076923 , 4129.74358974 , 4130.76923077 , 4131.79487179 , 4127.69230769 , 4125.64102564 , 4129.23076923 , 4132.30769231 , 4135.8974359 , 4190.25641026 , 4908.71794872 , 4127.17948718 , 4137.43589744 , 2041.0 , 2037.0 , 88.814 , 0.0 , 0.0 , 0.0 , 0.0 , 

121.0 , 4133.33333333 , 4130.76923077 , 4130.76923077 , 4131.79487179 , 4131.28205128 , 4128.20512821 , 4127.17948718 , 4130.76923077 , 4131.28205128 , 4135.8974359 , 4188.71794872 , 4908.20512821 , 4127.17948718 , 4137.43589744 , 2042.0 , 2036.0 , 88.819 , 0.0 , 0.0 , 0.0 , 0.0 , 

122.0 , 4127.17948718 , 4129.74358974 , 4132.82051282 , 4131.28205128 , 4129.74358974 , 4126.66666667 , 4127.69230769 , 4133.84615385 , 4134.35897436 , 4135.8974359 , 4189.74358974 , 4905.12820513 , 4131.28205128 , 4136.41025641 , 2040.0 , 2036.0 , 88.827 , 0.0 , 0.0 , 0.0 , 0.0 , 

123.0 , 4129.74358974 , 4128.71794872 , 4131.28205128 , 4130.76923077 , 4130.76923077 , 4127.69230769 , 4127.69230769 , 4131.28205128 , 4132.82051282 , 4135.8974359 , 4188.71794872 , 4903.58974359 , 4129.23076923 , 4136.41025641 , 2042.0 , 2035.0 , 88.834 , 0.0 , 0.0 , 0.0 , 0.0 , 

124.0 , 4135.8974359 , 4130.25641026 , 4132.30769231 , 4130.76923077 , 4130.76923077 , 4128.71794872 , 4128.71794872 , 4128.20512821 , 4131.28205128 , 4135.8974359 , 4189.23076923 , 4907.17948718 , 4129.23076923 , 4136.92307692 , 2040.0 , 2035.0 , 88.844 , 0.0 , 0.0 , 0.0 , 0.0 , 

125.0 , 4132.30769231 , 4130.76923077 , 4128.71794872 , 4128.20512821 , 4129.74358974 , 4128.20512821 , 4127.69230769 , 4131.28205128 , 4133.84615385 , 4135.8974359 , 4189.23076923 , 4907.17948718 , 4131.79487179 , 4133.84615385 , 2040.0 , 2035.0 , 88.85 , 0.0 , 0.0 , 0.0 , 0.0 , 

126.0 , 4128.71794872 , 4130.25641026 , 4129.74358974 , 4127.17948718 , 4130.25641026 , 4128.20512821 , 4127.69230769 , 4130.76923077 , 4132.82051282 , 4135.8974359 , 4191.79487179 , 4908.71794872 , 4130.76923077 , 4135.38461538 , 2042.0 , 2037.0 , 88.858 , 0.0 , 0.0 , 0.0 , 0.0 , 

127.0 , 4129.23076923 , 4128.71794872 , 4130.76923077 , 4128.71794872 , 4131.28205128 , 4128.20512821 , 4129.23076923 , 4128.20512821 , 4132.30769231 , 4135.8974359 , 4193.33333333 , 4908.20512821 , 4129.74358974 , 4136.92307692 , 2041.0 , 2036.0 , 88.866 , 0.0 , 0.0 , 0.0 , 0.0 , 

128.0 , 4132.30769231 , 4129.74358974 , 4132.30769231 , 4129.74358974 , 4129.74358974 , 4126.15384615 , 4127.69230769 , 4130.25641026 , 4131.79487179 , 4135.8974359 , 4189.74358974 , 4909.23076923 , 4132.30769231 , 4137.94871795 , 2042.0 , 2035.0 , 88.876 , 0.0 , 0.0 , 0.0 , 0.0 , 

0.0 , 4130.25641026 , 4128.71794872 , 4127.69230769 , 4128.71794872 , 4127.17948718 , 4127.69230769 , 4127.17948718 , 4133.84615385 , 4131.28205128 , 4135.8974359 , 4186.66666667 , 4905.12820513 , 4131.28205128 , 4135.8974359 , 2041.0 , 2035.0 , 88.881 , 0.0 , 0.0 , 0.0 , 0.0 , 

