['COUNTER', 'AF3', 'F7', 'F3', 'FC5', 'T7', 'P7', 'O1', 'O2', 'P8', 'T8', 'FC6', 'F4', 'F8', 'AF4', 'GYROX', 'GYROY', 'TIMESTAMP', 'FUNC_ID', 'FUNC_VALUE', 'MARKER', 'SYNC_SIGNAL']
92.0 , 4132.82051282 , 4131.79487179 , 4132.82051282 , 4136.41025641 , 4127.69230769 , 4131.79487179 , 4132.82051282 , 4132.82051282 , 4132.30769231 , 4137.94871795 , 4184.61538462 , 4910.76923077 , 4133.84615385 , 4140.51282051 , 2041.0 , 2034.0 , 10.554 , 0.0 , 0.0 , 0.0 , 0.0 , 

93.0 , 4131.28205128 , 4133.33333333 , 4133.84615385 , 4133.33333333 , 4131.79487179 , 4129.23076923 , 4124.61538462 , 4134.35897436 , 4133.84615385 , 4137.94871795 , 4191.79487179 , 4909.74358974 , 4132.30769231 , 4140.0 , 2041.0 , 2037.0 , 10.562 , 0.0 , 0.0 , 0.0 , 0.0 , 

94.0 , 4130.76923077 , 4133.33333333 , 4133.33333333 , 4131.79487179 , 4128.71794872 , 4128.71794872 , 4127.17948718 , 4134.35897436 , 4132.82051282 , 4135.8974359 , 4191.79487179 , 4911.79487179 , 4132.30769231 , 4140.0 , 2041.0 , 2036.0 , 10.57 , 0.0 , 0.0 , 0.0 , 0.0 , 

95.0 , 4128.20512821 , 4130.25641026 , 4130.76923077 , 4131.28205128 , 4126.15384615 , 4128.71794872 , 4136.92307692 , 4136.92307692 , 4133.33333333 , 4136.41025641 , 4186.66666667 , 4910.25641026 , 4134.87179487 , 4138.46153846 , 2041.0 , 2037.0 , 10.578 , 0.0 , 0.0 , 0.0 , 0.0 , 

96.0 , 4132.30769231 , 4131.28205128 , 4135.38461538 , 4131.79487179 , 4131.28205128 , 4129.23076923 , 4134.87179487 , 4137.43589744 , 4134.35897436 , 4137.94871795 , 4187.69230769 , 4909.74358974 , 4137.94871795 , 4140.51282051 , 2041.0 , 2037.0 , 10.586 , 0.0 , 0.0 , 0.0 , 0.0 , 

97.0 , 4132.82051282 , 4130.76923077 , 4131.79487179 , 4132.82051282 , 4135.8974359 , 4129.23076923 , 4129.23076923 , 4133.33333333 , 4135.8974359 , 4138.46153846 , 4189.23076923 , 4906.15384615 , 4134.87179487 , 4138.46153846 , 2041.0 , 2036.0 , 10.594 , 0.0 , 0.0 , 0.0 , 0.0 , 

98.0 , 4130.25641026 , 4130.76923077 , 4129.74358974 , 4133.84615385 , 4129.23076923 , 4129.23076923 , 4130.25641026 , 4129.74358974 , 4134.87179487 , 4138.46153846 , 4189.74358974 , 4907.17948718 , 4131.79487179 , 4137.43589744 , 2041.0 , 2035.0 , 10.601 , 0.0 , 0.0 , 0.0 , 0.0 , 

99.0 , 4128.71794872 , 4130.76923077 , 4130.25641026 , 4134.35897436 , 4130.25641026 , 4130.25641026 , 4130.76923077 , 4131.79487179 , 4132.30769231 , 4138.97435897 , 4190.76923077 , 4907.69230769 , 4134.35897436 , 4138.46153846 , 2041.0 , 2033.0 , 10.609 , 0.0 , 0.0 , 0.0 , 0.0 , 

100.0 , 4131.79487179 , 4133.84615385 , 4132.82051282 , 4134.35897436 , 4132.30769231 , 4130.25641026 , 4128.71794872 , 4133.84615385 , 4130.25641026 , 4137.94871795 , 4190.76923077 , 4908.20512821 , 4135.8974359 , 4137.43589744 , 2042.0 , 2034.0 , 10.617 , 0.0 , 0.0 , 0.0 , 0.0 , 

101.0 , 4129.74358974 , 4132.82051282 , 4131.79487179 , 4132.82051282 , 4128.20512821 , 4126.66666667 , 4128.71794872 , 4132.30769231 , 4133.33333333 , 4135.8974359 , 4189.74358974 , 4907.69230769 , 4135.38461538 , 4136.41025641 , 2042.0 , 2034.0 , 10.625 , 0.0 , 0.0 , 0.0 , 0.0 , 

102.0 , 4130.25641026 , 4131.28205128 , 4132.30769231 , 4133.33333333 , 4128.71794872 , 4128.20512821 , 4130.25641026 , 4131.28205128 , 4135.38461538 , 4136.41025641 , 4190.25641026 , 4908.20512821 , 4136.41025641 , 4139.48717949 , 2041.0 , 2035.0 , 10.634 , 0.0 , 0.0 , 0.0 , 0.0 , 

103.0 , 4132.30769231 , 4130.76923077 , 4131.79487179 , 4133.84615385 , 4133.33333333 , 4131.28205128 , 4130.76923077 , 4131.79487179 , 4132.82051282 , 4137.94871795 , 4191.79487179 , 4908.20512821 , 4135.8974359 , 4139.48717949 , 2041.0 , 2034.0 , 10.642 , 0.0 , 0.0 , 0.0 , 0.0 , 

104.0 , 4130.25641026 , 4130.76923077 , 4130.25641026 , 4131.28205128 , 4131.28205128 , 4130.76923077 , 4128.71794872 , 4133.84615385 , 4131.79487179 , 4136.41025641 , 4190.25641026 , 4909.74358974 , 4134.87179487 , 4135.8974359 , 2042.0 , 2036.0 , 10.65 , 0.0 , 0.0 , 0.0 , 0.0 , 

105.0 , 4130.76923077 , 4130.76923077 , 4132.82051282 , 4131.28205128 , 4127.69230769 , 4129.74358974 , 4130.76923077 , 4132.30769231 , 4130.76923077 , 4135.38461538 , 4190.76923077 , 4909.74358974 , 4135.8974359 , 4137.94871795 , 2040.0 , 2037.0 , 10.657 , 0.0 , 0.0 , 0.0 , 0.0 , 

106.0 , 4134.35897436 , 4129.74358974 , 4132.30769231 , 4132.82051282 , 4131.79487179 , 4127.17948718 , 4131.28205128 , 4131.28205128 , 4130.76923077 , 4136.92307692 , 4192.82051282 , 4908.71794872 , 4137.94871795 , 4140.0 , 2041.0 , 2035.0 , 10.664 , 0.0 , 0.0 , 0.0 , 0.0 , 

107.0 , 4132.30769231 , 4131.28205128 , 4133.33333333 , 4132.82051282 , 4134.87179487 , 4124.61538462 , 4124.61538462 , 4130.76923077 , 4131.28205128 , 4136.92307692 , 4192.82051282 , 4912.30769231 , 4135.8974359 , 4138.46153846 , 2042.0 , 2035.0 , 10.672 , 0.0 , 0.0 , 0.0 , 0.0 , 

108.0 , 4126.15384615 , 4132.30769231 , 4131.28205128 , 4131.28205128 , 4131.79487179 , 4127.69230769 , 4126.15384615 , 4129.74358974 , 4131.79487179 , 4135.8974359 , 4190.76923077 , 4910.25641026 , 4132.82051282 , 4136.92307692 , 2042.0 , 2034.0 , 10.68 , 0.0 , 0.0 , 0.0 , 0.0 , 

109.0 , 4131.79487179 , 4133.33333333 , 4132.30769231 , 4134.35897436 , 4126.66666667 , 4131.28205128 , 4133.33333333 , 4132.82051282 , 4131.28205128 , 4135.8974359 , 4190.76923077 , 4908.71794872 , 4134.35897436 , 4138.97435897 , 2041.0 , 2034.0 , 10.688 , 0.0 , 0.0 , 0.0 , 0.0 , 

110.0 , 4133.33333333 , 4129.74358974 , 4131.79487179 , 4134.35897436 , 4128.20512821 , 4130.25641026 , 4131.28205128 , 4136.92307692 , 4132.30769231 , 4137.94871795 , 4192.30769231 , 4907.69230769 , 4137.43589744 , 4138.46153846 , 2043.0 , 2036.0 , 10.696 , 0.0 , 0.0 , 0.0 , 0.0 , 

111.0 , 4132.30769231 , 4129.23076923 , 4136.92307692 , 4129.23076923 , 4133.84615385 , 4130.25641026 , 4127.17948718 , 4133.84615385 , 4132.30769231 , 4138.97435897 , 4191.79487179 , 4909.74358974 , 4134.87179487 , 4139.48717949 , 2040.0 , 2036.0 , 10.704 , 0.0 , 0.0 , 0.0 , 0.0 , 

112.0 , 4131.79487179 , 4131.79487179 , 4131.79487179 , 4129.23076923 , 4133.33333333 , 4129.74358974 , 4128.71794872 , 4130.76923077 , 4132.30769231 , 4138.97435897 , 4187.69230769 , 4908.71794872 , 4134.35897436 , 4140.0 , 2042.0 , 2037.0 , 10.712 , 0.0 , 0.0 , 0.0 , 0.0 , 

113.0 , 4135.8974359 , 4135.38461538 , 4131.28205128 , 4134.87179487 , 4128.20512821 , 4129.23076923 , 4128.71794872 , 4132.82051282 , 4131.79487179 , 4138.46153846 , 4187.17948718 , 4910.25641026 , 4137.94871795 , 4142.05128205 , 2042.0 , 2034.0 , 10.72 , 0.0 , 0.0 , 0.0 , 0.0 , 

114.0 , 4133.33333333 , 4132.82051282 , 4131.79487179 , 4131.79487179 , 4128.71794872 , 4130.76923077 , 4132.82051282 , 4132.82051282 , 4132.30769231 , 4137.43589744 , 4190.25641026 , 4907.69230769 , 4137.43589744 , 4139.48717949 , 2042.0 , 2035.0 , 10.727 , 0.0 , 0.0 , 0.0 , 0.0 , 

115.0 , 4132.82051282 , 4132.30769231 , 4132.30769231 , 4130.25641026 , 4129.23076923 , 4130.76923077 , 4137.43589744 , 4131.28205128 , 4131.28205128 , 4137.94871795 , 4191.79487179 , 4907.69230769 , 4135.38461538 , 4137.43589744 , 2042.0 , 2036.0 , 10.735 , 0.0 , 0.0 , 0.0 , 0.0 , 

116.0 , 4133.33333333 , 4131.79487179 , 4131.28205128 , 4133.84615385 , 4130.76923077 , 4130.25641026 , 4131.79487179 , 4136.41025641 , 4132.30769231 , 4137.94871795 , 4189.23076923 , 4906.15384615 , 4136.41025641 , 4135.8974359 , 2041.0 , 2035.0 , 10.743 , 0.0 , 0.0 , 0.0 , 0.0 , 

117.0 , 4134.87179487 , 4131.79487179 , 4136.41025641 , 4133.84615385 , 4129.23076923 , 4130.76923077 , 4126.66666667 , 4137.43589744 , 4132.82051282 , 4135.8974359 , 4189.23076923 , 4907.69230769 , 4134.87179487 , 4138.97435897 , 2041.0 , 2035.0 , 10.751 , 0.0 , 0.0 , 0.0 , 0.0 , 

118.0 , 4131.28205128 , 4130.25641026 , 4134.35897436 , 4130.25641026 , 4127.17948718 , 4129.23076923 , 4131.79487179 , 4133.33333333 , 4134.35897436 , 4134.87179487 , 4191.28205128 , 4910.25641026 , 4134.87179487 , 4140.0 , 2042.0 , 2036.0 , 10.759 , 0.0 , 0.0 , 0.0 , 0.0 , 

119.0 , 4131.28205128 , 4131.79487179 , 4131.79487179 , 4130.25641026 , 4128.71794872 , 4128.71794872 , 4130.25641026 , 4133.84615385 , 4132.82051282 , 4136.41025641 , 4190.25641026 , 4912.82051282 , 4136.92307692 , 4138.46153846 , 2041.0 , 2036.0 , 10.767 , 0.0 , 0.0 , 0.0 , 0.0 , 

120.0 , 4133.84615385 , 4130.76923077 , 4131.79487179 , 4131.79487179 , 4132.30769231 , 4130.25641026 , 4122.56410256 , 4135.8974359 , 4132.30769231 , 4136.92307692 , 4188.71794872 , 4909.74358974 , 4136.41025641 , 4138.46153846 , 2041.0 , 2035.0 , 10.775 , 0.0 , 0.0 , 0.0 , 0.0 , 

121.0 , 4133.33333333 , 4130.25641026 , 4132.30769231 , 4132.82051282 , 4129.74358974 , 4130.76923077 , 4127.69230769 , 4132.30769231 , 4134.87179487 , 4136.92307692 , 4190.76923077 , 4908.20512821 , 4135.38461538 , 4138.97435897 , 2042.0 , 2036.0 , 10.783 , 0.0 , 0.0 , 0.0 , 0.0 , 

122.0 , 4131.28205128 , 4131.79487179 , 4130.76923077 , 4131.28205128 , 4127.69230769 , 4129.74358974 , 4135.8974359 , 4132.30769231 , 4133.33333333 , 4137.94871795 , 4191.28205128 , 4909.23076923 , 4133.84615385 , 4138.46153846 , 2042.0 , 2037.0 , 10.791 , 0.0 , 0.0 , 0.0 , 0.0 , 

123.0 , 4130.76923077 , 4132.30769231 , 4128.20512821 , 4127.69230769 , 4129.74358974 , 4128.20512821 , 4135.38461538 , 4135.8974359 , 4130.76923077 , 4137.43589744 , 4188.71794872 , 4909.74358974 , 4133.33333333 , 4139.48717949 , 2042.0 , 2035.0 , 10.798 , 0.0 , 0.0 , 0.0 , 0.0 , 

124.0 , 4129.74358974 , 4130.76923077 , 4128.71794872 , 4128.71794872 , 4130.25641026 , 4128.20512821 , 4133.33333333 , 4135.38461538 , 4130.25641026 , 4135.8974359 , 4189.23076923 , 4910.76923077 , 4134.35897436 , 4139.48717949 , 2040.0 , 2035.0 , 10.805 , 0.0 , 0.0 , 0.0 , 0.0 , 

125.0 , 4128.20512821 , 4129.23076923 , 4130.76923077 , 4128.71794872 , 4130.76923077 , 4130.25641026 , 4135.8974359 , 4134.35897436 , 4131.79487179 , 4135.8974359 , 4191.28205128 , 4910.25641026 , 4135.38461538 , 4137.43589744 , 2042.0 , 2036.0 , 10.814 , 0.0 , 0.0 , 0.0 , 0.0 , 

126.0 , 4131.28205128 , 4131.28205128 , 4133.84615385 , 4128.20512821 , 4130.76923077 , 4130.76923077 , 4136.41025641 , 4135.38461538 , 4130.76923077 , 4136.92307692 , 4190.76923077 , 4910.25641026 , 4133.33333333 , 4138.97435897 , 2041.0 , 2036.0 , 10.822 , 0.0 , 0.0 , 0.0 , 0.0 , 

127.0 , 4130.25641026 , 4129.74358974 , 4131.79487179 , 4130.76923077 , 4130.25641026 , 4127.69230769 , 4134.87179487 , 4135.8974359 , 4131.28205128 , 4137.94871795 , 4189.23076923 , 4910.25641026 , 4133.84615385 , 4141.53846154 , 2041.0 , 2034.0 , 10.83 , 0.0 , 0.0 , 0.0 , 0.0 , 

128.0 , 4132.30769231 , 4128.71794872 , 4134.35897436 , 4133.33333333 , 4130.76923077 , 4128.71794872 , 4134.87179487 , 4132.30769231 , 4130.76923077 , 4136.92307692 , 4190.25641026 , 4911.28205128 , 4136.41025641 , 4141.02564103 , 2042.0 , 2034.0 , 10.838 , 0.0 , 0.0 , 0.0 , 0.0 , 

0.0 , 4131.28205128 , 4127.69230769 , 4132.30769231 , 4130.25641026 , 4131.28205128 , 4131.28205128 , 4133.84615385 , 4132.30769231 , 4132.30769231 , 4136.41025641 , 4191.79487179 , 4905.64102564 , 4135.8974359 , 4137.43589744 , 2042.0 , 2035.0 , 10.846 , 0.0 , 0.0 , 0.0 , 0.0 , 

1.0 , 4131.79487179 , 4129.74358974 , 4131.28205128 , 4131.28205128 , 4127.69230769 , 4129.74358974 , 4134.35897436 , 4132.82051282 , 4133.84615385 , 4137.43589744 , 4191.79487179 , 4907.17948718 , 4135.38461538 , 4137.94871795 , 2041.0 , 2035.0 , 10.854 , 0.0 , 0.0 , 0.0 , 0.0 , 

2.0 , 4133.33333333 , 4129.23076923 , 4129.23076923 , 4135.38461538 , 4127.17948718 , 4126.15384615 , 4134.35897436 , 4132.82051282 , 4135.38461538 , 4137.43589744 , 4191.28205128 , 4909.74358974 , 4136.92307692 , 4138.46153846 , 2041.0 , 2035.0 , 10.861 , 0.0 , 0.0 , 0.0 , 0.0 , 

3.0 , 4136.41025641 , 4132.30769231 , 4135.38461538 , 4133.84615385 , 4129.23076923 , 4127.69230769 , 4134.35897436 , 4130.76923077 , 4133.84615385 , 4136.41025641 , 4190.76923077 , 4910.76923077 , 4137.43589744 , 4142.05128205 , 2041.0 , 2035.0 , 10.869 , 0.0 , 0.0 , 0.0 , 0.0 , 

4.0 , 4130.76923077 , 4130.25641026 , 4133.84615385 , 4130.25641026 , 4130.25641026 , 4129.23076923 , 4134.35897436 , 4132.30769231 , 4132.82051282 , 4135.38461538 , 4189.74358974 , 4908.71794872 , 4135.38461538 , 4140.51282051 , 2041.0 , 2036.0 , 10.877 , 0.0 , 0.0 , 0.0 , 0.0 , 

5.0 , 4131.28205128 , 4128.71794872 , 4130.76923077 , 4131.28205128 , 4128.71794872 , 4129.23076923 , 4134.35897436 , 4132.82051282 , 4130.76923077 , 4134.87179487 , 4189.74358974 , 4911.79487179 , 4135.38461538 , 4140.0 , 2042.0 , 2035.0 , 10.886 , 0.0 , 0.0 , 0.0 , 0.0 , 

6.0 , 4131.28205128 , 4127.69230769 , 4127.17948718 , 4131.28205128 , 4131.28205128 , 4128.20512821 , 4134.35897436 , 4131.28205128 , 4130.25641026 , 4135.38461538 , 4189.23076923 , 4911.28205128 , 4136.92307692 , 4140.51282051 , 2042.0 , 2034.0 , 10.894 , 0.0 , 0.0 , 0.0 , 0.0 , 

7.0 , 4132.30769231 , 4130.25641026 , 4133.84615385 , 4132.82051282 , 4131.79487179 , 4127.69230769 , 4134.35897436 , 4130.25641026 , 4132.82051282 , 4137.94871795 , 4190.76923077 , 4910.76923077 , 4135.38461538 , 4140.0 , 2042.0 , 2035.0 , 10.902 , 0.0 , 0.0 , 0.0 , 0.0 , 

8.0 , 4131.79487179 , 4132.82051282 , 4135.8974359 , 4133.84615385 , 4129.23076923 , 4128.71794872 , 4134.35897436 , 4129.74358974 , 4135.8974359 , 4137.43589744 , 4193.33333333 , 4908.71794872 , 4135.8974359 , 4136.92307692 , 2042.0 , 2034.0 , 10.909 , 0.0 , 0.0 , 0.0 , 0.0 , 

9.0 , 4130.25641026 , 4134.87179487 , 4132.82051282 , 4130.25641026 , 4127.69230769 , 4130.25641026 , 4134.35897436 , 4131.28205128 , 4134.35897436 , 4135.8974359 , 4191.28205128 , 4908.71794872 , 4136.92307692 , 4136.92307692 , 2042.0 , 2036.0 , 10.917 , 0.0 , 0.0 , 0.0 , 0.0 , 

10.0 , 4128.20512821 , 4133.33333333 , 4130.76923077 , 4129.74358974 , 4129.74358974 , 4129.23076923 , 4134.35897436 , 4132.30769231 , 4131.79487179 , 4136.92307692 , 4188.71794872 , 4909.23076923 , 4134.35897436 , 4137.43589744 , 2041.0 , 2037.0 , 10.925 , 0.0 , 0.0 , 0.0 , 0.0 , 

11.0 , 4130.76923077 , 4131.28205128 , 4133.33333333 , 4135.38461538 , 4129.74358974 , 4128.71794872 , 4134.35897436 , 4131.28205128 , 4130.76923077 , 4137.94871795 , 4190.76923077 , 4909.74358974 , 4133.33333333 , 4136.92307692 , 2041.0 , 2036.0 , 10.932 , 0.0 , 0.0 , 0.0 , 0.0 , 

12.0 , 4133.33333333 , 4130.25641026 , 4133.33333333 , 4134.35897436 , 4128.71794872 , 4130.25641026 , 4134.87179487 , 4129.74358974 , 4132.30769231 , 4137.94871795 , 4191.28205128 , 4909.74358974 , 4135.8974359 , 4137.43589744 , 2043.0 , 2036.0 , 10.941 , 0.0 , 0.0 , 0.0 , 0.0 , 

13.0 , 4133.33333333 , 4130.25641026 , 4132.82051282 , 4130.76923077 , 4130.25641026 , 4129.23076923 , 4134.35897436 , 4130.25641026 , 4135.8974359 , 4136.92307692 , 4190.25641026 , 4909.74358974 , 4137.94871795 , 4138.46153846 , 2042.0 , 2036.0 , 10.948 , 0.0 , 0.0 , 0.0 , 0.0 , 

14.0 , 4133.33333333 , 4133.84615385 , 4136.41025641 , 4130.76923077 , 4131.28205128 , 4128.71794872 , 4134.35897436 , 4131.28205128 , 4134.35897436 , 4135.8974359 , 4191.79487179 , 4910.25641026 , 4135.38461538 , 4138.97435897 , 2042.0 , 2036.0 , 10.956 , 0.0 , 0.0 , 0.0 , 0.0 , 

15.0 , 4130.76923077 , 4132.30769231 , 4133.33333333 , 4130.25641026 , 4128.71794872 , 4129.23076923 , 4134.35897436 , 4131.28205128 , 4132.82051282 , 4136.41025641 , 4192.82051282 , 4907.69230769 , 4132.30769231 , 4138.97435897 , 2041.0 , 2033.0 , 10.964 , 0.0 , 0.0 , 0.0 , 0.0 , 

16.0 , 4132.82051282 , 4129.23076923 , 4132.30769231 , 4132.30769231 , 4127.69230769 , 4131.28205128 , 4133.33333333 , 4129.74358974 , 4134.35897436 , 4137.43589744 , 4191.28205128 , 4908.20512821 , 4133.84615385 , 4138.97435897 , 2042.0 , 2036.0 , 10.972 , 0.0 , 0.0 , 0.0 , 0.0 , 

17.0 , 4132.30769231 , 4127.17948718 , 4131.79487179 , 4132.82051282 , 4130.25641026 , 4130.25641026 , 4130.76923077 , 4128.20512821 , 4132.82051282 , 4136.92307692 , 4188.71794872 , 4908.20512821 , 4136.41025641 , 4137.94871795 , 2041.0 , 2035.0 , 10.98 , 0.0 , 0.0 , 0.0 , 0.0 , 

18.0 , 4132.30769231 , 4130.76923077 , 4135.38461538 , 4133.33333333 , 4130.76923077 , 4129.74358974 , 4124.61538462 , 4130.76923077 , 4130.76923077 , 4135.8974359 , 4189.23076923 , 4909.74358974 , 4136.92307692 , 4138.97435897 , 2041.0 , 2034.0 , 10.988 , 0.0 , 0.0 , 0.0 , 0.0 , 

19.0 , 4132.30769231 , 4130.76923077 , 4130.25641026 , 4133.33333333 , 4130.76923077 , 4130.25641026 , 4124.61538462 , 4133.84615385 , 4135.8974359 , 4137.43589744 , 4190.76923077 , 4908.20512821 , 4135.8974359 , 4136.92307692 , 2042.0 , 2037.0 , 10.995 , 0.0 , 0.0 , 0.0 , 0.0 , 

20.0 , 4133.84615385 , 4130.76923077 , 4130.25641026 , 4131.79487179 , 4131.28205128 , 4130.76923077 , 4132.30769231 , 4133.84615385 , 4135.38461538 , 4136.92307692 , 4189.74358974 , 4911.79487179 , 4135.8974359 , 4136.41025641 , 2042.0 , 2037.0 , 11.003 , 0.0 , 0.0 , 0.0 , 0.0 , 

21.0 , 4128.71794872 , 4128.71794872 , 4130.76923077 , 4128.20512821 , 4132.82051282 , 4128.20512821 , 4133.33333333 , 4133.84615385 , 4131.79487179 , 4132.82051282 , 4188.71794872 , 4910.25641026 , 4135.38461538 , 4136.41025641 , 2042.0 , 2036.0 , 11.011 , 0.0 , 0.0 , 0.0 , 0.0 , 

22.0 , 4130.76923077 , 4130.76923077 , 4134.87179487 , 4131.28205128 , 4129.74358974 , 4128.71794872 , 4128.20512821 , 4131.79487179 , 4132.82051282 , 4132.30769231 , 4191.28205128 , 4909.74358974 , 4135.8974359 , 4137.94871795 , 2042.0 , 2035.0 , 11.019 , 0.0 , 0.0 , 0.0 , 0.0 , 

23.0 , 4130.76923077 , 4130.25641026 , 4130.76923077 , 4134.35897436 , 4128.71794872 , 4130.25641026 , 4130.25641026 , 4129.74358974 , 4135.8974359 , 4137.43589744 , 4191.79487179 , 4907.69230769 , 4137.43589744 , 4137.94871795 , 2041.0 , 2034.0 , 11.027 , 0.0 , 0.0 , 0.0 , 0.0 , 

24.0 , 4132.82051282 , 4129.23076923 , 4129.74358974 , 4131.28205128 , 4131.28205128 , 4129.74358974 , 4128.71794872 , 4131.79487179 , 4132.30769231 , 4138.46153846 , 4189.74358974 , 4910.25641026 , 4135.38461538 , 4139.48717949 , 2041.0 , 2034.0 , 11.035 , 0.0 , 0.0 , 0.0 , 0.0 , 

25.0 , 4132.82051282 , 4129.23076923 , 4130.76923077 , 4128.20512821 , 4132.30769231 , 4128.71794872 , 4125.64102564 , 4133.33333333 , 4130.76923077 , 4135.38461538 , 4188.71794872 , 4910.76923077 , 4134.87179487 , 4139.48717949 , 2042.0 , 2035.0 , 11.043 , 0.0 , 0.0 , 0.0 , 0.0 , 

26.0 , 4131.79487179 , 4133.84615385 , 4134.35897436 , 4131.28205128 , 4130.76923077 , 4129.23076923 , 4128.20512821 , 4130.76923077 , 4131.79487179 , 4135.8974359 , 4189.74358974 , 4910.25641026 , 4136.41025641 , 4138.97435897 , 2041.0 , 2036.0 , 11.051 , 0.0 , 0.0 , 0.0 , 0.0 , 

27.0 , 4131.28205128 , 4133.84615385 , 4132.30769231 , 4133.33333333 , 4127.69230769 , 4129.23076923 , 4126.15384615 , 4130.76923077 , 4133.84615385 , 4137.43589744 , 4189.74358974 , 4908.20512821 , 4135.38461538 , 4135.8974359 , 2041.0 , 2035.0 , 11.059 , 0.0 , 0.0 , 0.0 , 0.0 , 

28.0 , 4133.33333333 , 4130.25641026 , 4131.79487179 , 4131.28205128 , 4127.17948718 , 4128.71794872 , 4127.69230769 , 4134.87179487 , 4133.33333333 , 4137.43589744 , 4189.23076923 , 4908.20512821 , 4133.33333333 , 4137.94871795 , 2041.0 , 2038.0 , 11.066 , 0.0 , 0.0 , 0.0 , 0.0 , 

29.0 , 4130.76923077 , 4129.74358974 , 4133.84615385 , 4128.71794872 , 4129.74358974 , 4128.20512821 , 4134.35897436 , 4133.84615385 , 4130.25641026 , 4137.43589744 , 4190.76923077 , 4907.17948718 , 4133.33333333 , 4143.07692308 , 2043.0 , 2035.0 , 11.074 , 0.0 , 0.0 , 0.0 , 0.0 , 

30.0 , 4130.25641026 , 4131.79487179 , 4134.87179487 , 4133.33333333 , 4131.79487179 , 4126.66666667 , 4134.35897436 , 4130.76923077 , 4129.74358974 , 4135.8974359 , 4192.30769231 , 4907.17948718 , 4133.33333333 , 4141.53846154 , 2042.0 , 2037.0 , 11.083 , 0.0 , 0.0 , 0.0 , 0.0 , 

31.0 , 4132.30769231 , 4130.76923077 , 4134.35897436 , 4136.41025641 , 4131.79487179 , 4127.69230769 , 4133.33333333 , 4133.33333333 , 4132.30769231 , 4135.8974359 , 4190.25641026 , 4909.74358974 , 4132.30769231 , 4136.41025641 , 2041.0 , 2035.0 , 11.091 , 0.0 , 0.0 , 0.0 , 0.0 , 

32.0 , 4130.76923077 , 4128.71794872 , 4132.30769231 , 4135.8974359 , 4132.30769231 , 4131.79487179 , 4135.38461538 , 4136.41025641 , 4133.33333333 , 4137.43589744 , 4189.23076923 , 4908.71794872 , 4135.38461538 , 4136.41025641 , 2041.0 , 2034.0 , 11.1 , 0.0 , 0.0 , 0.0 , 0.0 , 

33.0 , 4131.28205128 , 4130.76923077 , 4131.79487179 , 4135.8974359 , 4130.25641026 , 4132.30769231 , 4132.82051282 , 4134.87179487 , 4131.28205128 , 4137.43589744 , 4189.74358974 , 4907.69230769 , 4132.30769231 , 4138.97435897 , 2043.0 , 2036.0 , 11.106 , 0.0 , 0.0 , 0.0 , 0.0 , 

34.0 , 4130.76923077 , 4132.82051282 , 4131.28205128 , 4135.38461538 , 4127.69230769 , 4128.20512821 , 4129.23076923 , 4135.38461538 , 4133.33333333 , 4136.41025641 , 4188.71794872 , 4906.66666667 , 4125.12820513 , 4136.92307692 , 2041.0 , 2037.0 , 11.114 , 0.0 , 0.0 , 0.0 , 0.0 , 

35.0 , 4130.25641026 , 4133.33333333 , 4135.38461538 , 4133.84615385 , 4130.76923077 , 4129.74358974 , 4126.15384615 , 4134.35897436 , 4134.87179487 , 4135.8974359 , 4190.25641026 , 4908.71794872 , 4129.23076923 , 4138.46153846 , 2042.0 , 2035.0 , 11.122 , 0.0 , 0.0 , 0.0 , 0.0 , 

36.0 , 4129.23076923 , 4130.76923077 , 4132.30769231 , 4132.30769231 , 4133.84615385 , 4130.76923077 , 4124.1025641 , 4131.79487179 , 4131.79487179 , 4135.8974359 , 4191.79487179 , 4908.20512821 , 4138.97435897 , 4140.0 , 2042.0 , 2034.0 , 11.129 , 0.0 , 0.0 , 0.0 , 0.0 , 

37.0 , 4133.33333333 , 4132.82051282 , 4131.28205128 , 4134.35897436 , 4130.25641026 , 4128.20512821 , 4132.30769231 , 4131.79487179 , 4130.76923077 , 4136.41025641 , 4190.25641026 , 4909.23076923 , 4134.87179487 , 4138.46153846 , 2041.0 , 2035.0 , 11.137 , 0.0 , 0.0 , 0.0 , 0.0 , 

38.0 , 4133.33333333 , 4131.28205128 , 4129.23076923 , 4135.38461538 , 4129.74358974 , 4127.69230769 , 4137.43589744 , 4133.33333333 , 4135.38461538 , 4137.43589744 , 4189.23076923 , 4907.17948718 , 4128.71794872 , 4135.8974359 , 2042.0 , 2035.0 , 11.145 , 0.0 , 0.0 , 0.0 , 0.0 , 

39.0 , 4134.35897436 , 4128.71794872 , 4134.35897436 , 4134.87179487 , 4131.79487179 , 4130.76923077 , 4133.84615385 , 4131.79487179 , 4132.82051282 , 4136.41025641 , 4191.79487179 , 4910.25641026 , 4134.87179487 , 4140.0 , 2041.0 , 2034.0 , 11.153 , 0.0 , 0.0 , 0.0 , 0.0 , 

40.0 , 4130.76923077 , 4128.71794872 , 4134.35897436 , 4130.76923077 , 4131.79487179 , 4130.76923077 , 4133.33333333 , 4130.76923077 , 4130.25641026 , 4135.8974359 , 4191.28205128 , 4909.74358974 , 4138.97435897 , 4138.46153846 , 2041.0 , 2035.0 , 11.161 , 0.0 , 0.0 , 0.0 , 0.0 , 

41.0 , 4130.76923077 , 4132.30769231 , 4134.35897436 , 4129.74358974 , 4129.74358974 , 4130.25641026 , 4136.41025641 , 4130.76923077 , 4133.33333333 , 4136.92307692 , 4190.76923077 , 4909.74358974 , 4134.87179487 , 4137.43589744 , 2042.0 , 2035.0 , 11.169 , 0.0 , 0.0 , 0.0 , 0.0 , 

42.0 , 4130.25641026 , 4129.23076923 , 4131.28205128 , 4132.30769231 , 4130.25641026 , 4129.74358974 , 4135.8974359 , 4131.28205128 , 4136.92307692 , 4136.92307692 , 4191.79487179 , 4908.71794872 , 4133.33333333 , 4137.94871795 , 2041.0 , 2035.0 , 11.177 , 0.0 , 0.0 , 0.0 , 0.0 , 

43.0 , 4132.82051282 , 4127.17948718 , 4136.92307692 , 4134.87179487 , 4127.17948718 , 4129.74358974 , 4134.35897436 , 4132.30769231 , 4133.33333333 , 4136.41025641 , 4191.28205128 , 4912.30769231 , 4134.35897436 , 4138.46153846 , 2040.0 , 2034.0 , 11.185 , 0.0 , 0.0 , 0.0 , 0.0 , 

44.0 , 4130.76923077 , 4126.15384615 , 4137.43589744 , 4133.84615385 , 4126.15384615 , 4129.74358974 , 4134.35897436 , 4131.79487179 , 4133.33333333 , 4137.43589744 , 4189.23076923 , 4910.25641026 , 4133.84615385 , 4135.8974359 , 2042.0 , 2035.0 , 11.193 , 0.0 , 0.0 , 0.0 , 0.0 , 

45.0 , 4130.76923077 , 4128.20512821 , 4133.33333333 , 4131.79487179 , 4128.71794872 , 4129.74358974 , 4134.35897436 , 4130.76923077 , 4134.35897436 , 4136.92307692 , 4190.76923077 , 4908.20512821 , 4133.33333333 , 4136.92307692 , 2043.0 , 2036.0 , 11.2 , 0.0 , 0.0 , 0.0 , 0.0 , 

46.0 , 4131.28205128 , 4130.76923077 , 4130.25641026 , 4132.30769231 , 4131.28205128 , 4129.74358974 , 4134.35897436 , 4130.76923077 , 4133.33333333 , 4136.41025641 , 4193.33333333 , 4909.23076923 , 4132.82051282 , 4137.43589744 , 2041.0 , 2037.0 , 11.208 , 0.0 , 0.0 , 0.0 , 0.0 , 

47.0 , 4132.30769231 , 4130.25641026 , 4132.82051282 , 4134.35897436 , 4131.28205128 , 4130.25641026 , 4134.35897436 , 4132.30769231 , 4132.30769231 , 4136.41025641 , 4192.82051282 , 4909.74358974 , 4131.79487179 , 4135.8974359 , 2041.0 , 2036.0 , 11.216 , 0.0 , 0.0 , 0.0 , 0.0 , 

48.0 , 4131.28205128 , 4128.20512821 , 4134.35897436 , 4134.35897436 , 4133.33333333 , 4129.74358974 , 4134.87179487 , 4131.79487179 , 4133.33333333 , 4135.8974359 , 4189.74358974 , 4909.74358974 , 4133.33333333 , 4135.8974359 , 2043.0 , 2035.0 , 11.224 , 0.0 , 0.0 , 0.0 , 0.0 , 

49.0 , 4132.30769231 , 4130.25641026 , 4134.35897436 , 4133.33333333 , 4132.82051282 , 4129.23076923 , 4133.33333333 , 4130.76923077 , 4132.82051282 , 4135.8974359 , 4189.74358974 , 4909.23076923 , 4136.41025641 , 4138.46153846 , 2042.0 , 2036.0 , 11.232 , 0.0 , 0.0 , 0.0 , 0.0 , 

50.0 , 4134.35897436 , 4131.28205128 , 4133.33333333 , 4132.30769231 , 4130.76923077 , 4129.74358974 , 4135.38461538 , 4130.76923077 , 4133.33333333 , 4136.92307692 , 4190.25641026 , 4907.17948718 , 4132.30769231 , 4140.0 , 2041.0 , 2036.0 , 11.24 , 0.0 , 0.0 , 0.0 , 0.0 , 

51.0 , 4130.76923077 , 4129.74358974 , 4130.25641026 , 4131.79487179 , 4130.25641026 , 4130.25641026 , 4134.87179487 , 4131.79487179 , 4132.82051282 , 4137.43589744 , 4189.74358974 , 4904.61538462 , 4127.69230769 , 4138.97435897 , 2040.0 , 2035.0 , 11.248 , 0.0 , 0.0 , 0.0 , 0.0 , 

52.0 , 4128.71794872 , 4130.76923077 , 4133.33333333 , 4133.33333333 , 4128.71794872 , 4130.25641026 , 4127.17948718 , 4130.25641026 , 4130.76923077 , 4136.92307692 , 4189.23076923 , 4909.74358974 , 4133.33333333 , 4137.94871795 , 2040.0 , 2036.0 , 11.256 , 0.0 , 0.0 , 0.0 , 0.0 , 

53.0 , 4129.74358974 , 4130.76923077 , 4132.82051282 , 4134.35897436 , 4130.25641026 , 4129.23076923 , 4124.61538462 , 4130.76923077 , 4133.84615385 , 4136.92307692 , 4188.20512821 , 4910.76923077 , 4137.43589744 , 4136.41025641 , 2041.0 , 2035.0 , 11.263 , 0.0 , 0.0 , 0.0 , 0.0 , 

54.0 , 4131.79487179 , 4131.28205128 , 4132.82051282 , 4131.28205128 , 4133.84615385 , 4130.25641026 , 4125.64102564 , 4133.33333333 , 4135.8974359 , 4136.41025641 , 4187.69230769 , 4908.71794872 , 4135.8974359 , 4137.43589744 , 2042.0 , 2035.0 , 11.271 , 0.0 , 0.0 , 0.0 , 0.0 , 

55.0 , 4130.25641026 , 4129.74358974 , 4132.30769231 , 4127.69230769 , 4133.33333333 , 4130.25641026 , 4126.15384615 , 4131.79487179 , 4133.84615385 , 4136.41025641 , 4190.25641026 , 4907.17948718 , 4135.8974359 , 4137.94871795 , 2041.0 , 2034.0 , 11.279 , 0.0 , 0.0 , 0.0 , 0.0 , 

56.0 , 4131.28205128 , 4129.23076923 , 4133.33333333 , 4133.33333333 , 4130.76923077 , 4129.74358974 , 4133.33333333 , 4130.76923077 , 4131.28205128 , 4136.92307692 , 4189.74358974 , 4910.76923077 , 4135.8974359 , 4137.94871795 , 2041.0 , 2035.0 , 11.287 , 0.0 , 0.0 , 0.0 , 0.0 , 

57.0 , 4128.20512821 , 4128.71794872 , 4128.20512821 , 4135.8974359 , 4132.30769231 , 4128.71794872 , 4138.46153846 , 4135.8974359 , 4134.35897436 , 4138.46153846 , 4187.17948718 , 4910.76923077 , 4131.79487179 , 4135.8974359 , 2043.0 , 2034.0 , 11.295 , 0.0 , 0.0 , 0.0 , 0.0 , 

58.0 , 4131.28205128 , 4130.25641026 , 4131.79487179 , 4132.30769231 , 4131.79487179 , 4127.69230769 , 4128.20512821 , 4137.43589744 , 4134.35897436 , 4137.43589744 , 4190.25641026 , 4912.30769231 , 4131.79487179 , 4138.46153846 , 2042.0 , 2036.0 , 11.303 , 0.0 , 0.0 , 0.0 , 0.0 , 

59.0 , 4130.76923077 , 4129.74358974 , 4131.28205128 , 4131.28205128 , 4131.79487179 , 4125.64102564 , 4124.61538462 , 4131.28205128 , 4132.82051282 , 4136.41025641 , 4192.30769231 , 4908.71794872 , 4136.41025641 , 4141.02564103 , 2042.0 , 2036.0 , 11.311 , 0.0 , 0.0 , 0.0 , 0.0 , 

60.0 , 4130.76923077 , 4131.79487179 , 4131.28205128 , 4133.33333333 , 4130.76923077 , 4128.20512821 , 4128.71794872 , 4128.20512821 , 4132.30769231 , 4136.92307692 , 4189.74358974 , 4908.20512821 , 4136.92307692 , 4141.02564103 , 2041.0 , 2035.0 , 11.318 , 0.0 , 0.0 , 0.0 , 0.0 , 

61.0 , 4130.25641026 , 4131.79487179 , 4131.79487179 , 4133.84615385 , 4128.71794872 , 4130.76923077 , 4127.17948718 , 4132.82051282 , 4133.33333333 , 4136.92307692 , 4188.71794872 , 4909.74358974 , 4135.8974359 , 4137.94871795 , 2042.0 , 2036.0 , 11.327 , 0.0 , 0.0 , 0.0 , 0.0 , 

62.0 , 4132.82051282 , 4132.82051282 , 4134.35897436 , 4133.33333333 , 4128.20512821 , 4131.28205128 , 4124.1025641 , 4134.35897436 , 4132.82051282 , 4135.8974359 , 4190.25641026 , 4912.30769231 , 4134.87179487 , 4138.46153846 , 2042.0 , 2036.0 , 11.334 , 0.0 , 0.0 , 0.0 , 0.0 , 

63.0 , 4132.82051282 , 4131.28205128 , 4130.25641026 , 4133.84615385 , 4132.30769231 , 4129.74358974 , 4123.58974359 , 4129.74358974 , 4132.82051282 , 4135.8974359 , 4190.76923077 , 4909.23076923 , 4135.38461538 , 4138.46153846 , 2042.0 , 2037.0 , 11.343 , 0.0 , 0.0 , 0.0 , 0.0 , 

64.0 , 4133.33333333 , 4129.74358974 , 4132.30769231 , 4135.38461538 , 4131.79487179 , 4128.71794872 , 4130.25641026 , 4127.69230769 , 4132.30769231 , 4136.41025641 , 4189.74358974 , 4908.20512821 , 4136.41025641 , 4139.48717949 , 2041.0 , 2036.0 , 11.351 , 0.0 , 0.0 , 0.0 , 0.0 , 

65.0 , 4130.76923077 , 4129.23076923 , 4135.38461538 , 4134.35897436 , 4131.28205128 , 4128.71794872 , 4134.87179487 , 4133.84615385 , 4133.33333333 , 4136.92307692 , 4187.69230769 , 4910.25641026 , 4135.38461538 , 4140.51282051 , 2042.0 , 2037.0 , 11.358 , 0.0 , 0.0 , 0.0 , 0.0 , 

66.0 , 4129.23076923 , 4129.74358974 , 4133.33333333 , 4132.30769231 , 4131.79487179 , 4129.74358974 , 4129.74358974 , 4136.92307692 , 4136.41025641 , 4137.94871795 , 4189.23076923 , 4911.28205128 , 4135.38461538 , 4141.53846154 , 2042.0 , 2036.0 , 11.366 , 0.0 , 0.0 , 0.0 , 0.0 , 

67.0 , 4131.79487179 , 4130.25641026 , 4132.30769231 , 4133.84615385 , 4130.76923077 , 4130.76923077 , 4128.20512821 , 4132.82051282 , 4135.38461538 , 4137.94871795 , 4191.28205128 , 4909.74358974 , 4134.87179487 , 4140.51282051 , 2042.0 , 2037.0 , 11.374 , 0.0 , 0.0 , 0.0 , 0.0 , 

68.0 , 4129.74358974 , 4130.76923077 , 4133.84615385 , 4133.84615385 , 4129.23076923 , 4130.76923077 , 4130.76923077 , 4131.28205128 , 4131.79487179 , 4136.92307692 , 4189.23076923 , 4907.69230769 , 4132.82051282 , 4140.51282051 , 2042.0 , 2036.0 , 11.382 , 0.0 , 0.0 , 0.0 , 0.0 , 

69.0 , 4128.71794872 , 4129.74358974 , 4134.35897436 , 4130.76923077 , 4128.20512821 , 4129.74358974 , 4125.64102564 , 4132.82051282 , 4130.76923077 , 4136.41025641 , 4189.74358974 , 4909.74358974 , 4131.79487179 , 4141.02564103 , 2042.0 , 2035.0 , 11.389 , 0.0 , 0.0 , 0.0 , 0.0 , 

70.0 , 4132.30769231 , 4127.69230769 , 4132.82051282 , 4130.25641026 , 4128.20512821 , 4130.25641026 , 4121.53846154 , 4131.79487179 , 4131.79487179 , 4135.38461538 , 4192.82051282 , 4911.28205128 , 4133.84615385 , 4138.97435897 , 2040.0 , 2035.0 , 11.397 , 0.0 , 0.0 , 0.0 , 0.0 , 

71.0 , 4133.84615385 , 4130.25641026 , 4135.8974359 , 4130.76923077 , 4129.23076923 , 4131.28205128 , 4126.15384615 , 4130.25641026 , 4132.30769231 , 4135.8974359 , 4191.28205128 , 4911.79487179 , 4134.87179487 , 4137.94871795 , 2040.0 , 2035.0 , 11.405 , 0.0 , 0.0 , 0.0 , 0.0 , 

72.0 , 4130.76923077 , 4129.23076923 , 4132.82051282 , 4131.28205128 , 4131.79487179 , 4127.69230769 , 4124.1025641 , 4130.25641026 , 4132.30769231 , 4137.94871795 , 4189.23076923 , 4907.69230769 , 4134.35897436 , 4137.94871795 , 2042.0 , 2037.0 , 11.413 , 0.0 , 0.0 , 0.0 , 0.0 , 

73.0 , 4132.82051282 , 4129.23076923 , 4131.79487179 , 4135.38461538 , 4130.25641026 , 4127.69230769 , 4122.05128205 , 4129.74358974 , 4133.33333333 , 4138.46153846 , 4191.28205128 , 4909.23076923 , 4134.35897436 , 4140.0 , 2043.0 , 2035.0 , 11.421 , 0.0 , 0.0 , 0.0 , 0.0 , 

74.0 , 4131.28205128 , 4129.74358974 , 4131.28205128 , 4134.35897436 , 4128.20512821 , 4131.28205128 , 4127.69230769 , 4131.28205128 , 4135.38461538 , 4137.43589744 , 4190.76923077 , 4909.74358974 , 4133.84615385 , 4140.0 , 2042.0 , 2035.0 , 11.429 , 0.0 , 0.0 , 0.0 , 0.0 , 

75.0 , 4132.82051282 , 4130.25641026 , 4134.87179487 , 4131.79487179 , 4129.74358974 , 4132.30769231 , 4128.71794872 , 4132.30769231 , 4134.87179487 , 4137.43589744 , 4189.23076923 , 4910.25641026 , 4135.8974359 , 4143.07692308 , 2041.0 , 2036.0 , 11.437 , 0.0 , 0.0 , 0.0 , 0.0 , 

76.0 , 4132.30769231 , 4130.25641026 , 4133.84615385 , 4133.84615385 , 4132.30769231 , 4130.76923077 , 4126.66666667 , 4130.76923077 , 4132.82051282 , 4136.41025641 , 4190.25641026 , 4908.71794872 , 4136.41025641 , 4142.05128205 , 2040.0 , 2034.0 , 11.445 , 0.0 , 0.0 , 0.0 , 0.0 , 

77.0 , 4132.82051282 , 4134.87179487 , 4137.94871795 , 4135.38461538 , 4128.20512821 , 4131.28205128 , 4126.66666667 , 4132.30769231 , 4132.30769231 , 4136.41025641 , 4190.76923077 , 4910.76923077 , 4135.8974359 , 4138.97435897 , 2042.0 , 2035.0 , 11.452 , 0.0 , 0.0 , 0.0 , 0.0 , 

78.0 , 4129.74358974 , 4131.28205128 , 4134.87179487 , 4133.33333333 , 4125.64102564 , 4131.79487179 , 4126.66666667 , 4133.33333333 , 4136.92307692 , 4137.43589744 , 4189.23076923 , 4909.74358974 , 4136.41025641 , 4136.41025641 , 2042.0 , 2035.0 , 11.46 , 0.0 , 0.0 , 0.0 , 0.0 , 

79.0 , 4130.76923077 , 4128.20512821 , 4132.82051282 , 4133.84615385 , 4130.25641026 , 4132.30769231 , 4124.61538462 , 4130.76923077 , 4136.92307692 , 4136.92307692 , 4189.74358974 , 4912.82051282 , 4135.38461538 , 4140.0 , 2042.0 , 2035.0 , 11.468 , 0.0 , 0.0 , 0.0 , 0.0 , 

80.0 , 4129.23076923 , 4128.20512821 , 4131.79487179 , 4132.30769231 , 4132.82051282 , 4131.79487179 , 4124.61538462 , 4131.79487179 , 4133.84615385 , 4137.43589744 , 4189.23076923 , 4910.25641026 , 4134.35897436 , 4140.51282051 , 2040.0 , 2035.0 , 11.476 , 0.0 , 0.0 , 0.0 , 0.0 , 

81.0 , 4131.79487179 , 4128.71794872 , 4134.35897436 , 4130.76923077 , 4127.17948718 , 4130.76923077 , 4132.82051282 , 4134.35897436 , 4130.76923077 , 4138.46153846 , 4188.71794872 , 4907.17948718 , 4134.87179487 , 4139.48717949 , 2040.0 , 2036.0 , 11.484 , 0.0 , 0.0 , 0.0 , 0.0 , 

82.0 , 4133.33333333 , 4126.66666667 , 4132.30769231 , 4133.33333333 , 4128.20512821 , 4130.25641026 , 4136.41025641 , 4132.82051282 , 4132.30769231 , 4137.43589744 , 4189.23076923 , 4908.71794872 , 4135.38461538 , 4137.94871795 , 2042.0 , 2035.0 , 11.492 , 0.0 , 0.0 , 0.0 , 0.0 , 

83.0 , 4130.76923077 , 4128.71794872 , 4133.84615385 , 4133.84615385 , 4132.30769231 , 4131.79487179 , 4135.38461538 , 4129.74358974 , 4132.82051282 , 4136.92307692 , 4190.25641026 , 4913.33333333 , 4135.38461538 , 4136.41025641 , 2041.0 , 2034.0 , 11.5 , 0.0 , 0.0 , 0.0 , 0.0 , 

84.0 , 4129.23076923 , 4128.20512821 , 4133.84615385 , 4130.76923077 , 4132.30769231 , 4129.74358974 , 4135.38461538 , 4130.25641026 , 4132.30769231 , 4136.92307692 , 4190.76923077 , 4911.28205128 , 4136.41025641 , 4135.38461538 , 2041.0 , 2035.0 , 11.507 , 0.0 , 0.0 , 0.0 , 0.0 , 

85.0 , 4134.35897436 , 4128.71794872 , 4132.82051282 , 4131.28205128 , 4130.76923077 , 4128.71794872 , 4136.41025641 , 4131.79487179 , 4132.30769231 , 4136.92307692 , 4192.30769231 , 4907.17948718 , 4135.38461538 , 4137.43589744 , 2041.0 , 2034.0 , 11.515 , 0.0 , 0.0 , 0.0 , 0.0 , 

86.0 , 4134.35897436 , 4132.30769231 , 4136.41025641 , 4134.35897436 , 4129.23076923 , 4130.25641026 , 4135.38461538 , 4132.30769231 , 4132.30769231 , 4137.43589744 , 4192.30769231 , 4907.17948718 , 4135.8974359 , 4138.46153846 , 2042.0 , 2036.0 , 11.523 , 0.0 , 0.0 , 0.0 , 0.0 , 

87.0 , 4128.20512821 , 4132.30769231 , 4136.41025641 , 4134.87179487 , 4127.17948718 , 4129.74358974 , 4134.35897436 , 4131.79487179 , 4130.76923077 , 4137.43589744 , 4191.79487179 , 4908.20512821 , 4136.92307692 , 4139.48717949 , 2041.0 , 2036.0 , 11.531 , 0.0 , 0.0 , 0.0 , 0.0 , 

88.0 , 4130.25641026 , 4131.28205128 , 4132.82051282 , 4132.30769231 , 4129.23076923 , 4128.20512821 , 4136.41025641 , 4132.82051282 , 4131.28205128 , 4136.92307692 , 4189.74358974 , 4908.71794872 , 4135.38461538 , 4140.51282051 , 2040.0 , 2036.0 , 11.54 , 0.0 , 0.0 , 0.0 , 0.0 , 

89.0 , 4134.35897436 , 4131.28205128 , 4132.82051282 , 4129.74358974 , 4132.82051282 , 4129.74358974 , 4134.35897436 , 4135.8974359 , 4134.35897436 , 4136.92307692 , 4188.71794872 , 4906.66666667 , 4134.87179487 , 4140.0 , 2042.0 , 2035.0 , 11.548 , 0.0 , 0.0 , 0.0 , 0.0 , 

90.0 , 4134.35897436 , 4129.23076923 , 4138.97435897 , 4130.76923077 , 4129.23076923 , 4130.76923077 , 4135.38461538 , 4135.38461538 , 4134.87179487 , 4137.43589744 , 4190.25641026 , 4909.74358974 , 4135.38461538 , 4140.51282051 , 2042.0 , 2035.0 , 11.555 , 0.0 , 0.0 , 0.0 , 0.0 , 

91.0 , 4129.74358974 , 4125.64102564 , 4135.8974359 , 4132.82051282 , 4127.69230769 , 4129.74358974 , 4139.48717949 , 4131.28205128 , 4134.35897436 , 4137.43589744 , 4190.76923077 , 4909.23076923 , 4136.92307692 , 4139.48717949 , 2042.0 , 2035.0 , 11.563 , 0.0 , 0.0 , 0.0 , 0.0 , 

92.0 , 4131.28205128 , 4131.28205128 , 4135.38461538 , 4134.35897436 , 4130.76923077 , 4131.28205128 , 4130.76923077 , 4129.74358974 , 4134.87179487 , 4135.38461538 , 4188.71794872 , 4908.71794872 , 4136.92307692 , 4141.02564103 , 2041.0 , 2035.0 , 11.571 , 0.0 , 0.0 , 0.0 , 0.0 , 

93.0 , 4131.79487179 , 4132.82051282 , 4133.84615385 , 4133.84615385 , 4132.30769231 , 4131.28205128 , 4120.51282051 , 4131.79487179 , 4135.8974359 , 4135.8974359 , 4188.71794872 , 4909.23076923 , 4135.38461538 , 4141.02564103 , 2041.0 , 2035.0 , 11.58 , 0.0 , 0.0 , 0.0 , 0.0 , 

94.0 , 4133.84615385 , 4131.28205128 , 4134.87179487 , 4133.84615385 , 4130.25641026 , 4129.74358974 , 4130.25641026 , 4130.76923077 , 4134.87179487 , 4138.46153846 , 4190.76923077 , 4912.30769231 , 4132.82051282 , 4140.51282051 , 2041.0 , 2036.0 , 11.586 , 0.0 , 0.0 , 0.0 , 0.0 , 

95.0 , 4131.28205128 , 4130.76923077 , 4131.28205128 , 4134.35897436 , 4127.69230769 , 4128.71794872 , 4137.94871795 , 4130.76923077 , 4133.84615385 , 4137.94871795 , 4191.28205128 , 4909.23076923 , 4131.28205128 , 4137.94871795 , 2040.0 , 2034.0 , 11.595 , 0.0 , 0.0 , 0.0 , 0.0 , 

96.0 , 4132.82051282 , 4134.35897436 , 4132.82051282 , 4133.84615385 , 4128.20512821 , 4129.74358974 , 4127.17948718 , 4132.30769231 , 4133.33333333 , 4135.8974359 , 4190.76923077 , 4908.71794872 , 4131.28205128 , 4141.53846154 , 2040.0 , 2033.0 , 11.602 , 0.0 , 0.0 , 0.0 , 0.0 , 

97.0 , 4131.79487179 , 4131.79487179 , 4133.33333333 , 4129.74358974 , 4129.74358974 , 4130.76923077 , 4124.61538462 , 4131.28205128 , 4134.35897436 , 4136.92307692 , 4190.76923077 , 4906.66666667 , 4132.30769231 , 4142.56410256 , 2042.0 , 2036.0 , 11.61 , 0.0 , 0.0 , 0.0 , 0.0 , 

98.0 , 4132.30769231 , 4130.25641026 , 4136.92307692 , 4130.76923077 , 4128.71794872 , 4131.79487179 , 4127.17948718 , 4130.76923077 , 4134.87179487 , 4137.94871795 , 4190.76923077 , 4908.20512821 , 4133.84615385 , 4141.53846154 , 2042.0 , 2035.0 , 11.619 , 0.0 , 0.0 , 0.0 , 0.0 , 

99.0 , 4130.76923077 , 4130.25641026 , 4132.30769231 , 4132.82051282 , 4129.23076923 , 4130.25641026 , 4125.64102564 , 4132.30769231 , 4135.38461538 , 4137.43589744 , 4190.76923077 , 4908.71794872 , 4133.84615385 , 4140.51282051 , 2041.0 , 2035.0 , 11.626 , 0.0 , 0.0 , 0.0 , 0.0 , 

100.0 , 4130.76923077 , 4131.28205128 , 4130.76923077 , 4131.28205128 , 4129.74358974 , 4130.25641026 , 4128.71794872 , 4133.33333333 , 4135.8974359 , 4136.41025641 , 4191.28205128 , 4907.69230769 , 4133.84615385 , 4140.51282051 , 2042.0 , 2035.0 , 11.634 , 0.0 , 0.0 , 0.0 , 0.0 , 

101.0 , 4129.23076923 , 4130.25641026 , 4133.33333333 , 4130.25641026 , 4131.79487179 , 4131.79487179 , 4128.71794872 , 4133.33333333 , 4134.87179487 , 4136.92307692 , 4190.76923077 , 4908.71794872 , 4135.38461538 , 4138.97435897 , 2041.0 , 2035.0 , 11.642 , 0.0 , 0.0 , 0.0 , 0.0 , 

102.0 , 4131.28205128 , 4129.74358974 , 4135.8974359 , 4133.84615385 , 4130.76923077 , 4131.79487179 , 4125.64102564 , 4132.30769231 , 4131.79487179 , 4137.94871795 , 4189.23076923 , 4913.84615385 , 4136.92307692 , 4138.97435897 , 2042.0 , 2036.0 , 11.649 , 0.0 , 0.0 , 0.0 , 0.0 , 

103.0 , 4131.79487179 , 4129.74358974 , 4134.87179487 , 4136.41025641 , 4129.74358974 , 4131.28205128 , 4135.8974359 , 4129.23076923 , 4131.79487179 , 4138.46153846 , 4189.23076923 , 4911.28205128 , 4135.8974359 , 4137.94871795 , 2042.0 , 2037.0 , 11.657 , 0.0 , 0.0 , 0.0 , 0.0 , 

104.0 , 4130.25641026 , 4131.28205128 , 4133.33333333 , 4135.8974359 , 4131.28205128 , 4131.79487179 , 4137.43589744 , 4129.23076923 , 4134.35897436 , 4136.92307692 , 4191.28205128 , 4908.20512821 , 4133.84615385 , 4136.41025641 , 2041.0 , 2035.0 , 11.665 , 0.0 , 0.0 , 0.0 , 0.0 , 

105.0 , 4130.25641026 , 4130.25641026 , 4134.35897436 , 4135.38461538 , 4134.35897436 , 4130.76923077 , 4123.58974359 , 4131.79487179 , 4135.38461538 , 4135.38461538 , 4190.76923077 , 4912.30769231 , 4135.38461538 , 4137.94871795 , 2041.0 , 2036.0 , 11.673 , 0.0 , 0.0 , 0.0 , 0.0 , 

106.0 , 4130.25641026 , 4127.17948718 , 4132.82051282 , 4133.84615385 , 4133.84615385 , 4127.69230769 , 4123.07692308 , 4131.28205128 , 4134.35897436 , 4137.43589744 , 4189.74358974 , 4912.30769231 , 4134.87179487 , 4140.0 , 2042.0 , 2035.0 , 11.681 , 0.0 , 0.0 , 0.0 , 0.0 , 

107.0 , 4132.82051282 , 4129.74358974 , 4132.82051282 , 4134.35897436 , 4128.20512821 , 4128.71794872 , 4130.76923077 , 4130.25641026 , 4132.30769231 , 4138.97435897 , 4192.30769231 , 4909.74358974 , 4134.35897436 , 4141.53846154 , 2042.0 , 2036.0 , 11.689 , 0.0 , 0.0 , 0.0 , 0.0 , 

108.0 , 4131.79487179 , 4130.76923077 , 4131.28205128 , 4134.87179487 , 4128.20512821 , 4131.28205128 , 4125.12820513 , 4131.28205128 , 4134.87179487 , 4136.41025641 , 4192.30769231 , 4909.74358974 , 4135.38461538 , 4139.48717949 , 2042.0 , 2035.0 , 11.697 , 0.0 , 0.0 , 0.0 , 0.0 , 

109.0 , 4130.25641026 , 4129.74358974 , 4135.38461538 , 4132.82051282 , 4130.76923077 , 4130.76923077 , 4117.43589744 , 4132.30769231 , 4134.35897436 , 4135.38461538 , 4189.23076923 , 4911.79487179 , 4135.38461538 , 4137.94871795 , 2041.0 , 2035.0 , 11.705 , 0.0 , 0.0 , 0.0 , 0.0 , 

110.0 , 4128.71794872 , 4129.74358974 , 4132.82051282 , 4131.28205128 , 4131.28205128 , 4131.28205128 , 4122.56410256 , 4133.33333333 , 4132.30769231 , 4136.92307692 , 4187.69230769 , 4909.23076923 , 4135.38461538 , 4138.46153846 , 2041.0 , 2035.0 , 11.713 , 0.0 , 0.0 , 0.0 , 0.0 , 

111.0 , 4133.33333333 , 4132.82051282 , 4132.82051282 , 4133.33333333 , 4129.23076923 , 4131.79487179 , 4132.82051282 , 4133.33333333 , 4132.82051282 , 4136.41025641 , 4190.25641026 , 4910.76923077 , 4136.41025641 , 4141.02564103 , 2042.0 , 2033.0 , 11.72 , 0.0 , 0.0 , 0.0 , 0.0 , 

112.0 , 4132.30769231 , 4130.25641026 , 4132.82051282 , 4134.35897436 , 4131.79487179 , 4127.69230769 , 4133.84615385 , 4132.82051282 , 4135.38461538 , 4134.35897436 , 4191.28205128 , 4907.69230769 , 4136.41025641 , 4137.94871795 , 2042.0 , 2036.0 , 11.728 , 0.0 , 0.0 , 0.0 , 0.0 , 

113.0 , 4132.30769231 , 4131.28205128 , 4134.35897436 , 4133.33333333 , 4133.33333333 , 4128.20512821 , 4125.64102564 , 4131.28205128 , 4131.79487179 , 4135.38461538 , 4189.74358974 , 4906.66666667 , 4134.87179487 , 4137.43589744 , 2042.0 , 2036.0 , 11.736 , 0.0 , 0.0 , 0.0 , 0.0 , 

114.0 , 4131.79487179 , 4129.74358974 , 4131.28205128 , 4133.33333333 , 4128.71794872 , 4130.76923077 , 4123.58974359 , 4130.76923077 , 4130.25641026 , 4136.92307692 , 4188.20512821 , 4907.69230769 , 4134.35897436 , 4140.0 , 2041.0 , 2035.0 , 11.744 , 0.0 , 0.0 , 0.0 , 0.0 , 

115.0 , 4134.35897436 , 4129.23076923 , 4135.38461538 , 4135.8974359 , 4127.17948718 , 4129.74358974 , 4133.84615385 , 4130.25641026 , 4131.79487179 , 4135.8974359 , 4189.23076923 , 4911.79487179 , 4135.38461538 , 4141.02564103 , 2042.0 , 2036.0 , 11.752 , 0.0 , 0.0 , 0.0 , 0.0 , 

116.0 , 4130.25641026 , 4128.71794872 , 4132.82051282 , 4134.35897436 , 4129.74358974 , 4128.20512821 , 4135.8974359 , 4131.28205128 , 4131.28205128 , 4136.92307692 , 4189.23076923 , 4908.20512821 , 4134.87179487 , 4138.46153846 , 2042.0 , 2036.0 , 11.76 , 0.0 , 0.0 , 0.0 , 0.0 , 

117.0 , 4129.74358974 , 4131.28205128 , 4131.28205128 , 4133.33333333 , 4128.20512821 , 4130.76923077 , 4130.25641026 , 4131.28205128 , 4130.25641026 , 4138.46153846 , 4188.20512821 , 4909.23076923 , 4133.33333333 , 4140.0 , 2042.0 , 2035.0 , 11.768 , 0.0 , 0.0 , 0.0 , 0.0 , 

118.0 , 4131.28205128 , 4130.76923077 , 4132.30769231 , 4134.35897436 , 4128.20512821 , 4130.76923077 , 4133.84615385 , 4131.28205128 , 4131.79487179 , 4137.43589744 , 4188.71794872 , 4910.76923077 , 4135.38461538 , 4140.0 , 2042.0 , 2035.0 , 11.776 , 0.0 , 0.0 , 0.0 , 0.0 , 

119.0 , 4132.30769231 , 4130.25641026 , 4133.84615385 , 4132.82051282 , 4128.71794872 , 4130.76923077 , 4135.8974359 , 4131.28205128 , 4130.76923077 , 4136.41025641 , 4190.76923077 , 4911.28205128 , 4137.94871795 , 4138.46153846 , 2041.0 , 2036.0 , 11.783 , 0.0 , 0.0 , 0.0 , 0.0 , 

120.0 , 4131.79487179 , 4129.23076923 , 4131.28205128 , 4130.25641026 , 4131.28205128 , 4130.76923077 , 4128.20512821 , 4132.30769231 , 4129.74358974 , 4136.92307692 , 4190.25641026 , 4908.71794872 , 4135.38461538 , 4138.97435897 , 2042.0 , 2036.0 , 11.793 , 0.0 , 0.0 , 0.0 , 0.0 , 

121.0 , 4131.79487179 , 4127.69230769 , 4133.84615385 , 4131.79487179 , 4131.79487179 , 4129.74358974 , 4128.71794872 , 4132.82051282 , 4131.79487179 , 4135.8974359 , 4190.25641026 , 4909.23076923 , 4133.84615385 , 4141.53846154 , 2041.0 , 2035.0 , 11.8 , 0.0 , 0.0 , 0.0 , 0.0 , 

122.0 , 4131.28205128 , 4127.69230769 , 4136.92307692 , 4135.38461538 , 4129.23076923 , 4128.71794872 , 4136.41025641 , 4131.79487179 , 4133.33333333 , 4134.87179487 , 4192.30769231 , 4911.28205128 , 4136.41025641 , 4141.02564103 , 2042.0 , 2036.0 , 11.808 , 0.0 , 0.0 , 0.0 , 0.0 , 

123.0 , 4131.28205128 , 4129.74358974 , 4132.30769231 , 4133.84615385 , 4126.66666667 , 4128.71794872 , 4135.8974359 , 4130.76923077 , 4132.30769231 , 4136.92307692 , 4192.82051282 , 4911.28205128 , 4136.41025641 , 4137.43589744 , 2041.0 , 2035.0 , 11.815 , 0.0 , 0.0 , 0.0 , 0.0 , 

124.0 , 4132.30769231 , 4132.82051282 , 4129.23076923 , 4132.82051282 , 4129.23076923 , 4129.23076923 , 4132.82051282 , 4131.28205128 , 4128.71794872 , 4134.87179487 , 4191.79487179 , 4912.82051282 , 4135.38461538 , 4135.8974359 , 2041.0 , 2035.0 , 11.823 , 0.0 , 0.0 , 0.0 , 0.0 , 

125.0 , 4131.28205128 , 4132.82051282 , 4130.25641026 , 4135.38461538 , 4131.79487179 , 4129.74358974 , 4133.84615385 , 4131.79487179 , 4128.71794872 , 4128.71794872 , 4190.76923077 , 4911.79487179 , 4136.92307692 , 4137.43589744 , 2040.0 , 2035.0 , 11.831 , 0.0 , 0.0 , 0.0 , 0.0 , 

126.0 , 4133.33333333 , 4130.76923077 , 4131.79487179 , 4133.84615385 , 4129.74358974 , 4130.25641026 , 4135.8974359 , 4131.79487179 , 4130.25641026 , 4131.79487179 , 4191.28205128 , 4909.74358974 , 4136.92307692 , 4140.51282051 , 2040.0 , 2035.0 , 11.839 , 0.0 , 0.0 , 0.0 , 0.0 , 

127.0 , 4132.82051282 , 4129.23076923 , 4131.28205128 , 4129.74358974 , 4130.25641026 , 4128.71794872 , 4135.38461538 , 4132.30769231 , 4129.23076923 , 4139.48717949 , 4191.79487179 , 4908.20512821 , 4134.87179487 , 4138.97435897 , 2041.0 , 2034.0 , 11.847 , 0.0 , 0.0 , 0.0 , 0.0 , 

128.0 , 4132.82051282 , 4131.28205128 , 4137.43589744 , 4132.30769231 , 4132.82051282 , 4129.74358974 , 4134.35897436 , 4133.33333333 , 4129.23076923 , 4137.94871795 , 4191.79487179 , 4911.28205128 , 4135.38461538 , 4139.48717949 , 2042.0 , 2035.0 , 11.854 , 0.0 , 0.0 , 0.0 , 0.0 , 

0.0 , 4129.74358974 , 4129.23076923 , 4134.35897436 , 4132.82051282 , 4133.84615385 , 4130.25641026 , 4135.38461538 , 4133.84615385 , 4133.33333333 , 4135.38461538 , 4189.74358974 , 4909.23076923 , 4135.8974359 , 4139.48717949 , 2041.0 , 2036.0 , 11.864 , 0.0 , 0.0 , 0.0 , 0.0 , 

1.0 , 4131.79487179 , 4128.20512821 , 4131.79487179 , 4128.71794872 , 4130.76923077 , 4127.69230769 , 4131.79487179 , 4132.82051282 , 4133.33333333 , 4136.92307692 , 4190.25641026 , 4910.76923077 , 4134.87179487 , 4139.48717949 , 2041.0 , 2036.0 , 11.871 , 0.0 , 0.0 , 0.0 , 0.0 , 

2.0 , 4131.79487179 , 4128.71794872 , 4131.79487179 , 4128.20512821 , 4129.74358974 , 4126.66666667 , 4124.61538462 , 4131.79487179 , 4129.74358974 , 4134.87179487 , 4191.28205128 , 4910.25641026 , 4134.87179487 , 4138.97435897 , 2042.0 , 2035.0 , 11.878 , 0.0 , 0.0 , 0.0 , 0.0 , 

3.0 , 4133.33333333 , 4133.33333333 , 4134.87179487 , 4130.76923077 , 4129.23076923 , 4130.25641026 , 4122.05128205 , 4131.79487179 , 4130.76923077 , 4134.35897436 , 4190.25641026 , 4911.79487179 , 4136.41025641 , 4138.97435897 , 2042.0 , 2037.0 , 11.886 , 0.0 , 0.0 , 0.0 , 0.0 , 

4.0 , 4129.74358974 , 4131.28205128 , 4130.25641026 , 4130.25641026 , 4130.76923077 , 4130.76923077 , 4125.64102564 , 4130.25641026 , 4136.41025641 , 4137.43589744 , 4189.74358974 , 4910.76923077 , 4136.41025641 , 4137.43589744 , 2041.0 , 2036.0 , 11.894 , 0.0 , 0.0 , 0.0 , 0.0 , 

5.0 , 4129.23076923 , 4129.74358974 , 4132.30769231 , 4134.87179487 , 4132.30769231 , 4128.20512821 , 4129.74358974 , 4129.23076923 , 4134.35897436 , 4137.94871795 , 4191.79487179 , 4911.79487179 , 4135.38461538 , 4139.48717949 , 2041.0 , 2035.0 , 11.902 , 0.0 , 0.0 , 0.0 , 0.0 , 

6.0 , 4130.25641026 , 4129.74358974 , 4132.82051282 , 4136.41025641 , 4133.84615385 , 4129.23076923 , 4132.82051282 , 4130.76923077 , 4132.30769231 , 4136.41025641 , 4190.76923077 , 4909.74358974 , 4135.8974359 , 4140.0 , 2041.0 , 2036.0 , 11.91 , 0.0 , 0.0 , 0.0 , 0.0 , 

7.0 , 4133.84615385 , 4131.28205128 , 4133.84615385 , 4129.74358974 , 4131.28205128 , 4131.28205128 , 4127.69230769 , 4130.76923077 , 4132.82051282 , 4135.8974359 , 4189.23076923 , 4911.79487179 , 4137.43589744 , 4141.02564103 , 2042.0 , 2035.0 , 11.917 , 0.0 , 0.0 , 0.0 , 0.0 , 

8.0 , 4132.30769231 , 4130.76923077 , 4133.33333333 , 4127.17948718 , 4128.71794872 , 4129.74358974 , 4125.12820513 , 4131.79487179 , 4133.33333333 , 4136.41025641 , 4191.79487179 , 4910.76923077 , 4135.8974359 , 4140.51282051 , 2042.0 , 2037.0 , 11.925 , 0.0 , 0.0 , 0.0 , 0.0 , 

9.0 , 4131.28205128 , 4134.87179487 , 4134.35897436 , 4130.76923077 , 4128.71794872 , 4128.71794872 , 4132.30769231 , 4134.35897436 , 4133.84615385 , 4136.92307692 , 4193.84615385 , 4909.74358974 , 4132.30769231 , 4140.0 , 2041.0 , 2036.0 , 11.933 , 0.0 , 0.0 , 0.0 , 0.0 , 

10.0 , 4131.79487179 , 4133.84615385 , 4133.33333333 , 4131.79487179 , 4128.71794872 , 4129.23076923 , 4133.33333333 , 4133.33333333 , 4135.38461538 , 4136.92307692 , 4190.25641026 , 4910.25641026 , 4133.84615385 , 4139.48717949 , 2042.0 , 2036.0 , 11.941 , 0.0 , 0.0 , 0.0 , 0.0 , 

11.0 , 4131.28205128 , 4129.23076923 , 4134.35897436 , 4133.84615385 , 4129.74358974 , 4130.25641026 , 4128.20512821 , 4129.74358974 , 4134.35897436 , 4136.92307692 , 4189.23076923 , 4910.76923077 , 4136.92307692 , 4138.46153846 , 2042.0 , 2034.0 , 11.949 , 0.0 , 0.0 , 0.0 , 0.0 , 

12.0 , 4128.71794872 , 4129.74358974 , 4135.38461538 , 4134.35897436 , 4130.76923077 , 4129.23076923 , 4130.76923077 , 4131.79487179 , 4132.30769231 , 4138.46153846 , 4189.74358974 , 4909.23076923 , 4134.87179487 , 4137.94871795 , 2042.0 , 2034.0 , 11.957 , 0.0 , 0.0 , 0.0 , 0.0 , 

13.0 , 4129.23076923 , 4134.35897436 , 4131.79487179 , 4129.23076923 , 4129.23076923 , 4128.20512821 , 4130.25641026 , 4134.35897436 , 4135.38461538 , 4137.94871795 , 4188.20512821 , 4908.71794872 , 4132.82051282 , 4139.48717949 , 2041.0 , 2035.0 , 11.965 , 0.0 , 0.0 , 0.0 , 0.0 , 

14.0 , 4130.76923077 , 4135.38461538 , 4131.28205128 , 4128.20512821 , 4128.20512821 , 4128.71794872 , 4122.56410256 , 4133.33333333 , 4136.41025641 , 4136.41025641 , 4188.20512821 , 4911.28205128 , 4135.38461538 , 4140.51282051 , 2042.0 , 2034.0 , 11.973 , 0.0 , 0.0 , 0.0 , 0.0 , 

15.0 , 4128.71794872 , 4130.76923077 , 4133.33333333 , 4129.74358974 , 4131.28205128 , 4129.74358974 , 4124.61538462 , 4132.82051282 , 4132.82051282 , 4135.8974359 , 4191.79487179 , 4912.30769231 , 4137.94871795 , 4137.43589744 , 2042.0 , 2035.0 , 11.98 , 0.0 , 0.0 , 0.0 , 0.0 , 

16.0 , 4130.25641026 , 4129.74358974 , 4134.87179487 , 4130.25641026 , 4131.28205128 , 4130.76923077 , 4136.41025641 , 4131.79487179 , 4133.33333333 , 4135.8974359 , 4192.82051282 , 4911.28205128 , 4136.41025641 , 4136.92307692 , 2041.0 , 2035.0 , 11.988 , 0.0 , 0.0 , 0.0 , 0.0 , 

17.0 , 4129.23076923 , 4130.25641026 , 4130.76923077 , 4131.79487179 , 4130.76923077 , 4128.20512821 , 4138.46153846 , 4126.66666667 , 4136.41025641 , 4135.8974359 , 4191.28205128 , 4905.12820513 , 4136.41025641 , 4136.41025641 , 2041.0 , 2036.0 , 11.997 , 0.0 , 0.0 , 0.0 , 0.0 , 

18.0 , 4130.25641026 , 4131.28205128 , 4132.30769231 , 4133.33333333 , 4131.28205128 , 4127.17948718 , 4134.35897436 , 4128.71794872 , 4133.33333333 , 4136.41025641 , 4191.79487179 , 4908.20512821 , 4134.87179487 , 4137.43589744 , 2041.0 , 2036.0 , 12.005 , 0.0 , 0.0 , 0.0 , 0.0 , 

19.0 , 4130.76923077 , 4130.25641026 , 4131.79487179 , 4129.74358974 , 4129.74358974 , 4128.71794872 , 4134.87179487 , 4138.46153846 , 4131.28205128 , 4137.43589744 , 4191.28205128 , 4911.79487179 , 4136.41025641 , 4137.43589744 , 2041.0 , 2034.0 , 12.013 , 0.0 , 0.0 , 0.0 , 0.0 , 

20.0 , 4134.35897436 , 4132.82051282 , 4134.35897436 , 4129.74358974 , 4127.17948718 , 4131.28205128 , 4136.92307692 , 4138.46153846 , 4132.30769231 , 4136.41025641 , 4191.28205128 , 4911.28205128 , 4136.41025641 , 4138.46153846 , 2041.0 , 2034.0 , 12.02 , 0.0 , 0.0 , 0.0 , 0.0 , 

21.0 , 4133.33333333 , 4132.82051282 , 4132.82051282 , 4132.30769231 , 4129.74358974 , 4130.25641026 , 4134.87179487 , 4132.82051282 , 4131.79487179 , 4135.8974359 , 4191.28205128 , 4905.64102564 , 4129.74358974 , 4137.94871795 , 2042.0 , 2035.0 , 12.028 , 0.0 , 0.0 , 0.0 , 0.0 , 

22.0 , 4133.84615385 , 4133.33333333 , 4132.82051282 , 4132.30769231 , 4128.71794872 , 4129.74358974 , 4134.87179487 , 4132.82051282 , 4129.23076923 , 4135.8974359 , 4191.79487179 , 4908.71794872 , 4128.20512821 , 4139.48717949 , 2043.0 , 2036.0 , 12.036 , 0.0 , 0.0 , 0.0 , 0.0 , 

23.0 , 4131.79487179 , 4130.76923077 , 4130.76923077 , 4129.23076923 , 4126.66666667 , 4130.25641026 , 4134.87179487 , 4134.87179487 , 4131.28205128 , 4135.8974359 , 4190.25641026 , 4910.76923077 , 4135.38461538 , 4139.48717949 , 2042.0 , 2036.0 , 12.044 , 0.0 , 0.0 , 0.0 , 0.0 , 

24.0 , 4134.35897436 , 4129.74358974 , 4136.41025641 , 4128.71794872 , 4130.25641026 , 4130.25641026 , 4134.87179487 , 4132.30769231 , 4132.30769231 , 4136.41025641 , 4190.25641026 , 4910.76923077 , 4135.8974359 , 4139.48717949 , 2042.0 , 2034.0 , 12.051 , 0.0 , 0.0 , 0.0 , 0.0 , 

25.0 , 4132.82051282 , 4129.23076923 , 4133.84615385 , 4130.25641026 , 4134.87179487 , 4129.74358974 , 4134.87179487 , 4132.30769231 , 4134.35897436 , 4136.41025641 , 4190.25641026 , 4908.20512821 , 4134.35897436 , 4139.48717949 , 2042.0 , 2035.0 , 12.059 , 0.0 , 0.0 , 0.0 , 0.0 , 

26.0 , 4130.76923077 , 4129.74358974 , 4131.28205128 , 4134.87179487 , 4130.25641026 , 4129.74358974 , 4135.38461538 , 4131.79487179 , 4136.92307692 , 4136.92307692 , 4190.25641026 , 4911.28205128 , 4137.94871795 , 4139.48717949 , 2041.0 , 2037.0 , 12.067 , 0.0 , 0.0 , 0.0 , 0.0 , 

27.0 , 4130.76923077 , 4129.23076923 , 4130.76923077 , 4134.87179487 , 4127.17948718 , 4129.74358974 , 4135.38461538 , 4130.25641026 , 4134.87179487 , 4136.92307692 , 4190.25641026 , 4912.82051282 , 4135.8974359 , 4136.41025641 , 2043.0 , 2036.0 , 12.075 , 0.0 , 0.0 , 0.0 , 0.0 , 

28.0 , 4132.30769231 , 4130.76923077 , 4131.79487179 , 4131.28205128 , 4130.25641026 , 4129.74358974 , 4133.33333333 , 4131.79487179 , 4130.76923077 , 4136.92307692 , 4190.76923077 , 4911.28205128 , 4130.76923077 , 4137.43589744 , 2042.0 , 2036.0 , 12.083 , 0.0 , 0.0 , 0.0 , 0.0 , 

29.0 , 4131.79487179 , 4131.28205128 , 4130.76923077 , 4133.33333333 , 4130.25641026 , 4128.71794872 , 4136.92307692 , 4132.30769231 , 4134.35897436 , 4136.92307692 , 4189.74358974 , 4909.74358974 , 4132.30769231 , 4137.94871795 , 2042.0 , 2036.0 , 12.091 , 0.0 , 0.0 , 0.0 , 0.0 , 

30.0 , 4131.28205128 , 4131.28205128 , 4131.28205128 , 4135.8974359 , 4125.12820513 , 4129.74358974 , 4135.8974359 , 4131.79487179 , 4136.92307692 , 4136.92307692 , 4190.76923077 , 4911.28205128 , 4133.84615385 , 4135.8974359 , 2042.0 , 2036.0 , 12.099 , 0.0 , 0.0 , 0.0 , 0.0 , 

31.0 , 4130.25641026 , 4130.76923077 , 4133.33333333 , 4134.35897436 , 4126.15384615 , 4129.23076923 , 4124.61538462 , 4131.28205128 , 4132.82051282 , 4136.41025641 , 4192.82051282 , 4911.79487179 , 4133.84615385 , 4136.92307692 , 2043.0 , 2036.0 , 12.107 , 0.0 , 0.0 , 0.0 , 0.0 , 

32.0 , 4131.79487179 , 4131.28205128 , 4131.79487179 , 4134.87179487 , 4131.28205128 , 4128.20512821 , 4124.61538462 , 4132.30769231 , 4132.82051282 , 4136.41025641 , 4191.28205128 , 4909.74358974 , 4133.33333333 , 4141.02564103 , 2043.0 , 2036.0 , 12.114 , 0.0 , 0.0 , 0.0 , 0.0 , 

33.0 , 4133.84615385 , 4132.82051282 , 4131.79487179 , 4134.87179487 , 4131.79487179 , 4130.25641026 , 4134.87179487 , 4132.30769231 , 4136.92307692 , 4136.41025641 , 4190.25641026 , 4910.25641026 , 4134.87179487 , 4140.51282051 , 2042.0 , 2036.0 , 12.122 , 0.0 , 0.0 , 0.0 , 0.0 , 

34.0 , 4129.23076923 , 4130.76923077 , 4127.69230769 , 4131.79487179 , 4128.71794872 , 4131.28205128 , 4132.82051282 , 4131.79487179 , 4136.41025641 , 4135.38461538 , 4192.82051282 , 4910.25641026 , 4136.92307692 , 4137.43589744 , 2041.0 , 2035.0 , 12.13 , 0.0 , 0.0 , 0.0 , 0.0 , 

35.0 , 4130.25641026 , 4128.71794872 , 4128.71794872 , 4135.8974359 , 4127.17948718 , 4130.25641026 , 4125.64102564 , 4132.30769231 , 4133.84615385 , 4136.92307692 , 4192.30769231 , 4913.33333333 , 4134.87179487 , 4139.48717949 , 2042.0 , 2035.0 , 12.138 , 0.0 , 0.0 , 0.0 , 0.0 , 

36.0 , 4132.30769231 , 4127.17948718 , 4129.23076923 , 4135.8974359 , 4129.74358974 , 4128.71794872 , 4131.28205128 , 4131.79487179 , 4136.92307692 , 4137.43589744 , 4188.71794872 , 4911.28205128 , 4132.82051282 , 4139.48717949 , 2042.0 , 2034.0 , 12.146 , 0.0 , 0.0 , 0.0 , 0.0 , 

37.0 , 4132.30769231 , 4128.71794872 , 4132.82051282 , 4130.25641026 , 4132.30769231 , 4128.20512821 , 4134.35897436 , 4132.30769231 , 4134.87179487 , 4134.87179487 , 4189.23076923 , 4907.69230769 , 4135.8974359 , 4141.02564103 , 2041.0 , 2035.0 , 12.154 , 0.0 , 0.0 , 0.0 , 0.0 , 

38.0 , 4129.74358974 , 4129.23076923 , 4130.76923077 , 4129.74358974 , 4132.30769231 , 4127.69230769 , 4130.25641026 , 4134.35897436 , 4130.25641026 , 4135.38461538 , 4190.76923077 , 4907.69230769 , 4136.41025641 , 4138.97435897 , 2042.0 , 2034.0 , 12.162 , 0.0 , 0.0 , 0.0 , 0.0 , 

39.0 , 4132.82051282 , 4131.79487179 , 4131.28205128 , 4132.82051282 , 4128.71794872 , 4129.23076923 , 4132.30769231 , 4133.33333333 , 4130.76923077 , 4137.94871795 , 4190.25641026 , 4913.84615385 , 4132.30769231 , 4137.43589744 , 2043.0 , 2034.0 , 12.17 , 0.0 , 0.0 , 0.0 , 0.0 , 

40.0 , 4129.74358974 , 4128.20512821 , 4131.28205128 , 4131.79487179 , 4127.69230769 , 4128.71794872 , 4131.28205128 , 4132.82051282 , 4134.87179487 , 4136.92307692 , 4190.76923077 , 4911.79487179 , 4134.87179487 , 4137.43589744 , 2040.0 , 2034.0 , 12.179 , 0.0 , 0.0 , 0.0 , 0.0 , 

41.0 , 4129.74358974 , 4127.69230769 , 4134.87179487 , 4132.82051282 , 4127.17948718 , 4128.71794872 , 4127.17948718 , 4131.79487179 , 4134.35897436 , 4135.38461538 , 4189.74358974 , 4909.74358974 , 4136.92307692 , 4138.46153846 , 2040.0 , 2036.0 , 12.185 , 0.0 , 0.0 , 0.0 , 0.0 , 

42.0 , 4130.25641026 , 4130.25641026 , 4131.79487179 , 4131.28205128 , 4130.25641026 , 4130.76923077 , 4131.28205128 , 4130.76923077 , 4135.38461538 , 4136.92307692 , 4186.15384615 , 4910.25641026 , 4133.33333333 , 4136.41025641 , 2042.0 , 2034.0 , 12.193 , 0.0 , 0.0 , 0.0 , 0.0 , 

43.0 , 4134.35897436 , 4133.84615385 , 4133.33333333 , 4129.23076923 , 4132.82051282 , 4130.76923077 , 4134.87179487 , 4129.23076923 , 4135.8974359 , 4136.92307692 , 4187.17948718 , 4913.33333333 , 4131.28205128 , 4138.46153846 , 2042.0 , 2034.0 , 12.201 , 0.0 , 0.0 , 0.0 , 0.0 , 

44.0 , 4134.87179487 , 4133.84615385 , 4133.84615385 , 4132.30769231 , 4132.30769231 , 4129.23076923 , 4131.79487179 , 4129.74358974 , 4134.35897436 , 4136.41025641 , 4189.74358974 , 4910.25641026 , 4133.33333333 , 4138.97435897 , 2041.0 , 2035.0 , 12.209 , 0.0 , 0.0 , 0.0 , 0.0 , 

45.0 , 4132.30769231 , 4132.82051282 , 4132.82051282 , 4134.35897436 , 4129.23076923 , 4129.23076923 , 4132.30769231 , 4132.30769231 , 4132.30769231 , 4136.92307692 , 4189.23076923 , 4909.74358974 , 4133.33333333 , 4135.8974359 , 2042.0 , 2034.0 , 12.217 , 0.0 , 0.0 , 0.0 , 0.0 , 

46.0 , 4130.25641026 , 4129.74358974 , 4130.25641026 , 4130.25641026 , 4130.25641026 , 4127.69230769 , 4135.38461538 , 4132.30769231 , 4131.79487179 , 4136.92307692 , 4188.71794872 , 4908.71794872 , 4133.84615385 , 4135.8974359 , 2041.0 , 2035.0 , 12.225 , 0.0 , 0.0 , 0.0 , 0.0 , 

47.0 , 4134.35897436 , 4130.25641026 , 4132.82051282 , 4128.71794872 , 4130.25641026 , 4126.66666667 , 4134.87179487 , 4129.74358974 , 4131.79487179 , 4136.92307692 , 4189.23076923 , 4908.20512821 , 4133.33333333 , 4141.02564103 , 2041.0 , 2037.0 , 12.233 , 0.0 , 0.0 , 0.0 , 0.0 , 

48.0 , 4133.33333333 , 4131.28205128 , 4133.33333333 , 4129.74358974 , 4125.64102564 , 4129.23076923 , 4132.82051282 , 4130.76923077 , 4132.30769231 , 4136.41025641 , 4190.25641026 , 4907.69230769 , 4131.79487179 , 4140.51282051 , 2042.0 , 2036.0 , 12.241 , 0.0 , 0.0 , 0.0 , 0.0 , 

49.0 , 4129.74358974 , 4130.25641026 , 4132.82051282 , 4132.30769231 , 4126.15384615 , 4130.25641026 , 4132.30769231 , 4131.28205128 , 4132.30769231 , 4135.8974359 , 4188.71794872 , 4906.66666667 , 4133.84615385 , 4137.43589744 , 2041.0 , 2035.0 , 12.248 , 0.0 , 0.0 , 0.0 , 0.0 , 

50.0 , 4131.28205128 , 4129.23076923 , 4133.84615385 , 4133.84615385 , 4130.25641026 , 4127.69230769 , 4135.8974359 , 4132.82051282 , 4132.82051282 , 4136.41025641 , 4189.23076923 , 4907.69230769 , 4134.35897436 , 4138.46153846 , 2042.0 , 2035.0 , 12.257 , 0.0 , 0.0 , 0.0 , 0.0 , 

51.0 , 4130.76923077 , 4130.76923077 , 4130.76923077 , 4132.82051282 , 4129.23076923 , 4126.66666667 , 4133.33333333 , 4138.46153846 , 4134.87179487 , 4136.92307692 , 4191.79487179 , 4908.71794872 , 4132.82051282 , 4140.51282051 , 2042.0 , 2034.0 , 12.264 , 0.0 , 0.0 , 0.0 , 0.0 , 

52.0 , 4129.23076923 , 4132.82051282 , 4130.76923077 , 4132.82051282 , 4126.66666667 , 4129.74358974 , 4124.1025641 , 4135.8974359 , 4134.35897436 , 4136.92307692 , 4190.76923077 , 4911.79487179 , 4131.79487179 , 4141.02564103 , 2042.0 , 2035.0 , 12.272 , 0.0 , 0.0 , 0.0 , 0.0 , 

53.0 , 4131.28205128 , 4130.25641026 , 4130.25641026 , 4133.84615385 , 4128.71794872 , 4132.82051282 , 4123.58974359 , 4129.23076923 , 4135.38461538 , 4136.92307692 , 4187.17948718 , 4912.82051282 , 4135.38461538 , 4138.97435897 , 2041.0 , 2036.0 , 12.281 , 0.0 , 0.0 , 0.0 , 0.0 , 

54.0 , 4135.38461538 , 4129.74358974 , 4132.30769231 , 4133.84615385 , 4130.76923077 , 4131.79487179 , 4126.66666667 , 4131.28205128 , 4133.84615385 , 4137.43589744 , 4189.74358974 , 4913.33333333 , 4135.38461538 , 4138.97435897 , 2041.0 , 2036.0 , 12.289 , 0.0 , 0.0 , 0.0 , 0.0 , 

55.0 , 4130.76923077 , 4131.79487179 , 4129.74358974 , 4130.76923077 , 4129.74358974 , 4129.74358974 , 4126.66666667 , 4133.33333333 , 4131.79487179 , 4137.43589744 , 4193.84615385 , 4908.71794872 , 4129.74358974 , 4138.46153846 , 2040.0 , 2035.0 , 12.296 , 0.0 , 0.0 , 0.0 , 0.0 , 

56.0 , 4128.71794872 , 4134.87179487 , 4131.28205128 , 4132.82051282 , 4128.20512821 , 4132.30769231 , 4130.76923077 , 4127.69230769 , 4132.30769231 , 4137.43589744 , 4191.79487179 , 4910.25641026 , 4130.25641026 , 4139.48717949 , 2042.0 , 2038.0 , 12.304 , 0.0 , 0.0 , 0.0 , 0.0 , 

57.0 , 4130.76923077 , 4131.79487179 , 4131.79487179 , 4135.38461538 , 4131.28205128 , 4131.28205128 , 4136.92307692 , 4129.74358974 , 4136.41025641 , 4137.43589744 , 4188.20512821 , 4910.76923077 , 4136.41025641 , 4138.46153846 , 2043.0 , 2035.0 , 12.312 , 0.0 , 0.0 , 0.0 , 0.0 , 

58.0 , 4135.38461538 , 4130.25641026 , 4135.8974359 , 4133.84615385 , 4131.28205128 , 4128.71794872 , 4135.8974359 , 4133.84615385 , 4134.87179487 , 4136.41025641 , 4189.74358974 , 4910.25641026 , 4135.8974359 , 4140.51282051 , 2043.0 , 2035.0 , 12.319 , 0.0 , 0.0 , 0.0 , 0.0 , 

59.0 , 4132.30769231 , 4128.20512821 , 4131.79487179 , 4130.25641026 , 4128.71794872 , 4128.71794872 , 4134.87179487 , 4131.28205128 , 4132.30769231 , 4136.41025641 , 4190.76923077 , 4908.20512821 , 4132.30769231 , 4139.48717949 , 2041.0 , 2034.0 , 12.327 , 0.0 , 0.0 , 0.0 , 0.0 , 

60.0 , 4131.79487179 , 4128.20512821 , 4133.84615385 , 4132.82051282 , 4128.71794872 , 4130.25641026 , 4135.38461538 , 4131.79487179 , 4131.79487179 , 4137.43589744 , 4189.74358974 , 4912.30769231 , 4133.84615385 , 4137.43589744 , 2042.0 , 2035.0 , 12.335 , 0.0 , 0.0 , 0.0 , 0.0 , 

61.0 , 4132.30769231 , 4128.20512821 , 4135.38461538 , 4133.84615385 , 4134.35897436 , 4130.76923077 , 4136.41025641 , 4134.87179487 , 4134.87179487 , 4137.43589744 , 4190.76923077 , 4912.30769231 , 4134.35897436 , 4136.41025641 , 2042.0 , 2035.0 , 12.343 , 0.0 , 0.0 , 0.0 , 0.0 , 

62.0 , 4133.33333333 , 4130.76923077 , 4135.38461538 , 4132.82051282 , 4133.33333333 , 4130.25641026 , 4133.84615385 , 4133.84615385 , 4133.33333333 , 4136.92307692 , 4192.30769231 , 4909.74358974 , 4132.30769231 , 4138.97435897 , 2041.0 , 2036.0 , 12.351 , 0.0 , 0.0 , 0.0 , 0.0 , 

63.0 , 4129.74358974 , 4129.74358974 , 4131.79487179 , 4132.82051282 , 4129.74358974 , 4129.23076923 , 4126.15384615 , 4135.8974359 , 4131.28205128 , 4137.94871795 , 4188.71794872 , 4908.20512821 , 4135.38461538 , 4138.97435897 , 2041.0 , 2036.0 , 12.359 , 0.0 , 0.0 , 0.0 , 0.0 , 

64.0 , 4130.76923077 , 4129.23076923 , 4133.33333333 , 4132.30769231 , 4129.74358974 , 4129.74358974 , 4126.15384615 , 4138.46153846 , 4131.79487179 , 4138.46153846 , 4186.15384615 , 4913.33333333 , 4136.41025641 , 4138.97435897 , 2042.0 , 2036.0 , 12.367 , 0.0 , 0.0 , 0.0 , 0.0 , 

65.0 , 4130.25641026 , 4129.23076923 , 4131.79487179 , 4128.71794872 , 4130.76923077 , 4131.79487179 , 4130.25641026 , 4133.33333333 , 4133.84615385 , 4136.41025641 , 4189.23076923 , 4910.25641026 , 4133.33333333 , 4137.94871795 , 2041.0 , 2036.0 , 12.375 , 0.0 , 0.0 , 0.0 , 0.0 , 

66.0 , 4128.71794872 , 4129.23076923 , 4130.76923077 , 4128.71794872 , 4130.25641026 , 4130.25641026 , 4131.28205128 , 4128.71794872 , 4133.84615385 , 4135.8974359 , 4190.25641026 , 4905.64102564 , 4133.33333333 , 4138.97435897 , 2042.0 , 2035.0 , 12.382 , 0.0 , 0.0 , 0.0 , 0.0 , 

67.0 , 4129.23076923 , 4130.76923077 , 4132.82051282 , 4129.74358974 , 4131.79487179 , 4128.71794872 , 4135.8974359 , 4133.84615385 , 4133.84615385 , 4136.92307692 , 4188.20512821 , 4908.20512821 , 4132.82051282 , 4141.02564103 , 2042.0 , 2035.0 , 12.39 , 0.0 , 0.0 , 0.0 , 0.0 , 

68.0 , 4130.76923077 , 4131.79487179 , 4131.28205128 , 4128.20512821 , 4132.30769231 , 4130.25641026 , 4134.35897436 , 4135.8974359 , 4134.87179487 , 4136.92307692 , 4189.74358974 , 4910.76923077 , 4131.28205128 , 4138.97435897 , 2041.0 , 2036.0 , 12.399 , 0.0 , 0.0 , 0.0 , 0.0 , 

69.0 , 4131.79487179 , 4130.25641026 , 4132.30769231 , 4126.66666667 , 4128.20512821 , 4131.28205128 , 4124.1025641 , 4130.76923077 , 4133.84615385 , 4136.41025641 , 4190.25641026 , 4909.74358974 , 4134.35897436 , 4135.8974359 , 2041.0 , 2036.0 , 12.406 , 0.0 , 0.0 , 0.0 , 0.0 , 

70.0 , 4131.28205128 , 4129.23076923 , 4132.82051282 , 4128.20512821 , 4127.17948718 , 4129.74358974 , 4127.17948718 , 4131.28205128 , 4131.28205128 , 4137.43589744 , 4189.74358974 , 4907.69230769 , 4136.92307692 , 4135.38461538 , 2043.0 , 2035.0 , 12.414 , 0.0 , 0.0 , 0.0 , 0.0 , 

71.0 , 4133.84615385 , 4131.28205128 , 4132.30769231 , 4132.82051282 , 4128.20512821 , 4130.25641026 , 4135.8974359 , 4132.82051282 , 4130.76923077 , 4137.43589744 , 4190.76923077 , 4909.74358974 , 4134.35897436 , 4137.43589744 , 2043.0 , 2035.0 , 12.423 , 0.0 , 0.0 , 0.0 , 0.0 , 

72.0 , 4132.82051282 , 4128.71794872 , 4130.76923077 , 4133.33333333 , 4129.74358974 , 4132.30769231 , 4133.33333333 , 4131.28205128 , 4135.38461538 , 4136.41025641 , 4190.25641026 , 4908.20512821 , 4135.38461538 , 4137.94871795 , 2042.0 , 2035.0 , 12.43 , 0.0 , 0.0 , 0.0 , 0.0 , 

73.0 , 4132.30769231 , 4129.23076923 , 4133.84615385 , 4133.84615385 , 4131.28205128 , 4133.84615385 , 4132.30769231 , 4129.74358974 , 4135.8974359 , 4137.43589744 , 4189.23076923 , 4908.71794872 , 4135.8974359 , 4138.46153846 , 2041.0 , 2035.0 , 12.438 , 0.0 , 0.0 , 0.0 , 0.0 , 

74.0 , 4130.25641026 , 4131.79487179 , 4131.79487179 , 4133.84615385 , 4131.28205128 , 4131.28205128 , 4135.8974359 , 4131.28205128 , 4134.35897436 , 4137.94871795 , 4191.28205128 , 4907.17948718 , 4130.76923077 , 4137.43589744 , 2040.0 , 2034.0 , 12.446 , 0.0 , 0.0 , 0.0 , 0.0 , 

75.0 , 4130.25641026 , 4132.30769231 , 4132.82051282 , 4130.76923077 , 4127.17948718 , 4130.25641026 , 4133.33333333 , 4132.82051282 , 4133.84615385 , 4136.41025641 , 4194.35897436 , 4910.76923077 , 4132.30769231 , 4138.46153846 , 2041.0 , 2035.0 , 12.453 , 0.0 , 0.0 , 0.0 , 0.0 , 

76.0 , 4128.20512821 , 4127.17948718 , 4132.30769231 , 4128.71794872 , 4128.20512821 , 4130.25641026 , 4128.71794872 , 4132.82051282 , 4133.33333333 , 4136.41025641 , 4191.79487179 , 4911.79487179 , 4137.94871795 , 4137.43589744 , 2041.0 , 2035.0 , 12.462 , 0.0 , 0.0 , 0.0 , 0.0 , 

77.0 , 4132.30769231 , 4129.23076923 , 4133.84615385 , 4132.82051282 , 4131.79487179 , 4130.25641026 , 4126.15384615 , 4133.84615385 , 4132.30769231 , 4137.94871795 , 4190.25641026 , 4911.79487179 , 4135.8974359 , 4134.87179487 , 2042.0 , 2035.0 , 12.469 , 0.0 , 0.0 , 0.0 , 0.0 , 

78.0 , 4132.30769231 , 4131.28205128 , 4130.25641026 , 4132.82051282 , 4132.30769231 , 4128.71794872 , 4124.61538462 , 4131.79487179 , 4135.38461538 , 4136.92307692 , 4190.76923077 , 4910.25641026 , 4135.38461538 , 4132.30769231 , 2042.0 , 2036.0 , 12.478 , 0.0 , 0.0 , 0.0 , 0.0 , 

79.0 , 4133.84615385 , 4131.28205128 , 4134.87179487 , 4130.25641026 , 4129.74358974 , 4129.74358974 , 4126.15384615 , 4130.25641026 , 4133.33333333 , 4135.8974359 , 4191.28205128 , 4911.28205128 , 4137.43589744 , 4135.38461538 , 2042.0 , 2036.0 , 12.486 , 0.0 , 0.0 , 0.0 , 0.0 , 

80.0 , 4132.82051282 , 4130.25641026 , 4134.35897436 , 4130.76923077 , 4128.20512821 , 4131.28205128 , 4126.66666667 , 4134.35897436 , 4129.74358974 , 4137.43589744 , 4190.25641026 , 4907.69230769 , 4132.30769231 , 4135.8974359 , 2042.0 , 2036.0 , 12.494 , 0.0 , 0.0 , 0.0 , 0.0 , 

81.0 , 4128.71794872 , 4132.30769231 , 4133.33333333 , 4132.82051282 , 4128.71794872 , 4131.79487179 , 4129.74358974 , 4136.41025641 , 4131.28205128 , 4137.43589744 , 4189.74358974 , 4907.69230769 , 4130.25641026 , 4134.87179487 , 2042.0 , 2036.0 , 12.502 , 0.0 , 0.0 , 0.0 , 0.0 , 

82.0 , 4127.17948718 , 4128.71794872 , 4133.33333333 , 4132.82051282 , 4132.30769231 , 4130.25641026 , 4137.94871795 , 4133.33333333 , 4133.33333333 , 4135.38461538 , 4191.28205128 , 4909.23076923 , 4136.92307692 , 4135.38461538 , 2041.0 , 2035.0 , 12.508 , 0.0 , 0.0 , 0.0 , 0.0 , 

83.0 , 4132.82051282 , 4130.25641026 , 4135.8974359 , 4132.30769231 , 4130.76923077 , 4130.25641026 , 4134.35897436 , 4131.79487179 , 4132.82051282 , 4135.38461538 , 4191.79487179 , 4909.74358974 , 4138.46153846 , 4137.43589744 , 2041.0 , 2035.0 , 12.516 , 0.0 , 0.0 , 0.0 , 0.0 , 

84.0 , 4132.30769231 , 4132.30769231 , 4132.30769231 , 4133.84615385 , 4128.20512821 , 4129.74358974 , 4123.07692308 , 4132.30769231 , 4134.87179487 , 4137.94871795 , 4190.76923077 , 4908.71794872 , 4134.87179487 , 4137.94871795 , 2041.0 , 2036.0 , 12.524 , 0.0 , 0.0 , 0.0 , 0.0 , 

85.0 , 4129.74358974 , 4130.25641026 , 4129.74358974 , 4136.41025641 , 4131.28205128 , 4129.23076923 , 4128.20512821 , 4130.76923077 , 4135.38461538 , 4137.43589744 , 4189.23076923 , 4908.20512821 , 4134.35897436 , 4138.46153846 , 2041.0 , 2036.0 , 12.532 , 0.0 , 0.0 , 0.0 , 0.0 , 

86.0 , 4133.33333333 , 4128.71794872 , 4132.30769231 , 4133.84615385 , 4132.82051282 , 4130.25641026 , 4136.41025641 , 4131.28205128 , 4133.33333333 , 4135.8974359 , 4189.23076923 , 4909.74358974 , 4135.38461538 , 4137.94871795 , 2042.0 , 2035.0 , 12.54 , 0.0 , 0.0 , 0.0 , 0.0 , 

87.0 , 4134.87179487 , 4130.76923077 , 4131.79487179 , 4130.76923077 , 4130.25641026 , 4130.25641026 , 4131.79487179 , 4132.30769231 , 4134.87179487 , 4137.94871795 , 4189.74358974 , 4909.74358974 , 4136.41025641 , 4137.43589744 , 2042.0 , 2037.0 , 12.548 , 0.0 , 0.0 , 0.0 , 0.0 , 

88.0 , 4131.28205128 , 4130.76923077 , 4132.30769231 , 4133.33333333 , 4130.25641026 , 4128.71794872 , 4128.71794872 , 4130.25641026 , 4135.38461538 , 4140.0 , 4190.25641026 , 4907.17948718 , 4137.43589744 , 4138.97435897 , 2041.0 , 2036.0 , 12.556 , 0.0 , 0.0 , 0.0 , 0.0 , 

89.0 , 4128.20512821 , 4129.23076923 , 4134.35897436 , 4131.79487179 , 4132.30769231 , 4129.23076923 , 4130.76923077 , 4130.76923077 , 4132.82051282 , 4138.97435897 , 4189.23076923 , 4909.23076923 , 4133.33333333 , 4138.46153846 , 2041.0 , 2035.0 , 12.564 , 0.0 , 0.0 , 0.0 , 0.0 , 

90.0 , 4130.25641026 , 4131.28205128 , 4137.94871795 , 4130.76923077 , 4132.82051282 , 4131.79487179 , 4131.28205128 , 4131.28205128 , 4133.33333333 , 4136.41025641 , 4189.74358974 , 4914.87179487 , 4132.30769231 , 4139.48717949 , 2043.0 , 2035.0 , 12.572 , 0.0 , 0.0 , 0.0 , 0.0 , 

91.0 , 4129.23076923 , 4129.23076923 , 4133.33333333 , 4133.33333333 , 4133.33333333 , 4131.28205128 , 4129.23076923 , 4129.74358974 , 4136.92307692 , 4137.43589744 , 4190.76923077 , 4909.23076923 , 4135.8974359 , 4139.48717949 , 2041.0 , 2037.0 , 12.579 , 0.0 , 0.0 , 0.0 , 0.0 , 

92.0 , 4130.25641026 , 4129.74358974 , 4132.82051282 , 4133.33333333 , 4130.76923077 , 4130.25641026 , 4130.25641026 , 4128.20512821 , 4133.84615385 , 4136.92307692 , 4190.76923077 , 4907.69230769 , 4135.8974359 , 4139.48717949 , 2042.0 , 2035.0 , 12.587 , 0.0 , 0.0 , 0.0 , 0.0 , 

93.0 , 4130.25641026 , 4130.76923077 , 4131.28205128 , 4129.23076923 , 4130.25641026 , 4131.28205128 , 4129.23076923 , 4130.25641026 , 4130.76923077 , 4135.38461538 , 4191.28205128 , 4909.23076923 , 4134.87179487 , 4140.0 , 2042.0 , 2035.0 , 12.596 , 0.0 , 0.0 , 0.0 , 0.0 , 

94.0 , 4133.84615385 , 4131.28205128 , 4134.35897436 , 4131.79487179 , 4130.76923077 , 4133.33333333 , 4130.25641026 , 4130.76923077 , 4131.79487179 , 4136.92307692 , 4191.28205128 , 4910.25641026 , 4135.38461538 , 4141.02564103 , 2042.0 , 2036.0 , 12.603 , 0.0 , 0.0 , 0.0 , 0.0 , 

95.0 , 4130.76923077 , 4128.20512821 , 4132.30769231 , 4134.87179487 , 4129.74358974 , 4131.28205128 , 4129.74358974 , 4130.76923077 , 4133.33333333 , 4139.48717949 , 4188.71794872 , 4907.17948718 , 4135.8974359 , 4135.8974359 , 2042.0 , 2035.0 , 12.612 , 0.0 , 0.0 , 0.0 , 0.0 , 

96.0 , 4131.28205128 , 4130.76923077 , 4132.82051282 , 4133.84615385 , 4127.69230769 , 4129.23076923 , 4127.17948718 , 4131.28205128 , 4131.79487179 , 4138.97435897 , 4189.74358974 , 4911.28205128 , 4135.38461538 , 4135.8974359 , 2041.0 , 2037.0 , 12.619 , 0.0 , 0.0 , 0.0 , 0.0 , 

97.0 , 4130.25641026 , 4131.79487179 , 4132.30769231 , 4131.79487179 , 4129.74358974 , 4129.23076923 , 4130.76923077 , 4131.79487179 , 4133.84615385 , 4137.43589744 , 4191.28205128 , 4908.71794872 , 4136.41025641 , 4137.43589744 , 2041.0 , 2036.0 , 12.627 , 0.0 , 0.0 , 0.0 , 0.0 , 

98.0 , 4129.74358974 , 4131.28205128 , 4136.41025641 , 4132.30769231 , 4129.23076923 , 4130.76923077 , 4135.38461538 , 4129.74358974 , 4135.8974359 , 4136.92307692 , 4188.71794872 , 4908.20512821 , 4134.87179487 , 4138.46153846 , 2042.0 , 2035.0 , 12.635 , 0.0 , 0.0 , 0.0 , 0.0 , 

99.0 , 4130.76923077 , 4130.25641026 , 4133.84615385 , 4130.76923077 , 4128.20512821 , 4130.25641026 , 4132.82051282 , 4129.74358974 , 4136.92307692 , 4136.41025641 , 4189.74358974 , 4908.20512821 , 4135.38461538 , 4137.94871795 , 2042.0 , 2035.0 , 12.643 , 0.0 , 0.0 , 0.0 , 0.0 , 

100.0 , 4134.35897436 , 4131.79487179 , 4132.30769231 , 4131.28205128 , 4129.23076923 , 4130.76923077 , 4127.69230769 , 4132.30769231 , 4133.33333333 , 4135.8974359 , 4191.79487179 , 4908.71794872 , 4136.41025641 , 4138.97435897 , 2042.0 , 2036.0 , 12.65 , 0.0 , 0.0 , 0.0 , 0.0 , 

101.0 , 4130.25641026 , 4129.23076923 , 4132.82051282 , 4132.30769231 , 4130.76923077 , 4131.79487179 , 4130.25641026 , 4132.30769231 , 4132.82051282 , 4136.41025641 , 4190.25641026 , 4909.23076923 , 4133.84615385 , 4138.97435897 , 2043.0 , 2036.0 , 12.658 , 0.0 , 0.0 , 0.0 , 0.0 , 

102.0 , 4128.20512821 , 4129.23076923 , 4132.30769231 , 4130.76923077 , 4131.79487179 , 4129.74358974 , 4134.35897436 , 4130.25641026 , 4134.87179487 , 4137.94871795 , 4190.76923077 , 4910.76923077 , 4133.84615385 , 4138.46153846 , 2042.0 , 2035.0 , 12.666 , 0.0 , 0.0 , 0.0 , 0.0 , 

103.0 , 4130.25641026 , 4131.79487179 , 4128.71794872 , 4128.71794872 , 4131.79487179 , 4130.76923077 , 4133.84615385 , 4130.25641026 , 4132.82051282 , 4137.94871795 , 4191.28205128 , 4912.30769231 , 4133.84615385 , 4136.92307692 , 2040.0 , 2034.0 , 12.674 , 0.0 , 0.0 , 0.0 , 0.0 , 

104.0 , 4130.25641026 , 4131.79487179 , 4129.74358974 , 4127.69230769 , 4130.25641026 , 4133.84615385 , 4133.33333333 , 4131.28205128 , 4131.28205128 , 4136.92307692 , 4190.76923077 , 4910.76923077 , 4132.30769231 , 4135.8974359 , 2041.0 , 2034.0 , 12.682 , 0.0 , 0.0 , 0.0 , 0.0 , 

105.0 , 4130.76923077 , 4130.25641026 , 4132.82051282 , 4128.71794872 , 4129.74358974 , 4131.79487179 , 4129.74358974 , 4130.25641026 , 4134.35897436 , 4135.38461538 , 4190.25641026 , 4908.71794872 , 4134.87179487 , 4137.94871795 , 2042.0 , 2035.0 , 12.69 , 0.0 , 0.0 , 0.0 , 0.0 , 

106.0 , 4132.30769231 , 4130.25641026 , 4129.74358974 , 4130.76923077 , 4129.23076923 , 4128.20512821 , 4123.58974359 , 4130.76923077 , 4135.8974359 , 4135.38461538 , 4190.25641026 , 4908.20512821 , 4138.46153846 , 4138.46153846 , 2043.0 , 2035.0 , 12.698 , 0.0 , 0.0 , 0.0 , 0.0 , 

107.0 , 4130.25641026 , 4131.79487179 , 4129.74358974 , 4133.84615385 , 4128.71794872 , 4130.76923077 , 4122.05128205 , 4131.79487179 , 4132.82051282 , 4136.41025641 , 4190.76923077 , 4909.74358974 , 4136.41025641 , 4137.94871795 , 2041.0 , 2036.0 , 12.705 , 0.0 , 0.0 , 0.0 , 0.0 , 

108.0 , 4128.20512821 , 4131.79487179 , 4130.25641026 , 4134.35897436 , 4130.76923077 , 4131.28205128 , 4127.69230769 , 4131.28205128 , 4133.84615385 , 4136.41025641 , 4191.79487179 , 4907.69230769 , 4134.35897436 , 4137.43589744 , 2042.0 , 2038.0 , 12.713 , 0.0 , 0.0 , 0.0 , 0.0 , 

109.0 , 4133.33333333 , 4132.82051282 , 4132.30769231 , 4134.35897436 , 4129.74358974 , 4129.74358974 , 4134.87179487 , 4132.82051282 , 4133.84615385 , 4135.38461538 , 4190.76923077 , 4910.76923077 , 4136.92307692 , 4140.0 , 2041.0 , 2036.0 , 12.721 , 0.0 , 0.0 , 0.0 , 0.0 , 

110.0 , 4129.74358974 , 4130.25641026 , 4131.28205128 , 4133.33333333 , 4127.69230769 , 4129.74358974 , 4133.84615385 , 4134.35897436 , 4134.87179487 , 4136.92307692 , 4189.23076923 , 4910.25641026 , 4136.41025641 , 4138.46153846 , 2041.0 , 2037.0 , 12.729 , 0.0 , 0.0 , 0.0 , 0.0 , 

111.0 , 4126.15384615 , 4130.76923077 , 4135.38461538 , 4132.30769231 , 4128.71794872 , 4130.76923077 , 4130.25641026 , 4132.30769231 , 4136.41025641 , 4139.48717949 , 4190.25641026 , 4909.23076923 , 4135.8974359 , 4136.41025641 , 2041.0 , 2035.0 , 12.737 , 0.0 , 0.0 , 0.0 , 0.0 , 

112.0 , 4127.17948718 , 4130.25641026 , 4131.79487179 , 4133.84615385 , 4131.28205128 , 4129.23076923 , 4129.23076923 , 4131.79487179 , 4134.87179487 , 4138.46153846 , 4189.74358974 , 4910.25641026 , 4135.8974359 , 4137.43589744 , 2041.0 , 2034.0 , 12.745 , 0.0 , 0.0 , 0.0 , 0.0 , 

113.0 , 4132.30769231 , 4130.25641026 , 4133.33333333 , 4136.41025641 , 4127.17948718 , 4129.74358974 , 4127.69230769 , 4132.30769231 , 4132.30769231 , 4136.92307692 , 4189.74358974 , 4914.87179487 , 4134.35897436 , 4139.48717949 , 2043.0 , 2035.0 , 12.754 , 0.0 , 0.0 , 0.0 , 0.0 , 

114.0 , 4131.28205128 , 4128.20512821 , 4132.82051282 , 4133.33333333 , 4129.23076923 , 4130.25641026 , 4125.12820513 , 4131.79487179 , 4135.38461538 , 4137.43589744 , 4190.76923077 , 4911.28205128 , 4135.8974359 , 4137.43589744 , 2042.0 , 2035.0 , 12.762 , 0.0 , 0.0 , 0.0 , 0.0 , 

115.0 , 4132.82051282 , 4129.23076923 , 4134.35897436 , 4132.30769231 , 4133.84615385 , 4132.30769231 , 4132.82051282 , 4130.25641026 , 4133.84615385 , 4136.92307692 , 4192.30769231 , 4910.25641026 , 4135.8974359 , 4139.48717949 , 2042.0 , 2034.0 , 12.769 , 0.0 , 0.0 , 0.0 , 0.0 , 

116.0 , 4131.28205128 , 4130.25641026 , 4129.23076923 , 4134.87179487 , 4134.35897436 , 4131.79487179 , 4140.51282051 , 4131.28205128 , 4131.28205128 , 4136.92307692 , 4190.76923077 , 4909.23076923 , 4132.82051282 , 4140.0 , 2042.0 , 2035.0 , 12.777 , 0.0 , 0.0 , 0.0 , 0.0 , 

117.0 , 4130.25641026 , 4129.23076923 , 4131.28205128 , 4134.35897436 , 4129.23076923 , 4130.25641026 , 4132.30769231 , 4130.25641026 , 4133.33333333 , 4137.43589744 , 4189.23076923 , 4909.74358974 , 4133.84615385 , 4138.97435897 , 2042.0 , 2036.0 , 12.784 , 0.0 , 0.0 , 0.0 , 0.0 , 

118.0 , 4129.23076923 , 4126.15384615 , 4133.84615385 , 4129.74358974 , 4129.23076923 , 4130.25641026 , 4123.07692308 , 4129.23076923 , 4133.84615385 , 4136.41025641 , 4190.76923077 , 4909.74358974 , 4137.43589744 , 4136.92307692 , 2041.0 , 2035.0 , 12.792 , 0.0 , 0.0 , 0.0 , 0.0 , 

119.0 , 4131.79487179 , 4129.74358974 , 4134.35897436 , 4131.79487179 , 4131.28205128 , 4131.79487179 , 4130.76923077 , 4128.71794872 , 4130.25641026 , 4136.92307692 , 4191.28205128 , 4912.82051282 , 4136.92307692 , 4136.92307692 , 2041.0 , 2034.0 , 12.992 , 0.0 , 0.0 , 0.0 , 0.0 , 

120.0 , 4130.25641026 , 4132.30769231 , 4130.76923077 , 4133.84615385 , 4130.25641026 , 4131.28205128 , 4138.46153846 , 4128.20512821 , 4131.28205128 , 4135.8974359 , 4189.23076923 , 4909.74358974 , 4133.84615385 , 4136.92307692 , 2041.0 , 2036.0 , 12.992 , 0.0 , 0.0 , 0.0 , 0.0 , 

121.0 , 4129.23076923 , 4132.82051282 , 4130.76923077 , 4130.76923077 , 4128.71794872 , 4130.25641026 , 4133.33333333 , 4131.28205128 , 4134.35897436 , 4133.33333333 , 4189.23076923 , 4907.69230769 , 4133.33333333 , 4138.46153846 , 2042.0 , 2034.0 , 12.992 , 0.0 , 0.0 , 0.0 , 0.0 , 

122.0 , 4131.28205128 , 4131.79487179 , 4133.84615385 , 4131.28205128 , 4129.23076923 , 4130.25641026 , 4134.87179487 , 4132.82051282 , 4136.41025641 , 4134.87179487 , 4191.28205128 , 4907.17948718 , 4134.87179487 , 4139.48717949 , 2042.0 , 2035.0 , 12.992 , 0.0 , 0.0 , 0.0 , 0.0 , 

123.0 , 4133.33333333 , 4131.79487179 , 4134.87179487 , 4132.82051282 , 4129.23076923 , 4131.28205128 , 4137.43589744 , 4130.25641026 , 4137.43589744 , 4137.94871795 , 4191.79487179 , 4905.64102564 , 4135.8974359 , 4138.46153846 , 2042.0 , 2034.0 , 12.992 , 0.0 , 0.0 , 0.0 , 0.0 , 

124.0 , 4132.30769231 , 4132.30769231 , 4132.30769231 , 4129.74358974 , 4127.17948718 , 4131.28205128 , 4124.61538462 , 4133.33333333 , 4134.87179487 , 4136.92307692 , 4190.76923077 , 4906.66666667 , 4134.87179487 , 4140.0 , 2042.0 , 2036.0 , 12.992 , 0.0 , 0.0 , 0.0 , 0.0 , 

125.0 , 4130.25641026 , 4130.25641026 , 4129.23076923 , 4128.71794872 , 4129.23076923 , 4130.25641026 , 4124.1025641 , 4137.94871795 , 4134.87179487 , 4136.41025641 , 4189.23076923 , 4908.71794872 , 4135.8974359 , 4139.48717949 , 2042.0 , 2036.0 , 12.992 , 0.0 , 0.0 , 0.0 , 0.0 , 

126.0 , 4131.28205128 , 4130.25641026 , 4131.28205128 , 4132.30769231 , 4130.76923077 , 4130.25641026 , 4136.41025641 , 4135.38461538 , 4135.8974359 , 4137.94871795 , 4189.23076923 , 4910.76923077 , 4136.41025641 , 4137.94871795 , 2041.0 , 2036.0 , 12.992 , 0.0 , 0.0 , 0.0 , 0.0 , 

127.0 , 4131.28205128 , 4130.25641026 , 4129.23076923 , 4131.79487179 , 4129.23076923 , 4131.79487179 , 4133.84615385 , 4132.82051282 , 4131.79487179 , 4137.43589744 , 4189.74358974 , 4908.71794872 , 4132.82051282 , 4140.51282051 , 2041.0 , 2037.0 , 12.992 , 0.0 , 0.0 , 0.0 , 0.0 , 

128.0 , 4129.74358974 , 4131.28205128 , 4131.79487179 , 4132.30769231 , 4127.69230769 , 4131.79487179 , 4127.69230769 , 4132.82051282 , 4130.25641026 , 4135.8974359 , 4190.76923077 , 4911.28205128 , 4132.82051282 , 4144.61538462 , 2042.0 , 2035.0 , 12.992 , 0.0 , 0.0 , 0.0 , 0.0 , 

0.0 , 4127.17948718 , 4131.79487179 , 4131.28205128 , 4135.8974359 , 4129.23076923 , 4130.76923077 , 4131.28205128 , 4130.25641026 , 4136.92307692 , 4136.92307692 , 4190.76923077 , 4909.23076923 , 4136.41025641 , 4141.02564103 , 2041.0 , 2036.0 , 12.992 , 0.0 , 0.0 , 0.0 , 0.0 , 

1.0 , 4133.84615385 , 4136.41025641 , 4133.84615385 , 4137.43589744 , 4128.20512821 , 4131.28205128 , 4132.30769231 , 4130.76923077 , 4135.38461538 , 4136.92307692 , 4189.74358974 , 4908.71794872 , 4136.92307692 , 4138.97435897 , 2041.0 , 2036.0 , 12.992 , 0.0 , 0.0 , 0.0 , 0.0 , 

2.0 , 4134.87179487 , 4133.33333333 , 4132.30769231 , 4133.33333333 , 4127.17948718 , 4130.76923077 , 4128.71794872 , 4130.76923077 , 4128.71794872 , 4136.41025641 , 4189.74358974 , 4906.66666667 , 4135.8974359 , 4141.02564103 , 2040.0 , 2035.0 , 12.992 , 0.0 , 0.0 , 0.0 , 0.0 , 

3.0 , 4132.82051282 , 4127.69230769 , 4133.84615385 , 4132.82051282 , 4128.20512821 , 4131.28205128 , 4129.74358974 , 4128.71794872 , 4129.74358974 , 4136.41025641 , 4190.76923077 , 4907.69230769 , 4135.38461538 , 4141.53846154 , 2041.0 , 2036.0 , 12.992 , 0.0 , 0.0 , 0.0 , 0.0 , 

4.0 , 4129.74358974 , 4129.23076923 , 4129.23076923 , 4134.87179487 , 4131.79487179 , 4132.30769231 , 4130.25641026 , 4134.35897436 , 4133.84615385 , 4136.92307692 , 4189.74358974 , 4908.71794872 , 4135.38461538 , 4135.8974359 , 2042.0 , 2035.0 , 12.992 , 0.0 , 0.0 , 0.0 , 0.0 , 

5.0 , 4132.30769231 , 4133.84615385 , 4128.71794872 , 4132.30769231 , 4131.28205128 , 4132.82051282 , 4130.76923077 , 4137.94871795 , 4131.28205128 , 4136.41025641 , 4189.23076923 , 4911.79487179 , 4136.41025641 , 4135.8974359 , 2042.0 , 2036.0 , 12.992 , 0.0 , 0.0 , 0.0 , 0.0 , 

6.0 , 4132.30769231 , 4130.76923077 , 4129.74358974 , 4128.71794872 , 4128.20512821 , 4130.25641026 , 4130.76923077 , 4134.87179487 , 4131.79487179 , 4137.43589744 , 4189.23076923 , 4909.74358974 , 4137.94871795 , 4138.46153846 , 2041.0 , 2033.0 , 12.992 , 0.0 , 0.0 , 0.0 , 0.0 , 

7.0 , 4134.35897436 , 4131.79487179 , 4133.84615385 , 4129.74358974 , 4127.17948718 , 4129.74358974 , 4130.76923077 , 4132.82051282 , 4134.87179487 , 4137.94871795 , 4190.25641026 , 4910.76923077 , 4136.41025641 , 4140.0 , 2042.0 , 2035.0 , 12.992 , 0.0 , 0.0 , 0.0 , 0.0 , 

8.0 , 4132.30769231 , 4132.30769231 , 4130.76923077 , 4130.25641026 , 4129.74358974 , 4131.28205128 , 4130.76923077 , 4132.82051282 , 4135.38461538 , 4136.92307692 , 4191.28205128 , 4911.28205128 , 4135.8974359 , 4137.43589744 , 2041.0 , 2036.0 , 12.992 , 0.0 , 0.0 , 0.0 , 0.0 , 

9.0 , 4130.76923077 , 4130.76923077 , 4130.25641026 , 4129.74358974 , 4130.76923077 , 4130.76923077 , 4130.76923077 , 4130.76923077 , 4134.35897436 , 4136.41025641 , 4191.28205128 , 4910.76923077 , 4136.41025641 , 4138.97435897 , 2042.0 , 2035.0 , 12.992 , 0.0 , 0.0 , 0.0 , 0.0 , 

10.0 , 4131.79487179 , 4127.69230769 , 4133.84615385 , 4132.30769231 , 4129.74358974 , 4128.71794872 , 4130.76923077 , 4130.25641026 , 4135.38461538 , 4137.43589744 , 4189.74358974 , 4907.17948718 , 4136.92307692 , 4138.97435897 , 2041.0 , 2036.0 , 12.992 , 0.0 , 0.0 , 0.0 , 0.0 , 

11.0 , 4134.87179487 , 4129.74358974 , 4134.35897436 , 4132.30769231 , 4128.71794872 , 4129.23076923 , 4130.76923077 , 4132.30769231 , 4133.33333333 , 4136.92307692 , 4190.25641026 , 4906.66666667 , 4136.41025641 , 4139.48717949 , 2041.0 , 2037.0 , 12.992 , 0.0 , 0.0 , 0.0 , 0.0 , 

12.0 , 4134.87179487 , 4131.79487179 , 4130.25641026 , 4128.71794872 , 4131.28205128 , 4130.25641026 , 4131.28205128 , 4131.79487179 , 4132.30769231 , 4137.94871795 , 4190.76923077 , 4908.20512821 , 4136.41025641 , 4140.0 , 2041.0 , 2035.0 , 12.992 , 0.0 , 0.0 , 0.0 , 0.0 , 

13.0 , 4130.76923077 , 4130.76923077 , 4130.25641026 , 4130.25641026 , 4131.28205128 , 4129.74358974 , 4130.25641026 , 4130.76923077 , 4135.38461538 , 4136.92307692 , 4189.74358974 , 4910.25641026 , 4137.43589744 , 4137.94871795 , 2042.0 , 2036.0 , 12.992 , 0.0 , 0.0 , 0.0 , 0.0 , 

14.0 , 4129.23076923 , 4131.28205128 , 4134.35897436 , 4135.38461538 , 4129.23076923 , 4130.76923077 , 4131.28205128 , 4130.25641026 , 4135.38461538 , 4135.8974359 , 4189.74358974 , 4911.28205128 , 4134.35897436 , 4137.43589744 , 2042.0 , 2035.0 , 12.992 , 0.0 , 0.0 , 0.0 , 0.0 , 

15.0 , 4130.76923077 , 4134.35897436 , 4132.30769231 , 4132.82051282 , 4129.23076923 , 4132.30769231 , 4131.28205128 , 4131.28205128 , 4133.33333333 , 4135.8974359 , 4189.74358974 , 4908.20512821 , 4131.28205128 , 4137.94871795 , 2041.0 , 2035.0 , 12.997 , 0.0 , 0.0 , 0.0 , 0.0 , 

16.0 , 4132.82051282 , 4134.87179487 , 4132.82051282 , 4128.71794872 , 4129.74358974 , 4133.33333333 , 4125.64102564 , 4131.79487179 , 4133.33333333 , 4135.8974359 , 4189.23076923 , 4907.69230769 , 4134.35897436 , 4139.48717949 , 2042.0 , 2036.0 , 13.006 , 0.0 , 0.0 , 0.0 , 0.0 , 

17.0 , 4133.33333333 , 4128.20512821 , 4130.25641026 , 4130.76923077 , 4130.25641026 , 4131.79487179 , 4124.1025641 , 4132.82051282 , 4133.84615385 , 4135.38461538 , 4190.25641026 , 4908.20512821 , 4137.43589744 , 4137.94871795 , 2043.0 , 2037.0 , 13.013 , 0.0 , 0.0 , 0.0 , 0.0 , 

18.0 , 4134.87179487 , 4127.17948718 , 4130.76923077 , 4133.84615385 , 4128.71794872 , 4130.76923077 , 4125.64102564 , 4132.30769231 , 4134.35897436 , 4135.8974359 , 4191.79487179 , 4912.30769231 , 4136.41025641 , 4137.94871795 , 2041.0 , 2035.0 , 13.021 , 0.0 , 0.0 , 0.0 , 0.0 , 

19.0 , 4131.79487179 , 4130.76923077 , 4128.20512821 , 4131.28205128 , 4126.66666667 , 4129.74358974 , 4126.66666667 , 4133.33333333 , 4137.43589744 , 4136.92307692 , 4189.74358974 , 4910.76923077 , 4135.38461538 , 4136.41025641 , 2041.0 , 2035.0 , 13.059 , 0.0 , 0.0 , 0.0 , 0.0 , 

20.0 , 4132.30769231 , 4134.87179487 , 4129.74358974 , 4131.28205128 , 4126.66666667 , 4131.28205128 , 4133.33333333 , 4134.35897436 , 4133.84615385 , 4135.8974359 , 4189.74358974 , 4909.74358974 , 4135.8974359 , 4138.97435897 , 2041.0 , 2036.0 , 13.059 , 0.0 , 0.0 , 0.0 , 0.0 , 

21.0 , 4132.30769231 , 4132.82051282 , 4128.20512821 , 4134.35897436 , 4133.33333333 , 4131.28205128 , 4137.43589744 , 4132.30769231 , 4133.33333333 , 4136.41025641 , 4191.28205128 , 4908.20512821 , 4136.92307692 , 4141.53846154 , 2042.0 , 2036.0 , 13.059 , 0.0 , 0.0 , 0.0 , 0.0 , 

22.0 , 4134.35897436 , 4131.28205128 , 4132.30769231 , 4134.87179487 , 4133.84615385 , 4130.25641026 , 4132.30769231 , 4130.76923077 , 4134.87179487 , 4136.92307692 , 4190.76923077 , 4911.28205128 , 4136.92307692 , 4139.48717949 , 2042.0 , 2037.0 , 13.059 , 0.0 , 0.0 , 0.0 , 0.0 , 

23.0 , 4132.82051282 , 4131.28205128 , 4130.76923077 , 4132.82051282 , 4131.28205128 , 4129.74358974 , 4133.84615385 , 4130.76923077 , 4134.87179487 , 4136.92307692 , 4189.74358974 , 4910.25641026 , 4133.84615385 , 4135.38461538 , 2043.0 , 2036.0 , 13.064 , 0.0 , 0.0 , 0.0 , 0.0 , 

24.0 , 4133.33333333 , 4134.35897436 , 4133.84615385 , 4135.38461538 , 4131.79487179 , 4130.25641026 , 4132.82051282 , 4130.25641026 , 4132.82051282 , 4136.41025641 , 4190.25641026 , 4911.28205128 , 4131.79487179 , 4140.51282051 , 2042.0 , 2034.0 , 13.069 , 0.0 , 0.0 , 0.0 , 0.0 , 

25.0 , 4130.25641026 , 4131.28205128 , 4133.84615385 , 4136.92307692 , 4132.30769231 , 4130.25641026 , 4123.58974359 , 4131.28205128 , 4131.79487179 , 4136.41025641 , 4188.20512821 , 4909.74358974 , 4134.35897436 , 4142.56410256 , 2041.0 , 2035.0 , 13.077 , 0.0 , 0.0 , 0.0 , 0.0 , 

26.0 , 4128.71794872 , 4128.71794872 , 4131.79487179 , 4135.38461538 , 4129.74358974 , 4130.76923077 , 4128.20512821 , 4132.30769231 , 4130.25641026 , 4136.92307692 , 4188.20512821 , 4910.76923077 , 4136.41025641 , 4140.51282051 , 2041.0 , 2035.0 , 13.091 , 0.0 , 0.0 , 0.0 , 0.0 , 

27.0 , 4128.71794872 , 4129.74358974 , 4129.74358974 , 4133.84615385 , 4130.25641026 , 4130.76923077 , 4138.46153846 , 4130.76923077 , 4130.76923077 , 4136.92307692 , 4191.79487179 , 4908.71794872 , 4135.8974359 , 4137.94871795 , 2041.0 , 2035.0 , 13.096 , 0.0 , 0.0 , 0.0 , 0.0 , 

28.0 , 4131.28205128 , 4132.82051282 , 4133.33333333 , 4134.87179487 , 4133.33333333 , 4129.23076923 , 4128.20512821 , 4130.76923077 , 4131.79487179 , 4136.92307692 , 4191.79487179 , 4909.74358974 , 4135.38461538 , 4138.46153846 , 2042.0 , 2035.0 , 13.102 , 0.0 , 0.0 , 0.0 , 0.0 , 

29.0 , 4133.33333333 , 4130.76923077 , 4132.30769231 , 4134.87179487 , 4131.28205128 , 4129.74358974 , 4120.51282051 , 4130.76923077 , 4129.74358974 , 4136.92307692 , 4190.25641026 , 4911.79487179 , 4136.92307692 , 4136.41025641 , 2043.0 , 2035.0 , 13.109 , 0.0 , 0.0 , 0.0 , 0.0 , 

30.0 , 4134.35897436 , 4131.79487179 , 4130.25641026 , 4133.33333333 , 4127.69230769 , 4132.30769231 , 4129.74358974 , 4129.23076923 , 4130.25641026 , 4136.92307692 , 4191.79487179 , 4911.79487179 , 4136.41025641 , 4135.8974359 , 2043.0 , 2036.0 , 13.115 , 0.0 , 0.0 , 0.0 , 0.0 , 

31.0 , 4132.82051282 , 4133.33333333 , 4130.76923077 , 4132.30769231 , 4127.17948718 , 4132.82051282 , 4128.20512821 , 4131.79487179 , 4131.79487179 , 4137.43589744 , 4190.25641026 , 4910.76923077 , 4135.38461538 , 4135.8974359 , 2041.0 , 2035.0 , 13.125 , 0.0 , 0.0 , 0.0 , 0.0 , 

32.0 , 4132.30769231 , 4130.25641026 , 4131.28205128 , 4132.30769231 , 4129.23076923 , 4129.74358974 , 4124.1025641 , 4134.87179487 , 4131.79487179 , 4136.92307692 , 4187.69230769 , 4909.23076923 , 4136.41025641 , 4137.43589744 , 2042.0 , 2036.0 , 13.132 , 0.0 , 0.0 , 0.0 , 0.0 , 

33.0 , 4135.38461538 , 4129.74358974 , 4135.38461538 , 4131.28205128 , 4132.30769231 , 4128.71794872 , 4134.35897436 , 4132.82051282 , 4131.79487179 , 4135.8974359 , 4190.25641026 , 4910.25641026 , 4137.43589744 , 4139.48717949 , 2041.0 , 2035.0 , 13.145 , 0.0 , 0.0 , 0.0 , 0.0 , 

34.0 , 4131.28205128 , 4131.79487179 , 4135.38461538 , 4128.71794872 , 4131.79487179 , 4128.71794872 , 4138.46153846 , 4126.66666667 , 4133.33333333 , 4135.8974359 , 4193.33333333 , 4909.74358974 , 4135.8974359 , 4138.46153846 , 2040.0 , 2035.0 , 13.149 , 0.0 , 0.0 , 0.0 , 0.0 , 

35.0 , 4128.71794872 , 4130.25641026 , 4132.30769231 , 4129.74358974 , 4129.74358974 , 4130.25641026 , 4134.35897436 , 4130.25641026 , 4133.84615385 , 4136.41025641 , 4192.82051282 , 4909.23076923 , 4134.35897436 , 4138.46153846 , 2041.0 , 2036.0 , 13.158 , 0.0 , 0.0 , 0.0 , 0.0 , 

36.0 , 4130.76923077 , 4128.71794872 , 4128.20512821 , 4131.79487179 , 4132.30769231 , 4130.76923077 , 4134.87179487 , 4138.97435897 , 4135.8974359 , 4136.92307692 , 4190.25641026 , 4904.61538462 , 4135.8974359 , 4138.46153846 , 2042.0 , 2036.0 , 13.163 , 0.0 , 0.0 , 0.0 , 0.0 , 

37.0 , 4132.82051282 , 4134.35897436 , 4131.79487179 , 4134.87179487 , 4133.33333333 , 4129.74358974 , 4132.82051282 , 4135.8974359 , 4132.30769231 , 4135.8974359 , 4189.74358974 , 4907.17948718 , 4135.8974359 , 4137.94871795 , 2042.0 , 2035.0 , 13.172 , 0.0 , 0.0 , 0.0 , 0.0 , 

38.0 , 4127.69230769 , 4133.33333333 , 4132.30769231 , 4135.38461538 , 4130.25641026 , 4128.71794872 , 4124.1025641 , 4131.79487179 , 4130.76923077 , 4135.8974359 , 4190.76923077 , 4908.71794872 , 4134.87179487 , 4134.87179487 , 2042.0 , 2035.0 , 13.178 , 0.0 , 0.0 , 0.0 , 0.0 , 

39.0 , 4129.23076923 , 4132.82051282 , 4133.84615385 , 4132.30769231 , 4129.23076923 , 4130.25641026 , 4121.53846154 , 4133.33333333 , 4131.28205128 , 4136.92307692 , 4189.23076923 , 4907.69230769 , 4136.92307692 , 4137.43589744 , 2041.0 , 2035.0 , 13.186 , 0.0 , 0.0 , 0.0 , 0.0 , 

40.0 , 4131.79487179 , 4133.84615385 , 4128.71794872 , 4129.23076923 , 4131.79487179 , 4129.74358974 , 4125.12820513 , 4133.84615385 , 4131.28205128 , 4137.43589744 , 4188.71794872 , 4907.17948718 , 4134.87179487 , 4137.94871795 , 2040.0 , 2035.0 , 13.194 , 0.0 , 0.0 , 0.0 , 0.0 , 

41.0 , 4135.38461538 , 4133.84615385 , 4132.82051282 , 4132.82051282 , 4130.25641026 , 4130.76923077 , 4133.84615385 , 4130.76923077 , 4131.79487179 , 4136.92307692 , 4190.25641026 , 4911.79487179 , 4131.28205128 , 4137.94871795 , 2041.0 , 2035.0 , 13.203 , 0.0 , 0.0 , 0.0 , 0.0 , 

42.0 , 4132.30769231 , 4129.74358974 , 4134.87179487 , 4134.87179487 , 4128.20512821 , 4131.28205128 , 4136.41025641 , 4131.79487179 , 4135.8974359 , 4135.8974359 , 4189.23076923 , 4907.69230769 , 4134.35897436 , 4136.92307692 , 2041.0 , 2035.0 , 13.21 , 0.0 , 0.0 , 0.0 , 0.0 , 

43.0 , 4130.25641026 , 4133.33333333 , 4132.82051282 , 4131.28205128 , 4127.69230769 , 4130.25641026 , 4133.33333333 , 4132.30769231 , 4133.84615385 , 4135.8974359 , 4188.20512821 , 4906.15384615 , 4136.41025641 , 4138.46153846 , 2041.0 , 2035.0 , 13.236 , 0.0 , 0.0 , 0.0 , 0.0 , 

44.0 , 4129.74358974 , 4132.82051282 , 4130.25641026 , 4131.79487179 , 4131.79487179 , 4129.74358974 , 4137.43589744 , 4129.74358974 , 4133.33333333 , 4135.8974359 , 4187.69230769 , 4909.74358974 , 4134.87179487 , 4138.97435897 , 2041.0 , 2036.0 , 13.236 , 0.0 , 0.0 , 0.0 , 0.0 , 

45.0 , 4130.76923077 , 4127.17948718 , 4135.38461538 , 4135.8974359 , 4133.33333333 , 4131.28205128 , 4132.30769231 , 4128.71794872 , 4135.38461538 , 4136.92307692 , 4188.20512821 , 4911.79487179 , 4134.87179487 , 4138.46153846 , 2042.0 , 2035.0 , 13.241 , 0.0 , 0.0 , 0.0 , 0.0 , 

46.0 , 4125.64102564 , 4127.69230769 , 4134.87179487 , 4132.82051282 , 4129.23076923 , 4129.74358974 , 4120.51282051 , 4129.74358974 , 4134.87179487 , 4137.94871795 , 4192.30769231 , 4906.66666667 , 4134.87179487 , 4137.43589744 , 2041.0 , 2034.0 , 13.242 , 0.0 , 0.0 , 0.0 , 0.0 , 

47.0 , 4126.15384615 , 4131.28205128 , 4131.79487179 , 4130.76923077 , 4127.69230769 , 4128.20512821 , 4127.17948718 , 4131.28205128 , 4132.82051282 , 4136.41025641 , 4194.35897436 , 4907.17948718 , 4134.87179487 , 4136.41025641 , 2041.0 , 2036.0 , 13.25 , 0.0 , 0.0 , 0.0 , 0.0 , 

48.0 , 4131.79487179 , 4130.76923077 , 4130.25641026 , 4133.84615385 , 4132.82051282 , 4130.25641026 , 4136.41025641 , 4130.25641026 , 4132.30769231 , 4135.38461538 , 4189.74358974 , 4910.25641026 , 4135.8974359 , 4138.46153846 , 2041.0 , 2035.0 , 13.259 , 0.0 , 0.0 , 0.0 , 0.0 , 

49.0 , 4133.33333333 , 4130.25641026 , 4131.79487179 , 4133.33333333 , 4134.35897436 , 4129.23076923 , 4133.33333333 , 4132.30769231 , 4132.82051282 , 4136.92307692 , 4188.20512821 , 4910.76923077 , 4134.87179487 , 4141.02564103 , 2040.0 , 2035.0 , 13.267 , 0.0 , 0.0 , 0.0 , 0.0 , 

50.0 , 4130.76923077 , 4131.79487179 , 4133.33333333 , 4131.79487179 , 4131.28205128 , 4127.69230769 , 4133.33333333 , 4134.87179487 , 4131.28205128 , 4136.92307692 , 4192.82051282 , 4909.74358974 , 4134.35897436 , 4137.94871795 , 2042.0 , 2035.0 , 13.275 , 0.0 , 0.0 , 0.0 , 0.0 , 

51.0 , 4130.76923077 , 4130.25641026 , 4130.25641026 , 4134.35897436 , 4130.76923077 , 4130.25641026 , 4136.41025641 , 4132.30769231 , 4129.74358974 , 4135.8974359 , 4191.79487179 , 4909.74358974 , 4137.43589744 , 4135.38461538 , 2041.0 , 2035.0 , 13.281 , 0.0 , 0.0 , 0.0 , 0.0 , 

52.0 , 4133.84615385 , 4129.23076923 , 4129.74358974 , 4134.87179487 , 4130.76923077 , 4130.76923077 , 4134.35897436 , 4129.74358974 , 4131.28205128 , 4136.92307692 , 4188.20512821 , 4910.25641026 , 4136.92307692 , 4138.46153846 , 2040.0 , 2037.0 , 13.29 , 0.0 , 0.0 , 0.0 , 0.0 , 

53.0 , 4130.25641026 , 4130.25641026 , 4130.76923077 , 4131.79487179 , 4130.25641026 , 4129.23076923 , 4135.38461538 , 4130.76923077 , 4134.35897436 , 4137.43589744 , 4189.74358974 , 4907.69230769 , 4132.30769231 , 4138.97435897 , 2041.0 , 2037.0 , 13.296 , 0.0 , 0.0 , 0.0 , 0.0 , 

54.0 , 4130.25641026 , 4131.79487179 , 4135.38461538 , 4132.82051282 , 4129.23076923 , 4130.76923077 , 4134.87179487 , 4132.30769231 , 4134.87179487 , 4136.41025641 , 4191.79487179 , 4910.76923077 , 4132.82051282 , 4136.92307692 , 2042.0 , 2035.0 , 13.304 , 0.0 , 0.0 , 0.0 , 0.0 , 

55.0 , 4130.76923077 , 4131.28205128 , 4134.87179487 , 4134.35897436 , 4128.71794872 , 4131.28205128 , 4128.71794872 , 4129.74358974 , 4135.38461538 , 4135.38461538 , 4190.76923077 , 4912.30769231 , 4137.43589744 , 4137.43589744 , 2041.0 , 2035.0 , 13.314 , 0.0 , 0.0 , 0.0 , 0.0 , 

56.0 , 4129.74358974 , 4132.82051282 , 4136.41025641 , 4134.35897436 , 4127.69230769 , 4131.28205128 , 4127.17948718 , 4128.20512821 , 4134.35897436 , 4136.92307692 , 4188.71794872 , 4911.28205128 , 4137.43589744 , 4141.02564103 , 2041.0 , 2035.0 , 13.32 , 0.0 , 0.0 , 0.0 , 0.0 , 

57.0 , 4126.66666667 , 4131.79487179 , 4131.28205128 , 4133.33333333 , 4130.76923077 , 4130.25641026 , 4129.74358974 , 4132.82051282 , 4135.8974359 , 4137.43589744 , 4187.69230769 , 4908.20512821 , 4135.38461538 , 4138.46153846 , 2041.0 , 2036.0 , 13.328 , 0.0 , 0.0 , 0.0 , 0.0 , 

58.0 , 4132.30769231 , 4130.25641026 , 4133.33333333 , 4134.35897436 , 4132.82051282 , 4130.76923077 , 4134.35897436 , 4134.35897436 , 4136.41025641 , 4137.43589744 , 4190.25641026 , 4912.82051282 , 4136.41025641 , 4138.46153846 , 2042.0 , 2037.0 , 13.336 , 0.0 , 0.0 , 0.0 , 0.0 , 

59.0 , 4131.79487179 , 4128.71794872 , 4132.30769231 , 4133.84615385 , 4130.25641026 , 4131.28205128 , 4134.87179487 , 4131.79487179 , 4134.87179487 , 4137.94871795 , 4191.79487179 , 4910.76923077 , 4136.92307692 , 4138.97435897 , 2042.0 , 2035.0 , 13.345 , 0.0 , 0.0 , 0.0 , 0.0 , 

60.0 , 4130.25641026 , 4131.79487179 , 4132.82051282 , 4133.84615385 , 4127.17948718 , 4131.79487179 , 4134.35897436 , 4130.76923077 , 4132.30769231 , 4137.43589744 , 4189.74358974 , 4909.74358974 , 4135.8974359 , 4138.97435897 , 2041.0 , 2037.0 , 13.352 , 0.0 , 0.0 , 0.0 , 0.0 , 

61.0 , 4129.74358974 , 4129.74358974 , 4130.25641026 , 4132.82051282 , 4129.23076923 , 4129.74358974 , 4135.38461538 , 4131.79487179 , 4134.87179487 , 4136.92307692 , 4187.69230769 , 4909.23076923 , 4136.92307692 , 4137.94871795 , 2042.0 , 2035.0 , 13.363 , 0.0 , 0.0 , 0.0 , 0.0 , 

62.0 , 4130.76923077 , 4129.23076923 , 4132.82051282 , 4132.82051282 , 4129.23076923 , 4129.23076923 , 4136.41025641 , 4131.28205128 , 4132.82051282 , 4136.92307692 , 4191.79487179 , 4908.71794872 , 4136.92307692 , 4139.48717949 , 2042.0 , 2036.0 , 13.368 , 0.0 , 0.0 , 0.0 , 0.0 , 

63.0 , 4127.69230769 , 4130.25641026 , 4132.30769231 , 4131.79487179 , 4130.25641026 , 4131.79487179 , 4134.35897436 , 4131.28205128 , 4129.74358974 , 4136.92307692 , 4192.30769231 , 4906.66666667 , 4135.38461538 , 4137.94871795 , 2042.0 , 2036.0 , 13.377 , 0.0 , 0.0 , 0.0 , 0.0 , 

64.0 , 4129.74358974 , 4130.76923077 , 4133.33333333 , 4132.30769231 , 4131.28205128 , 4132.82051282 , 4132.82051282 , 4131.79487179 , 4130.76923077 , 4136.92307692 , 4188.71794872 , 4910.25641026 , 4135.8974359 , 4135.8974359 , 2041.0 , 2035.0 , 13.386 , 0.0 , 0.0 , 0.0 , 0.0 , 

65.0 , 4131.28205128 , 4129.23076923 , 4131.28205128 , 4133.84615385 , 4131.79487179 , 4130.25641026 , 4136.41025641 , 4132.82051282 , 4133.84615385 , 4136.92307692 , 4189.74358974 , 4911.28205128 , 4136.92307692 , 4136.41025641 , 2041.0 , 2035.0 , 13.394 , 0.0 , 0.0 , 0.0 , 0.0 , 

66.0 , 4132.82051282 , 4129.74358974 , 4130.25641026 , 4132.30769231 , 4131.79487179 , 4128.71794872 , 4134.35897436 , 4134.35897436 , 4133.33333333 , 4136.92307692 , 4193.33333333 , 4909.74358974 , 4135.38461538 , 4138.46153846 , 2043.0 , 2036.0 , 13.402 , 0.0 , 0.0 , 0.0 , 0.0 , 

67.0 , 4133.84615385 , 4130.25641026 , 4131.79487179 , 4129.74358974 , 4131.79487179 , 4130.76923077 , 4124.61538462 , 4131.79487179 , 4130.25641026 , 4136.92307692 , 4193.33333333 , 4909.23076923 , 4134.87179487 , 4138.46153846 , 2043.0 , 2036.0 , 13.413 , 0.0 , 0.0 , 0.0 , 0.0 , 

68.0 , 4132.30769231 , 4132.82051282 , 4134.87179487 , 4132.82051282 , 4131.28205128 , 4130.25641026 , 4124.1025641 , 4128.71794872 , 4130.76923077 , 4136.92307692 , 4191.79487179 , 4908.71794872 , 4136.41025641 , 4138.97435897 , 2042.0 , 2033.0 , 13.426 , 0.0 , 0.0 , 0.0 , 0.0 , 

69.0 , 4128.20512821 , 4133.84615385 , 4132.82051282 , 4135.8974359 , 4130.76923077 , 4128.71794872 , 4134.87179487 , 4130.25641026 , 4132.82051282 , 4135.8974359 , 4191.28205128 , 4909.23076923 , 4136.92307692 , 4140.0 , 2041.0 , 2034.0 , 13.438 , 0.0 , 0.0 , 0.0 , 0.0 , 

70.0 , 4127.17948718 , 4130.76923077 , 4128.20512821 , 4133.33333333 , 4130.25641026 , 4129.23076923 , 4133.84615385 , 4131.28205128 , 4132.82051282 , 4136.41025641 , 4191.28205128 , 4909.74358974 , 4135.8974359 , 4137.94871795 , 2041.0 , 2035.0 , 13.442 , 0.0 , 0.0 , 0.0 , 0.0 , 

71.0 , 4130.76923077 , 4129.74358974 , 4130.76923077 , 4133.84615385 , 4127.17948718 , 4130.25641026 , 4125.12820513 , 4131.28205128 , 4130.76923077 , 4136.41025641 , 4189.23076923 , 4911.79487179 , 4135.8974359 , 4138.46153846 , 2041.0 , 2036.0 , 13.442 , 0.0 , 0.0 , 0.0 , 0.0 , 

72.0 , 4129.23076923 , 4129.74358974 , 4131.79487179 , 4134.35897436 , 4126.15384615 , 4129.74358974 , 4127.17948718 , 4132.30769231 , 4129.74358974 , 4137.43589744 , 4188.71794872 , 4911.28205128 , 4135.8974359 , 4140.0 , 2042.0 , 2037.0 , 13.447 , 0.0 , 0.0 , 0.0 , 0.0 , 

73.0 , 4129.74358974 , 4130.76923077 , 4134.35897436 , 4130.76923077 , 4130.25641026 , 4130.25641026 , 4133.84615385 , 4129.74358974 , 4130.25641026 , 4137.94871795 , 4190.25641026 , 4911.28205128 , 4135.8974359 , 4140.0 , 2041.0 , 2035.0 , 13.456 , 0.0 , 0.0 , 0.0 , 0.0 , 

74.0 , 4129.74358974 , 4129.74358974 , 4131.28205128 , 4130.25641026 , 4134.35897436 , 4129.74358974 , 4134.35897436 , 4125.64102564 , 4131.28205128 , 4138.97435897 , 4189.23076923 , 4906.15384615 , 4135.8974359 , 4138.46153846 , 2042.0 , 2036.0 , 13.464 , 0.0 , 0.0 , 0.0 , 0.0 , 

75.0 , 4131.28205128 , 4130.76923077 , 4131.79487179 , 4134.35897436 , 4130.25641026 , 4129.23076923 , 4131.79487179 , 4129.74358974 , 4131.28205128 , 4138.46153846 , 4188.71794872 , 4908.20512821 , 4136.41025641 , 4138.97435897 , 2042.0 , 2035.0 , 13.481 , 0.0 , 0.0 , 0.0 , 0.0 , 

76.0 , 4131.28205128 , 4129.74358974 , 4131.79487179 , 4133.33333333 , 4127.69230769 , 4130.25641026 , 4130.25641026 , 4137.94871795 , 4132.82051282 , 4137.94871795 , 4190.25641026 , 4910.76923077 , 4136.41025641 , 4137.43589744 , 2041.0 , 2035.0 , 13.488 , 0.0 , 0.0 , 0.0 , 0.0 , 

77.0 , 4134.35897436 , 4128.20512821 , 4133.84615385 , 4131.79487179 , 4128.71794872 , 4129.23076923 , 4132.30769231 , 4135.8974359 , 4132.30769231 , 4137.94871795 , 4191.28205128 , 4912.82051282 , 4135.38461538 , 4137.43589744 , 2041.0 , 2036.0 , 13.496 , 0.0 , 0.0 , 0.0 , 0.0 , 

78.0 , 4130.25641026 , 4127.69230769 , 4127.69230769 , 4133.84615385 , 4130.76923077 , 4127.17948718 , 4131.28205128 , 4130.76923077 , 4135.38461538 , 4137.43589744 , 4190.25641026 , 4908.20512821 , 4135.38461538 , 4136.92307692 , 2042.0 , 2035.0 , 13.502 , 0.0 , 0.0 , 0.0 , 0.0 , 

79.0 , 4130.25641026 , 4133.84615385 , 4131.28205128 , 4136.41025641 , 4129.23076923 , 4128.20512821 , 4125.64102564 , 4130.76923077 , 4135.8974359 , 4136.92307692 , 4190.76923077 , 4908.71794872 , 4135.8974359 , 4137.94871795 , 2042.0 , 2034.0 , 13.508 , 0.0 , 0.0 , 0.0 , 0.0 , 

80.0 , 4132.82051282 , 4132.82051282 , 4135.8974359 , 4133.84615385 , 4129.23076923 , 4130.76923077 , 4124.1025641 , 4132.30769231 , 4131.79487179 , 4136.92307692 , 4189.23076923 , 4909.23076923 , 4134.35897436 , 4138.46153846 , 2041.0 , 2035.0 , 13.513 , 0.0 , 0.0 , 0.0 , 0.0 , 

81.0 , 4134.87179487 , 4129.74358974 , 4135.38461538 , 4132.82051282 , 4130.76923077 , 4131.79487179 , 4126.66666667 , 4131.28205128 , 4130.25641026 , 4136.41025641 , 4189.74358974 , 4909.23076923 , 4132.30769231 , 4139.48717949 , 2042.0 , 2036.0 , 13.518 , 0.0 , 0.0 , 0.0 , 0.0 , 

82.0 , 4131.79487179 , 4130.25641026 , 4131.28205128 , 4134.35897436 , 4132.82051282 , 4129.74358974 , 4125.12820513 , 4130.76923077 , 4133.84615385 , 4136.92307692 , 4190.76923077 , 4908.20512821 , 4134.35897436 , 4138.97435897 , 2041.0 , 2035.0 , 13.526 , 0.0 , 0.0 , 0.0 , 0.0 , 

83.0 , 4130.25641026 , 4131.28205128 , 4134.35897436 , 4134.87179487 , 4129.74358974 , 4129.23076923 , 4127.17948718 , 4130.25641026 , 4133.33333333 , 4138.46153846 , 4190.25641026 , 4911.28205128 , 4136.41025641 , 4137.43589744 , 2042.0 , 2036.0 , 13.533 , 0.0 , 0.0 , 0.0 , 0.0 , 

84.0 , 4129.23076923 , 4128.20512821 , 4133.33333333 , 4132.30769231 , 4127.69230769 , 4129.23076923 , 4133.84615385 , 4128.20512821 , 4133.33333333 , 4138.97435897 , 4189.23076923 , 4912.82051282 , 4135.8974359 , 4137.94871795 , 2041.0 , 2035.0 , 13.542 , 0.0 , 0.0 , 0.0 , 0.0 , 

85.0 , 4130.76923077 , 4128.71794872 , 4131.79487179 , 4132.82051282 , 4129.23076923 , 4129.23076923 , 4129.23076923 , 4129.23076923 , 4135.38461538 , 4136.92307692 , 4189.74358974 , 4912.30769231 , 4135.38461538 , 4140.51282051 , 2041.0 , 2036.0 , 13.55 , 0.0 , 0.0 , 0.0 , 0.0 , 

86.0 , 4131.79487179 , 4130.76923077 , 4133.84615385 , 4134.87179487 , 4130.76923077 , 4129.74358974 , 4121.02564103 , 4130.25641026 , 4132.30769231 , 4136.92307692 , 4191.79487179 , 4910.76923077 , 4136.92307692 , 4139.48717949 , 2042.0 , 2035.0 , 13.558 , 0.0 , 0.0 , 0.0 , 0.0 , 

87.0 , 4130.76923077 , 4127.69230769 , 4132.82051282 , 4133.84615385 , 4131.28205128 , 4130.76923077 , 4129.23076923 , 4128.71794872 , 4127.69230769 , 4137.43589744 , 4192.30769231 , 4909.23076923 , 4136.41025641 , 4138.46153846 , 2042.0 , 2035.0 , 13.565 , 0.0 , 0.0 , 0.0 , 0.0 , 

88.0 , 4130.25641026 , 4126.15384615 , 4131.28205128 , 4133.84615385 , 4131.28205128 , 4131.28205128 , 4138.97435897 , 4129.23076923 , 4132.30769231 , 4137.43589744 , 4190.76923077 , 4910.25641026 , 4135.38461538 , 4140.51282051 , 2041.0 , 2034.0 , 13.573 , 0.0 , 0.0 , 0.0 , 0.0 , 

89.0 , 4130.76923077 , 4127.69230769 , 4131.79487179 , 4132.30769231 , 4129.23076923 , 4130.76923077 , 4136.41025641 , 4133.33333333 , 4137.43589744 , 4136.92307692 , 4189.74358974 , 4911.79487179 , 4135.38461538 , 4137.43589744 , 2041.0 , 2034.0 , 13.581 , 0.0 , 0.0 , 0.0 , 0.0 , 

90.0 , 4133.84615385 , 4129.23076923 , 4133.84615385 , 4131.79487179 , 4128.71794872 , 4130.25641026 , 4134.87179487 , 4133.84615385 , 4134.35897436 , 4136.41025641 , 4190.25641026 , 4913.33333333 , 4135.8974359 , 4135.8974359 , 2042.0 , 2034.0 , 13.589 , 0.0 , 0.0 , 0.0 , 0.0 , 

91.0 , 4132.82051282 , 4126.15384615 , 4130.76923077 , 4131.79487179 , 4134.87179487 , 4128.71794872 , 4136.41025641 , 4131.28205128 , 4132.30769231 , 4136.41025641 , 4191.28205128 , 4908.71794872 , 4135.8974359 , 4138.97435897 , 2042.0 , 2036.0 , 13.597 , 0.0 , 0.0 , 0.0 , 0.0 , 

92.0 , 4132.82051282 , 4127.69230769 , 4131.28205128 , 4134.35897436 , 4135.8974359 , 4129.23076923 , 4135.8974359 , 4130.76923077 , 4135.38461538 , 4136.41025641 , 4192.30769231 , 4910.76923077 , 4134.87179487 , 4142.56410256 , 2042.0 , 2036.0 , 13.604 , 0.0 , 0.0 , 0.0 , 0.0 , 

93.0 , 4131.79487179 , 4129.23076923 , 4129.74358974 , 4136.41025641 , 4131.28205128 , 4129.23076923 , 4136.41025641 , 4131.79487179 , 4137.43589744 , 4137.43589744 , 4191.28205128 , 4911.79487179 , 4135.8974359 , 4141.53846154 , 2042.0 , 2036.0 , 13.613 , 0.0 , 0.0 , 0.0 , 0.0 , 

94.0 , 4133.84615385 , 4130.76923077 , 4132.82051282 , 4135.8974359 , 4128.71794872 , 4129.23076923 , 4133.84615385 , 4131.79487179 , 4134.87179487 , 4136.92307692 , 4188.71794872 , 4909.23076923 , 4136.92307692 , 4141.02564103 , 2041.0 , 2036.0 , 13.62 , 0.0 , 0.0 , 0.0 , 0.0 , 

95.0 , 4132.82051282 , 4129.74358974 , 4131.79487179 , 4134.87179487 , 4132.30769231 , 4130.25641026 , 4126.15384615 , 4132.82051282 , 4134.87179487 , 4136.41025641 , 4190.76923077 , 4907.17948718 , 4134.87179487 , 4136.92307692 , 2040.0 , 2035.0 , 13.628 , 0.0 , 0.0 , 0.0 , 0.0 , 

96.0 , 4133.33333333 , 4130.76923077 , 4135.38461538 , 4135.38461538 , 4131.28205128 , 4131.28205128 , 4121.53846154 , 4131.28205128 , 4134.87179487 , 4136.92307692 , 4192.30769231 , 4912.82051282 , 4132.82051282 , 4137.94871795 , 2041.0 , 2036.0 , 13.635 , 0.0 , 0.0 , 0.0 , 0.0 , 

97.0 , 4128.71794872 , 4129.23076923 , 4132.82051282 , 4132.30769231 , 4130.76923077 , 4130.25641026 , 4124.61538462 , 4129.74358974 , 4136.41025641 , 4137.94871795 , 4189.23076923 , 4911.28205128 , 4135.38461538 , 4138.97435897 , 2041.0 , 2035.0 , 13.643 , 0.0 , 0.0 , 0.0 , 0.0 , 

98.0 , 4129.74358974 , 4131.28205128 , 4131.79487179 , 4132.82051282 , 4132.82051282 , 4130.25641026 , 4130.25641026 , 4131.28205128 , 4135.38461538 , 4137.94871795 , 4190.25641026 , 4913.84615385 , 4136.92307692 , 4137.94871795 , 2041.0 , 2035.0 , 13.651 , 0.0 , 0.0 , 0.0 , 0.0 , 

99.0 , 4131.79487179 , 4130.25641026 , 4131.28205128 , 4135.38461538 , 4133.84615385 , 4130.25641026 , 4131.79487179 , 4132.82051282 , 4133.84615385 , 4137.43589744 , 4193.84615385 , 4912.82051282 , 4133.33333333 , 4136.41025641 , 2041.0 , 2035.0 , 13.659 , 0.0 , 0.0 , 0.0 , 0.0 , 

100.0 , 4131.79487179 , 4130.25641026 , 4133.84615385 , 4133.84615385 , 4132.30769231 , 4131.28205128 , 4131.79487179 , 4133.33333333 , 4132.82051282 , 4136.92307692 , 4193.33333333 , 4909.23076923 , 4132.30769231 , 4138.97435897 , 2041.0 , 2035.0 , 13.667 , 0.0 , 0.0 , 0.0 , 0.0 , 

101.0 , 4129.74358974 , 4131.28205128 , 4130.76923077 , 4130.76923077 , 4132.30769231 , 4130.76923077 , 4136.92307692 , 4132.30769231 , 4131.79487179 , 4136.41025641 , 4190.25641026 , 4908.20512821 , 4135.38461538 , 4137.94871795 , 2042.0 , 2035.0 , 13.675 , 0.0 , 0.0 , 0.0 , 0.0 , 

102.0 , 4132.30769231 , 4133.33333333 , 4130.25641026 , 4130.76923077 , 4131.79487179 , 4129.23076923 , 4133.33333333 , 4129.74358974 , 4130.25641026 , 4135.8974359 , 4189.23076923 , 4913.84615385 , 4136.92307692 , 4135.8974359 , 2041.0 , 2035.0 , 13.683 , 0.0 , 0.0 , 0.0 , 0.0 , 

103.0 , 4133.33333333 , 4133.33333333 , 4131.28205128 , 4130.25641026 , 4130.76923077 , 4129.23076923 , 4123.07692308 , 4130.25641026 , 4133.33333333 , 4136.41025641 , 4188.71794872 , 4910.76923077 , 4134.87179487 , 4136.92307692 , 2042.0 , 2035.0 , 13.691 , 0.0 , 0.0 , 0.0 , 0.0 , 

104.0 , 4130.76923077 , 4131.79487179 , 4131.28205128 , 4129.74358974 , 4131.28205128 , 4131.28205128 , 4122.05128205 , 4132.30769231 , 4137.43589744 , 4136.41025641 , 4189.74358974 , 4905.12820513 , 4134.35897436 , 4139.48717949 , 2042.0 , 2035.0 , 13.698 , 0.0 , 0.0 , 0.0 , 0.0 , 

105.0 , 4129.23076923 , 4128.71794872 , 4131.28205128 , 4129.74358974 , 4130.76923077 , 4132.30769231 , 4126.66666667 , 4130.76923077 , 4135.38461538 , 4137.43589744 , 4191.28205128 , 4910.25641026 , 4133.84615385 , 4138.97435897 , 2041.0 , 2035.0 , 13.706 , 0.0 , 0.0 , 0.0 , 0.0 , 

106.0 , 4131.79487179 , 4129.23076923 , 4131.79487179 , 4129.74358974 , 4128.71794872 , 4130.76923077 , 4129.23076923 , 4130.76923077 , 4133.84615385 , 4136.41025641 , 4189.74358974 , 4913.84615385 , 4133.84615385 , 4136.92307692 , 2041.0 , 2035.0 , 13.714 , 0.0 , 0.0 , 0.0 , 0.0 , 

107.0 , 4135.38461538 , 4131.28205128 , 4135.38461538 , 4131.79487179 , 4129.23076923 , 4129.74358974 , 4131.79487179 , 4134.35897436 , 4133.84615385 , 4135.38461538 , 4189.23076923 , 4912.30769231 , 4133.33333333 , 4138.46153846 , 2042.0 , 2035.0 , 13.723 , 0.0 , 0.0 , 0.0 , 0.0 , 

108.0 , 4131.28205128 , 4130.25641026 , 4133.33333333 , 4133.84615385 , 4130.25641026 , 4128.20512821 , 4130.76923077 , 4133.84615385 , 4134.87179487 , 4136.92307692 , 4189.23076923 , 4909.74358974 , 4131.28205128 , 4138.97435897 , 2042.0 , 2037.0 , 13.731 , 0.0 , 0.0 , 0.0 , 0.0 , 

109.0 , 4130.25641026 , 4131.28205128 , 4133.33333333 , 4132.30769231 , 4131.28205128 , 4127.17948718 , 4128.71794872 , 4131.79487179 , 4134.87179487 , 4139.48717949 , 4190.25641026 , 4911.79487179 , 4133.33333333 , 4137.94871795 , 2041.0 , 2035.0 , 13.739 , 0.0 , 0.0 , 0.0 , 0.0 , 

110.0 , 4132.30769231 , 4129.23076923 , 4132.30769231 , 4128.71794872 , 4132.30769231 , 4128.71794872 , 4131.79487179 , 4134.35897436 , 4134.35897436 , 4138.46153846 , 4191.79487179 , 4910.25641026 , 4137.43589744 , 4136.92307692 , 2041.0 , 2036.0 , 13.746 , 0.0 , 0.0 , 0.0 , 0.0 , 

111.0 , 4134.35897436 , 4126.66666667 , 4133.33333333 , 4131.79487179 , 4131.79487179 , 4130.25641026 , 4129.23076923 , 4134.87179487 , 4136.41025641 , 4135.38461538 , 4192.82051282 , 4912.30769231 , 4136.41025641 , 4138.97435897 , 2042.0 , 2035.0 , 13.754 , 0.0 , 0.0 , 0.0 , 0.0 , 

112.0 , 4129.74358974 , 4130.25641026 , 4129.23076923 , 4136.41025641 , 4133.33333333 , 4128.20512821 , 4125.12820513 , 4132.82051282 , 4138.97435897 , 4135.8974359 , 4191.28205128 , 4910.76923077 , 4133.84615385 , 4136.92307692 , 2042.0 , 2036.0 , 13.761 , 0.0 , 0.0 , 0.0 , 0.0 , 

113.0 , 4129.74358974 , 4136.92307692 , 4133.33333333 , 4134.35897436 , 4130.76923077 , 4129.23076923 , 4130.25641026 , 4131.28205128 , 4133.84615385 , 4136.41025641 , 4190.76923077 , 4909.74358974 , 4135.8974359 , 4136.92307692 , 2041.0 , 2035.0 , 13.769 , 0.0 , 0.0 , 0.0 , 0.0 , 

114.0 , 4130.25641026 , 4132.30769231 , 4131.28205128 , 4131.28205128 , 4127.17948718 , 4130.76923077 , 4134.35897436 , 4131.28205128 , 4131.79487179 , 4136.41025641 , 4192.30769231 , 4907.17948718 , 4136.92307692 , 4138.46153846 , 2041.0 , 2034.0 , 13.778 , 0.0 , 0.0 , 0.0 , 0.0 , 

115.0 , 4134.35897436 , 4130.76923077 , 4130.25641026 , 4133.84615385 , 4128.71794872 , 4130.25641026 , 4125.64102564 , 4130.25641026 , 4135.38461538 , 4136.41025641 , 4189.74358974 , 4910.76923077 , 4135.8974359 , 4139.48717949 , 2041.0 , 2035.0 , 13.785 , 0.0 , 0.0 , 0.0 , 0.0 , 

116.0 , 4131.28205128 , 4132.82051282 , 4130.25641026 , 4132.82051282 , 4133.33333333 , 4128.71794872 , 4120.51282051 , 4130.76923077 , 4137.94871795 , 4135.38461538 , 4187.17948718 , 4912.30769231 , 4135.38461538 , 4134.87179487 , 2041.0 , 2035.0 , 13.793 , 0.0 , 0.0 , 0.0 , 0.0 , 

117.0 , 4129.74358974 , 4134.87179487 , 4132.30769231 , 4131.79487179 , 4131.28205128 , 4129.74358974 , 4131.79487179 , 4130.76923077 , 4134.35897436 , 4135.8974359 , 4189.23076923 , 4911.79487179 , 4135.8974359 , 4135.38461538 , 2041.0 , 2035.0 , 13.801 , 0.0 , 0.0 , 0.0 , 0.0 , 

118.0 , 4130.25641026 , 4132.30769231 , 4129.74358974 , 4133.84615385 , 4127.69230769 , 4129.74358974 , 4136.92307692 , 4132.82051282 , 4134.35897436 , 4137.94871795 , 4189.23076923 , 4907.17948718 , 4137.43589744 , 4138.46153846 , 2042.0 , 2036.0 , 13.809 , 0.0 , 0.0 , 0.0 , 0.0 , 

119.0 , 4134.35897436 , 4130.76923077 , 4133.84615385 , 4134.35897436 , 4128.20512821 , 4128.20512821 , 4131.79487179 , 4132.82051282 , 4134.87179487 , 4137.94871795 , 4188.20512821 , 4906.66666667 , 4134.87179487 , 4139.48717949 , 2041.0 , 2035.0 , 13.817 , 0.0 , 0.0 , 0.0 , 0.0 , 

120.0 , 4131.79487179 , 4127.69230769 , 4133.84615385 , 4134.35897436 , 4131.28205128 , 4127.69230769 , 4131.79487179 , 4130.25641026 , 4135.38461538 , 4135.8974359 , 4190.76923077 , 4909.74358974 , 4134.35897436 , 4137.94871795 , 2042.0 , 2036.0 , 13.824 , 0.0 , 0.0 , 0.0 , 0.0 , 

121.0 , 4130.76923077 , 4130.25641026 , 4130.25641026 , 4133.84615385 , 4134.35897436 , 4130.76923077 , 4136.41025641 , 4130.76923077 , 4135.8974359 , 4135.8974359 , 4190.76923077 , 4912.30769231 , 4136.92307692 , 4137.94871795 , 2042.0 , 2035.0 , 13.832 , 0.0 , 0.0 , 0.0 , 0.0 , 

122.0 , 4134.87179487 , 4132.30769231 , 4129.74358974 , 4131.28205128 , 4132.30769231 , 4131.28205128 , 4134.87179487 , 4132.82051282 , 4134.87179487 , 4135.8974359 , 4187.17948718 , 4909.23076923 , 4132.30769231 , 4139.48717949 , 2042.0 , 2035.0 , 13.842 , 0.0 , 0.0 , 0.0 , 0.0 , 

123.0 , 4136.41025641 , 4129.23076923 , 4132.30769231 , 4131.79487179 , 4130.25641026 , 4129.74358974 , 4131.79487179 , 4131.28205128 , 4134.35897436 , 4135.8974359 , 4188.20512821 , 4907.69230769 , 4129.23076923 , 4141.02564103 , 2041.0 , 2035.0 , 13.848 , 0.0 , 0.0 , 0.0 , 0.0 , 

124.0 , 4132.82051282 , 4127.17948718 , 4132.82051282 , 4132.30769231 , 4133.33333333 , 4131.28205128 , 4136.41025641 , 4131.79487179 , 4135.38461538 , 4138.97435897 , 4190.25641026 , 4909.23076923 , 4133.33333333 , 4138.46153846 , 2040.0 , 2036.0 , 13.856 , 0.0 , 0.0 , 0.0 , 0.0 , 

125.0 , 4131.28205128 , 4126.66666667 , 4129.74358974 , 4130.25641026 , 4133.84615385 , 4130.76923077 , 4136.41025641 , 4132.82051282 , 4134.87179487 , 4138.46153846 , 4188.71794872 , 4908.71794872 , 4133.84615385 , 4134.87179487 , 2040.0 , 2035.0 , 13.864 , 0.0 , 0.0 , 0.0 , 0.0 , 

126.0 , 4134.87179487 , 4127.69230769 , 4131.28205128 , 4131.79487179 , 4129.74358974 , 4128.71794872 , 4127.17948718 , 4130.76923077 , 4136.41025641 , 4135.38461538 , 4190.76923077 , 4911.28205128 , 4132.30769231 , 4135.38461538 , 2041.0 , 2035.0 , 13.872 , 0.0 , 0.0 , 0.0 , 0.0 , 

127.0 , 4132.30769231 , 4128.20512821 , 4132.30769231 , 4134.35897436 , 4129.74358974 , 4130.76923077 , 4125.12820513 , 4128.71794872 , 4138.46153846 , 4135.8974359 , 4192.82051282 , 4913.33333333 , 4135.38461538 , 4135.38461538 , 2041.0 , 2035.0 , 13.881 , 0.0 , 0.0 , 0.0 , 0.0 , 

