['COUNTER', 'AF3', 'F7', 'F3', 'FC5', 'T7', 'P7', 'O1', 'O2', 'P8', 'T8', 'FC6', 'F4', 'F8', 'AF4', 'GYROX', 'GYROY', 'TIMESTAMP', 'FUNC_ID', 'FUNC_VALUE', 'MARKER', 'SYNC_SIGNAL']
59.0 , 4134.35897436 , 4132.82051282 , 4169.23076923 , 4137.43589744 , 4135.38461538 , 4135.38461538 , 4133.33333333 , 4135.38461538 , 4135.8974359 , 4153.33333333 , 4174.35897436 , 4790.76923077 , 4135.8974359 , 4138.97435897 , 2057.0 , 2033.0 , 6.034 , 0.0 , 0.0 , 0.0 , 0.0 , 

60.0 , 4137.43589744 , 4138.97435897 , 4173.84615385 , 4136.92307692 , 4135.38461538 , 4136.92307692 , 4133.33333333 , 4134.87179487 , 4135.8974359 , 4147.69230769 , 4177.94871795 , 4793.33333333 , 4136.41025641 , 4138.97435897 , 2058.0 , 2031.0 , 6.042 , 0.0 , 0.0 , 0.0 , 0.0 , 

61.0 , 4135.8974359 , 4135.8974359 , 4171.28205128 , 4137.43589744 , 4135.38461538 , 4135.38461538 , 4132.82051282 , 4136.41025641 , 4135.8974359 , 4136.41025641 , 4174.35897436 , 4796.41025641 , 4135.38461538 , 4138.46153846 , 2058.0 , 2031.0 , 6.049 , 0.0 , 0.0 , 0.0 , 0.0 , 

62.0 , 4134.87179487 , 4134.87179487 , 4165.64102564 , 4137.94871795 , 4135.38461538 , 4132.30769231 , 4132.30769231 , 4136.41025641 , 4135.8974359 , 4143.58974359 , 4170.76923077 , 4797.43589744 , 4135.38461538 , 4137.43589744 , 2059.0 , 2030.0 , 6.058 , 0.0 , 0.0 , 0.0 , 0.0 , 

63.0 , 4135.8974359 , 4136.92307692 , 4158.97435897 , 4136.92307692 , 4135.38461538 , 4132.30769231 , 4132.30769231 , 4135.8974359 , 4135.8974359 , 4154.87179487 , 4171.79487179 , 4794.87179487 , 4136.41025641 , 4137.43589744 , 2059.0 , 2027.0 , 6.066 , 0.0 , 0.0 , 0.0 , 0.0 , 

64.0 , 4136.41025641 , 4134.87179487 , 4159.48717949 , 4137.43589744 , 4135.38461538 , 4135.8974359 , 4132.30769231 , 4135.8974359 , 4135.8974359 , 4144.61538462 , 4171.79487179 , 4796.41025641 , 4135.8974359 , 4136.41025641 , 2059.0 , 2026.0 , 6.073 , 0.0 , 0.0 , 0.0 , 0.0 , 

65.0 , 4135.38461538 , 4130.76923077 , 4165.12820513 , 4138.46153846 , 4135.38461538 , 4136.41025641 , 4133.84615385 , 4135.8974359 , 4135.8974359 , 4136.41025641 , 4171.28205128 , 4796.92307692 , 4135.38461538 , 4136.92307692 , 2060.0 , 2026.0 , 6.081 , 0.0 , 0.0 , 0.0 , 0.0 , 

66.0 , 4133.84615385 , 4130.76923077 , 4163.58974359 , 4136.92307692 , 4135.38461538 , 4134.35897436 , 4135.38461538 , 4135.8974359 , 4135.8974359 , 4138.46153846 , 4173.84615385 , 4796.92307692 , 4135.8974359 , 4137.43589744 , 2059.0 , 2025.0 , 6.089 , 0.0 , 0.0 , 0.0 , 0.0 , 

67.0 , 4134.87179487 , 4130.25641026 , 4166.15384615 , 4135.8974359 , 4135.38461538 , 4133.84615385 , 4134.87179487 , 4135.8974359 , 4135.8974359 , 4142.05128205 , 4176.92307692 , 4800.51282051 , 4136.41025641 , 4137.94871795 , 2058.0 , 2027.0 , 6.097 , 0.0 , 0.0 , 0.0 , 0.0 , 

68.0 , 4135.8974359 , 4126.66666667 , 4166.15384615 , 4136.41025641 , 4135.38461538 , 4135.38461538 , 4134.35897436 , 4135.8974359 , 4136.41025641 , 4142.56410256 , 4175.8974359 , 4800.0 , 4135.8974359 , 4139.48717949 , 2059.0 , 2028.0 , 6.105 , 0.0 , 0.0 , 0.0 , 0.0 , 

69.0 , 4134.87179487 , 4128.71794872 , 4164.61538462 , 4134.87179487 , 4135.38461538 , 4134.35897436 , 4136.41025641 , 4136.41025641 , 4136.41025641 , 4145.64102564 , 4176.41025641 , 4796.41025641 , 4136.41025641 , 4140.0 , 2058.0 , 2032.0 , 6.114 , 0.0 , 0.0 , 0.0 , 0.0 , 

70.0 , 4135.8974359 , 4136.41025641 , 4157.94871795 , 4134.87179487 , 4135.38461538 , 4134.87179487 , 4135.38461538 , 4135.8974359 , 4135.8974359 , 4146.15384615 , 4177.94871795 , 4796.41025641 , 4136.41025641 , 4137.43589744 , 2058.0 , 2034.0 , 6.12 , 0.0 , 0.0 , 0.0 , 0.0 , 

71.0 , 4135.8974359 , 4134.87179487 , 4153.33333333 , 4137.43589744 , 4135.38461538 , 4135.8974359 , 4133.84615385 , 4135.8974359 , 4136.41025641 , 4144.1025641 , 4177.43589744 , 4799.48717949 , 4135.8974359 , 4136.92307692 , 2056.0 , 2034.0 , 6.128 , 0.0 , 0.0 , 0.0 , 0.0 , 

72.0 , 4135.8974359 , 4130.25641026 , 4150.25641026 , 4137.94871795 , 4135.38461538 , 4132.82051282 , 4134.35897436 , 4136.92307692 , 4135.8974359 , 4145.12820513 , 4172.82051282 , 4796.92307692 , 4132.82051282 , 4137.94871795 , 2054.0 , 2037.0 , 6.136 , 0.0 , 0.0 , 0.0 , 0.0 , 

73.0 , 4136.41025641 , 4133.84615385 , 4144.1025641 , 4135.8974359 , 4134.87179487 , 4131.28205128 , 4134.35897436 , 4137.43589744 , 4135.38461538 , 4143.07692308 , 4172.30769231 , 4797.43589744 , 4131.79487179 , 4137.43589744 , 2054.0 , 2035.0 , 6.144 , 0.0 , 0.0 , 0.0 , 0.0 , 

74.0 , 4135.8974359 , 4137.43589744 , 4149.23076923 , 4135.8974359 , 4135.38461538 , 4135.38461538 , 4134.35897436 , 4135.8974359 , 4135.38461538 , 4138.97435897 , 4176.41025641 , 4802.56410256 , 4136.41025641 , 4137.43589744 , 2053.0 , 2037.0 , 6.152 , 0.0 , 0.0 , 0.0 , 0.0 , 

75.0 , 4135.38461538 , 4135.38461538 , 4133.33333333 , 4136.41025641 , 4135.8974359 , 4135.8974359 , 4134.35897436 , 4132.30769231 , 4133.33333333 , 4138.97435897 , 4174.35897436 , 4800.0 , 4133.84615385 , 4137.43589744 , 2052.0 , 2038.0 , 6.16 , 0.0 , 0.0 , 0.0 , 0.0 , 

76.0 , 4136.41025641 , 4135.8974359 , 4126.66666667 , 4135.8974359 , 4134.87179487 , 4134.35897436 , 4134.35897436 , 4133.33333333 , 4132.82051282 , 4141.53846154 , 4173.33333333 , 4799.48717949 , 4131.28205128 , 4138.97435897 , 2052.0 , 2039.0 , 6.168 , 0.0 , 0.0 , 0.0 , 0.0 , 

77.0 , 4136.92307692 , 4134.87179487 , 4122.05128205 , 4135.8974359 , 4133.84615385 , 4135.38461538 , 4134.35897436 , 4132.30769231 , 4134.87179487 , 4138.46153846 , 4174.35897436 , 4802.05128205 , 4130.25641026 , 4135.38461538 , 2052.0 , 2038.0 , 6.176 , 0.0 , 0.0 , 0.0 , 0.0 , 

78.0 , 4137.43589744 , 4135.8974359 , 4126.15384615 , 4135.8974359 , 4134.35897436 , 4135.38461538 , 4134.35897436 , 4133.84615385 , 4137.43589744 , 4138.97435897 , 4173.33333333 , 4804.1025641 , 4131.79487179 , 4130.76923077 , 2051.0 , 2040.0 , 6.183 , 0.0 , 0.0 , 0.0 , 0.0 , 

79.0 , 4136.41025641 , 4136.41025641 , 4121.53846154 , 4135.8974359 , 4134.35897436 , 4133.84615385 , 4134.35897436 , 4135.38461538 , 4135.38461538 , 4140.51282051 , 4172.30769231 , 4800.0 , 4129.23076923 , 4133.84615385 , 2051.0 , 2042.0 , 6.192 , 0.0 , 0.0 , 0.0 , 0.0 , 

80.0 , 4135.38461538 , 4133.33333333 , 4120.51282051 , 4135.8974359 , 4134.35897436 , 4134.35897436 , 4134.35897436 , 4136.41025641 , 4134.87179487 , 4139.48717949 , 4176.41025641 , 4802.56410256 , 4130.76923077 , 4141.53846154 , 2049.0 , 2042.0 , 6.199 , 0.0 , 0.0 , 0.0 , 0.0 , 

81.0 , 4135.38461538 , 4130.25641026 , 4125.64102564 , 4135.8974359 , 4134.35897436 , 4134.35897436 , 4134.35897436 , 4132.82051282 , 4134.87179487 , 4141.53846154 , 4177.43589744 , 4804.61538462 , 4133.84615385 , 4138.46153846 , 2048.0 , 2042.0 , 6.207 , 0.0 , 0.0 , 0.0 , 0.0 , 

82.0 , 4135.38461538 , 4133.33333333 , 4116.92307692 , 4135.8974359 , 4135.38461538 , 4133.84615385 , 4134.35897436 , 4132.30769231 , 4134.35897436 , 4140.51282051 , 4172.30769231 , 4802.05128205 , 4131.28205128 , 4134.87179487 , 2048.0 , 2043.0 , 6.215 , 0.0 , 0.0 , 0.0 , 0.0 , 

83.0 , 4133.33333333 , 4136.92307692 , 4110.25641026 , 4135.8974359 , 4135.38461538 , 4134.35897436 , 4134.35897436 , 4132.82051282 , 4132.82051282 , 4137.94871795 , 4170.76923077 , 4800.0 , 4129.23076923 , 4137.94871795 , 2047.0 , 2045.0 , 6.223 , 0.0 , 0.0 , 0.0 , 0.0 , 

84.0 , 4133.33333333 , 4135.38461538 , 4100.51282051 , 4135.8974359 , 4134.35897436 , 4134.35897436 , 4134.35897436 , 4131.28205128 , 4131.79487179 , 4138.97435897 , 4172.30769231 , 4802.56410256 , 4129.74358974 , 4137.94871795 , 2045.0 , 2045.0 , 6.232 , 0.0 , 0.0 , 0.0 , 0.0 , 

85.0 , 4136.41025641 , 4134.35897436 , 4104.61538462 , 4135.8974359 , 4134.35897436 , 4133.84615385 , 4134.35897436 , 4133.84615385 , 4132.30769231 , 4138.97435897 , 4170.76923077 , 4805.12820513 , 4131.79487179 , 4134.35897436 , 2045.0 , 2041.0 , 6.239 , 0.0 , 0.0 , 0.0 , 0.0 , 

86.0 , 4136.92307692 , 4135.8974359 , 4101.02564103 , 4135.8974359 , 4134.87179487 , 4134.35897436 , 4134.35897436 , 4132.30769231 , 4133.84615385 , 4140.51282051 , 4171.79487179 , 4799.48717949 , 4129.74358974 , 4133.84615385 , 2045.0 , 2041.0 , 6.247 , 0.0 , 0.0 , 0.0 , 0.0 , 

87.0 , 4136.41025641 , 4135.8974359 , 4085.12820513 , 4135.8974359 , 4134.35897436 , 4134.87179487 , 4134.35897436 , 4128.71794872 , 4132.30769231 , 4146.15384615 , 4173.84615385 , 4793.84615385 , 4127.69230769 , 4134.87179487 , 2043.0 , 2041.0 , 6.255 , 0.0 , 0.0 , 0.0 , 0.0 , 

88.0 , 4136.41025641 , 4135.38461538 , 4072.30769231 , 4135.8974359 , 4134.35897436 , 4134.87179487 , 4134.35897436 , 4128.20512821 , 4130.76923077 , 4143.58974359 , 4172.30769231 , 4793.33333333 , 4128.71794872 , 4133.33333333 , 2045.0 , 2041.0 , 6.263 , 0.0 , 0.0 , 0.0 , 0.0 , 

89.0 , 4136.41025641 , 4135.38461538 , 4068.71794872 , 4135.8974359 , 4135.38461538 , 4134.87179487 , 4134.35897436 , 4128.71794872 , 4133.33333333 , 4136.41025641 , 4173.33333333 , 4793.84615385 , 4127.69230769 , 4132.82051282 , 2046.0 , 2040.0 , 6.271 , 0.0 , 0.0 , 0.0 , 0.0 , 

90.0 , 4134.87179487 , 4135.8974359 , 4068.20512821 , 4135.8974359 , 4136.92307692 , 4134.87179487 , 4134.35897436 , 4130.76923077 , 4132.30769231 , 4136.92307692 , 4177.43589744 , 4795.8974359 , 4127.17948718 , 4137.43589744 , 2044.0 , 2038.0 , 6.279 , 0.0 , 0.0 , 0.0 , 0.0 , 

91.0 , 4135.38461538 , 4135.38461538 , 4065.12820513 , 4135.8974359 , 4135.8974359 , 4134.87179487 , 4134.35897436 , 4134.35897436 , 4130.25641026 , 4137.43589744 , 4173.84615385 , 4793.84615385 , 4126.66666667 , 4138.46153846 , 2044.0 , 2037.0 , 6.286 , 0.0 , 0.0 , 0.0 , 0.0 , 

92.0 , 4136.41025641 , 4134.35897436 , 4062.05128205 , 4135.8974359 , 4134.35897436 , 4134.87179487 , 4134.35897436 , 4132.82051282 , 4133.33333333 , 4135.8974359 , 4170.25641026 , 4790.25641026 , 4125.12820513 , 4134.35897436 , 2043.0 , 2032.0 , 6.295 , 0.0 , 0.0 , 0.0 , 0.0 , 

93.0 , 4136.41025641 , 4134.87179487 , 4049.74358974 , 4135.8974359 , 4134.87179487 , 4134.87179487 , 4134.35897436 , 4131.28205128 , 4135.38461538 , 4137.94871795 , 4174.35897436 , 4789.23076923 , 4124.1025641 , 4134.35897436 , 2043.0 , 2031.0 , 6.302 , 0.0 , 0.0 , 0.0 , 0.0 , 

94.0 , 4135.8974359 , 4134.87179487 , 4041.53846154 , 4135.8974359 , 4134.87179487 , 4134.87179487 , 4134.35897436 , 4133.84615385 , 4134.87179487 , 4140.51282051 , 4175.38461538 , 4789.23076923 , 4125.64102564 , 4136.41025641 , 2043.0 , 2030.0 , 6.311 , 0.0 , 0.0 , 0.0 , 0.0 , 

95.0 , 4133.84615385 , 4134.87179487 , 4048.20512821 , 4135.8974359 , 4134.87179487 , 4134.87179487 , 4134.35897436 , 4131.79487179 , 4134.87179487 , 4139.48717949 , 4173.33333333 , 4787.17948718 , 4127.69230769 , 4133.84615385 , 2044.0 , 2029.0 , 6.317 , 0.0 , 0.0 , 0.0 , 0.0 , 

96.0 , 4133.84615385 , 4134.35897436 , 4048.20512821 , 4135.8974359 , 4134.87179487 , 4134.87179487 , 4134.35897436 , 4127.17948718 , 4133.84615385 , 4138.97435897 , 4175.38461538 , 4786.66666667 , 4127.17948718 , 4132.30769231 , 2045.0 , 2028.0 , 6.326 , 0.0 , 0.0 , 0.0 , 0.0 , 

97.0 , 4134.87179487 , 4134.35897436 , 4035.38461538 , 4135.8974359 , 4134.87179487 , 4134.87179487 , 4134.35897436 , 4130.25641026 , 4130.25641026 , 4140.51282051 , 4177.94871795 , 4787.69230769 , 4127.69230769 , 4135.38461538 , 2044.0 , 2030.0 , 6.333 , 0.0 , 0.0 , 0.0 , 0.0 , 

98.0 , 4134.87179487 , 4134.35897436 , 4031.28205128 , 4135.8974359 , 4134.87179487 , 4134.87179487 , 4134.35897436 , 4133.84615385 , 4133.84615385 , 4144.1025641 , 4175.8974359 , 4785.64102564 , 4128.20512821 , 4134.87179487 , 2045.0 , 2031.0 , 6.341 , 0.0 , 0.0 , 0.0 , 0.0 , 

99.0 , 4135.38461538 , 4134.87179487 , 4039.48717949 , 4135.8974359 , 4134.87179487 , 4134.87179487 , 4134.35897436 , 4133.33333333 , 4137.43589744 , 4142.05128205 , 4175.38461538 , 4784.1025641 , 4129.74358974 , 4134.35897436 , 2045.0 , 2033.0 , 6.349 , 0.0 , 0.0 , 0.0 , 0.0 , 

100.0 , 4135.8974359 , 4135.38461538 , 4038.97435897 , 4135.8974359 , 4134.87179487 , 4134.87179487 , 4134.35897436 , 4131.28205128 , 4135.8974359 , 4134.35897436 , 4174.87179487 , 4782.05128205 , 4130.25641026 , 4133.84615385 , 2045.0 , 2034.0 , 6.358 , 0.0 , 0.0 , 0.0 , 0.0 , 

101.0 , 4135.8974359 , 4135.8974359 , 4035.8974359 , 4135.8974359 , 4134.87179487 , 4134.87179487 , 4134.35897436 , 4133.84615385 , 4135.8974359 , 4137.43589744 , 4173.33333333 , 4780.51282051 , 4128.71794872 , 4132.82051282 , 2046.0 , 2034.0 , 6.365 , 0.0 , 0.0 , 0.0 , 0.0 , 

102.0 , 4134.87179487 , 4134.87179487 , 4043.07692308 , 4135.8974359 , 4134.87179487 , 4134.87179487 , 4134.35897436 , 4136.41025641 , 4137.43589744 , 4143.58974359 , 4172.82051282 , 4780.0 , 4129.23076923 , 4134.35897436 , 2046.0 , 2033.0 , 6.373 , 0.0 , 0.0 , 0.0 , 0.0 , 

103.0 , 4136.41025641 , 4134.35897436 , 4049.23076923 , 4135.8974359 , 4134.87179487 , 4134.87179487 , 4134.35897436 , 4133.84615385 , 4136.92307692 , 4140.51282051 , 4176.41025641 , 4777.94871795 , 4130.76923077 , 4137.94871795 , 2044.0 , 2032.0 , 6.38 , 0.0 , 0.0 , 0.0 , 0.0 , 

104.0 , 4136.41025641 , 4135.38461538 , 4044.61538462 , 4135.8974359 , 4134.87179487 , 4134.87179487 , 4134.35897436 , 4130.76923077 , 4135.38461538 , 4140.0 , 4175.38461538 , 4773.84615385 , 4130.25641026 , 4136.92307692 , 2044.0 , 2031.0 , 6.388 , 0.0 , 0.0 , 0.0 , 0.0 , 

105.0 , 4134.87179487 , 4135.38461538 , 4045.12820513 , 4135.8974359 , 4134.87179487 , 4134.87179487 , 4134.35897436 , 4134.35897436 , 4136.41025641 , 4144.61538462 , 4172.30769231 , 4772.82051282 , 4129.74358974 , 4135.8974359 , 2044.0 , 2033.0 , 6.396 , 0.0 , 0.0 , 0.0 , 0.0 , 

106.0 , 4134.87179487 , 4134.87179487 , 4046.15384615 , 4135.8974359 , 4134.87179487 , 4134.87179487 , 4134.35897436 , 4135.38461538 , 4135.38461538 , 4142.56410256 , 4174.87179487 , 4772.82051282 , 4129.74358974 , 4134.87179487 , 2044.0 , 2031.0 , 6.405 , 0.0 , 0.0 , 0.0 , 0.0 , 

107.0 , 4135.8974359 , 4134.87179487 , 4043.58974359 , 4135.8974359 , 4134.87179487 , 4134.87179487 , 4134.35897436 , 4133.33333333 , 4136.41025641 , 4138.97435897 , 4176.92307692 , 4770.76923077 , 4130.25641026 , 4134.87179487 , 2043.0 , 2030.0 , 6.412 , 0.0 , 0.0 , 0.0 , 0.0 , 

108.0 , 4136.41025641 , 4135.38461538 , 4040.51282051 , 4135.8974359 , 4134.87179487 , 4134.87179487 , 4134.35897436 , 4132.30769231 , 4136.92307692 , 4139.48717949 , 4173.84615385 , 4765.12820513 , 4128.20512821 , 4135.38461538 , 2046.0 , 2031.0 , 6.42 , 0.0 , 0.0 , 0.0 , 0.0 , 

109.0 , 4135.38461538 , 4135.8974359 , 4038.97435897 , 4135.8974359 , 4134.87179487 , 4134.87179487 , 4134.35897436 , 4133.33333333 , 4135.8974359 , 4142.05128205 , 4173.33333333 , 4761.02564103 , 4127.69230769 , 4133.84615385 , 2045.0 , 2030.0 , 6.428 , 0.0 , 0.0 , 0.0 , 0.0 , 

110.0 , 4135.8974359 , 4135.8974359 , 4044.61538462 , 4135.8974359 , 4134.87179487 , 4134.87179487 , 4134.35897436 , 4135.38461538 , 4136.41025641 , 4145.12820513 , 4176.41025641 , 4765.12820513 , 4130.76923077 , 4132.30769231 , 2043.0 , 2032.0 , 6.436 , 0.0 , 0.0 , 0.0 , 0.0 , 

111.0 , 4136.92307692 , 4134.87179487 , 4059.48717949 , 4135.8974359 , 4134.87179487 , 4134.87179487 , 4134.35897436 , 4138.46153846 , 4137.43589744 , 4145.12820513 , 4177.43589744 , 4768.20512821 , 4134.87179487 , 4137.43589744 , 2044.0 , 2031.0 , 6.443 , 0.0 , 0.0 , 0.0 , 0.0 , 

112.0 , 4135.8974359 , 4134.87179487 , 4064.1025641 , 4135.8974359 , 4134.87179487 , 4134.87179487 , 4134.35897436 , 4137.94871795 , 4135.8974359 , 4144.1025641 , 4176.41025641 , 4763.58974359 , 4133.33333333 , 4140.0 , 2044.0 , 2033.0 , 6.451 , 0.0 , 0.0 , 0.0 , 0.0 , 

113.0 , 4135.38461538 , 4133.84615385 , 4061.02564103 , 4135.8974359 , 4134.87179487 , 4134.87179487 , 4134.35897436 , 4136.41025641 , 4137.94871795 , 4144.1025641 , 4177.94871795 , 4760.51282051 , 4129.74358974 , 4133.84615385 , 2042.0 , 2033.0 , 6.459 , 0.0 , 0.0 , 0.0 , 0.0 , 

114.0 , 4135.8974359 , 4133.33333333 , 4066.15384615 , 4135.8974359 , 4134.87179487 , 4134.87179487 , 4134.35897436 , 4137.94871795 , 4138.97435897 , 4142.56410256 , 4178.97435897 , 4761.53846154 , 4130.25641026 , 4131.28205128 , 2042.0 , 2033.0 , 6.468 , 0.0 , 0.0 , 0.0 , 0.0 , 

115.0 , 4136.41025641 , 4134.35897436 , 4071.79487179 , 4135.8974359 , 4134.87179487 , 4134.87179487 , 4134.35897436 , 4141.02564103 , 4136.92307692 , 4140.0 , 4174.87179487 , 4757.43589744 , 4132.30769231 , 4135.8974359 , 2042.0 , 2034.0 , 6.476 , 0.0 , 0.0 , 0.0 , 0.0 , 

116.0 , 4135.8974359 , 4133.33333333 , 4078.46153846 , 4135.8974359 , 4134.87179487 , 4134.87179487 , 4134.35897436 , 4141.02564103 , 4137.94871795 , 4143.58974359 , 4173.33333333 , 4754.35897436 , 4132.82051282 , 4137.94871795 , 2041.0 , 2034.0 , 6.484 , 0.0 , 0.0 , 0.0 , 0.0 , 

117.0 , 4134.87179487 , 4132.30769231 , 4088.20512821 , 4135.8974359 , 4134.87179487 , 4134.87179487 , 4134.35897436 , 4138.46153846 , 4139.48717949 , 4145.12820513 , 4176.92307692 , 4756.41025641 , 4131.79487179 , 4137.43589744 , 2040.0 , 2033.0 , 6.491 , 0.0 , 0.0 , 0.0 , 0.0 , 

118.0 , 4134.87179487 , 4134.35897436 , 4094.35897436 , 4135.8974359 , 4134.87179487 , 4134.87179487 , 4134.35897436 , 4136.41025641 , 4137.43589744 , 4143.58974359 , 4178.97435897 , 4757.94871795 , 4131.79487179 , 4140.0 , 2040.0 , 2030.0 , 6.499 , 0.0 , 0.0 , 0.0 , 0.0 , 

119.0 , 4136.41025641 , 4134.87179487 , 4099.48717949 , 4135.8974359 , 4134.87179487 , 4134.87179487 , 4134.35897436 , 4136.41025641 , 4136.92307692 , 4144.1025641 , 4177.94871795 , 4755.38461538 , 4133.84615385 , 4141.53846154 , 2041.0 , 2029.0 , 6.507 , 0.0 , 0.0 , 0.0 , 0.0 , 

120.0 , 4137.43589744 , 4134.35897436 , 4112.82051282 , 4135.8974359 , 4134.87179487 , 4134.87179487 , 4134.35897436 , 4138.97435897 , 4137.43589744 , 4145.64102564 , 4178.46153846 , 4752.82051282 , 4136.92307692 , 4141.02564103 , 2039.0 , 2027.0 , 6.515 , 0.0 , 0.0 , 0.0 , 0.0 , 

121.0 , 4135.8974359 , 4135.8974359 , 4125.64102564 , 4135.8974359 , 4134.87179487 , 4134.87179487 , 4134.35897436 , 4139.48717949 , 4137.43589744 , 4145.12820513 , 4178.46153846 , 4753.84615385 , 4135.38461538 , 4139.48717949 , 2040.0 , 2026.0 , 6.522 , 0.0 , 0.0 , 0.0 , 0.0 , 

122.0 , 4134.87179487 , 4135.38461538 , 4135.8974359 , 4135.8974359 , 4134.87179487 , 4134.87179487 , 4134.35897436 , 4141.53846154 , 4138.46153846 , 4146.15384615 , 4178.46153846 , 4757.43589744 , 4134.87179487 , 4138.97435897 , 2040.0 , 2028.0 , 6.53 , 0.0 , 0.0 , 0.0 , 0.0 , 

123.0 , 4135.38461538 , 4135.38461538 , 4144.61538462 , 4135.8974359 , 4134.87179487 , 4134.87179487 , 4134.35897436 , 4142.05128205 , 4137.94871795 , 4146.66666667 , 4178.97435897 , 4753.84615385 , 4135.38461538 , 4140.0 , 2040.0 , 2027.0 , 6.538 , 0.0 , 0.0 , 0.0 , 0.0 , 

124.0 , 4135.38461538 , 4136.41025641 , 4147.17948718 , 4135.8974359 , 4134.35897436 , 4134.87179487 , 4134.35897436 , 4138.46153846 , 4137.43589744 , 4146.15384615 , 4178.97435897 , 4750.76923077 , 4133.33333333 , 4142.56410256 , 2039.0 , 2028.0 , 6.547 , 0.0 , 0.0 , 0.0 , 0.0 , 

125.0 , 4134.87179487 , 4133.33333333 , 4143.58974359 , 4135.8974359 , 4135.8974359 , 4134.35897436 , 4134.35897436 , 4135.38461538 , 4138.46153846 , 4146.15384615 , 4178.97435897 , 4753.33333333 , 4132.30769231 , 4140.51282051 , 2040.0 , 2030.0 , 6.554 , 0.0 , 0.0 , 0.0 , 0.0 , 

126.0 , 4135.8974359 , 4132.30769231 , 4138.97435897 , 4135.8974359 , 4135.8974359 , 4134.35897436 , 4134.35897436 , 4138.46153846 , 4138.46153846 , 4145.12820513 , 4177.94871795 , 4753.84615385 , 4133.33333333 , 4137.43589744 , 2038.0 , 2032.0 , 6.563 , 0.0 , 0.0 , 0.0 , 0.0 , 

127.0 , 4136.92307692 , 4134.87179487 , 4135.8974359 , 4135.8974359 , 4133.33333333 , 4134.35897436 , 4134.35897436 , 4137.94871795 , 4137.94871795 , 4143.58974359 , 4175.38461538 , 4749.74358974 , 4132.82051282 , 4136.92307692 , 2039.0 , 2035.0 , 6.57 , 0.0 , 0.0 , 0.0 , 0.0 , 

128.0 , 4135.8974359 , 4135.38461538 , 4133.84615385 , 4135.8974359 , 4133.84615385 , 4134.35897436 , 4134.35897436 , 4137.43589744 , 4137.43589744 , 4144.1025641 , 4174.87179487 , 4749.74358974 , 4131.28205128 , 4135.38461538 , 2037.0 , 2036.0 , 6.577 , 0.0 , 0.0 , 0.0 , 0.0 , 

0.0 , 4134.35897436 , 4134.87179487 , 4139.48717949 , 4135.8974359 , 4135.8974359 , 4134.35897436 , 4134.35897436 , 4142.05128205 , 4136.92307692 , 4144.61538462 , 4176.41025641 , 4752.30769231 , 4132.30769231 , 4132.30769231 , 2036.0 , 2038.0 , 6.585 , 0.0 , 0.0 , 0.0 , 0.0 , 

1.0 , 4134.87179487 , 4135.38461538 , 4149.23076923 , 4135.8974359 , 4134.87179487 , 4134.35897436 , 4134.35897436 , 4141.02564103 , 4136.92307692 , 4143.58974359 , 4177.43589744 , 4751.79487179 , 4132.82051282 , 4134.35897436 , 2037.0 , 2039.0 , 6.593 , 0.0 , 0.0 , 0.0 , 0.0 , 

2.0 , 4135.8974359 , 4135.8974359 , 4157.94871795 , 4135.8974359 , 4133.84615385 , 4134.35897436 , 4134.35897436 , 4136.41025641 , 4137.94871795 , 4144.1025641 , 4178.46153846 , 4751.28205128 , 4133.33333333 , 4139.48717949 , 2037.0 , 2042.0 , 6.602 , 0.0 , 0.0 , 0.0 , 0.0 , 

3.0 , 4135.8974359 , 4135.38461538 , 4166.15384615 , 4135.8974359 , 4135.8974359 , 4134.35897436 , 4133.84615385 , 4137.94871795 , 4138.46153846 , 4145.64102564 , 4179.48717949 , 4752.30769231 , 4131.79487179 , 4141.02564103 , 2036.0 , 2042.0 , 6.609 , 0.0 , 0.0 , 0.0 , 0.0 , 

4.0 , 4134.87179487 , 4132.82051282 , 4188.20512821 , 4135.8974359 , 4136.41025641 , 4134.35897436 , 4134.35897436 , 4143.07692308 , 4140.0 , 4146.66666667 , 4178.46153846 , 4753.33333333 , 4132.30769231 , 4140.51282051 , 2037.0 , 2040.0 , 6.618 , 0.0 , 0.0 , 0.0 , 0.0 , 

5.0 , 4135.8974359 , 4132.30769231 , 4221.53846154 , 4135.8974359 , 4135.8974359 , 4134.35897436 , 4134.87179487 , 4143.58974359 , 4141.02564103 , 4148.71794872 , 4179.48717949 , 4755.38461538 , 4138.46153846 , 4141.02564103 , 2034.0 , 2038.0 , 6.625 , 0.0 , 0.0 , 0.0 , 0.0 , 

6.0 , 4137.43589744 , 4133.33333333 , 4233.33333333 , 4135.8974359 , 4136.41025641 , 4134.35897436 , 4131.79487179 , 4141.53846154 , 4142.05128205 , 4149.23076923 , 4183.58974359 , 4757.94871795 , 4140.51282051 , 4141.53846154 , 2034.0 , 2038.0 , 6.633 , 0.0 , 0.0 , 0.0 , 0.0 , 

7.0 , 4135.8974359 , 4131.79487179 , 4247.17948718 , 4135.8974359 , 4135.8974359 , 4134.35897436 , 4128.71794872 , 4143.07692308 , 4144.61538462 , 4148.71794872 , 4182.05128205 , 4760.51282051 , 4139.48717949 , 4144.1025641 , 2034.0 , 2039.0 , 6.641 , 0.0 , 0.0 , 0.0 , 0.0 , 

8.0 , 4134.87179487 , 4133.33333333 , 4241.53846154 , 4135.8974359 , 4134.35897436 , 4134.35897436 , 4130.76923077 , 4140.0 , 4141.02564103 , 4147.69230769 , 4175.8974359 , 4758.46153846 , 4136.41025641 , 4140.51282051 , 2034.0 , 2038.0 , 6.648 , 0.0 , 0.0 , 0.0 , 0.0 , 

9.0 , 4136.92307692 , 4136.92307692 , 4214.87179487 , 4135.8974359 , 4134.35897436 , 4134.35897436 , 4132.30769231 , 4137.43589744 , 4135.8974359 , 4145.12820513 , 4174.87179487 , 4756.92307692 , 4135.8974359 , 4136.41025641 , 2035.0 , 2037.0 , 6.656 , 0.0 , 0.0 , 0.0 , 0.0 , 

10.0 , 4137.43589744 , 4133.33333333 , 4198.97435897 , 4135.8974359 , 4134.35897436 , 4134.35897436 , 4129.74358974 , 4137.94871795 , 4136.92307692 , 4142.05128205 , 4176.92307692 , 4756.92307692 , 4134.35897436 , 4137.94871795 , 2035.0 , 2038.0 , 6.664 , 0.0 , 0.0 , 0.0 , 0.0 , 

11.0 , 4138.97435897 , 4132.82051282 , 4200.51282051 , 4135.8974359 , 4134.35897436 , 4134.35897436 , 4130.76923077 , 4137.94871795 , 4138.97435897 , 4140.51282051 , 4176.41025641 , 4758.46153846 , 4133.84615385 , 4140.0 , 2034.0 , 2037.0 , 6.673 , 0.0 , 0.0 , 0.0 , 0.0 , 

12.0 , 4136.41025641 , 4132.30769231 , 4200.51282051 , 4135.8974359 , 4134.35897436 , 4134.35897436 , 4136.41025641 , 4136.41025641 , 4136.41025641 , 4140.51282051 , 4176.92307692 , 4760.0 , 4135.38461538 , 4137.43589744 , 2038.0 , 2037.0 , 6.68 , 0.0 , 0.0 , 0.0 , 0.0 , 

13.0 , 4132.82051282 , 4129.74358974 , 4195.38461538 , 4135.8974359 , 4134.35897436 , 4134.35897436 , 4136.92307692 , 4136.92307692 , 4134.87179487 , 4137.94871795 , 4177.43589744 , 4762.05128205 , 4136.41025641 , 4136.41025641 , 2039.0 , 2036.0 , 6.688 , 0.0 , 0.0 , 0.0 , 0.0 , 

14.0 , 4133.33333333 , 4130.76923077 , 4203.07692308 , 4135.8974359 , 4134.35897436 , 4134.35897436 , 4130.76923077 , 4138.46153846 , 4136.92307692 , 4141.02564103 , 4177.43589744 , 4764.61538462 , 4135.8974359 , 4137.94871795 , 2043.0 , 2034.0 , 6.696 , 0.0 , 0.0 , 0.0 , 0.0 , 

15.0 , 4132.30769231 , 4132.30769231 , 4193.33333333 , 4135.8974359 , 4134.35897436 , 4134.35897436 , 4130.76923077 , 4135.38461538 , 4136.92307692 , 4145.12820513 , 4176.92307692 , 4763.07692308 , 4134.35897436 , 4135.8974359 , 2045.0 , 2033.0 , 6.705 , 0.0 , 0.0 , 0.0 , 0.0 , 

16.0 , 4130.25641026 , 4129.74358974 , 4202.05128205 , 4135.8974359 , 4134.35897436 , 4134.35897436 , 4131.28205128 , 4136.41025641 , 4136.41025641 , 4142.05128205 , 4177.94871795 , 4764.1025641 , 4137.94871795 , 4136.92307692 , 2045.0 , 2033.0 , 6.712 , 0.0 , 0.0 , 0.0 , 0.0 , 

17.0 , 4134.87179487 , 4127.69230769 , 4206.66666667 , 4136.41025641 , 4134.35897436 , 4134.35897436 , 4124.61538462 , 4135.8974359 , 4135.8974359 , 4138.46153846 , 4178.46153846 , 4764.61538462 , 4135.8974359 , 4137.94871795 , 2046.0 , 2032.0 , 6.72 , 0.0 , 0.0 , 0.0 , 0.0 , 

18.0 , 4137.43589744 , 4129.23076923 , 4198.46153846 , 4136.41025641 , 4134.35897436 , 4134.35897436 , 4126.66666667 , 4135.38461538 , 4136.41025641 , 4142.56410256 , 4177.94871795 , 4767.69230769 , 4134.35897436 , 4137.94871795 , 2044.0 , 2031.0 , 6.727 , 0.0 , 0.0 , 0.0 , 0.0 , 

19.0 , 4135.38461538 , 4129.23076923 , 4195.38461538 , 4134.87179487 , 4134.35897436 , 4134.35897436 , 4133.84615385 , 4135.8974359 , 4136.41025641 , 4140.0 , 4176.41025641 , 4766.66666667 , 4135.8974359 , 4137.43589744 , 2042.0 , 2030.0 , 6.735 , 0.0 , 0.0 , 0.0 , 0.0 , 

20.0 , 4133.84615385 , 4131.28205128 , 4200.51282051 , 4134.87179487 , 4134.35897436 , 4134.35897436 , 4130.25641026 , 4136.92307692 , 4135.8974359 , 4134.87179487 , 4180.51282051 , 4766.15384615 , 4137.43589744 , 4137.94871795 , 2040.0 , 2028.0 , 6.743 , 0.0 , 0.0 , 0.0 , 0.0 , 

21.0 , 4129.23076923 , 4130.76923077 , 4200.0 , 4136.92307692 , 4134.35897436 , 4134.87179487 , 4126.66666667 , 4135.8974359 , 4135.8974359 , 4138.46153846 , 4183.58974359 , 4765.64102564 , 4135.38461538 , 4138.97435897 , 2036.0 , 2028.0 , 6.751 , 0.0 , 0.0 , 0.0 , 0.0 , 

22.0 , 4128.71794872 , 4128.20512821 , 4192.30769231 , 4137.43589744 , 4134.35897436 , 4133.84615385 , 4133.84615385 , 4135.8974359 , 4135.8974359 , 4141.53846154 , 4178.97435897 , 4766.15384615 , 4133.84615385 , 4138.97435897 , 2033.0 , 2029.0 , 6.759 , 0.0 , 0.0 , 0.0 , 0.0 , 

23.0 , 4132.82051282 , 4127.17948718 , 4194.87179487 , 4135.8974359 , 4134.35897436 , 4133.84615385 , 4135.38461538 , 4136.41025641 , 4135.8974359 , 4135.8974359 , 4175.38461538 , 4769.23076923 , 4135.38461538 , 4138.97435897 , 2032.0 , 2032.0 , 6.767 , 0.0 , 0.0 , 0.0 , 0.0 , 

24.0 , 4131.79487179 , 4128.20512821 , 4200.51282051 , 4135.8974359 , 4134.35897436 , 4135.38461538 , 4131.79487179 , 4134.87179487 , 4135.8974359 , 4140.0 , 4178.97435897 , 4771.28205128 , 4136.41025641 , 4138.46153846 , 2028.0 , 2034.0 , 6.775 , 0.0 , 0.0 , 0.0 , 0.0 , 

25.0 , 4132.82051282 , 4131.28205128 , 4200.0 , 4135.8974359 , 4134.35897436 , 4132.82051282 , 4134.35897436 , 4134.87179487 , 4135.8974359 , 4150.76923077 , 4180.0 , 4773.84615385 , 4135.38461538 , 4137.94871795 , 2027.0 , 2034.0 , 6.782 , 0.0 , 0.0 , 0.0 , 0.0 , 

26.0 , 4137.43589744 , 4131.28205128 , 4195.38461538 , 4135.38461538 , 4134.35897436 , 4128.71794872 , 4135.38461538 , 4135.8974359 , 4135.8974359 , 4144.1025641 , 4181.02564103 , 4773.33333333 , 4134.35897436 , 4139.48717949 , 2027.0 , 2037.0 , 6.79 , 0.0 , 0.0 , 0.0 , 0.0 , 

27.0 , 4136.41025641 , 4127.17948718 , 4193.33333333 , 4136.41025641 , 4134.35897436 , 4130.76923077 , 4134.35897436 , 4136.41025641 , 4135.8974359 , 4134.87179487 , 4183.58974359 , 4773.84615385 , 4134.87179487 , 4139.48717949 , 2026.0 , 2037.0 , 6.798 , 0.0 , 0.0 , 0.0 , 0.0 , 

28.0 , 4133.84615385 , 4126.15384615 , 4192.82051282 , 4135.8974359 , 4134.35897436 , 4136.41025641 , 4134.87179487 , 4135.8974359 , 4135.8974359 , 4144.61538462 , 4181.53846154 , 4772.82051282 , 4136.41025641 , 4137.94871795 , 2026.0 , 2039.0 , 6.806 , 0.0 , 0.0 , 0.0 , 0.0 , 

29.0 , 4134.87179487 , 4129.23076923 , 4191.79487179 , 4135.8974359 , 4134.35897436 , 4134.87179487 , 4135.38461538 , 4135.8974359 , 4135.8974359 , 4153.84615385 , 4182.05128205 , 4772.30769231 , 4135.38461538 , 4137.94871795 , 2025.0 , 2039.0 , 6.815 , 0.0 , 0.0 , 0.0 , 0.0 , 

30.0 , 4134.35897436 , 4130.25641026 , 4192.82051282 , 4136.92307692 , 4134.35897436 , 4131.79487179 , 4133.84615385 , 4137.43589744 , 4135.8974359 , 4148.71794872 , 4183.58974359 , 4776.41025641 , 4134.87179487 , 4138.46153846 , 2026.0 , 2036.0 , 6.822 , 0.0 , 0.0 , 0.0 , 0.0 , 

31.0 , 4134.87179487 , 4128.20512821 , 4188.71794872 , 4135.8974359 , 4134.35897436 , 4134.35897436 , 4134.35897436 , 4136.92307692 , 4135.8974359 , 4147.17948718 , 4177.94871795 , 4777.94871795 , 4135.8974359 , 4137.43589744 , 2024.0 , 2034.0 , 6.83 , 0.0 , 0.0 , 0.0 , 0.0 , 

32.0 , 4135.38461538 , 4127.17948718 , 4186.15384615 , 4135.8974359 , 4134.35897436 , 4136.41025641 , 4134.35897436 , 4136.41025641 , 4135.8974359 , 4150.25641026 , 4175.8974359 , 4777.43589744 , 4135.8974359 , 4136.92307692 , 2024.0 , 2033.0 , 6.837 , 0.0 , 0.0 , 0.0 , 0.0 , 

33.0 , 4133.84615385 , 4131.28205128 , 4187.17948718 , 4139.48717949 , 4134.35897436 , 4134.87179487 , 4134.35897436 , 4137.43589744 , 4135.8974359 , 4149.74358974 , 4183.58974359 , 4778.97435897 , 4134.35897436 , 4137.43589744 , 2024.0 , 2031.0 , 6.845 , 0.0 , 0.0 , 0.0 , 0.0 , 

34.0 , 4136.41025641 , 4139.48717949 , 4185.12820513 , 4139.48717949 , 4134.35897436 , 4133.84615385 , 4134.35897436 , 4136.41025641 , 4135.8974359 , 4150.76923077 , 4186.15384615 , 4781.53846154 , 4135.38461538 , 4136.92307692 , 2025.0 , 2031.0 , 6.853 , 0.0 , 0.0 , 0.0 , 0.0 , 

35.0 , 4137.43589744 , 4137.43589744 , 4180.0 , 4135.38461538 , 4134.35897436 , 4135.38461538 , 4134.35897436 , 4133.84615385 , 4135.8974359 , 4150.76923077 , 4179.48717949 , 4782.05128205 , 4136.41025641 , 4137.43589744 , 2027.0 , 2032.0 , 6.861 , 0.0 , 0.0 , 0.0 , 0.0 , 

36.0 , 4135.38461538 , 4129.23076923 , 4183.07692308 , 4136.92307692 , 4134.35897436 , 4135.8974359 , 4134.35897436 , 4135.8974359 , 4135.8974359 , 4149.23076923 , 4174.35897436 , 4781.02564103 , 4135.8974359 , 4138.46153846 , 2028.0 , 2031.0 , 6.869 , 0.0 , 0.0 , 0.0 , 0.0 , 

37.0 , 4133.84615385 , 4126.15384615 , 4184.61538462 , 4141.02564103 , 4134.35897436 , 4134.35897436 , 4134.35897436 , 4137.94871795 , 4135.8974359 , 4151.28205128 , 4180.51282051 , 4782.56410256 , 4135.8974359 , 4138.46153846 , 2031.0 , 2033.0 , 6.877 , 0.0 , 0.0 , 0.0 , 0.0 , 

38.0 , 4134.35897436 , 4127.69230769 , 4182.56410256 , 4137.94871795 , 4134.35897436 , 4134.35897436 , 4134.87179487 , 4134.87179487 , 4135.8974359 , 4149.74358974 , 4187.69230769 , 4781.02564103 , 4135.8974359 , 4139.48717949 , 2032.0 , 2032.0 , 6.885 , 0.0 , 0.0 , 0.0 , 0.0 , 

39.0 , 4133.33333333 , 4127.69230769 , 4181.53846154 , 4133.84615385 , 4134.35897436 , 4134.35897436 , 4133.33333333 , 4134.35897436 , 4135.8974359 , 4141.02564103 , 4180.51282051 , 4781.53846154 , 4135.8974359 , 4139.48717949 , 2034.0 , 2034.0 , 6.894 , 0.0 , 0.0 , 0.0 , 0.0 , 

40.0 , 4130.76923077 , 4129.23076923 , 4183.07692308 , 4134.87179487 , 4134.35897436 , 4134.35897436 , 4134.87179487 , 4135.8974359 , 4135.8974359 , 4132.30769231 , 4171.28205128 , 4782.05128205 , 4135.8974359 , 4137.43589744 , 2036.0 , 2035.0 , 6.9 , 0.0 , 0.0 , 0.0 , 0.0 , 

41.0 , 4131.28205128 , 4128.71794872 , 4181.02564103 , 4136.92307692 , 4134.35897436 , 4134.35897436 , 4137.43589744 , 4136.41025641 , 4135.8974359 , 4137.43589744 , 4178.46153846 , 4783.07692308 , 4135.8974359 , 4137.94871795 , 2037.0 , 2036.0 , 6.908 , 0.0 , 0.0 , 0.0 , 0.0 , 

42.0 , 4131.28205128 , 4126.66666667 , 4178.97435897 , 4135.8974359 , 4134.35897436 , 4134.87179487 , 4131.79487179 , 4135.8974359 , 4135.8974359 , 4149.74358974 , 4188.20512821 , 4785.12820513 , 4135.8974359 , 4139.48717949 , 2038.0 , 2036.0 , 6.916 , 0.0 , 0.0 , 0.0 , 0.0 , 

43.0 , 4131.79487179 , 4130.25641026 , 4181.53846154 , 4135.8974359 , 4134.35897436 , 4135.38461538 , 4127.69230769 , 4135.8974359 , 4135.8974359 , 4148.20512821 , 4182.05128205 , 4782.05128205 , 4135.8974359 , 4138.46153846 , 2039.0 , 2034.0 , 6.924 , 0.0 , 0.0 , 0.0 , 0.0 , 

44.0 , 4134.35897436 , 4132.30769231 , 4180.51282051 , 4136.92307692 , 4134.35897436 , 4135.8974359 , 4132.82051282 , 4135.8974359 , 4135.8974359 , 4136.92307692 , 4172.82051282 , 4784.1025641 , 4136.41025641 , 4138.46153846 , 2040.0 , 2031.0 , 6.932 , 0.0 , 0.0 , 0.0 , 0.0 , 

45.0 , 4132.82051282 , 4130.76923077 , 4176.41025641 , 4136.92307692 , 4134.35897436 , 4134.87179487 , 4135.8974359 , 4135.8974359 , 4135.8974359 , 4135.8974359 , 4177.94871795 , 4788.71794872 , 4135.8974359 , 4139.48717949 , 2041.0 , 2031.0 , 6.94 , 0.0 , 0.0 , 0.0 , 0.0 , 

46.0 , 4132.30769231 , 4130.25641026 , 4174.87179487 , 4137.43589744 , 4134.35897436 , 4133.84615385 , 4133.33333333 , 4136.41025641 , 4135.8974359 , 4136.92307692 , 4186.15384615 , 4790.76923077 , 4134.87179487 , 4138.97435897 , 2042.0 , 2030.0 , 6.949 , 0.0 , 0.0 , 0.0 , 0.0 , 

47.0 , 4138.46153846 , 4132.30769231 , 4177.94871795 , 4137.94871795 , 4134.35897436 , 4135.38461538 , 4133.33333333 , 4135.8974359 , 4135.8974359 , 4136.92307692 , 4183.58974359 , 4788.20512821 , 4134.35897436 , 4137.43589744 , 2042.0 , 2032.0 , 6.956 , 0.0 , 0.0 , 0.0 , 0.0 , 

48.0 , 4137.43589744 , 4133.33333333 , 4181.53846154 , 4136.92307692 , 4134.87179487 , 4135.38461538 , 4134.35897436 , 4134.87179487 , 4135.8974359 , 4146.66666667 , 4175.8974359 , 4789.74358974 , 4134.87179487 , 4137.94871795 , 2043.0 , 2031.0 , 6.964 , 0.0 , 0.0 , 0.0 , 0.0 , 

49.0 , 4127.17948718 , 4131.79487179 , 4185.12820513 , 4135.8974359 , 4134.35897436 , 4133.84615385 , 4133.84615385 , 4135.38461538 , 4135.8974359 , 4149.74358974 , 4178.46153846 , 4791.28205128 , 4135.8974359 , 4138.97435897 , 2044.0 , 2032.0 , 6.972 , 0.0 , 0.0 , 0.0 , 0.0 , 

50.0 , 4129.23076923 , 4130.25641026 , 4181.53846154 , 4135.8974359 , 4134.35897436 , 4134.35897436 , 4135.38461538 , 4135.8974359 , 4135.8974359 , 4138.46153846 , 4184.61538462 , 4790.25641026 , 4135.8974359 , 4139.48717949 , 2043.0 , 2031.0 , 6.979 , 0.0 , 0.0 , 0.0 , 0.0 , 

51.0 , 4136.92307692 , 4130.76923077 , 4176.41025641 , 4134.87179487 , 4134.35897436 , 4134.35897436 , 4135.38461538 , 4136.41025641 , 4135.8974359 , 4135.8974359 , 4183.58974359 , 4790.25641026 , 4135.8974359 , 4138.46153846 , 2045.0 , 2034.0 , 6.987 , 0.0 , 0.0 , 0.0 , 0.0 , 

52.0 , 4134.87179487 , 4131.28205128 , 4176.92307692 , 4135.38461538 , 4134.35897436 , 4134.35897436 , 4133.84615385 , 4136.41025641 , 4135.8974359 , 4139.48717949 , 4181.53846154 , 4789.74358974 , 4136.41025641 , 4137.94871795 , 2044.0 , 2035.0 , 6.995 , 0.0 , 0.0 , 0.0 , 0.0 , 

53.0 , 4132.30769231 , 4131.79487179 , 4178.97435897 , 4136.92307692 , 4134.35897436 , 4134.35897436 , 4134.87179487 , 4136.41025641 , 4135.8974359 , 4137.43589744 , 4182.56410256 , 4791.79487179 , 4135.38461538 , 4137.94871795 , 2043.0 , 2034.0 , 7.003 , 0.0 , 0.0 , 0.0 , 0.0 , 

54.0 , 4133.84615385 , 4131.28205128 , 4176.41025641 , 4135.38461538 , 4134.35897436 , 4134.35897436 , 4133.84615385 , 4135.38461538 , 4135.8974359 , 4137.94871795 , 4183.58974359 , 4792.30769231 , 4135.38461538 , 4136.41025641 , 2044.0 , 2036.0 , 7.011 , 0.0 , 0.0 , 0.0 , 0.0 , 

55.0 , 4137.43589744 , 4130.25641026 , 4172.82051282 , 4134.35897436 , 4134.35897436 , 4134.35897436 , 4134.35897436 , 4136.41025641 , 4135.8974359 , 4143.58974359 , 4182.56410256 , 4791.28205128 , 4136.41025641 , 4135.8974359 , 2043.0 , 2036.0 , 7.019 , 0.0 , 0.0 , 0.0 , 0.0 , 

56.0 , 4136.92307692 , 4130.25641026 , 4171.28205128 , 4135.8974359 , 4134.35897436 , 4134.35897436 , 4134.87179487 , 4138.46153846 , 4135.8974359 , 4142.05128205 , 4182.56410256 , 4794.35897436 , 4136.41025641 , 4137.94871795 , 2044.0 , 2036.0 , 7.027 , 0.0 , 0.0 , 0.0 , 0.0 , 

57.0 , 4130.76923077 , 4129.23076923 , 4173.33333333 , 4137.43589744 , 4134.35897436 , 4134.35897436 , 4132.30769231 , 4137.94871795 , 4135.8974359 , 4137.94871795 , 4181.53846154 , 4796.41025641 , 4135.8974359 , 4138.46153846 , 2045.0 , 2036.0 , 7.035 , 0.0 , 0.0 , 0.0 , 0.0 , 

58.0 , 4129.74358974 , 4127.69230769 , 4175.38461538 , 4136.92307692 , 4134.35897436 , 4134.35897436 , 4131.79487179 , 4135.8974359 , 4135.8974359 , 4140.51282051 , 4182.05128205 , 4796.92307692 , 4135.8974359 , 4138.46153846 , 2045.0 , 2036.0 , 7.042 , 0.0 , 0.0 , 0.0 , 0.0 , 

59.0 , 4135.8974359 , 4128.71794872 , 4171.79487179 , 4136.92307692 , 4134.35897436 , 4135.38461538 , 4132.82051282 , 4135.8974359 , 4135.8974359 , 4141.53846154 , 4185.12820513 , 4796.41025641 , 4136.41025641 , 4140.0 , 2044.0 , 2037.0 , 7.05 , 0.0 , 0.0 , 0.0 , 0.0 , 

60.0 , 4137.43589744 , 4128.71794872 , 4170.76923077 , 4137.43589744 , 4134.35897436 , 4134.87179487 , 4130.76923077 , 4136.41025641 , 4135.8974359 , 4135.38461538 , 4181.53846154 , 4797.94871795 , 4135.8974359 , 4139.48717949 , 2044.0 , 2036.0 , 7.058 , 0.0 , 0.0 , 0.0 , 0.0 , 

61.0 , 4134.87179487 , 4134.35897436 , 4172.30769231 , 4136.92307692 , 4134.35897436 , 4133.33333333 , 4129.23076923 , 4135.38461538 , 4135.8974359 , 4140.51282051 , 4176.92307692 , 4794.87179487 , 4135.8974359 , 4139.48717949 , 2044.0 , 2034.0 , 7.066 , 0.0 , 0.0 , 0.0 , 0.0 , 

62.0 , 4134.35897436 , 4138.46153846 , 4173.33333333 , 4136.41025641 , 4134.35897436 , 4132.82051282 , 4130.76923077 , 4134.87179487 , 4135.8974359 , 4153.84615385 , 4180.51282051 , 4795.38461538 , 4135.8974359 , 4140.51282051 , 2042.0 , 2033.0 , 7.075 , 0.0 , 0.0 , 0.0 , 0.0 , 

63.0 , 4134.35897436 , 4134.87179487 , 4169.74358974 , 4136.41025641 , 4134.35897436 , 4133.33333333 , 4130.25641026 , 4134.87179487 , 4135.8974359 , 4149.23076923 , 4184.61538462 , 4799.48717949 , 4134.35897436 , 4141.02564103 , 2043.0 , 2032.0 , 7.083 , 0.0 , 0.0 , 0.0 , 0.0 , 

64.0 , 4135.38461538 , 4130.76923077 , 4169.23076923 , 4135.8974359 , 4134.35897436 , 4132.82051282 , 4130.76923077 , 4135.38461538 , 4135.8974359 , 4136.41025641 , 4182.05128205 , 4797.94871795 , 4133.84615385 , 4138.97435897 , 2044.0 , 2029.0 , 7.09 , 0.0 , 0.0 , 0.0 , 0.0 , 

65.0 , 4134.35897436 , 4134.87179487 , 4170.25641026 , 4135.8974359 , 4134.35897436 , 4132.82051282 , 4133.33333333 , 4137.43589744 , 4135.8974359 , 4135.38461538 , 4184.1025641 , 4799.48717949 , 4135.38461538 , 4138.46153846 , 2045.0 , 2029.0 , 7.099 , 0.0 , 0.0 , 0.0 , 0.0 , 

66.0 , 4130.25641026 , 4137.94871795 , 4169.74358974 , 4134.87179487 , 4134.35897436 , 4133.33333333 , 4133.84615385 , 4135.8974359 , 4136.41025641 , 4136.92307692 , 4183.07692308 , 4803.07692308 , 4136.41025641 , 4140.0 , 2045.0 , 2031.0 , 7.105 , 0.0 , 0.0 , 0.0 , 0.0 , 

67.0 , 4131.79487179 , 4135.8974359 , 4168.71794872 , 4135.8974359 , 4134.35897436 , 4133.33333333 , 4127.69230769 , 4134.35897436 , 4135.8974359 , 4137.94871795 , 4177.94871795 , 4804.1025641 , 4135.8974359 , 4140.0 , 2045.0 , 2031.0 , 7.113 , 0.0 , 0.0 , 0.0 , 0.0 , 

68.0 , 4135.8974359 , 4132.82051282 , 4169.74358974 , 4137.94871795 , 4134.35897436 , 4133.33333333 , 4123.58974359 , 4136.41025641 , 4136.41025641 , 4140.51282051 , 4179.48717949 , 4802.56410256 , 4135.8974359 , 4138.46153846 , 2046.0 , 2030.0 , 7.121 , 0.0 , 0.0 , 0.0 , 0.0 , 

69.0 , 4134.87179487 , 4131.79487179 , 4168.71794872 , 4137.43589744 , 4134.35897436 , 4133.33333333 , 4130.76923077 , 4137.43589744 , 4136.92307692 , 4140.0 , 4180.0 , 4804.61538462 , 4135.38461538 , 4138.46153846 , 2047.0 , 2033.0 , 7.129 , 0.0 , 0.0 , 0.0 , 0.0 , 

70.0 , 4134.35897436 , 4135.8974359 , 4166.15384615 , 4136.92307692 , 4134.35897436 , 4133.33333333 , 4137.43589744 , 4135.8974359 , 4136.92307692 , 4136.92307692 , 4177.94871795 , 4806.15384615 , 4135.38461538 , 4140.0 , 2048.0 , 2034.0 , 7.137 , 0.0 , 0.0 , 0.0 , 0.0 , 

71.0 , 4134.35897436 , 4136.41025641 , 4166.66666667 , 4137.94871795 , 4134.35897436 , 4132.82051282 , 4134.87179487 , 4135.8974359 , 4136.41025641 , 4139.48717949 , 4182.56410256 , 4807.17948718 , 4135.8974359 , 4140.0 , 2049.0 , 2035.0 , 7.145 , 0.0 , 0.0 , 0.0 , 0.0 , 

72.0 , 4133.33333333 , 4134.35897436 , 4167.17948718 , 4136.92307692 , 4134.35897436 , 4133.33333333 , 4132.82051282 , 4136.41025641 , 4137.43589744 , 4142.56410256 , 4186.66666667 , 4808.20512821 , 4136.41025641 , 4138.46153846 , 2050.0 , 2035.0 , 7.153 , 0.0 , 0.0 , 0.0 , 0.0 , 

73.0 , 4132.82051282 , 4134.35897436 , 4162.05128205 , 4135.8974359 , 4135.38461538 , 4133.33333333 , 4135.8974359 , 4135.8974359 , 4138.46153846 , 4141.02564103 , 4183.07692308 , 4805.12820513 , 4135.38461538 , 4140.0 , 2050.0 , 2036.0 , 7.161 , 0.0 , 0.0 , 0.0 , 0.0 , 

74.0 , 4130.25641026 , 4133.33333333 , 4160.0 , 4136.92307692 , 4136.41025641 , 4131.79487179 , 4135.8974359 , 4135.8974359 , 4137.43589744 , 4138.46153846 , 4180.0 , 4806.15384615 , 4135.8974359 , 4140.0 , 2052.0 , 2036.0 , 7.169 , 0.0 , 0.0 , 0.0 , 0.0 , 

75.0 , 4130.25641026 , 4131.28205128 , 4164.1025641 , 4136.92307692 , 4136.41025641 , 4131.79487179 , 4134.35897436 , 4135.8974359 , 4137.43589744 , 4137.94871795 , 4183.58974359 , 4808.71794872 , 4136.41025641 , 4138.46153846 , 2053.0 , 2036.0 , 7.176 , 0.0 , 0.0 , 0.0 , 0.0 , 

76.0 , 4135.38461538 , 4129.23076923 , 4167.69230769 , 4136.41025641 , 4135.8974359 , 4132.82051282 , 4132.82051282 , 4136.41025641 , 4137.94871795 , 4138.46153846 , 4185.12820513 , 4807.17948718 , 4135.38461538 , 4140.0 , 2055.0 , 2035.0 , 7.184 , 0.0 , 0.0 , 0.0 , 0.0 , 

77.0 , 4135.38461538 , 4129.74358974 , 4163.58974359 , 4136.92307692 , 4136.41025641 , 4133.33333333 , 4129.74358974 , 4136.92307692 , 4137.43589744 , 4137.94871795 , 4182.56410256 , 4806.66666667 , 4135.8974359 , 4140.51282051 , 2056.0 , 2033.0 , 7.192 , 0.0 , 0.0 , 0.0 , 0.0 , 

78.0 , 4133.33333333 , 4128.71794872 , 4160.0 , 4136.92307692 , 4136.41025641 , 4132.82051282 , 4130.25641026 , 4135.8974359 , 4136.41025641 , 4136.41025641 , 4178.97435897 , 4809.23076923 , 4136.92307692 , 4137.94871795 , 2059.0 , 2035.0 , 7.2 , 0.0 , 0.0 , 0.0 , 0.0 , 

79.0 , 4135.38461538 , 4129.74358974 , 4162.05128205 , 4137.94871795 , 4135.38461538 , 4133.33333333 , 4130.76923077 , 4135.8974359 , 4135.8974359 , 4140.0 , 4181.02564103 , 4811.79487179 , 4135.38461538 , 4135.8974359 , 2061.0 , 2036.0 , 7.208 , 0.0 , 0.0 , 0.0 , 0.0 , 

80.0 , 4132.82051282 , 4131.28205128 , 4160.51282051 , 4137.43589744 , 4134.35897436 , 4134.87179487 , 4128.71794872 , 4136.92307692 , 4135.8974359 , 4148.20512821 , 4185.64102564 , 4811.79487179 , 4134.35897436 , 4137.94871795 , 2063.0 , 2037.0 , 7.216 , 0.0 , 0.0 , 0.0 , 0.0 , 

81.0 , 4127.69230769 , 4131.79487179 , 4158.97435897 , 4135.38461538 , 4133.84615385 , 4134.35897436 , 4131.28205128 , 4136.41025641 , 4135.8974359 , 4152.30769231 , 4181.53846154 , 4811.28205128 , 4135.8974359 , 4140.51282051 , 2065.0 , 2036.0 , 7.224 , 0.0 , 0.0 , 0.0 , 0.0 , 

82.0 , 4133.84615385 , 4129.74358974 , 4157.43589744 , 4134.87179487 , 4134.35897436 , 4134.35897436 , 4135.8974359 , 4135.8974359 , 4135.8974359 , 4146.66666667 , 4175.38461538 , 4808.71794872 , 4136.41025641 , 4140.51282051 , 2067.0 , 2037.0 , 7.233 , 0.0 , 0.0 , 0.0 , 0.0 , 

83.0 , 4140.0 , 4131.28205128 , 4157.43589744 , 4136.41025641 , 4134.35897436 , 4136.41025641 , 4133.84615385 , 4136.41025641 , 4135.8974359 , 4139.48717949 , 4179.48717949 , 4809.74358974 , 4135.8974359 , 4138.97435897 , 2067.0 , 2036.0 , 7.24 , 0.0 , 0.0 , 0.0 , 0.0 , 

84.0 , 4136.41025641 , 4132.82051282 , 4157.94871795 , 4137.94871795 , 4134.35897436 , 4137.94871795 , 4130.76923077 , 4135.38461538 , 4135.8974359 , 4136.92307692 , 4185.64102564 , 4812.30769231 , 4135.8974359 , 4139.48717949 , 2069.0 , 2039.0 , 7.247 , 0.0 , 0.0 , 0.0 , 0.0 , 

85.0 , 4132.30769231 , 4130.76923077 , 4157.94871795 , 4137.43589744 , 4135.38461538 , 4137.94871795 , 4134.35897436 , 4134.87179487 , 4135.8974359 , 4137.43589744 , 4184.1025641 , 4813.33333333 , 4135.8974359 , 4140.0 , 2070.0 , 2040.0 , 7.255 , 0.0 , 0.0 , 0.0 , 0.0 , 

86.0 , 4134.87179487 , 4128.71794872 , 4156.92307692 , 4136.41025641 , 4135.8974359 , 4137.94871795 , 4135.8974359 , 4134.87179487 , 4135.8974359 , 4146.66666667 , 4182.05128205 , 4815.38461538 , 4135.8974359 , 4138.97435897 , 2070.0 , 2039.0 , 7.263 , 0.0 , 0.0 , 0.0 , 0.0 , 

87.0 , 4135.8974359 , 4129.74358974 , 4158.97435897 , 4137.94871795 , 4136.41025641 , 4132.82051282 , 4132.30769231 , 4136.41025641 , 4135.8974359 , 4152.30769231 , 4184.61538462 , 4815.8974359 , 4135.8974359 , 4138.46153846 , 2072.0 , 2038.0 , 7.271 , 0.0 , 0.0 , 0.0 , 0.0 , 

88.0 , 4134.35897436 , 4131.79487179 , 4157.43589744 , 4136.41025641 , 4135.8974359 , 4127.17948718 , 4132.82051282 , 4136.92307692 , 4135.8974359 , 4143.07692308 , 4184.61538462 , 4814.87179487 , 4135.8974359 , 4138.97435897 , 2073.0 , 2035.0 , 7.279 , 0.0 , 0.0 , 0.0 , 0.0 , 

89.0 , 4134.87179487 , 4131.28205128 , 4152.82051282 , 4133.84615385 , 4135.8974359 , 4130.25641026 , 4135.38461538 , 4135.38461538 , 4135.8974359 , 4136.41025641 , 4182.05128205 , 4812.30769231 , 4134.87179487 , 4138.97435897 , 2074.0 , 2037.0 , 7.287 , 0.0 , 0.0 , 0.0 , 0.0 , 

90.0 , 4135.38461538 , 4128.71794872 , 4153.84615385 , 4135.38461538 , 4135.8974359 , 4134.87179487 , 4135.8974359 , 4135.8974359 , 4135.8974359 , 4141.53846154 , 4182.05128205 , 4814.35897436 , 4134.35897436 , 4137.43589744 , 2073.0 , 2036.0 , 7.296 , 0.0 , 0.0 , 0.0 , 0.0 , 

91.0 , 4136.92307692 , 4129.74358974 , 4155.8974359 , 4137.43589744 , 4135.8974359 , 4131.28205128 , 4134.35897436 , 4136.92307692 , 4135.8974359 , 4140.51282051 , 4183.07692308 , 4818.46153846 , 4134.87179487 , 4137.94871795 , 2073.0 , 2037.0 , 7.302 , 0.0 , 0.0 , 0.0 , 0.0 , 

92.0 , 4136.41025641 , 4132.30769231 , 4154.35897436 , 4135.38461538 , 4135.8974359 , 4127.17948718 , 4133.84615385 , 4136.41025641 , 4135.8974359 , 4133.84615385 , 4184.61538462 , 4816.41025641 , 4135.8974359 , 4139.48717949 , 2073.0 , 2038.0 , 7.31 , 0.0 , 0.0 , 0.0 , 0.0 , 

93.0 , 4131.28205128 , 4132.82051282 , 4153.84615385 , 4134.35897436 , 4135.8974359 , 4129.74358974 , 4135.8974359 , 4135.8974359 , 4135.8974359 , 4138.46153846 , 4184.1025641 , 4816.92307692 , 4135.8974359 , 4139.48717949 , 2072.0 , 2037.0 , 7.318 , 0.0 , 0.0 , 0.0 , 0.0 , 

94.0 , 4129.74358974 , 4133.33333333 , 4154.35897436 , 4134.87179487 , 4135.8974359 , 4130.25641026 , 4134.87179487 , 4136.92307692 , 4135.8974359 , 4144.1025641 , 4182.56410256 , 4820.0 , 4136.41025641 , 4139.48717949 , 2073.0 , 2035.0 , 7.326 , 0.0 , 0.0 , 0.0 , 0.0 , 

95.0 , 4135.38461538 , 4136.41025641 , 4152.30769231 , 4134.87179487 , 4135.8974359 , 4127.69230769 , 4132.82051282 , 4136.92307692 , 4135.8974359 , 4140.51282051 , 4182.05128205 , 4820.0 , 4135.38461538 , 4140.51282051 , 2073.0 , 2036.0 , 7.334 , 0.0 , 0.0 , 0.0 , 0.0 , 

96.0 , 4137.43589744 , 4134.87179487 , 4152.82051282 , 4136.41025641 , 4135.8974359 , 4129.74358974 , 4133.33333333 , 4136.92307692 , 4135.8974359 , 4137.94871795 , 4183.58974359 , 4815.38461538 , 4132.82051282 , 4140.0 , 2073.0 , 2035.0 , 7.342 , 0.0 , 0.0 , 0.0 , 0.0 , 

97.0 , 4134.87179487 , 4132.82051282 , 4152.82051282 , 4137.43589744 , 4135.8974359 , 4135.38461538 , 4134.35897436 , 4136.92307692 , 4135.8974359 , 4138.97435897 , 4184.1025641 , 4817.43589744 , 4133.84615385 , 4138.46153846 , 2073.0 , 2037.0 , 7.351 , 0.0 , 0.0 , 0.0 , 0.0 , 

98.0 , 4133.84615385 , 4135.38461538 , 4153.33333333 , 4136.92307692 , 4135.8974359 , 4136.41025641 , 4134.35897436 , 4136.92307692 , 4135.8974359 , 4136.92307692 , 4184.61538462 , 4820.51282051 , 4136.41025641 , 4138.97435897 , 2074.0 , 2036.0 , 7.358 , 0.0 , 0.0 , 0.0 , 0.0 , 

99.0 , 4135.38461538 , 4134.87179487 , 4152.30769231 , 4136.41025641 , 4135.8974359 , 4133.33333333 , 4135.38461538 , 4137.43589744 , 4135.8974359 , 4138.97435897 , 4184.1025641 , 4822.56410256 , 4136.41025641 , 4138.46153846 , 2073.0 , 2035.0 , 7.365 , 0.0 , 0.0 , 0.0 , 0.0 , 

100.0 , 4137.43589744 , 4128.20512821 , 4151.28205128 , 4136.92307692 , 4134.35897436 , 4132.30769231 , 4134.87179487 , 4137.43589744 , 4135.8974359 , 4145.12820513 , 4183.58974359 , 4823.58974359 , 4134.35897436 , 4136.92307692 , 2074.0 , 2035.0 , 7.374 , 0.0 , 0.0 , 0.0 , 0.0 , 

101.0 , 4135.38461538 , 4129.74358974 , 4150.76923077 , 4135.38461538 , 4134.35897436 , 4134.87179487 , 4132.82051282 , 4136.92307692 , 4135.8974359 , 4140.51282051 , 4184.1025641 , 4823.07692308 , 4134.87179487 , 4137.43589744 , 2075.0 , 2034.0 , 7.381 , 0.0 , 0.0 , 0.0 , 0.0 , 

102.0 , 4133.33333333 , 4137.43589744 , 4150.76923077 , 4135.38461538 , 4135.8974359 , 4135.8974359 , 4132.82051282 , 4136.41025641 , 4135.8974359 , 4134.35897436 , 4185.12820513 , 4822.56410256 , 4135.8974359 , 4139.48717949 , 2077.0 , 2032.0 , 7.389 , 0.0 , 0.0 , 0.0 , 0.0 , 

103.0 , 4135.8974359 , 4134.87179487 , 4152.82051282 , 4137.94871795 , 4136.41025641 , 4132.30769231 , 4133.33333333 , 4136.41025641 , 4135.8974359 , 4138.97435897 , 4185.64102564 , 4822.05128205 , 4136.41025641 , 4138.46153846 , 2076.0 , 2031.0 , 7.397 , 0.0 , 0.0 , 0.0 , 0.0 , 

104.0 , 4135.38461538 , 4127.69230769 , 4156.41025641 , 4137.43589744 , 4135.38461538 , 4130.76923077 , 4130.76923077 , 4135.38461538 , 4135.8974359 , 4142.05128205 , 4184.61538462 , 4823.07692308 , 4135.38461538 , 4136.41025641 , 2076.0 , 2028.0 , 7.405 , 0.0 , 0.0 , 0.0 , 0.0 , 

105.0 , 4132.30769231 , 4129.23076923 , 4153.33333333 , 4135.38461538 , 4134.35897436 , 4135.38461538 , 4128.20512821 , 4134.35897436 , 4135.8974359 , 4140.0 , 4184.1025641 , 4823.07692308 , 4134.87179487 , 4137.94871795 , 2076.0 , 2026.0 , 7.414 , 0.0 , 0.0 , 0.0 , 0.0 , 

106.0 , 4136.41025641 , 4136.92307692 , 4150.25641026 , 4135.8974359 , 4134.87179487 , 4137.43589744 , 4132.30769231 , 4136.41025641 , 4135.8974359 , 4136.92307692 , 4184.1025641 , 4822.05128205 , 4136.92307692 , 4141.02564103 , 2076.0 , 2026.0 , 7.422 , 0.0 , 0.0 , 0.0 , 0.0 , 

107.0 , 4137.94871795 , 4135.38461538 , 4152.82051282 , 4135.38461538 , 4134.87179487 , 4135.38461538 , 4135.8974359 , 4137.43589744 , 4135.8974359 , 4137.94871795 , 4184.1025641 , 4824.1025641 , 4137.94871795 , 4141.02564103 , 2074.0 , 2026.0 , 7.429 , 0.0 , 0.0 , 0.0 , 0.0 , 

108.0 , 4134.35897436 , 4127.17948718 , 4154.87179487 , 4134.87179487 , 4134.87179487 , 4134.35897436 , 4132.82051282 , 4135.8974359 , 4135.8974359 , 4145.64102564 , 4183.58974359 , 4825.12820513 , 4136.92307692 , 4138.46153846 , 2074.0 , 2027.0 , 7.436 , 0.0 , 0.0 , 0.0 , 0.0 , 

109.0 , 4131.79487179 , 4129.23076923 , 4149.23076923 , 4137.43589744 , 4134.87179487 , 4136.41025641 , 4131.79487179 , 4134.87179487 , 4135.8974359 , 4147.17948718 , 4184.1025641 , 4826.66666667 , 4136.92307692 , 4138.97435897 , 2073.0 , 2028.0 , 7.445 , 0.0 , 0.0 , 0.0 , 0.0 , 

110.0 , 4136.41025641 , 4136.41025641 , 4146.66666667 , 4138.97435897 , 4134.87179487 , 4136.41025641 , 4135.8974359 , 4135.8974359 , 4135.8974359 , 4137.43589744 , 4184.61538462 , 4829.23076923 , 4136.92307692 , 4141.02564103 , 2072.0 , 2029.0 , 7.453 , 0.0 , 0.0 , 0.0 , 0.0 , 

111.0 , 4138.46153846 , 4134.35897436 , 4150.76923077 , 4136.92307692 , 4134.87179487 , 4135.8974359 , 4136.41025641 , 4136.41025641 , 4135.8974359 , 4134.35897436 , 4183.07692308 , 4827.17948718 , 4136.92307692 , 4138.97435897 , 2069.0 , 2031.0 , 7.461 , 0.0 , 0.0 , 0.0 , 0.0 , 

112.0 , 4131.79487179 , 4133.84615385 , 4149.74358974 , 4136.41025641 , 4134.87179487 , 4135.8974359 , 4133.84615385 , 4135.8974359 , 4135.8974359 , 4143.58974359 , 4182.05128205 , 4822.05128205 , 4136.92307692 , 4139.48717949 , 2069.0 , 2033.0 , 7.468 , 0.0 , 0.0 , 0.0 , 0.0 , 

113.0 , 4130.25641026 , 4136.92307692 , 4148.71794872 , 4137.43589744 , 4134.87179487 , 4135.8974359 , 4134.87179487 , 4135.8974359 , 4135.8974359 , 4146.15384615 , 4182.56410256 , 4826.66666667 , 4136.92307692 , 4141.53846154 , 2069.0 , 2033.0 , 7.477 , 0.0 , 0.0 , 0.0 , 0.0 , 

114.0 , 4134.35897436 , 4135.8974359 , 4150.76923077 , 4136.92307692 , 4134.87179487 , 4135.8974359 , 4135.8974359 , 4134.87179487 , 4135.8974359 , 4138.46153846 , 4184.61538462 , 4830.76923077 , 4136.92307692 , 4140.0 , 2068.0 , 2035.0 , 7.485 , 0.0 , 0.0 , 0.0 , 0.0 , 

115.0 , 4133.84615385 , 4132.82051282 , 4154.87179487 , 4136.41025641 , 4134.87179487 , 4135.8974359 , 4135.38461538 , 4135.38461538 , 4135.8974359 , 4134.35897436 , 4184.61538462 , 4828.20512821 , 4136.92307692 , 4139.48717949 , 2067.0 , 2035.0 , 7.492 , 0.0 , 0.0 , 0.0 , 0.0 , 

116.0 , 4133.33333333 , 4135.8974359 , 4155.38461538 , 4135.8974359 , 4134.87179487 , 4135.8974359 , 4135.38461538 , 4136.41025641 , 4135.8974359 , 4138.97435897 , 4181.53846154 , 4826.66666667 , 4136.41025641 , 4140.0 , 2065.0 , 2037.0 , 7.499 , 0.0 , 0.0 , 0.0 , 0.0 , 

117.0 , 4137.43589744 , 4135.8974359 , 4145.64102564 , 4135.38461538 , 4134.87179487 , 4135.8974359 , 4134.87179487 , 4135.8974359 , 4135.8974359 , 4141.53846154 , 4180.51282051 , 4827.17948718 , 4131.79487179 , 4137.43589744 , 2063.0 , 2036.0 , 7.681 , 0.0 , 0.0 , 0.0 , 0.0 , 

118.0 , 4137.94871795 , 4135.38461538 , 4143.07692308 , 4137.43589744 , 4134.87179487 , 4135.8974359 , 4134.87179487 , 4137.43589744 , 4136.41025641 , 4139.48717949 , 4185.64102564 , 4828.71794872 , 4131.79487179 , 4137.43589744 , 2061.0 , 2037.0 , 7.685 , 0.0 , 0.0 , 0.0 , 0.0 , 

119.0 , 4135.8974359 , 4137.43589744 , 4139.48717949 , 4137.94871795 , 4134.87179487 , 4135.8974359 , 4135.38461538 , 4137.43589744 , 4135.38461538 , 4138.46153846 , 4183.58974359 , 4829.23076923 , 4132.82051282 , 4139.48717949 , 2062.0 , 2038.0 , 7.685 , 0.0 , 0.0 , 0.0 , 0.0 , 

120.0 , 4135.8974359 , 4136.92307692 , 4137.94871795 , 4136.41025641 , 4134.87179487 , 4135.8974359 , 4135.38461538 , 4136.92307692 , 4136.92307692 , 4141.53846154 , 4178.97435897 , 4829.23076923 , 4135.8974359 , 4138.46153846 , 2061.0 , 2038.0 , 7.685 , 0.0 , 0.0 , 0.0 , 0.0 , 

121.0 , 4135.38461538 , 4136.41025641 , 4134.87179487 , 4135.8974359 , 4134.87179487 , 4135.8974359 , 4134.87179487 , 4135.38461538 , 4136.92307692 , 4143.58974359 , 4178.46153846 , 4825.64102564 , 4133.84615385 , 4136.92307692 , 2059.0 , 2039.0 , 7.685 , 0.0 , 0.0 , 0.0 , 0.0 , 

122.0 , 4135.8974359 , 4136.41025641 , 4128.71794872 , 4136.41025641 , 4134.87179487 , 4135.8974359 , 4135.38461538 , 4137.43589744 , 4136.41025641 , 4142.05128205 , 4180.0 , 4823.07692308 , 4130.25641026 , 4138.97435897 , 2059.0 , 2039.0 , 7.685 , 0.0 , 0.0 , 0.0 , 0.0 , 

123.0 , 4136.41025641 , 4134.35897436 , 4129.74358974 , 4135.8974359 , 4134.87179487 , 4135.8974359 , 4134.87179487 , 4137.94871795 , 4137.43589744 , 4138.97435897 , 4180.51282051 , 4824.61538462 , 4129.74358974 , 4138.46153846 , 2058.0 , 2042.0 , 7.685 , 0.0 , 0.0 , 0.0 , 0.0 , 

124.0 , 4135.38461538 , 4132.82051282 , 4119.48717949 , 4135.38461538 , 4134.87179487 , 4135.8974359 , 4134.35897436 , 4134.35897436 , 4138.97435897 , 4139.48717949 , 4178.97435897 , 4827.69230769 , 4128.71794872 , 4136.92307692 , 2058.0 , 2042.0 , 7.685 , 0.0 , 0.0 , 0.0 , 0.0 , 

125.0 , 4135.8974359 , 4134.87179487 , 4121.53846154 , 4135.8974359 , 4134.87179487 , 4135.8974359 , 4134.35897436 , 4133.84615385 , 4137.94871795 , 4143.07692308 , 4176.92307692 , 4827.17948718 , 4127.17948718 , 4135.8974359 , 2057.0 , 2041.0 , 7.685 , 0.0 , 0.0 , 0.0 , 0.0 , 

126.0 , 4134.35897436 , 4135.38461538 , 4101.53846154 , 4135.8974359 , 4134.87179487 , 4135.8974359 , 4134.35897436 , 4132.30769231 , 4136.41025641 , 4140.51282051 , 4177.43589744 , 4825.12820513 , 4124.1025641 , 4134.35897436 , 2056.0 , 2041.0 , 7.685 , 0.0 , 0.0 , 0.0 , 0.0 , 

127.0 , 4134.87179487 , 4134.87179487 , 4078.97435897 , 4134.87179487 , 4134.87179487 , 4135.8974359 , 4134.35897436 , 4131.28205128 , 4134.35897436 , 4134.35897436 , 4180.51282051 , 4823.58974359 , 4124.1025641 , 4134.35897436 , 2056.0 , 2040.0 , 7.685 , 0.0 , 0.0 , 0.0 , 0.0 , 

128.0 , 4136.92307692 , 4134.87179487 , 4051.79487179 , 4134.35897436 , 4134.87179487 , 4135.8974359 , 4134.35897436 , 4126.66666667 , 4129.23076923 , 4130.25641026 , 4177.43589744 , 4818.97435897 , 4123.07692308 , 4133.84615385 , 2053.0 , 2039.0 , 7.685 , 0.0 , 0.0 , 0.0 , 0.0 , 

0.0 , 4133.84615385 , 4135.38461538 , 4028.71794872 , 4135.8974359 , 4134.87179487 , 4135.8974359 , 4134.35897436 , 4125.64102564 , 4130.25641026 , 4132.82051282 , 4173.84615385 , 4818.97435897 , 4125.12820513 , 4133.33333333 , 2051.0 , 2040.0 , 7.685 , 0.0 , 0.0 , 0.0 , 0.0 , 

1.0 , 4131.28205128 , 4135.38461538 , 3994.35897436 , 4137.43589744 , 4134.87179487 , 4135.8974359 , 4134.35897436 , 4124.1025641 , 4129.74358974 , 4131.79487179 , 4173.33333333 , 4816.92307692 , 4123.58974359 , 4129.23076923 , 2050.0 , 2039.0 , 7.685 , 0.0 , 0.0 , 0.0 , 0.0 , 

2.0 , 4134.87179487 , 4135.8974359 , 3970.76923077 , 4136.92307692 , 4134.87179487 , 4135.8974359 , 4134.35897436 , 4123.58974359 , 4125.64102564 , 4128.20512821 , 4174.35897436 , 4810.25641026 , 4120.0 , 4129.23076923 , 2050.0 , 2038.0 , 7.685 , 0.0 , 0.0 , 0.0 , 0.0 , 

3.0 , 4136.41025641 , 4136.41025641 , 3956.92307692 , 4135.38461538 , 4134.87179487 , 4135.8974359 , 4134.87179487 , 4121.53846154 , 4124.1025641 , 4126.15384615 , 4173.84615385 , 4806.66666667 , 4120.0 , 4130.76923077 , 2048.0 , 2039.0 , 7.685 , 0.0 , 0.0 , 0.0 , 0.0 , 

4.0 , 4134.87179487 , 4136.41025641 , 3934.35897436 , 4136.41025641 , 4134.87179487 , 4135.8974359 , 4133.84615385 , 4122.56410256 , 4129.23076923 , 4127.17948718 , 4173.84615385 , 4806.66666667 , 4117.43589744 , 4129.23076923 , 2049.0 , 2039.0 , 7.685 , 0.0 , 0.0 , 0.0 , 0.0 , 

5.0 , 4135.8974359 , 4135.8974359 , 3938.97435897 , 4136.41025641 , 4134.87179487 , 4135.8974359 , 4134.35897436 , 4127.69230769 , 4130.25641026 , 4132.30769231 , 4175.8974359 , 4805.64102564 , 4118.46153846 , 4130.76923077 , 2049.0 , 2041.0 , 7.685 , 0.0 , 0.0 , 0.0 , 0.0 , 

6.0 , 4136.92307692 , 4136.41025641 , 3966.15384615 , 4135.38461538 , 4134.87179487 , 4135.8974359 , 4134.35897436 , 4131.28205128 , 4128.71794872 , 4141.02564103 , 4175.8974359 , 4805.64102564 , 4126.15384615 , 4135.8974359 , 2050.0 , 2041.0 , 7.685 , 0.0 , 0.0 , 0.0 , 0.0 , 

7.0 , 4135.38461538 , 4136.92307692 , 3986.66666667 , 4133.84615385 , 4134.87179487 , 4135.8974359 , 4131.79487179 , 4134.35897436 , 4133.33333333 , 4143.07692308 , 4175.8974359 , 4804.61538462 , 4129.23076923 , 4138.97435897 , 2049.0 , 2041.0 , 7.685 , 0.0 , 0.0 , 0.0 , 0.0 , 

8.0 , 4135.8974359 , 4136.41025641 , 4009.74358974 , 4133.84615385 , 4134.87179487 , 4135.8974359 , 4129.74358974 , 4140.51282051 , 4135.38461538 , 4143.07692308 , 4179.48717949 , 4802.56410256 , 4131.28205128 , 4140.0 , 2047.0 , 2044.0 , 7.685 , 0.0 , 0.0 , 0.0 , 0.0 , 

9.0 , 4135.8974359 , 4135.8974359 , 4032.82051282 , 4134.87179487 , 4134.87179487 , 4135.8974359 , 4129.23076923 , 4140.0 , 4135.38461538 , 4145.64102564 , 4180.51282051 , 4804.1025641 , 4132.82051282 , 4139.48717949 , 2049.0 , 2044.0 , 7.685 , 0.0 , 0.0 , 0.0 , 0.0 , 

10.0 , 4135.38461538 , 4135.8974359 , 4036.41025641 , 4134.87179487 , 4134.87179487 , 4135.8974359 , 4130.76923077 , 4132.82051282 , 4137.43589744 , 4146.15384615 , 4177.94871795 , 4804.61538462 , 4131.28205128 , 4137.43589744 , 2046.0 , 2046.0 , 7.685 , 0.0 , 0.0 , 0.0 , 0.0 , 

11.0 , 4135.38461538 , 4135.8974359 , 4028.20512821 , 4134.87179487 , 4134.87179487 , 4135.8974359 , 4134.35897436 , 4131.79487179 , 4140.51282051 , 4143.58974359 , 4178.97435897 , 4800.51282051 , 4127.69230769 , 4134.87179487 , 2046.0 , 2043.0 , 7.69 , 0.0 , 0.0 , 0.0 , 0.0 , 

12.0 , 4135.38461538 , 4136.92307692 , 4020.0 , 4136.41025641 , 4134.87179487 , 4135.8974359 , 4135.8974359 , 4135.8974359 , 4137.94871795 , 4143.07692308 , 4181.53846154 , 4795.8974359 , 4128.20512821 , 4134.87179487 , 2043.0 , 2042.0 , 7.697 , 0.0 , 0.0 , 0.0 , 0.0 , 

13.0 , 4135.38461538 , 4136.41025641 , 4006.66666667 , 4136.92307692 , 4134.87179487 , 4135.8974359 , 4134.35897436 , 4136.41025641 , 4134.35897436 , 4141.53846154 , 4180.0 , 4791.79487179 , 4129.23076923 , 4132.82051282 , 2042.0 , 2040.0 , 7.704 , 0.0 , 0.0 , 0.0 , 0.0 , 

14.0 , 4134.35897436 , 4135.38461538 , 4006.15384615 , 4135.8974359 , 4134.87179487 , 4135.8974359 , 4134.87179487 , 4133.84615385 , 4137.43589744 , 4141.53846154 , 4177.94871795 , 4790.25641026 , 4128.20512821 , 4131.79487179 , 2041.0 , 2038.0 , 7.712 , 0.0 , 0.0 , 0.0 , 0.0 , 

15.0 , 4135.38461538 , 4136.41025641 , 4012.82051282 , 4135.8974359 , 4134.35897436 , 4135.8974359 , 4135.8974359 , 4131.28205128 , 4139.48717949 , 4142.56410256 , 4176.41025641 , 4790.76923077 , 4128.71794872 , 4133.84615385 , 2040.0 , 2036.0 , 7.72 , 0.0 , 0.0 , 0.0 , 0.0 , 

16.0 , 4136.92307692 , 4137.43589744 , 4015.8974359 , 4136.41025641 , 4135.8974359 , 4135.8974359 , 4133.84615385 , 4135.38461538 , 4139.48717949 , 4142.05128205 , 4180.0 , 4789.23076923 , 4130.25641026 , 4138.46153846 , 2039.0 , 2037.0 , 7.728 , 0.0 , 0.0 , 0.0 , 0.0 , 

17.0 , 4134.87179487 , 4136.41025641 , 4027.17948718 , 4135.8974359 , 4137.43589744 , 4135.8974359 , 4133.33333333 , 4142.05128205 , 4138.97435897 , 4144.1025641 , 4183.07692308 , 4787.17948718 , 4130.76923077 , 4138.97435897 , 2039.0 , 2039.0 , 7.736 , 0.0 , 0.0 , 0.0 , 0.0 , 

18.0 , 4132.30769231 , 4134.87179487 , 4045.64102564 , 4135.8974359 , 4136.92307692 , 4135.8974359 , 4133.84615385 , 4141.53846154 , 4141.02564103 , 4146.15384615 , 4180.0 , 4787.17948718 , 4130.76923077 , 4134.35897436 , 2041.0 , 2040.0 , 7.744 , 0.0 , 0.0 , 0.0 , 0.0 , 

19.0 , 4134.35897436 , 4135.38461538 , 4056.41025641 , 4136.41025641 , 4135.8974359 , 4135.8974359 , 4133.84615385 , 4139.48717949 , 4140.0 , 4145.12820513 , 4177.43589744 , 4784.61538462 , 4133.84615385 , 4133.33333333 , 2039.0 , 2039.0 , 7.752 , 0.0 , 0.0 , 0.0 , 0.0 , 

20.0 , 4136.92307692 , 4135.8974359 , 4063.07692308 , 4135.8974359 , 4135.8974359 , 4135.8974359 , 4133.33333333 , 4140.51282051 , 4137.94871795 , 4145.64102564 , 4180.0 , 4781.02564103 , 4134.87179487 , 4138.46153846 , 2040.0 , 2040.0 , 7.759 , 0.0 , 0.0 , 0.0 , 0.0 , 

21.0 , 4134.87179487 , 4134.87179487 , 4068.71794872 , 4135.38461538 , 4136.41025641 , 4135.8974359 , 4133.84615385 , 4139.48717949 , 4140.0 , 4147.69230769 , 4181.53846154 , 4777.94871795 , 4132.30769231 , 4141.02564103 , 2040.0 , 2041.0 , 7.767 , 0.0 , 0.0 , 0.0 , 0.0 , 

22.0 , 4132.30769231 , 4134.87179487 , 4077.43589744 , 4134.87179487 , 4135.8974359 , 4135.8974359 , 4133.84615385 , 4136.92307692 , 4141.02564103 , 4147.17948718 , 4180.0 , 4776.41025641 , 4133.33333333 , 4140.51282051 , 2041.0 , 2039.0 , 7.775 , 0.0 , 0.0 , 0.0 , 0.0 , 

23.0 , 4132.30769231 , 4135.8974359 , 4094.35897436 , 4134.87179487 , 4135.8974359 , 4135.8974359 , 4133.84615385 , 4140.51282051 , 4140.51282051 , 4146.15384615 , 4179.48717949 , 4774.35897436 , 4135.8974359 , 4140.51282051 , 2041.0 , 2040.0 , 7.783 , 0.0 , 0.0 , 0.0 , 0.0 , 

24.0 , 4133.84615385 , 4135.38461538 , 4105.64102564 , 4134.87179487 , 4135.8974359 , 4135.8974359 , 4133.84615385 , 4143.07692308 , 4140.51282051 , 4146.66666667 , 4183.07692308 , 4773.33333333 , 4135.38461538 , 4138.46153846 , 2040.0 , 2041.0 , 7.791 , 0.0 , 0.0 , 0.0 , 0.0 , 

25.0 , 4136.41025641 , 4134.35897436 , 4113.33333333 , 4134.87179487 , 4135.8974359 , 4135.8974359 , 4133.84615385 , 4142.05128205 , 4141.02564103 , 4148.71794872 , 4183.58974359 , 4775.38461538 , 4135.8974359 , 4136.92307692 , 2040.0 , 2040.0 , 7.799 , 0.0 , 0.0 , 0.0 , 0.0 , 

26.0 , 4136.41025641 , 4135.8974359 , 4117.43589744 , 4134.87179487 , 4135.8974359 , 4135.8974359 , 4133.84615385 , 4139.48717949 , 4139.48717949 , 4146.66666667 , 4181.02564103 , 4773.84615385 , 4133.84615385 , 4135.38461538 , 2038.0 , 2039.0 , 7.807 , 0.0 , 0.0 , 0.0 , 0.0 , 

27.0 , 4135.38461538 , 4134.35897436 , 4112.30769231 , 4134.87179487 , 4135.8974359 , 4135.8974359 , 4133.84615385 , 4139.48717949 , 4139.48717949 , 4145.64102564 , 4182.05128205 , 4768.71794872 , 4130.76923077 , 4135.38461538 , 2038.0 , 2038.0 , 7.815 , 0.0 , 0.0 , 0.0 , 0.0 , 

28.0 , 4135.8974359 , 4132.30769231 , 4109.23076923 , 4134.87179487 , 4135.8974359 , 4135.8974359 , 4133.84615385 , 4140.0 , 4140.0 , 4146.15384615 , 4183.07692308 , 4768.71794872 , 4133.33333333 , 4134.87179487 , 2037.0 , 2038.0 , 7.823 , 0.0 , 0.0 , 0.0 , 0.0 , 

29.0 , 4136.92307692 , 4134.35897436 , 4122.56410256 , 4134.87179487 , 4135.8974359 , 4135.8974359 , 4133.84615385 , 4136.92307692 , 4141.02564103 , 4146.15384615 , 4180.51282051 , 4773.33333333 , 4136.41025641 , 4136.41025641 , 2035.0 , 2038.0 , 7.831 , 0.0 , 0.0 , 0.0 , 0.0 , 

30.0 , 4135.38461538 , 4136.41025641 , 4129.74358974 , 4134.87179487 , 4135.8974359 , 4135.8974359 , 4133.84615385 , 4134.87179487 , 4141.02564103 , 4145.12820513 , 4179.48717949 , 4770.76923077 , 4133.84615385 , 4138.46153846 , 2033.0 , 2036.0 , 7.838 , 0.0 , 0.0 , 0.0 , 0.0 , 

31.0 , 4133.84615385 , 4134.35897436 , 4126.66666667 , 4136.92307692 , 4135.8974359 , 4135.8974359 , 4133.84615385 , 4138.46153846 , 4141.53846154 , 4146.66666667 , 4182.56410256 , 4767.69230769 , 4132.30769231 , 4137.43589744 , 2033.0 , 2034.0 , 7.846 , 0.0 , 0.0 , 0.0 , 0.0 , 

32.0 , 4134.87179487 , 4134.87179487 , 4130.25641026 , 4137.43589744 , 4135.8974359 , 4135.8974359 , 4133.84615385 , 4142.05128205 , 4138.97435897 , 4144.61538462 , 4180.0 , 4770.25641026 , 4132.82051282 , 4135.38461538 , 2031.0 , 2033.0 , 7.855 , 0.0 , 0.0 , 0.0 , 0.0 , 

33.0 , 4135.38461538 , 4137.43589744 , 4138.97435897 , 4135.8974359 , 4135.8974359 , 4135.8974359 , 4133.84615385 , 4141.02564103 , 4137.94871795 , 4143.58974359 , 4177.43589744 , 4772.30769231 , 4135.38461538 , 4137.94871795 , 2029.0 , 2033.0 , 7.863 , 0.0 , 0.0 , 0.0 , 0.0 , 

34.0 , 4134.87179487 , 4133.84615385 , 4139.48717949 , 4135.8974359 , 4136.41025641 , 4135.8974359 , 4133.84615385 , 4136.92307692 , 4141.53846154 , 4145.64102564 , 4179.48717949 , 4769.74358974 , 4138.97435897 , 4142.05128205 , 2028.0 , 2033.0 , 7.871 , 0.0 , 0.0 , 0.0 , 0.0 , 

35.0 , 4134.87179487 , 4133.33333333 , 4140.0 , 4136.41025641 , 4135.8974359 , 4135.8974359 , 4133.84615385 , 4136.41025641 , 4143.07692308 , 4146.15384615 , 4181.02564103 , 4769.74358974 , 4138.46153846 , 4140.0 , 2028.0 , 2035.0 , 7.879 , 0.0 , 0.0 , 0.0 , 0.0 , 

36.0 , 4136.92307692 , 4136.41025641 , 4137.43589744 , 4135.8974359 , 4135.8974359 , 4135.8974359 , 4133.84615385 , 4138.46153846 , 4140.0 , 4144.61538462 , 4177.94871795 , 4769.74358974 , 4132.30769231 , 4133.84615385 , 2023.0 , 2036.0 , 7.886 , 0.0 , 0.0 , 0.0 , 0.0 , 

37.0 , 4134.87179487 , 4136.41025641 , 4125.64102564 , 4135.8974359 , 4136.41025641 , 4135.8974359 , 4133.84615385 , 4138.97435897 , 4138.46153846 , 4143.58974359 , 4176.41025641 , 4766.15384615 , 4130.76923077 , 4134.87179487 , 2022.0 , 2035.0 , 7.893 , 0.0 , 0.0 , 0.0 , 0.0 , 

38.0 , 4130.76923077 , 4134.35897436 , 4118.97435897 , 4135.8974359 , 4135.38461538 , 4135.8974359 , 4133.84615385 , 4136.92307692 , 4139.48717949 , 4142.56410256 , 4176.92307692 , 4764.1025641 , 4132.30769231 , 4139.48717949 , 2022.0 , 2035.0 , 7.901 , 0.0 , 0.0 , 0.0 , 0.0 , 

39.0 , 4132.30769231 , 4135.38461538 , 4117.94871795 , 4135.8974359 , 4134.35897436 , 4135.8974359 , 4133.84615385 , 4136.41025641 , 4138.97435897 , 4144.1025641 , 4177.94871795 , 4762.56410256 , 4131.79487179 , 4135.8974359 , 2024.0 , 2034.0 , 7.909 , 0.0 , 0.0 , 0.0 , 0.0 , 

40.0 , 4136.92307692 , 4135.8974359 , 4107.17948718 , 4135.8974359 , 4134.87179487 , 4135.8974359 , 4133.84615385 , 4137.43589744 , 4136.41025641 , 4145.12820513 , 4178.46153846 , 4759.48717949 , 4130.76923077 , 4132.82051282 , 2024.0 , 2035.0 , 7.917 , 0.0 , 0.0 , 0.0 , 0.0 , 

41.0 , 4135.38461538 , 4135.38461538 , 4098.97435897 , 4135.8974359 , 4135.8974359 , 4135.8974359 , 4133.84615385 , 4134.87179487 , 4134.87179487 , 4143.58974359 , 4177.94871795 , 4757.43589744 , 4131.28205128 , 4135.8974359 , 2024.0 , 2035.0 , 7.925 , 0.0 , 0.0 , 0.0 , 0.0 , 

42.0 , 4132.82051282 , 4135.8974359 , 4106.15384615 , 4135.8974359 , 4135.8974359 , 4135.8974359 , 4133.84615385 , 4132.82051282 , 4135.8974359 , 4142.56410256 , 4176.92307692 , 4759.48717949 , 4131.79487179 , 4136.92307692 , 2024.0 , 2034.0 , 7.933 , 0.0 , 0.0 , 0.0 , 0.0 , 

43.0 , 4135.38461538 , 4135.8974359 , 4113.33333333 , 4135.8974359 , 4135.8974359 , 4135.8974359 , 4133.84615385 , 4133.33333333 , 4138.97435897 , 4143.58974359 , 4177.94871795 , 4762.05128205 , 4128.20512821 , 4136.92307692 , 2025.0 , 2033.0 , 7.942 , 0.0 , 0.0 , 0.0 , 0.0 , 

44.0 , 4136.92307692 , 4135.8974359 , 4109.23076923 , 4135.8974359 , 4135.8974359 , 4135.8974359 , 4133.84615385 , 4133.84615385 , 4139.48717949 , 4140.0 , 4180.51282051 , 4762.05128205 , 4128.71794872 , 4140.51282051 , 2026.0 , 2031.0 , 7.949 , 0.0 , 0.0 , 0.0 , 0.0 , 

45.0 , 4135.8974359 , 4135.8974359 , 4101.53846154 , 4135.8974359 , 4135.8974359 , 4135.8974359 , 4133.84615385 , 4132.82051282 , 4137.94871795 , 4137.43589744 , 4178.46153846 , 4759.48717949 , 4131.28205128 , 4140.51282051 , 2026.0 , 2028.0 , 7.957 , 0.0 , 0.0 , 0.0 , 0.0 , 

46.0 , 4136.41025641 , 4135.8974359 , 4095.8974359 , 4135.8974359 , 4135.8974359 , 4135.8974359 , 4133.84615385 , 4133.33333333 , 4137.94871795 , 4140.0 , 4175.8974359 , 4760.0 , 4130.25641026 , 4137.94871795 , 2027.0 , 2028.0 , 7.965 , 0.0 , 0.0 , 0.0 , 0.0 , 

47.0 , 4136.92307692 , 4135.38461538 , 4087.17948718 , 4135.8974359 , 4135.8974359 , 4135.8974359 , 4133.84615385 , 4133.33333333 , 4136.41025641 , 4140.0 , 4177.94871795 , 4759.48717949 , 4126.66666667 , 4135.8974359 , 2027.0 , 2028.0 , 7.972 , 0.0 , 0.0 , 0.0 , 0.0 , 

48.0 , 4136.92307692 , 4135.8974359 , 4075.8974359 , 4135.8974359 , 4135.8974359 , 4135.8974359 , 4133.84615385 , 4132.82051282 , 4135.8974359 , 4138.46153846 , 4181.02564103 , 4759.48717949 , 4129.74358974 , 4133.84615385 , 2027.0 , 2028.0 , 7.98 , 0.0 , 0.0 , 0.0 , 0.0 , 

49.0 , 4136.92307692 , 4136.41025641 , 4058.46153846 , 4135.8974359 , 4136.41025641 , 4135.8974359 , 4133.84615385 , 4130.25641026 , 4132.82051282 , 4136.92307692 , 4178.46153846 , 4756.41025641 , 4130.76923077 , 4132.82051282 , 2026.0 , 2029.0 , 7.988 , 0.0 , 0.0 , 0.0 , 0.0 , 

50.0 , 4135.8974359 , 4135.8974359 , 4044.1025641 , 4135.8974359 , 4135.8974359 , 4135.8974359 , 4133.84615385 , 4128.20512821 , 4130.76923077 , 4138.46153846 , 4175.38461538 , 4750.76923077 , 4127.69230769 , 4134.35897436 , 2025.0 , 2030.0 , 7.996 , 0.0 , 0.0 , 0.0 , 0.0 , 

51.0 , 4134.35897436 , 4134.87179487 , 4032.82051282 , 4135.8974359 , 4134.87179487 , 4135.8974359 , 4133.84615385 , 4126.66666667 , 4132.30769231 , 4136.92307692 , 4175.38461538 , 4747.69230769 , 4125.64102564 , 4133.84615385 , 2026.0 , 2030.0 , 8.005 , 0.0 , 0.0 , 0.0 , 0.0 , 

52.0 , 4133.84615385 , 4135.38461538 , 4025.12820513 , 4135.8974359 , 4134.35897436 , 4135.8974359 , 4133.84615385 , 4127.69230769 , 4133.33333333 , 4135.38461538 , 4174.87179487 , 4750.76923077 , 4127.17948718 , 4136.41025641 , 2024.0 , 2032.0 , 8.012 , 0.0 , 0.0 , 0.0 , 0.0 , 

53.0 , 4135.38461538 , 4135.8974359 , 4028.20512821 , 4135.8974359 , 4134.35897436 , 4135.8974359 , 4133.84615385 , 4130.25641026 , 4133.84615385 , 4138.46153846 , 4173.84615385 , 4749.74358974 , 4128.20512821 , 4139.48717949 , 2024.0 , 2032.0 , 8.02 , 0.0 , 0.0 , 0.0 , 0.0 , 

54.0 , 4135.8974359 , 4134.87179487 , 4035.38461538 , 4135.8974359 , 4134.35897436 , 4135.8974359 , 4133.84615385 , 4131.28205128 , 4135.38461538 , 4142.05128205 , 4176.41025641 , 4744.61538462 , 4128.71794872 , 4136.41025641 , 2023.0 , 2032.0 , 8.027 , 0.0 , 0.0 , 0.0 , 0.0 , 

55.0 , 4135.8974359 , 4134.87179487 , 4034.87179487 , 4135.8974359 , 4134.35897436 , 4135.8974359 , 4133.84615385 , 4130.25641026 , 4134.35897436 , 4141.53846154 , 4177.43589744 , 4744.61538462 , 4129.23076923 , 4133.84615385 , 2021.0 , 2033.0 , 8.035 , 0.0 , 0.0 , 0.0 , 0.0 , 

56.0 , 4135.38461538 , 4135.8974359 , 4036.41025641 , 4135.8974359 , 4134.35897436 , 4135.8974359 , 4133.84615385 , 4130.76923077 , 4135.38461538 , 4140.0 , 4177.94871795 , 4745.64102564 , 4130.25641026 , 4138.46153846 , 2021.0 , 2031.0 , 8.043 , 0.0 , 0.0 , 0.0 , 0.0 , 

57.0 , 4134.87179487 , 4135.8974359 , 4048.71794872 , 4135.8974359 , 4134.35897436 , 4135.8974359 , 4133.84615385 , 4133.33333333 , 4139.48717949 , 4141.53846154 , 4177.94871795 , 4743.58974359 , 4132.30769231 , 4142.05128205 , 2020.0 , 2031.0 , 8.051 , 0.0 , 0.0 , 0.0 , 0.0 , 

58.0 , 4135.8974359 , 4135.8974359 , 4052.30769231 , 4135.8974359 , 4134.35897436 , 4135.8974359 , 4133.84615385 , 4134.87179487 , 4139.48717949 , 4141.02564103 , 4177.94871795 , 4742.05128205 , 4132.82051282 , 4138.46153846 , 2019.0 , 2031.0 , 8.059 , 0.0 , 0.0 , 0.0 , 0.0 , 

59.0 , 4135.8974359 , 4135.8974359 , 4050.76923077 , 4135.8974359 , 4134.35897436 , 4135.8974359 , 4133.84615385 , 4134.87179487 , 4137.94871795 , 4143.58974359 , 4177.43589744 , 4742.56410256 , 4130.25641026 , 4135.38461538 , 2020.0 , 2032.0 , 8.068 , 0.0 , 0.0 , 0.0 , 0.0 , 

60.0 , 4134.35897436 , 4135.38461538 , 4056.41025641 , 4135.8974359 , 4134.35897436 , 4135.8974359 , 4133.84615385 , 4133.84615385 , 4138.46153846 , 4145.12820513 , 4177.43589744 , 4743.07692308 , 4128.71794872 , 4137.43589744 , 2019.0 , 2032.0 , 8.076 , 0.0 , 0.0 , 0.0 , 0.0 , 

61.0 , 4134.87179487 , 4135.8974359 , 4063.07692308 , 4135.8974359 , 4134.35897436 , 4135.8974359 , 4133.84615385 , 4133.33333333 , 4135.8974359 , 4145.64102564 , 4179.48717949 , 4738.97435897 , 4129.23076923 , 4138.46153846 , 2015.0 , 2035.0 , 8.083 , 0.0 , 0.0 , 0.0 , 0.0 , 

62.0 , 4136.41025641 , 4135.38461538 , 4060.51282051 , 4136.41025641 , 4134.35897436 , 4135.8974359 , 4133.84615385 , 4134.87179487 , 4135.8974359 , 4145.12820513 , 4179.48717949 , 4735.38461538 , 4129.74358974 , 4137.43589744 , 2014.0 , 2036.0 , 8.09 , 0.0 , 0.0 , 0.0 , 0.0 , 

63.0 , 4135.38461538 , 4134.35897436 , 4060.0 , 4135.8974359 , 4134.35897436 , 4135.8974359 , 4133.84615385 , 4134.35897436 , 4138.46153846 , 4144.61538462 , 4178.46153846 , 4737.43589744 , 4130.76923077 , 4136.92307692 , 2012.0 , 2037.0 , 8.099 , 0.0 , 0.0 , 0.0 , 0.0 , 

64.0 , 4134.35897436 , 4135.38461538 , 4064.1025641 , 4135.8974359 , 4134.87179487 , 4135.8974359 , 4133.84615385 , 4133.33333333 , 4136.41025641 , 4143.07692308 , 4178.46153846 , 4736.92307692 , 4130.76923077 , 4136.41025641 , 2012.0 , 2039.0 , 8.107 , 0.0 , 0.0 , 0.0 , 0.0 , 

65.0 , 4133.84615385 , 4135.8974359 , 4069.23076923 , 4136.92307692 , 4135.8974359 , 4135.8974359 , 4133.84615385 , 4133.84615385 , 4137.94871795 , 4142.05128205 , 4177.43589744 , 4732.82051282 , 4130.76923077 , 4134.87179487 , 2011.0 , 2037.0 , 8.114 , 0.0 , 0.0 , 0.0 , 0.0 , 

66.0 , 4135.38461538 , 4134.87179487 , 4086.15384615 , 4137.43589744 , 4135.38461538 , 4135.8974359 , 4133.33333333 , 4136.41025641 , 4140.0 , 4144.1025641 , 4180.0 , 4729.74358974 , 4131.79487179 , 4133.84615385 , 2010.0 , 2037.0 , 8.122 , 0.0 , 0.0 , 0.0 , 0.0 , 

67.0 , 4134.87179487 , 4135.8974359 , 4120.0 , 4136.41025641 , 4133.84615385 , 4135.8974359 , 4133.33333333 , 4140.0 , 4141.02564103 , 4148.71794872 , 4184.1025641 , 4730.76923077 , 4134.87179487 , 4137.43589744 , 2011.0 , 2038.0 , 8.13 , 0.0 , 0.0 , 0.0 , 0.0 , 

68.0 , 4132.82051282 , 4137.43589744 , 4161.53846154 , 4135.8974359 , 4134.35897436 , 4135.8974359 , 4134.35897436 , 4143.58974359 , 4144.61538462 , 4152.30769231 , 4184.61538462 , 4732.82051282 , 4139.48717949 , 4139.48717949 , 2009.0 , 2036.0 , 8.138 , 0.0 , 0.0 , 0.0 , 0.0 , 

69.0 , 4132.82051282 , 4135.8974359 , 4201.53846154 , 4135.8974359 , 4135.38461538 , 4135.8974359 , 4132.82051282 , 4146.66666667 , 4147.17948718 , 4153.84615385 , 4183.07692308 , 4734.87179487 , 4143.07692308 , 4138.97435897 , 2009.0 , 2036.0 , 8.147 , 0.0 , 0.0 , 0.0 , 0.0 , 

70.0 , 4132.82051282 , 4133.84615385 , 4248.20512821 , 4134.87179487 , 4135.38461538 , 4135.8974359 , 4129.23076923 , 4148.20512821 , 4149.23076923 , 4157.43589744 , 4185.12820513 , 4736.92307692 , 4145.12820513 , 4142.05128205 , 2009.0 , 2037.0 , 8.154 , 0.0 , 0.0 , 0.0 , 0.0 , 

71.0 , 4132.30769231 , 4134.87179487 , 4265.12820513 , 4133.84615385 , 4134.35897436 , 4135.8974359 , 4129.23076923 , 4146.66666667 , 4149.23076923 , 4156.92307692 , 4187.17948718 , 4737.94871795 , 4143.58974359 , 4144.61538462 , 2009.0 , 2035.0 , 8.161 , 0.0 , 0.0 , 0.0 , 0.0 , 

72.0 , 4137.43589744 , 4135.8974359 , 4280.51282051 , 4134.35897436 , 4134.35897436 , 4135.8974359 , 4132.30769231 , 4147.17948718 , 4148.71794872 , 4153.84615385 , 4187.17948718 , 4741.02564103 , 4144.1025641 , 4144.1025641 , 2010.0 , 2032.0 , 8.169 , 0.0 , 0.0 , 0.0 , 0.0 , 

73.0 , 4136.41025641 , 4135.8974359 , 4322.56410256 , 4133.84615385 , 4134.87179487 , 4135.8974359 , 4132.30769231 , 4150.25641026 , 4151.28205128 , 4156.92307692 , 4188.71794872 , 4743.58974359 , 4146.15384615 , 4143.58974359 , 2012.0 , 2034.0 , 8.177 , 0.0 , 0.0 , 0.0 , 0.0 , 

74.0 , 4127.17948718 , 4135.8974359 , 4304.61538462 , 4134.35897436 , 4134.35897436 , 4136.41025641 , 4130.25641026 , 4143.07692308 , 4149.74358974 , 4151.28205128 , 4186.15384615 , 4741.53846154 , 4138.46153846 , 4141.02564103 , 2011.0 , 2034.0 , 8.186 , 0.0 , 0.0 , 0.0 , 0.0 , 

75.0 , 4127.69230769 , 4135.8974359 , 4262.05128205 , 4134.87179487 , 4134.35897436 , 4135.8974359 , 4130.25641026 , 4137.43589744 , 4141.53846154 , 4144.61538462 , 4182.05128205 , 4741.53846154 , 4135.8974359 , 4140.0 , 2009.0 , 2031.0 , 8.193 , 0.0 , 0.0 , 0.0 , 0.0 , 

76.0 , 4131.28205128 , 4136.41025641 , 4236.92307692 , 4134.87179487 , 4134.35897436 , 4135.38461538 , 4131.28205128 , 4136.41025641 , 4134.87179487 , 4144.61538462 , 4176.92307692 , 4740.0 , 4136.41025641 , 4137.94871795 , 2009.0 , 2031.0 , 8.201 , 0.0 , 0.0 , 0.0 , 0.0 , 

77.0 , 4130.25641026 , 4138.97435897 , 4226.66666667 , 4134.35897436 , 4134.35897436 , 4137.43589744 , 4130.76923077 , 4136.92307692 , 4137.43589744 , 4146.15384615 , 4178.97435897 , 4740.0 , 4135.8974359 , 4136.92307692 , 2008.0 , 2029.0 , 8.209 , 0.0 , 0.0 , 0.0 , 0.0 , 

78.0 , 4129.74358974 , 4134.35897436 , 4204.1025641 , 4135.8974359 , 4134.35897436 , 4134.87179487 , 4129.23076923 , 4134.35897436 , 4136.41025641 , 4144.1025641 , 4184.61538462 , 4741.02564103 , 4132.82051282 , 4136.41025641 , 2008.0 , 2030.0 , 8.218 , 0.0 , 0.0 , 0.0 , 0.0 , 

79.0 , 4132.30769231 , 4128.20512821 , 4210.25641026 , 4136.41025641 , 4134.35897436 , 4130.25641026 , 4130.25641026 , 4136.41025641 , 4136.92307692 , 4144.1025641 , 4182.05128205 , 4747.69230769 , 4136.41025641 , 4138.97435897 , 2011.0 , 2030.0 , 8.224 , 0.0 , 0.0 , 0.0 , 0.0 , 

80.0 , 4128.71794872 , 4131.28205128 , 4214.87179487 , 4135.8974359 , 4134.35897436 , 4132.30769231 , 4134.35897436 , 4134.87179487 , 4136.92307692 , 4141.02564103 , 4175.38461538 , 4747.69230769 , 4135.38461538 , 4136.92307692 , 2011.0 , 2033.0 , 8.232 , 0.0 , 0.0 , 0.0 , 0.0 , 

81.0 , 4127.17948718 , 4137.94871795 , 4201.02564103 , 4135.8974359 , 4134.35897436 , 4137.94871795 , 4135.8974359 , 4134.87179487 , 4135.8974359 , 4133.84615385 , 4179.48717949 , 4746.15384615 , 4133.84615385 , 4135.8974359 , 2013.0 , 2034.0 , 8.24 , 0.0 , 0.0 , 0.0 , 0.0 , 

82.0 , 4127.69230769 , 4130.76923077 , 4210.25641026 , 4135.8974359 , 4134.35897436 , 4131.28205128 , 4132.30769231 , 4136.92307692 , 4136.92307692 , 4138.46153846 , 4186.15384615 , 4748.71794872 , 4136.92307692 , 4138.46153846 , 2013.0 , 2035.0 , 8.248 , 0.0 , 0.0 , 0.0 , 0.0 , 

83.0 , 4128.71794872 , 4126.66666667 , 4214.87179487 , 4135.8974359 , 4134.35897436 , 4124.1025641 , 4128.20512821 , 4136.41025641 , 4136.92307692 , 4149.74358974 , 4184.1025641 , 4750.25641026 , 4137.43589744 , 4137.94871795 , 2015.0 , 2036.0 , 8.256 , 0.0 , 0.0 , 0.0 , 0.0 , 

84.0 , 4130.25641026 , 4130.25641026 , 4217.94871795 , 4135.8974359 , 4134.35897436 , 4130.25641026 , 4128.71794872 , 4138.46153846 , 4136.92307692 , 4148.71794872 , 4182.56410256 , 4748.71794872 , 4135.8974359 , 4137.94871795 , 2018.0 , 2035.0 , 8.264 , 0.0 , 0.0 , 0.0 , 0.0 , 

85.0 , 4128.20512821 , 4130.25641026 , 4211.79487179 , 4135.38461538 , 4134.35897436 , 4136.92307692 , 4129.23076923 , 4137.94871795 , 4136.92307692 , 4137.43589744 , 4184.1025641 , 4748.20512821 , 4134.35897436 , 4138.97435897 , 2019.0 , 2035.0 , 8.272 , 0.0 , 0.0 , 0.0 , 0.0 , 

86.0 , 4129.23076923 , 4130.25641026 , 4206.15384615 , 4135.38461538 , 4134.35897436 , 4134.35897436 , 4128.20512821 , 4136.41025641 , 4136.92307692 , 4135.38461538 , 4184.61538462 , 4753.33333333 , 4135.8974359 , 4138.46153846 , 2022.0 , 2033.0 , 8.28 , 0.0 , 0.0 , 0.0 , 0.0 , 

87.0 , 4134.87179487 , 4132.30769231 , 4206.66666667 , 4135.38461538 , 4134.35897436 , 4130.25641026 , 4129.74358974 , 4135.8974359 , 4136.92307692 , 4139.48717949 , 4184.1025641 , 4753.84615385 , 4135.8974359 , 4136.41025641 , 2022.0 , 2032.0 , 8.286 , 0.0 , 0.0 , 0.0 , 0.0 , 

88.0 , 4135.8974359 , 4130.25641026 , 4201.02564103 , 4135.8974359 , 4134.35897436 , 4129.74358974 , 4130.25641026 , 4135.8974359 , 4136.92307692 , 4138.46153846 , 4184.1025641 , 4753.33333333 , 4135.38461538 , 4137.94871795 , 2022.0 , 2030.0 , 8.295 , 0.0 , 0.0 , 0.0 , 0.0 , 

89.0 , 4128.71794872 , 4126.66666667 , 4207.69230769 , 4136.41025641 , 4134.35897436 , 4130.25641026 , 4129.74358974 , 4135.8974359 , 4136.92307692 , 4136.92307692 , 4184.1025641 , 4755.8974359 , 4136.41025641 , 4138.97435897 , 2023.0 , 2029.0 , 8.303 , 0.0 , 0.0 , 0.0 , 0.0 , 

90.0 , 4128.71794872 , 4131.28205128 , 4204.61538462 , 4135.38461538 , 4134.35897436 , 4133.33333333 , 4131.28205128 , 4135.38461538 , 4136.92307692 , 4139.48717949 , 4184.61538462 , 4756.92307692 , 4135.38461538 , 4136.92307692 , 2023.0 , 2028.0 , 8.311 , 0.0 , 0.0 , 0.0 , 0.0 , 

91.0 , 4130.25641026 , 4131.79487179 , 4199.48717949 , 4134.35897436 , 4134.35897436 , 4135.38461538 , 4133.33333333 , 4135.38461538 , 4136.92307692 , 4138.46153846 , 4183.07692308 , 4756.41025641 , 4133.84615385 , 4138.46153846 , 2023.0 , 2029.0 , 8.32 , 0.0 , 0.0 , 0.0 , 0.0 , 

92.0 , 4129.74358974 , 4128.71794872 , 4193.84615385 , 4136.41025641 , 4134.35897436 , 4133.84615385 , 4131.28205128 , 4136.41025641 , 4136.92307692 , 4137.43589744 , 4182.05128205 , 4755.38461538 , 4134.87179487 , 4139.48717949 , 2025.0 , 2029.0 , 8.328 , 0.0 , 0.0 , 0.0 , 0.0 , 

93.0 , 4131.28205128 , 4135.38461538 , 4194.87179487 , 4135.38461538 , 4134.35897436 , 4134.87179487 , 4123.58974359 , 4136.41025641 , 4136.92307692 , 4138.46153846 , 4183.58974359 , 4757.43589744 , 4136.41025641 , 4140.0 , 2026.0 , 2030.0 , 8.335 , 0.0 , 0.0 , 0.0 , 0.0 , 

94.0 , 4131.28205128 , 4138.46153846 , 4188.71794872 , 4132.30769231 , 4134.35897436 , 4135.38461538 , 4124.1025641 , 4135.8974359 , 4136.92307692 , 4137.43589744 , 4184.61538462 , 4760.51282051 , 4137.43589744 , 4140.0 , 2027.0 , 2031.0 , 8.342 , 0.0 , 0.0 , 0.0 , 0.0 , 

95.0 , 4132.82051282 , 4136.41025641 , 4177.43589744 , 4134.87179487 , 4134.35897436 , 4134.87179487 , 4132.82051282 , 4135.8974359 , 4136.92307692 , 4136.92307692 , 4182.56410256 , 4762.05128205 , 4137.43589744 , 4140.0 , 2029.0 , 2032.0 , 8.35 , 0.0 , 0.0 , 0.0 , 0.0 , 

96.0 , 4136.41025641 , 4135.38461538 , 4165.12820513 , 4138.97435897 , 4134.35897436 , 4136.92307692 , 4136.92307692 , 4136.41025641 , 4136.92307692 , 4146.15384615 , 4183.58974359 , 4763.07692308 , 4136.92307692 , 4140.51282051 , 2029.0 , 2031.0 , 8.358 , 0.0 , 0.0 , 0.0 , 0.0 , 

97.0 , 4134.87179487 , 4135.38461538 , 4163.07692308 , 4137.43589744 , 4134.35897436 , 4134.35897436 , 4133.84615385 , 4134.87179487 , 4136.92307692 , 4152.82051282 , 4186.15384615 , 4763.58974359 , 4135.8974359 , 4140.0 , 2030.0 , 2032.0 , 8.366 , 0.0 , 0.0 , 0.0 , 0.0 , 

98.0 , 4130.25641026 , 4134.35897436 , 4169.23076923 , 4136.41025641 , 4134.35897436 , 4131.79487179 , 4134.35897436 , 4134.87179487 , 4136.92307692 , 4144.1025641 , 4185.64102564 , 4764.61538462 , 4136.41025641 , 4137.43589744 , 2032.0 , 2031.0 , 8.375 , 0.0 , 0.0 , 0.0 , 0.0 , 

99.0 , 4133.84615385 , 4135.38461538 , 4168.71794872 , 4137.94871795 , 4134.35897436 , 4133.84615385 , 4136.92307692 , 4136.41025641 , 4136.92307692 , 4135.8974359 , 4185.12820513 , 4764.1025641 , 4137.43589744 , 4138.97435897 , 2031.0 , 2031.0 , 8.382 , 0.0 , 0.0 , 0.0 , 0.0 , 

100.0 , 4138.97435897 , 4132.82051282 , 4165.12820513 , 4137.94871795 , 4134.35897436 , 4133.33333333 , 4135.38461538 , 4135.8974359 , 4136.92307692 , 4137.43589744 , 4184.61538462 , 4766.15384615 , 4136.92307692 , 4141.53846154 , 2033.0 , 2029.0 , 8.39 , 0.0 , 0.0 , 0.0 , 0.0 , 

101.0 , 4134.87179487 , 4130.25641026 , 4166.66666667 , 4137.43589744 , 4134.35897436 , 4131.28205128 , 4134.35897436 , 4135.38461538 , 4136.92307692 , 4139.48717949 , 4183.58974359 , 4767.69230769 , 4134.87179487 , 4140.0 , 2035.0 , 2029.0 , 8.398 , 0.0 , 0.0 , 0.0 , 0.0 , 

102.0 , 4130.76923077 , 4138.46153846 , 4165.64102564 , 4136.92307692 , 4134.35897436 , 4133.84615385 , 4134.35897436 , 4136.41025641 , 4136.92307692 , 4132.82051282 , 4183.58974359 , 4766.15384615 , 4134.35897436 , 4138.97435897 , 2037.0 , 2027.0 , 8.406 , 0.0 , 0.0 , 0.0 , 0.0 , 

103.0 , 4131.28205128 , 4138.46153846 , 4165.64102564 , 4135.38461538 , 4134.35897436 , 4134.87179487 , 4134.35897436 , 4136.92307692 , 4136.92307692 , 4135.38461538 , 4184.61538462 , 4768.71794872 , 4135.8974359 , 4140.0 , 2037.0 , 2026.0 , 8.413 , 0.0 , 0.0 , 0.0 , 0.0 , 

104.0 , 4130.76923077 , 4127.69230769 , 4169.23076923 , 4136.41025641 , 4134.35897436 , 4132.82051282 , 4133.84615385 , 4135.8974359 , 4136.92307692 , 4148.71794872 , 4183.07692308 , 4770.76923077 , 4136.41025641 , 4137.43589744 , 2040.0 , 2025.0 , 8.421 , 0.0 , 0.0 , 0.0 , 0.0 , 

105.0 , 4133.33333333 , 4129.74358974 , 4160.0 , 4137.94871795 , 4134.35897436 , 4134.35897436 , 4134.87179487 , 4135.38461538 , 4136.92307692 , 4147.69230769 , 4182.56410256 , 4771.79487179 , 4135.8974359 , 4136.41025641 , 2042.0 , 2024.0 , 8.429 , 0.0 , 0.0 , 0.0 , 0.0 , 

106.0 , 4137.94871795 , 4138.46153846 , 4153.33333333 , 4137.43589744 , 4134.35897436 , 4135.8974359 , 4136.41025641 , 4136.92307692 , 4136.92307692 , 4139.48717949 , 4183.58974359 , 4771.79487179 , 4135.8974359 , 4140.0 , 2043.0 , 2025.0 , 8.438 , 0.0 , 0.0 , 0.0 , 0.0 , 

107.0 , 4136.41025641 , 4136.41025641 , 4155.8974359 , 4137.94871795 , 4135.38461538 , 4135.8974359 , 4135.38461538 , 4137.43589744 , 4136.92307692 , 4147.17948718 , 4183.58974359 , 4772.30769231 , 4135.8974359 , 4140.51282051 , 2045.0 , 2026.0 , 8.445 , 0.0 , 0.0 , 0.0 , 0.0 , 

108.0 , 4133.84615385 , 4133.84615385 , 4159.48717949 , 4140.0 , 4136.41025641 , 4136.41025641 , 4135.38461538 , 4136.41025641 , 4136.92307692 , 4153.33333333 , 4183.58974359 , 4773.33333333 , 4135.8974359 , 4136.92307692 , 2047.0 , 2028.0 , 8.453 , 0.0 , 0.0 , 0.0 , 0.0 , 

109.0 , 4134.35897436 , 4137.43589744 , 4160.0 , 4137.94871795 , 4136.41025641 , 4134.87179487 , 4134.87179487 , 4135.38461538 , 4136.92307692 , 4149.23076923 , 4183.58974359 , 4772.82051282 , 4135.8974359 , 4137.43589744 , 2048.0 , 2030.0 , 8.461 , 0.0 , 0.0 , 0.0 , 0.0 , 

110.0 , 4132.82051282 , 4135.8974359 , 4157.94871795 , 4136.41025641 , 4135.38461538 , 4134.87179487 , 4131.79487179 , 4136.92307692 , 4136.92307692 , 4149.74358974 , 4184.61538462 , 4773.84615385 , 4135.8974359 , 4139.48717949 , 2050.0 , 2030.0 , 8.47 , 0.0 , 0.0 , 0.0 , 0.0 , 

111.0 , 4132.30769231 , 4131.28205128 , 4145.12820513 , 4136.41025641 , 4134.87179487 , 4135.8974359 , 4130.76923077 , 4137.94871795 , 4136.92307692 , 4144.61538462 , 4185.12820513 , 4774.87179487 , 4136.41025641 , 4138.46153846 , 2051.0 , 2030.0 , 8.477 , 0.0 , 0.0 , 0.0 , 0.0 , 

112.0 , 4135.8974359 , 4135.8974359 , 4141.02564103 , 4135.8974359 , 4134.87179487 , 4136.41025641 , 4134.87179487 , 4136.92307692 , 4136.92307692 , 4136.92307692 , 4184.1025641 , 4777.43589744 , 4135.8974359 , 4138.97435897 , 2053.0 , 2030.0 , 8.484 , 0.0 , 0.0 , 0.0 , 0.0 , 

113.0 , 4136.41025641 , 4137.94871795 , 4147.17948718 , 4136.92307692 , 4135.38461538 , 4135.8974359 , 4136.92307692 , 4136.92307692 , 4136.92307692 , 4141.53846154 , 4183.58974359 , 4775.38461538 , 4135.38461538 , 4143.07692308 , 2054.0 , 2030.0 , 8.493 , 0.0 , 0.0 , 0.0 , 0.0 , 

114.0 , 4135.8974359 , 4133.33333333 , 4157.94871795 , 4139.48717949 , 4135.38461538 , 4135.8974359 , 4133.33333333 , 4138.46153846 , 4136.92307692 , 4143.58974359 , 4186.15384615 , 4774.87179487 , 4136.92307692 , 4142.56410256 , 2057.0 , 2030.0 , 8.501 , 0.0 , 0.0 , 0.0 , 0.0 , 

115.0 , 4137.94871795 , 4134.35897436 , 4138.46153846 , 4138.46153846 , 4135.38461538 , 4135.8974359 , 4132.30769231 , 4135.38461538 , 4136.41025641 , 4138.46153846 , 4181.53846154 , 4775.8974359 , 4131.79487179 , 4137.94871795 , 2059.0 , 2028.0 , 8.508 , 0.0 , 0.0 , 0.0 , 0.0 , 

116.0 , 4135.8974359 , 4135.38461538 , 4137.94871795 , 4136.92307692 , 4135.38461538 , 4135.8974359 , 4133.33333333 , 4134.35897436 , 4137.94871795 , 4139.48717949 , 4177.94871795 , 4775.8974359 , 4129.23076923 , 4136.92307692 , 2062.0 , 2029.0 , 8.517 , 0.0 , 0.0 , 0.0 , 0.0 , 

117.0 , 4131.79487179 , 4129.74358974 , 4141.53846154 , 4137.43589744 , 4135.38461538 , 4135.8974359 , 4132.82051282 , 4132.82051282 , 4136.92307692 , 4139.48717949 , 4178.97435897 , 4775.38461538 , 4129.74358974 , 4136.41025641 , 2063.0 , 2027.0 , 8.525 , 0.0 , 0.0 , 0.0 , 0.0 , 

118.0 , 4132.82051282 , 4131.28205128 , 4132.82051282 , 4137.94871795 , 4135.38461538 , 4135.8974359 , 4132.30769231 , 4130.76923077 , 4135.8974359 , 4139.48717949 , 4180.51282051 , 4773.84615385 , 4129.23076923 , 4135.8974359 , 2063.0 , 2026.0 , 8.532 , 0.0 , 0.0 , 0.0 , 0.0 , 

119.0 , 4137.94871795 , 4140.0 , 4132.30769231 , 4137.43589744 , 4135.38461538 , 4135.8974359 , 4133.84615385 , 4130.25641026 , 4136.92307692 , 4140.0 , 4177.43589744 , 4774.87179487 , 4128.20512821 , 4136.92307692 , 2064.0 , 2027.0 , 8.54 , 0.0 , 0.0 , 0.0 , 0.0 , 

120.0 , 4136.92307692 , 4135.8974359 , 4119.48717949 , 4135.38461538 , 4135.38461538 , 4135.8974359 , 4135.38461538 , 4131.79487179 , 4134.35897436 , 4138.97435897 , 4176.41025641 , 4775.8974359 , 4130.76923077 , 4138.46153846 , 2065.0 , 2027.0 , 8.547 , 0.0 , 0.0 , 0.0 , 0.0 , 

121.0 , 4132.82051282 , 4126.15384615 , 4120.0 , 4134.35897436 , 4135.38461538 , 4135.8974359 , 4134.87179487 , 4132.82051282 , 4133.84615385 , 4143.07692308 , 4179.48717949 , 4776.41025641 , 4131.79487179 , 4139.48717949 , 2068.0 , 2029.0 , 8.555 , 0.0 , 0.0 , 0.0 , 0.0 , 

122.0 , 4132.30769231 , 4129.23076923 , 4110.25641026 , 4136.41025641 , 4135.38461538 , 4135.8974359 , 4133.84615385 , 4131.28205128 , 4137.94871795 , 4143.07692308 , 4176.41025641 , 4774.35897436 , 4127.17948718 , 4137.94871795 , 2069.0 , 2030.0 , 8.564 , 0.0 , 0.0 , 0.0 , 0.0 , 

123.0 , 4132.82051282 , 4137.94871795 , 4117.94871795 , 4137.94871795 , 4135.38461538 , 4135.8974359 , 4133.33333333 , 4133.33333333 , 4138.97435897 , 4138.97435897 , 4175.38461538 , 4775.38461538 , 4128.20512821 , 4135.8974359 , 2068.0 , 2032.0 , 8.571 , 0.0 , 0.0 , 0.0 , 0.0 , 

124.0 , 4130.76923077 , 4135.38461538 , 4107.69230769 , 4135.8974359 , 4135.8974359 , 4135.8974359 , 4134.87179487 , 4132.82051282 , 4135.38461538 , 4135.38461538 , 4177.43589744 , 4775.38461538 , 4129.23076923 , 4135.8974359 , 2070.0 , 2033.0 , 8.58 , 0.0 , 0.0 , 0.0 , 0.0 , 

125.0 , 4129.74358974 , 4130.76923077 , 4124.61538462 , 4135.38461538 , 4135.8974359 , 4135.8974359 , 4134.35897436 , 4133.33333333 , 4137.94871795 , 4141.53846154 , 4180.51282051 , 4775.8974359 , 4133.33333333 , 4136.41025641 , 2070.0 , 2034.0 , 8.587 , 0.0 , 0.0 , 0.0 , 0.0 , 

126.0 , 4130.76923077 , 4131.28205128 , 4136.41025641 , 4136.92307692 , 4135.8974359 , 4135.8974359 , 4132.82051282 , 4132.82051282 , 4137.94871795 , 4144.61538462 , 4177.94871795 , 4775.38461538 , 4131.79487179 , 4136.41025641 , 2070.0 , 2035.0 , 8.595 , 0.0 , 0.0 , 0.0 , 0.0 , 

127.0 , 4129.23076923 , 4132.30769231 , 4149.23076923 , 4136.41025641 , 4135.8974359 , 4135.8974359 , 4134.87179487 , 4137.43589744 , 4137.43589744 , 4143.07692308 , 4177.43589744 , 4773.84615385 , 4128.71794872 , 4139.48717949 , 2070.0 , 2036.0 , 8.603 , 0.0 , 0.0 , 0.0 , 0.0 , 

128.0 , 4130.76923077 , 4133.33333333 , 4164.61538462 , 4134.87179487 , 4135.8974359 , 4135.8974359 , 4136.41025641 , 4137.94871795 , 4140.51282051 , 4141.53846154 , 4179.48717949 , 4778.46153846 , 4131.79487179 , 4141.53846154 , 2071.0 , 2036.0 , 8.611 , 0.0 , 0.0 , 0.0 , 0.0 , 

0.0 , 4133.84615385 , 4134.87179487 , 4166.15384615 , 4135.38461538 , 4135.8974359 , 4135.8974359 , 4134.35897436 , 4133.84615385 , 4141.02564103 , 4142.56410256 , 4180.51282051 , 4784.1025641 , 4135.38461538 , 4138.46153846 , 2069.0 , 2036.0 , 8.618 , 0.0 , 0.0 , 0.0 , 0.0 , 

1.0 , 4133.33333333 , 4133.33333333 , 4153.84615385 , 4136.92307692 , 4135.8974359 , 4135.8974359 , 4132.82051282 , 4136.41025641 , 4137.94871795 , 4146.66666667 , 4181.53846154 , 4780.51282051 , 4131.79487179 , 4137.94871795 , 2069.0 , 2037.0 , 8.626 , 0.0 , 0.0 , 0.0 , 0.0 , 

2.0 , 4132.82051282 , 4134.35897436 , 4130.76923077 , 4136.41025641 , 4136.41025641 , 4135.8974359 , 4134.87179487 , 4135.38461538 , 4136.41025641 , 4145.12820513 , 4178.97435897 , 4773.33333333 , 4127.69230769 , 4138.97435897 , 2069.0 , 2038.0 , 8.634 , 0.0 , 0.0 , 0.0 , 0.0 , 

3.0 , 4132.82051282 , 4136.92307692 , 4113.84615385 , 4134.87179487 , 4134.87179487 , 4135.8974359 , 4135.8974359 , 4130.76923077 , 4136.41025641 , 4139.48717949 , 4176.92307692 , 4776.41025641 , 4130.25641026 , 4138.97435897 , 2068.0 , 2038.0 , 8.642 , 0.0 , 0.0 , 0.0 , 0.0 , 

4.0 , 4129.74358974 , 4136.41025641 , 4102.05128205 , 4134.87179487 , 4134.87179487 , 4135.8974359 , 4127.17948718 , 4130.76923077 , 4134.87179487 , 4138.46153846 , 4178.46153846 , 4776.41025641 , 4130.25641026 , 4138.46153846 , 2069.0 , 2037.0 , 8.65 , 0.0 , 0.0 , 0.0 , 0.0 , 

5.0 , 4129.74358974 , 4134.87179487 , 4075.38461538 , 4135.8974359 , 4136.92307692 , 4135.8974359 , 4122.05128205 , 4130.76923077 , 4130.25641026 , 4137.43589744 , 4178.46153846 , 4770.76923077 , 4126.15384615 , 4138.46153846 , 2069.0 , 2036.0 , 8.658 , 0.0 , 0.0 , 0.0 , 0.0 , 

6.0 , 4134.35897436 , 4135.8974359 , 4050.76923077 , 4136.41025641 , 4137.43589744 , 4135.8974359 , 4131.79487179 , 4127.69230769 , 4129.74358974 , 4134.35897436 , 4173.33333333 , 4770.25641026 , 4125.64102564 , 4136.41025641 , 2068.0 , 2034.0 , 8.666 , 0.0 , 0.0 , 0.0 , 0.0 , 

7.0 , 4135.8974359 , 4136.41025641 , 4034.87179487 , 4135.38461538 , 4135.8974359 , 4135.8974359 , 4138.97435897 , 4128.20512821 , 4132.82051282 , 4133.33333333 , 4173.33333333 , 4772.30769231 , 4127.69230769 , 4134.35897436 , 2068.0 , 2033.0 , 8.674 , 0.0 , 0.0 , 0.0 , 0.0 , 

8.0 , 4132.82051282 , 4133.84615385 , 4014.35897436 , 4134.87179487 , 4135.8974359 , 4135.8974359 , 4135.38461538 , 4126.15384615 , 4130.76923077 , 4131.79487179 , 4175.38461538 , 4768.20512821 , 4123.58974359 , 4136.92307692 , 2066.0 , 2034.0 , 8.681 , 0.0 , 0.0 , 0.0 , 0.0 , 

9.0 , 4129.74358974 , 4130.25641026 , 3996.92307692 , 4135.8974359 , 4136.41025641 , 4135.8974359 , 4134.87179487 , 4123.07692308 , 4129.23076923 , 4130.25641026 , 4173.33333333 , 4763.07692308 , 4118.97435897 , 4140.0 , 2066.0 , 2034.0 , 8.689 , 0.0 , 0.0 , 0.0 , 0.0 , 

10.0 , 4132.30769231 , 4134.35897436 , 3986.15384615 , 4135.8974359 , 4135.8974359 , 4135.8974359 , 4137.43589744 , 4126.15384615 , 4130.76923077 , 4132.82051282 , 4172.30769231 , 4762.05128205 , 4123.07692308 , 4137.43589744 , 2065.0 , 2036.0 , 8.697 , 0.0 , 0.0 , 0.0 , 0.0 , 

11.0 , 4140.0 , 4137.43589744 , 3970.76923077 , 4134.87179487 , 4135.8974359 , 4135.8974359 , 4136.41025641 , 4127.17948718 , 4130.76923077 , 4133.33333333 , 4173.84615385 , 4761.53846154 , 4125.12820513 , 4133.33333333 , 2065.0 , 2038.0 , 8.705 , 0.0 , 0.0 , 0.0 , 0.0 , 

12.0 , 4137.94871795 , 4133.84615385 , 3957.94871795 , 4135.38461538 , 4135.8974359 , 4135.8974359 , 4135.38461538 , 4125.12820513 , 4129.23076923 , 4130.76923077 , 4174.87179487 , 4758.46153846 , 4122.56410256 , 4134.87179487 , 2066.0 , 2040.0 , 8.713 , 0.0 , 0.0 , 0.0 , 0.0 , 

13.0 , 4130.25641026 , 4134.87179487 , 3948.71794872 , 4136.41025641 , 4136.41025641 , 4135.8974359 , 4134.87179487 , 4124.1025641 , 4128.20512821 , 4131.28205128 , 4175.38461538 , 4755.8974359 , 4122.56410256 , 4136.41025641 , 2068.0 , 2040.0 , 8.721 , 0.0 , 0.0 , 0.0 , 0.0 , 

14.0 , 4132.30769231 , 4137.94871795 , 3939.48717949 , 4135.8974359 , 4136.41025641 , 4135.8974359 , 4135.38461538 , 4125.64102564 , 4127.69230769 , 4132.82051282 , 4175.38461538 , 4756.92307692 , 4125.64102564 , 4135.38461538 , 2068.0 , 2041.0 , 8.729 , 0.0 , 0.0 , 0.0 , 0.0 , 

15.0 , 4136.41025641 , 4134.87179487 , 3935.8974359 , 4135.8974359 , 4134.87179487 , 4135.8974359 , 4136.41025641 , 4126.66666667 , 4131.79487179 , 4131.79487179 , 4173.84615385 , 4754.35897436 , 4125.64102564 , 4136.41025641 , 2067.0 , 2040.0 , 8.738 , 0.0 , 0.0 , 0.0 , 0.0 , 

16.0 , 4132.30769231 , 4133.84615385 , 3941.02564103 , 4136.41025641 , 4134.87179487 , 4135.8974359 , 4135.8974359 , 4126.66666667 , 4134.35897436 , 4135.8974359 , 4174.87179487 , 4747.69230769 , 4126.15384615 , 4136.41025641 , 2067.0 , 2040.0 , 8.746 , 0.0 , 0.0 , 0.0 , 0.0 , 

17.0 , 4132.30769231 , 4136.92307692 , 3941.02564103 , 4135.38461538 , 4135.8974359 , 4135.8974359 , 4135.8974359 , 4127.69230769 , 4131.28205128 , 4138.46153846 , 4177.94871795 , 4744.61538462 , 4126.15384615 , 4135.38461538 , 2068.0 , 2039.0 , 8.752 , 0.0 , 0.0 , 0.0 , 0.0 , 

18.0 , 4134.87179487 , 4135.38461538 , 3933.33333333 , 4134.87179487 , 4134.35897436 , 4135.8974359 , 4135.8974359 , 4128.71794872 , 4132.82051282 , 4135.8974359 , 4176.92307692 , 4745.12820513 , 4125.64102564 , 4135.38461538 , 2070.0 , 2038.0 , 8.76 , 0.0 , 0.0 , 0.0 , 0.0 , 

19.0 , 4132.30769231 , 4135.8974359 , 3924.1025641 , 4135.8974359 , 4133.84615385 , 4135.8974359 , 4135.8974359 , 4128.20512821 , 4134.87179487 , 4134.35897436 , 4174.87179487 , 4742.56410256 , 4126.15384615 , 4135.38461538 , 2070.0 , 2037.0 , 8.769 , 0.0 , 0.0 , 0.0 , 0.0 , 

20.0 , 4129.74358974 , 4137.43589744 , 3916.41025641 , 4135.8974359 , 4135.38461538 , 4135.8974359 , 4135.8974359 , 4128.71794872 , 4130.76923077 , 4137.94871795 , 4175.38461538 , 4734.35897436 , 4125.12820513 , 4135.8974359 , 2071.0 , 2036.0 , 8.777 , 0.0 , 0.0 , 0.0 , 0.0 , 

21.0 , 4130.76923077 , 4135.38461538 , 3913.33333333 , 4135.38461538 , 4136.41025641 , 4135.8974359 , 4135.8974359 , 4130.25641026 , 4129.74358974 , 4139.48717949 , 4177.94871795 , 4728.71794872 , 4125.64102564 , 4138.46153846 , 2069.0 , 2036.0 , 8.785 , 0.0 , 0.0 , 0.0 , 0.0 , 

22.0 , 4133.33333333 , 4134.35897436 , 3911.79487179 , 4136.41025641 , 4135.8974359 , 4135.8974359 , 4135.8974359 , 4127.17948718 , 4132.30769231 , 4136.92307692 , 4175.8974359 , 4727.69230769 , 4126.66666667 , 4138.97435897 , 2068.0 , 2039.0 , 8.792 , 0.0 , 0.0 , 0.0 , 0.0 , 

23.0 , 4132.82051282 , 4134.35897436 , 3922.56410256 , 4136.92307692 , 4135.8974359 , 4135.8974359 , 4135.8974359 , 4126.66666667 , 4129.74358974 , 4136.92307692 , 4174.87179487 , 4724.61538462 , 4128.20512821 , 4137.43589744 , 2069.0 , 2040.0 , 8.8 , 0.0 , 0.0 , 0.0 , 0.0 , 

24.0 , 4128.20512821 , 4134.35897436 , 3929.74358974 , 4136.41025641 , 4134.87179487 , 4135.8974359 , 4135.8974359 , 4129.74358974 , 4129.74358974 , 4137.94871795 , 4174.35897436 , 4718.46153846 , 4128.20512821 , 4136.92307692 , 2069.0 , 2042.0 , 8.808 , 0.0 , 0.0 , 0.0 , 0.0 , 

25.0 , 4130.76923077 , 4132.30769231 , 3936.92307692 , 4136.41025641 , 4134.35897436 , 4135.8974359 , 4135.8974359 , 4130.25641026 , 4137.43589744 , 4140.51282051 , 4175.8974359 , 4714.87179487 , 4129.74358974 , 4137.94871795 , 2069.0 , 2042.0 , 8.815 , 0.0 , 0.0 , 0.0 , 0.0 , 

26.0 , 4137.43589744 , 4131.28205128 , 3955.8974359 , 4135.8974359 , 4134.35897436 , 4135.8974359 , 4135.8974359 , 4131.28205128 , 4137.94871795 , 4144.1025641 , 4180.0 , 4712.82051282 , 4132.82051282 , 4138.46153846 , 2069.0 , 2042.0 , 8.823 , 0.0 , 0.0 , 0.0 , 0.0 , 

27.0 , 4133.84615385 , 4132.82051282 , 3998.46153846 , 4134.87179487 , 4134.35897436 , 4135.8974359 , 4135.8974359 , 4140.51282051 , 4138.46153846 , 4148.71794872 , 4180.51282051 , 4715.38461538 , 4139.48717949 , 4140.0 , 2070.0 , 2038.0 , 8.831 , 0.0 , 0.0 , 0.0 , 0.0 , 

28.0 , 4126.66666667 , 4133.33333333 , 4027.69230769 , 4134.87179487 , 4134.35897436 , 4135.8974359 , 4135.8974359 , 4144.61538462 , 4142.56410256 , 4149.74358974 , 4178.46153846 , 4714.35897436 , 4141.02564103 , 4139.48717949 , 2070.0 , 2038.0 , 8.84 , 0.0 , 0.0 , 0.0 , 0.0 , 

29.0 , 4131.79487179 , 4133.84615385 , 4055.8974359 , 4136.41025641 , 4134.35897436 , 4135.8974359 , 4135.8974359 , 4144.1025641 , 4145.12820513 , 4149.74358974 , 4182.56410256 , 4712.30769231 , 4139.48717949 , 4139.48717949 , 2070.0 , 2036.0 , 8.848 , 0.0 , 0.0 , 0.0 , 0.0 , 

30.0 , 4136.92307692 , 4136.92307692 , 4077.43589744 , 4135.8974359 , 4134.35897436 , 4135.8974359 , 4135.8974359 , 4144.1025641 , 4141.53846154 , 4151.28205128 , 4185.64102564 , 4712.30769231 , 4143.07692308 , 4141.02564103 , 2071.0 , 2034.0 , 8.855 , 0.0 , 0.0 , 0.0 , 0.0 , 

31.0 , 4132.82051282 , 4137.43589744 , 4093.33333333 , 4134.87179487 , 4134.87179487 , 4135.8974359 , 4135.8974359 , 4144.61538462 , 4141.53846154 , 4151.79487179 , 4186.15384615 , 4712.30769231 , 4147.17948718 , 4142.56410256 , 2071.0 , 2033.0 , 8.863 , 0.0 , 0.0 , 0.0 , 0.0 , 

32.0 , 4132.30769231 , 4134.35897436 , 4096.92307692 , 4135.38461538 , 4134.35897436 , 4135.8974359 , 4135.8974359 , 4143.58974359 , 4142.05128205 , 4150.25641026 , 4183.07692308 , 4709.74358974 , 4138.46153846 , 4144.61538462 , 2070.0 , 2031.0 , 8.871 , 0.0 , 0.0 , 0.0 , 0.0 , 

33.0 , 4136.41025641 , 4134.35897436 , 4115.38461538 , 4134.87179487 , 4134.35897436 , 4135.8974359 , 4135.8974359 , 4144.1025641 , 4142.56410256 , 4153.33333333 , 4184.61538462 , 4711.28205128 , 4135.8974359 , 4143.07692308 , 2070.0 , 2031.0 , 8.878 , 0.0 , 0.0 , 0.0 , 0.0 , 

34.0 , 4136.41025641 , 4134.87179487 , 4117.43589744 , 4133.84615385 , 4135.8974359 , 4135.8974359 , 4135.8974359 , 4143.58974359 , 4145.12820513 , 4154.35897436 , 4185.64102564 , 4710.25641026 , 4140.0 , 4139.48717949 , 2068.0 , 2030.0 , 8.887 , 0.0 , 0.0 , 0.0 , 0.0 , 

35.0 , 4131.79487179 , 4132.82051282 , 4109.23076923 , 4135.38461538 , 4136.92307692 , 4135.8974359 , 4135.8974359 , 4142.56410256 , 4144.1025641 , 4148.20512821 , 4181.02564103 , 4703.07692308 , 4137.43589744 , 4137.94871795 , 2067.0 , 2028.0 , 8.894 , 0.0 , 0.0 , 0.0 , 0.0 , 

36.0 , 4133.33333333 , 4134.35897436 , 4106.66666667 , 4136.92307692 , 4135.38461538 , 4135.8974359 , 4135.8974359 , 4140.51282051 , 4139.48717949 , 4145.64102564 , 4178.97435897 , 4701.02564103 , 4134.87179487 , 4140.0 , 2066.0 , 2027.0 , 8.903 , 0.0 , 0.0 , 0.0 , 0.0 , 

37.0 , 4134.87179487 , 4134.35897436 , 4107.17948718 , 4135.38461538 , 4134.87179487 , 4135.8974359 , 4135.8974359 , 4137.94871795 , 4138.46153846 , 4147.17948718 , 4182.56410256 , 4701.02564103 , 4135.8974359 , 4138.97435897 , 2065.0 , 2027.0 , 8.911 , 0.0 , 0.0 , 0.0 , 0.0 , 

38.0 , 4134.87179487 , 4133.84615385 , 4109.74358974 , 4134.35897436 , 4135.38461538 , 4135.8974359 , 4135.8974359 , 4138.97435897 , 4139.48717949 , 4146.66666667 , 4182.56410256 , 4699.48717949 , 4133.84615385 , 4138.46153846 , 2064.0 , 2027.0 , 8.918 , 0.0 , 0.0 , 0.0 , 0.0 , 

39.0 , 4134.87179487 , 4135.38461538 , 4125.12820513 , 4134.87179487 , 4134.87179487 , 4135.8974359 , 4135.8974359 , 4142.56410256 , 4140.0 , 4146.15384615 , 4181.53846154 , 4698.97435897 , 4135.8974359 , 4139.48717949 , 2062.0 , 2028.0 , 8.926 , 0.0 , 0.0 , 0.0 , 0.0 , 

40.0 , 4132.30769231 , 4133.84615385 , 4146.15384615 , 4134.87179487 , 4134.35897436 , 4135.8974359 , 4135.8974359 , 4141.53846154 , 4140.51282051 , 4151.28205128 , 4186.15384615 , 4698.97435897 , 4141.53846154 , 4139.48717949 , 2062.0 , 2029.0 , 8.934 , 0.0 , 0.0 , 0.0 , 0.0 , 

41.0 , 4132.30769231 , 4131.28205128 , 4150.25641026 , 4134.35897436 , 4134.87179487 , 4135.8974359 , 4135.8974359 , 4138.97435897 , 4140.51282051 , 4152.30769231 , 4184.1025641 , 4696.41025641 , 4139.48717949 , 4141.02564103 , 2058.0 , 2030.0 , 8.942 , 0.0 , 0.0 , 0.0 , 0.0 , 

42.0 , 4134.35897436 , 4132.82051282 , 4144.1025641 , 4135.38461538 , 4134.35897436 , 4135.8974359 , 4135.8974359 , 4141.53846154 , 4140.0 , 4147.69230769 , 4180.0 , 4694.35897436 , 4135.38461538 , 4140.0 , 2058.0 , 2031.0 , 8.949 , 0.0 , 0.0 , 0.0 , 0.0 , 

43.0 , 4131.79487179 , 4132.82051282 , 4126.66666667 , 4135.38461538 , 4134.35897436 , 4135.8974359 , 4135.8974359 , 4138.97435897 , 4139.48717949 , 4144.1025641 , 4179.48717949 , 4690.76923077 , 4133.33333333 , 4136.41025641 , 2056.0 , 2032.0 , 8.957 , 0.0 , 0.0 , 0.0 , 0.0 , 

44.0 , 4132.82051282 , 4132.82051282 , 4112.82051282 , 4134.35897436 , 4134.35897436 , 4135.8974359 , 4135.8974359 , 4134.35897436 , 4139.48717949 , 4144.1025641 , 4178.97435897 , 4691.79487179 , 4132.82051282 , 4135.8974359 , 2057.0 , 2033.0 , 8.965 , 0.0 , 0.0 , 0.0 , 0.0 , 

45.0 , 4137.43589744 , 4136.41025641 , 4092.82051282 , 4134.35897436 , 4134.35897436 , 4135.8974359 , 4135.8974359 , 4130.76923077 , 4135.8974359 , 4144.61538462 , 4177.43589744 , 4690.25641026 , 4130.25641026 , 4135.8974359 , 2056.0 , 2034.0 , 8.975 , 0.0 , 0.0 , 0.0 , 0.0 , 

46.0 , 4136.92307692 , 4136.92307692 , 4073.84615385 , 4134.35897436 , 4134.35897436 , 4135.8974359 , 4135.8974359 , 4131.79487179 , 4137.94871795 , 4140.51282051 , 4176.92307692 , 4683.58974359 , 4128.71794872 , 4137.43589744 , 2055.0 , 2034.0 , 8.982 , 0.0 , 0.0 , 0.0 , 0.0 , 

47.0 , 4135.38461538 , 4132.30769231 , 4055.38461538 , 4134.35897436 , 4134.35897436 , 4135.8974359 , 4135.8974359 , 4130.76923077 , 4138.97435897 , 4136.41025641 , 4176.41025641 , 4682.05128205 , 4127.17948718 , 4136.41025641 , 2056.0 , 2033.0 , 8.989 , 0.0 , 0.0 , 0.0 , 0.0 , 

48.0 , 4135.8974359 , 4132.30769231 , 4043.07692308 , 4134.35897436 , 4134.35897436 , 4135.8974359 , 4135.8974359 , 4129.23076923 , 4133.84615385 , 4136.92307692 , 4178.97435897 , 4685.12820513 , 4126.66666667 , 4133.84615385 , 2052.0 , 2033.0 , 8.997 , 0.0 , 0.0 , 0.0 , 0.0 , 

49.0 , 4134.35897436 , 4138.46153846 , 4033.33333333 , 4134.35897436 , 4134.35897436 , 4135.8974359 , 4135.8974359 , 4129.23076923 , 4129.23076923 , 4137.43589744 , 4177.43589744 , 4682.56410256 , 4127.17948718 , 4133.84615385 , 2052.0 , 2034.0 , 9.005 , 0.0 , 0.0 , 0.0 , 0.0 , 

50.0 , 4133.33333333 , 4133.33333333 , 4025.12820513 , 4134.35897436 , 4134.35897436 , 4135.8974359 , 4135.8974359 , 4130.25641026 , 4131.28205128 , 4137.94871795 , 4172.30769231 , 4680.0 , 4124.61538462 , 4134.87179487 , 2047.0 , 2035.0 , 9.012 , 0.0 , 0.0 , 0.0 , 0.0 , 

51.0 , 4135.38461538 , 4127.17948718 , 4016.92307692 , 4134.35897436 , 4134.35897436 , 4135.8974359 , 4135.8974359 , 4131.28205128 , 4133.33333333 , 4135.8974359 , 4172.30769231 , 4678.97435897 , 4125.64102564 , 4133.84615385 , 2045.0 , 2035.0 , 9.02 , 0.0 , 0.0 , 0.0 , 0.0 , 

52.0 , 4134.35897436 , 4130.76923077 , 4011.79487179 , 4134.35897436 , 4134.35897436 , 4135.8974359 , 4135.8974359 , 4131.28205128 , 4130.76923077 , 4136.92307692 , 4174.87179487 , 4676.41025641 , 4130.25641026 , 4131.79487179 , 2042.0 , 2032.0 , 9.028 , 0.0 , 0.0 , 0.0 , 0.0 , 

53.0 , 4132.30769231 , 4135.8974359 , 4008.20512821 , 4133.84615385 , 4134.35897436 , 4135.8974359 , 4135.8974359 , 4129.74358974 , 4132.30769231 , 4137.43589744 , 4174.35897436 , 4674.87179487 , 4130.25641026 , 4132.82051282 , 2041.0 , 2033.0 , 9.036 , 0.0 , 0.0 , 0.0 , 0.0 , 

54.0 , 4134.35897436 , 4135.38461538 , 4010.76923077 , 4135.38461538 , 4134.87179487 , 4135.8974359 , 4135.8974359 , 4130.25641026 , 4137.43589744 , 4137.94871795 , 4174.87179487 , 4672.30769231 , 4127.17948718 , 4136.92307692 , 2040.0 , 2033.0 , 9.044 , 0.0 , 0.0 , 0.0 , 0.0 , 

55.0 , 4137.43589744 , 4130.76923077 , 4023.07692308 , 4135.8974359 , 4134.35897436 , 4135.8974359 , 4135.8974359 , 4132.30769231 , 4139.48717949 , 4141.02564103 , 4177.43589744 , 4668.71794872 , 4129.74358974 , 4138.97435897 , 2038.0 , 2036.0 , 9.052 , 0.0 , 0.0 , 0.0 , 0.0 , 

56.0 , 4136.92307692 , 4128.71794872 , 4039.48717949 , 4134.87179487 , 4134.35897436 , 4135.8974359 , 4135.8974359 , 4132.82051282 , 4138.46153846 , 4143.58974359 , 4178.97435897 , 4668.20512821 , 4132.82051282 , 4137.94871795 , 2036.0 , 2037.0 , 9.06 , 0.0 , 0.0 , 0.0 , 0.0 , 

57.0 , 4133.33333333 , 4134.87179487 , 4052.30769231 , 4134.35897436 , 4135.38461538 , 4135.8974359 , 4135.8974359 , 4133.33333333 , 4138.46153846 , 4144.61538462 , 4178.46153846 , 4669.74358974 , 4132.30769231 , 4139.48717949 , 2036.0 , 2036.0 , 9.068 , 0.0 , 0.0 , 0.0 , 0.0 , 

58.0 , 4135.38461538 , 4139.48717949 , 4057.94871795 , 4134.87179487 , 4135.8974359 , 4135.8974359 , 4135.8974359 , 4136.41025641 , 4139.48717949 , 4143.58974359 , 4179.48717949 , 4668.20512821 , 4132.30769231 , 4141.02564103 , 2035.0 , 2037.0 , 9.076 , 0.0 , 0.0 , 0.0 , 0.0 , 

59.0 , 4138.46153846 , 4129.23076923 , 4061.53846154 , 4134.87179487 , 4136.41025641 , 4135.8974359 , 4135.8974359 , 4138.46153846 , 4137.43589744 , 4145.64102564 , 4181.53846154 , 4665.64102564 , 4133.33333333 , 4137.43589744 , 2038.0 , 2039.0 , 9.083 , 0.0 , 0.0 , 0.0 , 0.0 , 

60.0 , 4132.30769231 , 4124.1025641 , 4069.23076923 , 4134.35897436 , 4135.8974359 , 4135.8974359 , 4135.8974359 , 4137.94871795 , 4138.46153846 , 4146.66666667 , 4179.48717949 , 4664.61538462 , 4133.84615385 , 4135.8974359 , 2037.0 , 2038.0 , 9.091 , 0.0 , 0.0 , 0.0 , 0.0 , 

61.0 , 4127.17948718 , 4135.38461538 , 4073.84615385 , 4134.35897436 , 4135.8974359 , 4135.8974359 , 4135.8974359 , 4137.94871795 , 4139.48717949 , 4146.15384615 , 4175.38461538 , 4666.15384615 , 4135.38461538 , 4139.48717949 , 2038.0 , 2037.0 , 9.1 , 0.0 , 0.0 , 0.0 , 0.0 , 

62.0 , 4130.25641026 , 4138.46153846 , 4062.56410256 , 4134.35897436 , 4135.8974359 , 4135.8974359 , 4135.8974359 , 4135.38461538 , 4137.43589744 , 4144.1025641 , 4176.41025641 , 4664.1025641 , 4134.87179487 , 4138.97435897 , 2037.0 , 2036.0 , 9.107 , 0.0 , 0.0 , 0.0 , 0.0 , 

63.0 , 4136.41025641 , 4133.33333333 , 4051.28205128 , 4134.87179487 , 4136.41025641 , 4135.8974359 , 4135.8974359 , 4132.82051282 , 4136.92307692 , 4142.56410256 , 4177.94871795 , 4659.48717949 , 4134.35897436 , 4137.94871795 , 2038.0 , 2035.0 , 9.116 , 0.0 , 0.0 , 0.0 , 0.0 , 

64.0 , 4135.8974359 , 4134.87179487 , 4044.1025641 , 4134.87179487 , 4135.8974359 , 4135.8974359 , 4135.8974359 , 4131.79487179 , 4137.43589744 , 4143.58974359 , 4172.82051282 , 4655.8974359 , 4133.33333333 , 4134.87179487 , 2037.0 , 2033.0 , 9.124 , 0.0 , 0.0 , 0.0 , 0.0 , 

65.0 , 4135.38461538 , 4136.41025641 , 4033.33333333 , 4133.84615385 , 4134.35897436 , 4135.8974359 , 4135.8974359 , 4131.79487179 , 4137.43589744 , 4140.51282051 , 4172.30769231 , 4653.84615385 , 4130.76923077 , 4132.30769231 , 2037.0 , 2032.0 , 9.132 , 0.0 , 0.0 , 0.0 , 0.0 , 

66.0 , 4136.41025641 , 4132.30769231 , 4012.82051282 , 4135.38461538 , 4134.35897436 , 4135.8974359 , 4135.8974359 , 4129.23076923 , 4133.84615385 , 4136.41025641 , 4177.43589744 , 4650.25641026 , 4127.17948718 , 4131.79487179 , 2038.0 , 2032.0 , 9.139 , 0.0 , 0.0 , 0.0 , 0.0 , 

67.0 , 4136.41025641 , 4132.30769231 , 3995.8974359 , 4134.35897436 , 4134.35897436 , 4135.8974359 , 4135.8974359 , 4127.69230769 , 4130.76923077 , 4137.43589744 , 4176.41025641 , 4646.66666667 , 4126.66666667 , 4132.30769231 , 2039.0 , 2032.0 , 9.146 , 0.0 , 0.0 , 0.0 , 0.0 , 

68.0 , 4135.8974359 , 4136.92307692 , 3997.43589744 , 4132.30769231 , 4134.35897436 , 4135.8974359 , 4135.8974359 , 4130.25641026 , 4132.30769231 , 4136.92307692 , 4173.84615385 , 4645.12820513 , 4127.69230769 , 4133.84615385 , 2039.0 , 2035.0 , 9.154 , 0.0 , 0.0 , 0.0 , 0.0 , 

69.0 , 4135.8974359 , 4134.87179487 , 4010.25641026 , 4133.33333333 , 4134.35897436 , 4135.8974359 , 4135.8974359 , 4131.28205128 , 4137.43589744 , 4137.43589744 , 4176.92307692 , 4644.61538462 , 4129.23076923 , 4134.87179487 , 2039.0 , 2034.0 , 9.162 , 0.0 , 0.0 , 0.0 , 0.0 , 

70.0 , 4135.8974359 , 4130.76923077 , 4017.94871795 , 4136.92307692 , 4134.35897436 , 4135.8974359 , 4135.8974359 , 4130.25641026 , 4137.94871795 , 4140.0 , 4175.38461538 , 4641.53846154 , 4130.76923077 , 4135.8974359 , 2039.0 , 2036.0 , 9.171 , 0.0 , 0.0 , 0.0 , 0.0 , 

71.0 , 4135.8974359 , 4131.79487179 , 4030.25641026 , 4135.8974359 , 4133.84615385 , 4135.8974359 , 4135.8974359 , 4136.41025641 , 4135.8974359 , 4142.05128205 , 4175.38461538 , 4642.05128205 , 4131.79487179 , 4138.46153846 , 2041.0 , 2037.0 , 9.178 , 0.0 , 0.0 , 0.0 , 0.0 , 

72.0 , 4136.41025641 , 4136.41025641 , 4047.69230769 , 4131.79487179 , 4134.35897436 , 4135.8974359 , 4135.8974359 , 4140.51282051 , 4138.46153846 , 4143.07692308 , 4180.51282051 , 4641.53846154 , 4133.33333333 , 4138.46153846 , 2041.0 , 2038.0 , 9.186 , 0.0 , 0.0 , 0.0 , 0.0 , 

73.0 , 4135.38461538 , 4137.43589744 , 4057.43589744 , 4131.79487179 , 4135.8974359 , 4135.8974359 , 4135.8974359 , 4137.94871795 , 4141.53846154 , 4145.12820513 , 4180.0 , 4638.46153846 , 4135.38461538 , 4139.48717949 , 2042.0 , 2040.0 , 9.195 , 0.0 , 0.0 , 0.0 , 0.0 , 

74.0 , 4135.8974359 , 4132.30769231 , 4058.97435897 , 4133.84615385 , 4136.41025641 , 4135.8974359 , 4135.8974359 , 4137.43589744 , 4139.48717949 , 4146.66666667 , 4175.8974359 , 4637.43589744 , 4134.87179487 , 4140.0 , 2042.0 , 2039.0 , 9.202 , 0.0 , 0.0 , 0.0 , 0.0 , 

75.0 , 4137.43589744 , 4130.25641026 , 4063.07692308 , 4135.38461538 , 4135.38461538 , 4135.8974359 , 4135.8974359 , 4140.51282051 , 4135.8974359 , 4146.15384615 , 4176.92307692 , 4637.43589744 , 4133.84615385 , 4139.48717949 , 2043.0 , 2038.0 , 9.21 , 0.0 , 0.0 , 0.0 , 0.0 , 

76.0 , 4133.84615385 , 4133.84615385 , 4070.25641026 , 4134.87179487 , 4134.87179487 , 4135.8974359 , 4135.8974359 , 4138.97435897 , 4140.51282051 , 4146.15384615 , 4177.94871795 , 4633.84615385 , 4134.35897436 , 4139.48717949 , 2044.0 , 2038.0 , 9.217 , 0.0 , 0.0 , 0.0 , 0.0 , 

77.0 , 4130.76923077 , 4132.82051282 , 4075.8974359 , 4134.35897436 , 4134.87179487 , 4135.8974359 , 4135.8974359 , 4138.97435897 , 4146.15384615 , 4144.1025641 , 4177.43589744 , 4631.79487179 , 4133.33333333 , 4139.48717949 , 2044.0 , 2038.0 , 9.226 , 0.0 , 0.0 , 0.0 , 0.0 , 

78.0 , 4134.35897436 , 4129.23076923 , 4081.53846154 , 4135.8974359 , 4134.87179487 , 4135.8974359 , 4135.8974359 , 4141.53846154 , 4141.02564103 , 4144.61538462 , 4178.46153846 , 4633.84615385 , 4133.33333333 , 4137.94871795 , 2043.0 , 2036.0 , 9.235 , 0.0 , 0.0 , 0.0 , 0.0 , 

79.0 , 4137.94871795 , 4128.71794872 , 4093.84615385 , 4135.8974359 , 4135.38461538 , 4135.8974359 , 4135.8974359 , 4141.02564103 , 4135.38461538 , 4147.17948718 , 4178.46153846 , 4631.28205128 , 4135.8974359 , 4137.94871795 , 2041.0 , 2035.0 , 9.241 , 0.0 , 0.0 , 0.0 , 0.0 , 

80.0 , 4132.82051282 , 4130.25641026 , 4108.71794872 , 4135.38461538 , 4135.38461538 , 4135.8974359 , 4135.8974359 , 4140.0 , 4140.0 , 4148.20512821 , 4177.43589744 , 4628.20512821 , 4134.35897436 , 4141.02564103 , 2042.0 , 2033.0 , 9.249 , 0.0 , 0.0 , 0.0 , 0.0 , 

81.0 , 4132.30769231 , 4131.28205128 , 4115.8974359 , 4134.87179487 , 4134.87179487 , 4135.8974359 , 4135.8974359 , 4137.94871795 , 4140.51282051 , 4145.64102564 , 4177.43589744 , 4629.23076923 , 4134.35897436 , 4138.97435897 , 2042.0 , 2031.0 , 9.257 , 0.0 , 0.0 , 0.0 , 0.0 , 

82.0 , 4135.8974359 , 4129.23076923 , 4123.58974359 , 4135.38461538 , 4135.38461538 , 4135.8974359 , 4135.8974359 , 4138.46153846 , 4138.97435897 , 4145.12820513 , 4179.48717949 , 4630.25641026 , 4140.51282051 , 4138.97435897 , 2041.0 , 2031.0 , 9.265 , 0.0 , 0.0 , 0.0 , 0.0 , 

83.0 , 4133.84615385 , 4128.20512821 , 4133.84615385 , 4135.38461538 , 4135.38461538 , 4135.8974359 , 4135.8974359 , 4141.02564103 , 4142.56410256 , 4147.69230769 , 4179.48717949 , 4626.15384615 , 4139.48717949 , 4141.53846154 , 2039.0 , 2029.0 , 9.272 , 0.0 , 0.0 , 0.0 , 0.0 , 

84.0 , 4133.33333333 , 4133.84615385 , 4149.74358974 , 4134.87179487 , 4135.38461538 , 4135.8974359 , 4135.8974359 , 4143.07692308 , 4144.61538462 , 4148.71794872 , 4179.48717949 , 4627.69230769 , 4133.84615385 , 4141.53846154 , 2038.0 , 2030.0 , 9.28 , 0.0 , 0.0 , 0.0 , 0.0 , 

85.0 , 4135.8974359 , 4137.94871795 , 4168.71794872 , 4134.87179487 , 4135.38461538 , 4135.8974359 , 4135.8974359 , 4143.58974359 , 4144.1025641 , 4147.17948718 , 4179.48717949 , 4630.25641026 , 4137.43589744 , 4140.0 , 2039.0 , 2029.0 , 9.289 , 0.0 , 0.0 , 0.0 , 0.0 , 

86.0 , 4136.41025641 , 4136.41025641 , 4180.0 , 4135.38461538 , 4135.38461538 , 4135.8974359 , 4135.8974359 , 4143.58974359 , 4145.12820513 , 4147.69230769 , 4180.51282051 , 4628.71794872 , 4141.53846154 , 4142.56410256 , 2039.0 , 2030.0 , 9.296 , 0.0 , 0.0 , 0.0 , 0.0 , 

87.0 , 4134.87179487 , 4133.33333333 , 4182.05128205 , 4135.38461538 , 4134.87179487 , 4135.8974359 , 4135.8974359 , 4141.53846154 , 4143.58974359 , 4147.17948718 , 4180.0 , 4629.23076923 , 4136.41025641 , 4144.1025641 , 2036.0 , 2031.0 , 9.304 , 0.0 , 0.0 , 0.0 , 0.0 , 

88.0 , 4135.38461538 , 4131.79487179 , 4189.74358974 , 4134.87179487 , 4134.87179487 , 4135.8974359 , 4135.8974359 , 4140.51282051 , 4140.51282051 , 4148.20512821 , 4182.05128205 , 4633.33333333 , 4134.87179487 , 4141.53846154 , 2035.0 , 2032.0 , 9.312 , 0.0 , 0.0 , 0.0 , 0.0 , 

89.0 , 4135.38461538 , 4134.35897436 , 4195.8974359 , 4134.87179487 , 4135.8974359 , 4135.8974359 , 4135.8974359 , 4142.56410256 , 4142.56410256 , 4148.20512821 , 4181.02564103 , 4630.25641026 , 4137.43589744 , 4137.94871795 , 2036.0 , 2033.0 , 9.32 , 0.0 , 0.0 , 0.0 , 0.0 , 

90.0 , 4134.87179487 , 4136.41025641 , 4198.46153846 , 4135.8974359 , 4135.8974359 , 4135.8974359 , 4135.8974359 , 4144.1025641 , 4144.61538462 , 4146.66666667 , 4179.48717949 , 4628.20512821 , 4138.46153846 , 4138.46153846 , 2035.0 , 2033.0 , 9.328 , 0.0 , 0.0 , 0.0 , 0.0 , 

91.0 , 4136.41025641 , 4133.84615385 , 4203.58974359 , 4133.33333333 , 4134.87179487 , 4135.8974359 , 4135.8974359 , 4141.53846154 , 4138.46153846 , 4146.15384615 , 4179.48717949 , 4632.30769231 , 4137.94871795 , 4138.46153846 , 2035.0 , 2031.0 , 9.336 , 0.0 , 0.0 , 0.0 , 0.0 , 

92.0 , 4135.8974359 , 4132.30769231 , 4211.79487179 , 4131.28205128 , 4134.35897436 , 4135.8974359 , 4135.8974359 , 4138.46153846 , 4135.8974359 , 4148.20512821 , 4178.46153846 , 4633.84615385 , 4137.43589744 , 4135.8974359 , 2033.0 , 2031.0 , 9.343 , 0.0 , 0.0 , 0.0 , 0.0 , 

93.0 , 4136.41025641 , 4133.33333333 , 4220.0 , 4133.33333333 , 4134.87179487 , 4135.8974359 , 4135.8974359 , 4138.46153846 , 4142.56410256 , 4146.66666667 , 4177.94871795 , 4631.79487179 , 4135.8974359 , 4138.97435897 , 2033.0 , 2031.0 , 9.351 , 0.0 , 0.0 , 0.0 , 0.0 , 

94.0 , 4135.8974359 , 4133.33333333 , 4230.25641026 , 4134.87179487 , 4134.35897436 , 4135.8974359 , 4135.8974359 , 4140.51282051 , 4146.66666667 , 4145.64102564 , 4180.51282051 , 4632.82051282 , 4137.94871795 , 4142.56410256 , 2030.0 , 2029.0 , 9.359 , 0.0 , 0.0 , 0.0 , 0.0 , 

95.0 , 4135.38461538 , 4132.30769231 , 4236.92307692 , 4133.84615385 , 4134.35897436 , 4135.8974359 , 4135.8974359 , 4141.02564103 , 4140.51282051 , 4147.69230769 , 4181.53846154 , 4635.8974359 , 4140.0 , 4142.56410256 , 2031.0 , 2027.0 , 9.367 , 0.0 , 0.0 , 0.0 , 0.0 , 

96.0 , 4136.92307692 , 4132.30769231 , 4237.43589744 , 4134.87179487 , 4134.35897436 , 4135.8974359 , 4135.8974359 , 4141.53846154 , 4137.43589744 , 4145.12820513 , 4179.48717949 , 4634.35897436 , 4133.33333333 , 4142.56410256 , 2029.0 , 2029.0 , 9.376 , 0.0 , 0.0 , 0.0 , 0.0 , 

97.0 , 4135.38461538 , 4135.38461538 , 4228.20512821 , 4135.8974359 , 4134.35897436 , 4135.8974359 , 4135.8974359 , 4141.02564103 , 4137.43589744 , 4142.56410256 , 4178.97435897 , 4634.87179487 , 4128.71794872 , 4143.58974359 , 2030.0 , 2030.0 , 9.383 , 0.0 , 0.0 , 0.0 , 0.0 , 

98.0 , 4131.79487179 , 4136.41025641 , 4214.87179487 , 4135.38461538 , 4134.35897436 , 4135.8974359 , 4135.8974359 , 4137.43589744 , 4135.8974359 , 4145.12820513 , 4178.97435897 , 4637.94871795 , 4129.74358974 , 4137.43589744 , 2030.0 , 2033.0 , 9.391 , 0.0 , 0.0 , 0.0 , 0.0 , 

99.0 , 4132.82051282 , 4134.35897436 , 4213.33333333 , 4135.8974359 , 4134.35897436 , 4135.8974359 , 4135.8974359 , 4135.8974359 , 4134.35897436 , 4145.64102564 , 4178.46153846 , 4638.46153846 , 4131.28205128 , 4132.30769231 , 2030.0 , 2034.0 , 9.399 , 0.0 , 0.0 , 0.0 , 0.0 , 

100.0 , 4137.43589744 , 4135.38461538 , 4217.43589744 , 4136.41025641 , 4134.35897436 , 4135.8974359 , 4135.8974359 , 4135.38461538 , 4136.92307692 , 4142.56410256 , 4176.41025641 , 4640.0 , 4128.71794872 , 4136.41025641 , 2030.0 , 2035.0 , 9.406 , 0.0 , 0.0 , 0.0 , 0.0 , 

