['COUNTER', 'AF3', 'F7', 'F3', 'FC5', 'T7', 'P7', 'O1', 'O2', 'P8', 'T8', 'FC6', 'F4', 'F8', 'AF4', 'GYROX', 'GYROY', 'TIMESTAMP', 'FUNC_ID', 'FUNC_VALUE', 'MARKER', 'SYNC_SIGNAL']
52.0 , 4137.43589744 , 4128.20512821 , 4221.02564103 , 4136.92307692 , 4134.35897436 , 4134.87179487 , 4135.8974359 , 4137.94871795 , 4136.41025641 , 4139.48717949 , 4154.87179487 , 4546.15384615 , 4137.43589744 , 4136.41025641 , 2037.0 , 2035.0 , 6.03 , 0.0 , 0.0 , 0.0 , 0.0 , 

53.0 , 4137.94871795 , 4132.30769231 , 4215.8974359 , 4136.41025641 , 4134.35897436 , 4134.87179487 , 4135.8974359 , 4132.30769231 , 4136.92307692 , 4138.46153846 , 4155.8974359 , 4552.82051282 , 4134.35897436 , 4135.38461538 , 2038.0 , 2032.0 , 6.038 , 0.0 , 0.0 , 0.0 , 0.0 , 

54.0 , 4136.92307692 , 4135.8974359 , 4218.46153846 , 4136.92307692 , 4134.35897436 , 4134.87179487 , 4131.28205128 , 4132.30769231 , 4136.92307692 , 4139.48717949 , 4157.94871795 , 4554.87179487 , 4133.84615385 , 4137.43589744 , 2038.0 , 2030.0 , 6.046 , 0.0 , 0.0 , 0.0 , 0.0 , 

55.0 , 4135.8974359 , 4132.30769231 , 4211.28205128 , 4138.46153846 , 4134.35897436 , 4135.8974359 , 4130.76923077 , 4133.84615385 , 4136.41025641 , 4138.46153846 , 4156.92307692 , 4551.79487179 , 4134.35897436 , 4137.94871795 , 2040.0 , 2028.0 , 6.054 , 0.0 , 0.0 , 0.0 , 0.0 , 

56.0 , 4135.8974359 , 4131.28205128 , 4215.38461538 , 4137.43589744 , 4134.35897436 , 4134.87179487 , 4126.66666667 , 4133.84615385 , 4138.46153846 , 4140.51282051 , 4155.38461538 , 4557.94871795 , 4137.94871795 , 4138.97435897 , 2039.0 , 2029.0 , 6.062 , 0.0 , 0.0 , 0.0 , 0.0 , 

57.0 , 4136.41025641 , 4135.8974359 , 4207.17948718 , 4136.41025641 , 4134.35897436 , 4130.76923077 , 4123.58974359 , 4129.74358974 , 4137.43589744 , 4139.48717949 , 4154.87179487 , 4560.0 , 4134.87179487 , 4135.38461538 , 2038.0 , 2029.0 , 6.07 , 0.0 , 0.0 , 0.0 , 0.0 , 

58.0 , 4136.41025641 , 4133.84615385 , 4197.43589744 , 4137.43589744 , 4134.35897436 , 4131.79487179 , 4132.82051282 , 4131.28205128 , 4136.41025641 , 4138.97435897 , 4153.84615385 , 4558.46153846 , 4131.79487179 , 4134.87179487 , 2037.0 , 2030.0 , 6.078 , 0.0 , 0.0 , 0.0 , 0.0 , 

59.0 , 4136.92307692 , 4128.20512821 , 4187.69230769 , 4137.94871795 , 4134.35897436 , 4135.38461538 , 4137.43589744 , 4130.25641026 , 4136.92307692 , 4138.97435897 , 4154.87179487 , 4560.51282051 , 4129.23076923 , 4134.35897436 , 2038.0 , 2032.0 , 6.085 , 0.0 , 0.0 , 0.0 , 0.0 , 

60.0 , 4135.8974359 , 4129.74358974 , 4172.30769231 , 4137.43589744 , 4134.35897436 , 4134.87179487 , 4132.82051282 , 4129.23076923 , 4136.41025641 , 4136.92307692 , 4156.92307692 , 4562.56410256 , 4129.74358974 , 4132.30769231 , 2037.0 , 2031.0 , 6.094 , 0.0 , 0.0 , 0.0 , 0.0 , 

61.0 , 4135.8974359 , 4130.25641026 , 4170.25641026 , 4136.92307692 , 4134.35897436 , 4133.84615385 , 4132.82051282 , 4129.74358974 , 4133.84615385 , 4135.38461538 , 4153.33333333 , 4561.02564103 , 4130.25641026 , 4129.74358974 , 2039.0 , 2032.0 , 6.103 , 0.0 , 0.0 , 0.0 , 0.0 , 

62.0 , 4135.8974359 , 4130.25641026 , 4162.56410256 , 4135.8974359 , 4134.35897436 , 4135.38461538 , 4136.92307692 , 4128.71794872 , 4132.30769231 , 4136.92307692 , 4151.28205128 , 4560.51282051 , 4129.23076923 , 4132.82051282 , 2041.0 , 2032.0 , 6.11 , 0.0 , 0.0 , 0.0 , 0.0 , 

63.0 , 4134.35897436 , 4134.87179487 , 4165.12820513 , 4136.41025641 , 4134.35897436 , 4135.38461538 , 4135.38461538 , 4129.74358974 , 4133.84615385 , 4138.46153846 , 4156.41025641 , 4561.53846154 , 4128.20512821 , 4133.84615385 , 2041.0 , 2034.0 , 6.118 , 0.0 , 0.0 , 0.0 , 0.0 , 

64.0 , 4133.84615385 , 4134.35897436 , 4160.51282051 , 4137.94871795 , 4134.35897436 , 4134.35897436 , 4134.35897436 , 4129.74358974 , 4137.94871795 , 4138.97435897 , 4159.48717949 , 4563.07692308 , 4128.20512821 , 4129.74358974 , 2043.0 , 2034.0 , 6.124 , 0.0 , 0.0 , 0.0 , 0.0 , 

65.0 , 4135.8974359 , 4131.28205128 , 4162.56410256 , 4137.94871795 , 4134.35897436 , 4134.87179487 , 4134.35897436 , 4130.25641026 , 4140.0 , 4141.02564103 , 4156.41025641 , 4564.61538462 , 4131.28205128 , 4130.25641026 , 2044.0 , 2035.0 , 6.133 , 0.0 , 0.0 , 0.0 , 0.0 , 

66.0 , 4136.41025641 , 4133.84615385 , 4146.15384615 , 4136.92307692 , 4134.35897436 , 4135.38461538 , 4134.35897436 , 4128.71794872 , 4132.82051282 , 4140.0 , 4150.76923077 , 4563.07692308 , 4130.76923077 , 4131.28205128 , 2043.0 , 2033.0 , 6.141 , 0.0 , 0.0 , 0.0 , 0.0 , 

67.0 , 4135.38461538 , 4136.41025641 , 4127.69230769 , 4136.92307692 , 4134.35897436 , 4135.38461538 , 4134.35897436 , 4128.20512821 , 4129.74358974 , 4136.92307692 , 4152.30769231 , 4563.07692308 , 4128.71794872 , 4130.76923077 , 2045.0 , 2032.0 , 6.149 , 0.0 , 0.0 , 0.0 , 0.0 , 

68.0 , 4135.8974359 , 4134.35897436 , 4111.28205128 , 4137.43589744 , 4134.35897436 , 4134.87179487 , 4134.35897436 , 4129.74358974 , 4131.79487179 , 4135.38461538 , 4157.94871795 , 4564.61538462 , 4126.66666667 , 4131.28205128 , 2045.0 , 2031.0 , 6.157 , 0.0 , 0.0 , 0.0 , 0.0 , 

69.0 , 4136.41025641 , 4135.38461538 , 4100.51282051 , 4137.43589744 , 4134.35897436 , 4135.38461538 , 4134.35897436 , 4130.25641026 , 4130.76923077 , 4135.38461538 , 4156.41025641 , 4563.58974359 , 4127.17948718 , 4132.82051282 , 2044.0 , 2032.0 , 6.165 , 0.0 , 0.0 , 0.0 , 0.0 , 

70.0 , 4135.8974359 , 4136.41025641 , 4092.82051282 , 4135.38461538 , 4134.35897436 , 4135.38461538 , 4134.35897436 , 4128.71794872 , 4131.79487179 , 4133.84615385 , 4150.25641026 , 4561.53846154 , 4130.25641026 , 4132.82051282 , 2045.0 , 2032.0 , 6.173 , 0.0 , 0.0 , 0.0 , 0.0 , 

71.0 , 4135.8974359 , 4134.87179487 , 4075.8974359 , 4135.8974359 , 4134.35897436 , 4135.38461538 , 4134.35897436 , 4126.66666667 , 4134.35897436 , 4131.79487179 , 4151.79487179 , 4562.56410256 , 4126.15384615 , 4131.79487179 , 2045.0 , 2035.0 , 6.181 , 0.0 , 0.0 , 0.0 , 0.0 , 

72.0 , 4135.38461538 , 4133.33333333 , 4056.41025641 , 4137.43589744 , 4134.35897436 , 4135.38461538 , 4134.35897436 , 4125.64102564 , 4131.28205128 , 4133.33333333 , 4153.84615385 , 4560.51282051 , 4121.53846154 , 4131.79487179 , 2045.0 , 2034.0 , 6.189 , 0.0 , 0.0 , 0.0 , 0.0 , 

73.0 , 4135.38461538 , 4132.82051282 , 4049.23076923 , 4136.92307692 , 4134.35897436 , 4135.38461538 , 4134.35897436 , 4126.66666667 , 4128.71794872 , 4135.8974359 , 4149.74358974 , 4558.97435897 , 4123.58974359 , 4131.79487179 , 2046.0 , 2034.0 , 6.196 , 0.0 , 0.0 , 0.0 , 0.0 , 

74.0 , 4135.8974359 , 4133.33333333 , 4044.61538462 , 4135.38461538 , 4134.35897436 , 4135.38461538 , 4134.35897436 , 4129.74358974 , 4130.25641026 , 4135.8974359 , 4150.76923077 , 4561.53846154 , 4127.17948718 , 4131.79487179 , 2047.0 , 2032.0 , 6.203 , 0.0 , 0.0 , 0.0 , 0.0 , 

75.0 , 4136.92307692 , 4136.41025641 , 4033.33333333 , 4136.41025641 , 4134.35897436 , 4135.38461538 , 4134.35897436 , 4130.25641026 , 4130.76923077 , 4136.41025641 , 4154.87179487 , 4561.02564103 , 4126.66666667 , 4130.76923077 , 2048.0 , 2034.0 , 6.212 , 0.0 , 0.0 , 0.0 , 0.0 , 

76.0 , 4136.41025641 , 4137.43589744 , 4021.53846154 , 4136.41025641 , 4134.35897436 , 4135.38461538 , 4134.35897436 , 4128.20512821 , 4129.74358974 , 4136.41025641 , 4153.33333333 , 4556.92307692 , 4124.61538462 , 4128.71794872 , 2048.0 , 2036.0 , 6.22 , 0.0 , 0.0 , 0.0 , 0.0 , 

77.0 , 4136.41025641 , 4133.84615385 , 4017.94871795 , 4135.8974359 , 4134.35897436 , 4135.38461538 , 4134.35897436 , 4128.71794872 , 4130.25641026 , 4136.41025641 , 4152.82051282 , 4557.94871795 , 4125.64102564 , 4130.76923077 , 2047.0 , 2036.0 , 6.228 , 0.0 , 0.0 , 0.0 , 0.0 , 

78.0 , 4135.8974359 , 4131.28205128 , 4012.82051282 , 4135.8974359 , 4134.35897436 , 4135.38461538 , 4134.35897436 , 4129.23076923 , 4128.71794872 , 4136.41025641 , 4154.35897436 , 4554.87179487 , 4127.69230769 , 4133.33333333 , 2049.0 , 2037.0 , 6.236 , 0.0 , 0.0 , 0.0 , 0.0 , 

79.0 , 4134.87179487 , 4133.33333333 , 4008.20512821 , 4135.8974359 , 4133.84615385 , 4135.38461538 , 4134.35897436 , 4129.23076923 , 4130.25641026 , 4132.82051282 , 4154.35897436 , 4549.74358974 , 4128.71794872 , 4132.82051282 , 2049.0 , 2038.0 , 6.244 , 0.0 , 0.0 , 0.0 , 0.0 , 

80.0 , 4135.8974359 , 4135.38461538 , 4008.71794872 , 4135.8974359 , 4135.8974359 , 4135.38461538 , 4134.35897436 , 4129.74358974 , 4131.79487179 , 4132.30769231 , 4152.82051282 , 4551.28205128 , 4125.64102564 , 4130.76923077 , 2048.0 , 2037.0 , 6.251 , 0.0 , 0.0 , 0.0 , 0.0 , 

81.0 , 4137.43589744 , 4135.8974359 , 4013.33333333 , 4135.8974359 , 4136.41025641 , 4135.38461538 , 4134.35897436 , 4130.25641026 , 4130.76923077 , 4135.8974359 , 4154.35897436 , 4551.79487179 , 4125.64102564 , 4131.28205128 , 2049.0 , 2037.0 , 6.258 , 0.0 , 0.0 , 0.0 , 0.0 , 

82.0 , 4136.41025641 , 4135.38461538 , 4008.71794872 , 4135.8974359 , 4135.38461538 , 4135.38461538 , 4134.35897436 , 4129.23076923 , 4130.76923077 , 4135.38461538 , 4156.41025641 , 4547.17948718 , 4129.23076923 , 4129.74358974 , 2050.0 , 2038.0 , 6.266 , 0.0 , 0.0 , 0.0 , 0.0 , 

83.0 , 4135.38461538 , 4130.76923077 , 4009.23076923 , 4135.8974359 , 4134.87179487 , 4134.35897436 , 4134.35897436 , 4129.74358974 , 4132.82051282 , 4136.41025641 , 4155.8974359 , 4546.15384615 , 4129.23076923 , 4128.20512821 , 2053.0 , 2039.0 , 6.275 , 0.0 , 0.0 , 0.0 , 0.0 , 

84.0 , 4136.41025641 , 4123.58974359 , 4014.35897436 , 4135.8974359 , 4135.38461538 , 4136.41025641 , 4134.35897436 , 4130.76923077 , 4133.33333333 , 4140.51282051 , 4153.84615385 , 4544.61538462 , 4128.71794872 , 4130.25641026 , 2053.0 , 2040.0 , 6.283 , 0.0 , 0.0 , 0.0 , 0.0 , 

85.0 , 4136.41025641 , 4128.20512821 , 4014.87179487 , 4135.8974359 , 4134.35897436 , 4134.87179487 , 4134.35897436 , 4132.82051282 , 4133.84615385 , 4141.53846154 , 4154.35897436 , 4538.97435897 , 4130.76923077 , 4132.82051282 , 2053.0 , 2040.0 , 6.291 , 0.0 , 0.0 , 0.0 , 0.0 , 

86.0 , 4135.38461538 , 4137.94871795 , 4013.33333333 , 4135.8974359 , 4134.35897436 , 4130.76923077 , 4134.35897436 , 4134.35897436 , 4134.35897436 , 4141.02564103 , 4157.94871795 , 4536.92307692 , 4130.76923077 , 4132.30769231 , 2054.0 , 2040.0 , 6.299 , 0.0 , 0.0 , 0.0 , 0.0 , 

87.0 , 4134.35897436 , 4137.43589744 , 4013.33333333 , 4135.8974359 , 4134.87179487 , 4131.28205128 , 4134.35897436 , 4133.84615385 , 4133.33333333 , 4141.02564103 , 4158.46153846 , 4537.43589744 , 4128.71794872 , 4132.30769231 , 2057.0 , 2039.0 , 6.307 , 0.0 , 0.0 , 0.0 , 0.0 , 

88.0 , 4135.38461538 , 4134.87179487 , 4020.0 , 4135.8974359 , 4134.35897436 , 4135.38461538 , 4134.35897436 , 4134.35897436 , 4132.82051282 , 4142.56410256 , 4154.87179487 , 4534.87179487 , 4127.69230769 , 4131.79487179 , 2057.0 , 2039.0 , 6.315 , 0.0 , 0.0 , 0.0 , 0.0 , 

89.0 , 4137.43589744 , 4137.43589744 , 4031.28205128 , 4135.8974359 , 4134.35897436 , 4134.35897436 , 4134.35897436 , 4135.8974359 , 4136.41025641 , 4142.56410256 , 4153.84615385 , 4532.30769231 , 4129.23076923 , 4131.79487179 , 2057.0 , 2040.0 , 6.323 , 0.0 , 0.0 , 0.0 , 0.0 , 

90.0 , 4137.43589744 , 4137.43589744 , 4040.51282051 , 4135.8974359 , 4134.35897436 , 4132.30769231 , 4134.35897436 , 4133.33333333 , 4137.94871795 , 4143.07692308 , 4157.94871795 , 4532.30769231 , 4131.28205128 , 4133.33333333 , 2059.0 , 2040.0 , 6.33 , 0.0 , 0.0 , 0.0 , 0.0 , 

91.0 , 4135.38461538 , 4135.38461538 , 4043.58974359 , 4135.8974359 , 4134.35897436 , 4133.33333333 , 4134.35897436 , 4132.30769231 , 4137.43589744 , 4142.56410256 , 4159.48717949 , 4532.82051282 , 4131.28205128 , 4135.38461538 , 2060.0 , 2042.0 , 6.338 , 0.0 , 0.0 , 0.0 , 0.0 , 

92.0 , 4135.38461538 , 4136.92307692 , 4050.25641026 , 4135.8974359 , 4134.35897436 , 4133.84615385 , 4134.35897436 , 4134.87179487 , 4135.38461538 , 4146.15384615 , 4158.46153846 , 4531.28205128 , 4131.28205128 , 4135.8974359 , 2062.0 , 2041.0 , 6.346 , 0.0 , 0.0 , 0.0 , 0.0 , 

93.0 , 4137.43589744 , 4136.41025641 , 4059.48717949 , 4135.8974359 , 4134.35897436 , 4133.84615385 , 4134.35897436 , 4135.8974359 , 4137.43589744 , 4146.15384615 , 4158.97435897 , 4529.74358974 , 4132.82051282 , 4135.38461538 , 2060.0 , 2041.0 , 6.354 , 0.0 , 0.0 , 0.0 , 0.0 , 

94.0 , 4136.92307692 , 4136.41025641 , 4066.15384615 , 4135.8974359 , 4134.35897436 , 4134.35897436 , 4134.35897436 , 4136.92307692 , 4138.97435897 , 4143.07692308 , 4157.94871795 , 4528.71794872 , 4132.82051282 , 4132.82051282 , 2060.0 , 2041.0 , 6.362 , 0.0 , 0.0 , 0.0 , 0.0 , 

95.0 , 4134.87179487 , 4137.43589744 , 4067.17948718 , 4135.8974359 , 4134.35897436 , 4133.84615385 , 4134.35897436 , 4140.0 , 4137.94871795 , 4142.56410256 , 4154.87179487 , 4527.17948718 , 4131.28205128 , 4133.84615385 , 2062.0 , 2041.0 , 6.37 , 0.0 , 0.0 , 0.0 , 0.0 , 

96.0 , 4134.35897436 , 4137.43589744 , 4067.69230769 , 4135.8974359 , 4134.35897436 , 4134.35897436 , 4134.35897436 , 4142.56410256 , 4136.92307692 , 4144.1025641 , 4156.92307692 , 4526.66666667 , 4131.28205128 , 4135.8974359 , 2063.0 , 2040.0 , 6.378 , 0.0 , 0.0 , 0.0 , 0.0 , 

97.0 , 4136.41025641 , 4137.43589744 , 4072.30769231 , 4135.8974359 , 4134.35897436 , 4133.84615385 , 4134.35897436 , 4141.53846154 , 4138.46153846 , 4144.61538462 , 4159.48717949 , 4525.64102564 , 4131.79487179 , 4136.41025641 , 2063.0 , 2037.0 , 6.386 , 0.0 , 0.0 , 0.0 , 0.0 , 

98.0 , 4135.8974359 , 4135.38461538 , 4077.43589744 , 4135.8974359 , 4134.35897436 , 4133.84615385 , 4134.35897436 , 4136.92307692 , 4137.94871795 , 4144.1025641 , 4160.0 , 4523.58974359 , 4133.84615385 , 4137.43589744 , 2062.0 , 2034.0 , 6.393 , 0.0 , 0.0 , 0.0 , 0.0 , 

99.0 , 4131.79487179 , 4138.97435897 , 4077.43589744 , 4135.8974359 , 4134.35897436 , 4133.84615385 , 4134.35897436 , 4135.38461538 , 4135.38461538 , 4142.05128205 , 4158.46153846 , 4521.02564103 , 4131.79487179 , 4138.46153846 , 2059.0 , 2032.0 , 6.401 , 0.0 , 0.0 , 0.0 , 0.0 , 

100.0 , 4132.30769231 , 4136.41025641 , 4085.64102564 , 4135.8974359 , 4134.35897436 , 4133.84615385 , 4134.35897436 , 4140.51282051 , 4137.43589744 , 4143.07692308 , 4156.41025641 , 4521.53846154 , 4128.71794872 , 4140.51282051 , 2060.0 , 2030.0 , 6.409 , 0.0 , 0.0 , 0.0 , 0.0 , 

101.0 , 4135.8974359 , 4127.69230769 , 4098.46153846 , 4135.8974359 , 4134.35897436 , 4133.84615385 , 4134.35897436 , 4142.05128205 , 4139.48717949 , 4147.17948718 , 4159.48717949 , 4519.48717949 , 4131.28205128 , 4140.0 , 2056.0 , 2031.0 , 6.417 , 0.0 , 0.0 , 0.0 , 0.0 , 

102.0 , 4134.87179487 , 4129.74358974 , 4104.1025641 , 4136.41025641 , 4134.35897436 , 4133.84615385 , 4134.35897436 , 4138.97435897 , 4140.0 , 4149.23076923 , 4165.12820513 , 4517.94871795 , 4135.8974359 , 4136.41025641 , 2055.0 , 2030.0 , 6.425 , 0.0 , 0.0 , 0.0 , 0.0 , 

103.0 , 4134.35897436 , 4135.8974359 , 4091.79487179 , 4137.43589744 , 4134.35897436 , 4133.84615385 , 4134.35897436 , 4136.41025641 , 4137.94871795 , 4144.1025641 , 4162.56410256 , 4516.41025641 , 4133.84615385 , 4132.82051282 , 2055.0 , 2034.0 , 6.433 , 0.0 , 0.0 , 0.0 , 0.0 , 

104.0 , 4135.38461538 , 4133.84615385 , 4081.02564103 , 4136.92307692 , 4134.35897436 , 4133.84615385 , 4134.35897436 , 4136.41025641 , 4136.41025641 , 4141.53846154 , 4157.43589744 , 4514.87179487 , 4130.76923077 , 4133.33333333 , 2054.0 , 2035.0 , 6.441 , 0.0 , 0.0 , 0.0 , 0.0 , 

105.0 , 4134.87179487 , 4131.79487179 , 4083.58974359 , 4136.41025641 , 4134.35897436 , 4133.84615385 , 4134.35897436 , 4135.38461538 , 4136.41025641 , 4142.56410256 , 4160.0 , 4514.35897436 , 4131.28205128 , 4133.33333333 , 2052.0 , 2037.0 , 6.449 , 0.0 , 0.0 , 0.0 , 0.0 , 

106.0 , 4133.84615385 , 4133.84615385 , 4085.12820513 , 4137.94871795 , 4134.35897436 , 4133.84615385 , 4134.35897436 , 4134.35897436 , 4136.41025641 , 4144.1025641 , 4162.56410256 , 4515.38461538 , 4133.33333333 , 4132.30769231 , 2053.0 , 2041.0 , 6.456 , 0.0 , 0.0 , 0.0 , 0.0 , 

107.0 , 4135.8974359 , 4132.82051282 , 4073.33333333 , 4138.46153846 , 4134.35897436 , 4134.35897436 , 4134.35897436 , 4133.84615385 , 4136.41025641 , 4144.1025641 , 4158.46153846 , 4512.30769231 , 4131.28205128 , 4132.82051282 , 2052.0 , 2041.0 , 6.464 , 0.0 , 0.0 , 0.0 , 0.0 , 

108.0 , 4136.41025641 , 4133.33333333 , 4068.71794872 , 4136.92307692 , 4134.35897436 , 4133.84615385 , 4134.35897436 , 4135.8974359 , 4136.92307692 , 4142.05128205 , 4155.8974359 , 4510.25641026 , 4128.71794872 , 4133.84615385 , 2051.0 , 2043.0 , 6.471 , 0.0 , 0.0 , 0.0 , 0.0 , 

109.0 , 4135.38461538 , 4135.8974359 , 4080.51282051 , 4136.92307692 , 4134.35897436 , 4134.35897436 , 4134.35897436 , 4137.43589744 , 4138.97435897 , 4142.05128205 , 4158.46153846 , 4513.33333333 , 4131.28205128 , 4137.43589744 , 2051.0 , 2045.0 , 6.479 , 0.0 , 0.0 , 0.0 , 0.0 , 

110.0 , 4135.38461538 , 4135.38461538 , 4082.05128205 , 4136.92307692 , 4134.35897436 , 4134.87179487 , 4134.35897436 , 4136.41025641 , 4135.38461538 , 4143.58974359 , 4160.51282051 , 4510.76923077 , 4133.84615385 , 4134.87179487 , 2051.0 , 2044.0 , 6.488 , 0.0 , 0.0 , 0.0 , 0.0 , 

111.0 , 4135.38461538 , 4135.38461538 , 4067.69230769 , 4136.41025641 , 4134.35897436 , 4135.38461538 , 4134.35897436 , 4133.33333333 , 4131.28205128 , 4141.53846154 , 4156.92307692 , 4504.61538462 , 4132.30769231 , 4129.74358974 , 2050.0 , 2044.0 , 6.496 , 0.0 , 0.0 , 0.0 , 0.0 , 

112.0 , 4135.8974359 , 4134.35897436 , 4051.79487179 , 4135.38461538 , 4134.35897436 , 4135.38461538 , 4134.35897436 , 4129.74358974 , 4131.79487179 , 4138.46153846 , 4153.84615385 , 4503.07692308 , 4129.74358974 , 4131.28205128 , 2048.0 , 2042.0 , 6.504 , 0.0 , 0.0 , 0.0 , 0.0 , 

113.0 , 4135.8974359 , 4134.87179487 , 4039.48717949 , 4136.41025641 , 4134.35897436 , 4135.38461538 , 4134.35897436 , 4131.79487179 , 4134.35897436 , 4138.97435897 , 4156.41025641 , 4503.07692308 , 4128.71794872 , 4133.84615385 , 2046.0 , 2039.0 , 6.512 , 0.0 , 0.0 , 0.0 , 0.0 , 

114.0 , 4135.38461538 , 4135.8974359 , 4023.07692308 , 4136.41025641 , 4134.35897436 , 4135.38461538 , 4134.35897436 , 4132.82051282 , 4133.33333333 , 4137.43589744 , 4157.43589744 , 4497.43589744 , 4127.69230769 , 4130.76923077 , 2044.0 , 2037.0 , 6.519 , 0.0 , 0.0 , 0.0 , 0.0 , 

115.0 , 4134.35897436 , 4135.38461538 , 4014.35897436 , 4135.38461538 , 4134.35897436 , 4135.38461538 , 4134.35897436 , 4131.28205128 , 4132.30769231 , 4138.46153846 , 4156.92307692 , 4496.41025641 , 4129.23076923 , 4131.79487179 , 2042.0 , 2034.0 , 6.527 , 0.0 , 0.0 , 0.0 , 0.0 , 

116.0 , 4134.35897436 , 4135.38461538 , 4010.25641026 , 4134.87179487 , 4134.35897436 , 4135.38461538 , 4134.35897436 , 4130.25641026 , 4131.28205128 , 4142.56410256 , 4157.43589744 , 4495.38461538 , 4126.66666667 , 4135.38461538 , 2042.0 , 2033.0 , 6.535 , 0.0 , 0.0 , 0.0 , 0.0 , 

117.0 , 4134.87179487 , 4134.35897436 , 4007.69230769 , 4135.8974359 , 4134.35897436 , 4134.87179487 , 4134.35897436 , 4130.76923077 , 4130.76923077 , 4141.53846154 , 4157.43589744 , 4491.28205128 , 4123.58974359 , 4134.87179487 , 2040.0 , 2034.0 , 6.543 , 0.0 , 0.0 , 0.0 , 0.0 , 

118.0 , 4133.84615385 , 4134.87179487 , 4005.12820513 , 4136.41025641 , 4134.35897436 , 4136.41025641 , 4134.35897436 , 4130.76923077 , 4133.84615385 , 4135.38461538 , 4156.92307692 , 4487.17948718 , 4126.15384615 , 4132.30769231 , 2041.0 , 2035.0 , 6.552 , 0.0 , 0.0 , 0.0 , 0.0 , 

119.0 , 4134.87179487 , 4136.41025641 , 4005.64102564 , 4135.8974359 , 4134.35897436 , 4134.87179487 , 4134.35897436 , 4132.82051282 , 4132.82051282 , 4138.97435897 , 4157.43589744 , 4487.17948718 , 4129.74358974 , 4133.33333333 , 2042.0 , 2037.0 , 6.56 , 0.0 , 0.0 , 0.0 , 0.0 , 

120.0 , 4135.8974359 , 4135.8974359 , 4011.28205128 , 4135.8974359 , 4134.35897436 , 4130.76923077 , 4134.35897436 , 4131.79487179 , 4132.30769231 , 4143.58974359 , 4157.94871795 , 4484.61538462 , 4127.69230769 , 4135.38461538 , 2046.0 , 2042.0 , 6.567 , 0.0 , 0.0 , 0.0 , 0.0 , 

121.0 , 4135.8974359 , 4134.35897436 , 4026.66666667 , 4135.8974359 , 4134.87179487 , 4131.79487179 , 4134.35897436 , 4134.35897436 , 4137.43589744 , 4143.07692308 , 4158.46153846 , 4483.58974359 , 4129.74358974 , 4137.43589744 , 2049.0 , 2044.0 , 6.575 , 0.0 , 0.0 , 0.0 , 0.0 , 

122.0 , 4134.87179487 , 4135.38461538 , 4035.8974359 , 4135.8974359 , 4134.35897436 , 4135.38461538 , 4134.35897436 , 4138.97435897 , 4139.48717949 , 4142.05128205 , 4154.87179487 , 4484.1025641 , 4133.84615385 , 4137.94871795 , 2050.0 , 2044.0 , 6.582 , 0.0 , 0.0 , 0.0 , 0.0 , 

123.0 , 4134.87179487 , 4135.8974359 , 4043.07692308 , 4135.8974359 , 4134.35897436 , 4134.35897436 , 4134.35897436 , 4141.02564103 , 4138.46153846 , 4143.58974359 , 4152.82051282 , 4481.53846154 , 4134.35897436 , 4136.41025641 , 2053.0 , 2043.0 , 6.59 , 0.0 , 0.0 , 0.0 , 0.0 , 

124.0 , 4135.38461538 , 4135.38461538 , 4055.38461538 , 4135.8974359 , 4135.38461538 , 4132.30769231 , 4134.35897436 , 4140.0 , 4138.97435897 , 4145.12820513 , 4157.94871795 , 4477.94871795 , 4131.79487179 , 4134.35897436 , 2055.0 , 2040.0 , 6.598 , 0.0 , 0.0 , 0.0 , 0.0 , 

125.0 , 4135.8974359 , 4135.8974359 , 4057.94871795 , 4135.8974359 , 4136.41025641 , 4133.33333333 , 4134.35897436 , 4138.46153846 , 4138.97435897 , 4143.07692308 , 4160.51282051 , 4477.94871795 , 4132.30769231 , 4134.35897436 , 2059.0 , 2038.0 , 6.606 , 0.0 , 0.0 , 0.0 , 0.0 , 

126.0 , 4136.41025641 , 4135.8974359 , 4051.79487179 , 4135.8974359 , 4135.38461538 , 4133.84615385 , 4134.35897436 , 4136.92307692 , 4136.92307692 , 4143.07692308 , 4157.94871795 , 4477.94871795 , 4134.35897436 , 4135.38461538 , 2059.0 , 2037.0 , 6.614 , 0.0 , 0.0 , 0.0 , 0.0 , 

127.0 , 4136.41025641 , 4135.8974359 , 4054.35897436 , 4135.8974359 , 4133.84615385 , 4133.84615385 , 4134.35897436 , 4136.92307692 , 4137.94871795 , 4146.15384615 , 4159.48717949 , 4476.41025641 , 4134.87179487 , 4136.41025641 , 2063.0 , 2033.0 , 6.621 , 0.0 , 0.0 , 0.0 , 0.0 , 

128.0 , 4135.8974359 , 4135.8974359 , 4060.0 , 4135.8974359 , 4134.35897436 , 4134.35897436 , 4134.35897436 , 4134.87179487 , 4137.94871795 , 4146.15384615 , 4160.0 , 4473.84615385 , 4133.33333333 , 4134.35897436 , 2063.0 , 2030.0 , 6.63 , 0.0 , 0.0 , 0.0 , 0.0 , 

0.0 , 4134.87179487 , 4135.8974359 , 4060.0 , 4135.8974359 , 4135.38461538 , 4133.84615385 , 4134.35897436 , 4132.82051282 , 4136.92307692 , 4140.51282051 , 4157.43589744 , 4470.76923077 , 4133.33333333 , 4133.84615385 , 2063.0 , 2024.0 , 6.638 , 0.0 , 0.0 , 0.0 , 0.0 , 

1.0 , 4135.38461538 , 4135.38461538 , 4060.0 , 4135.8974359 , 4135.38461538 , 4134.35897436 , 4134.35897436 , 4135.38461538 , 4137.43589744 , 4139.48717949 , 4159.48717949 , 4467.69230769 , 4132.30769231 , 4135.38461538 , 2063.0 , 2024.0 , 6.646 , 0.0 , 0.0 , 0.0 , 0.0 , 

2.0 , 4135.38461538 , 4135.38461538 , 4058.97435897 , 4135.8974359 , 4134.87179487 , 4133.84615385 , 4134.35897436 , 4136.41025641 , 4137.43589744 , 4143.07692308 , 4160.0 , 4467.17948718 , 4129.74358974 , 4134.35897436 , 2065.0 , 2024.0 , 6.653 , 0.0 , 0.0 , 0.0 , 0.0 , 

3.0 , 4135.38461538 , 4135.38461538 , 4063.58974359 , 4135.8974359 , 4134.87179487 , 4133.84615385 , 4134.35897436 , 4133.84615385 , 4138.97435897 , 4144.61538462 , 4159.48717949 , 4468.71794872 , 4130.76923077 , 4135.38461538 , 2066.0 , 2026.0 , 6.661 , 0.0 , 0.0 , 0.0 , 0.0 , 

4.0 , 4135.38461538 , 4135.8974359 , 4075.38461538 , 4135.8974359 , 4135.38461538 , 4133.84615385 , 4134.35897436 , 4136.41025641 , 4137.94871795 , 4143.07692308 , 4159.48717949 , 4467.69230769 , 4133.84615385 , 4135.8974359 , 2066.0 , 2026.0 , 6.668 , 0.0 , 0.0 , 0.0 , 0.0 , 

5.0 , 4135.38461538 , 4135.8974359 , 4085.64102564 , 4135.8974359 , 4135.38461538 , 4133.84615385 , 4134.35897436 , 4141.02564103 , 4137.43589744 , 4143.07692308 , 4160.51282051 , 4466.66666667 , 4137.43589744 , 4134.87179487 , 2066.0 , 2028.0 , 6.677 , 0.0 , 0.0 , 0.0 , 0.0 , 

6.0 , 4134.87179487 , 4135.38461538 , 4091.79487179 , 4135.8974359 , 4134.35897436 , 4133.84615385 , 4134.35897436 , 4137.43589744 , 4141.53846154 , 4144.1025641 , 4160.0 , 4467.69230769 , 4134.35897436 , 4136.41025641 , 2065.0 , 2031.0 , 6.685 , 0.0 , 0.0 , 0.0 , 0.0 , 

7.0 , 4134.87179487 , 4135.38461538 , 4103.58974359 , 4135.8974359 , 4134.35897436 , 4133.84615385 , 4134.35897436 , 4137.43589744 , 4142.56410256 , 4145.64102564 , 4159.48717949 , 4467.69230769 , 4132.30769231 , 4138.97435897 , 2066.0 , 2033.0 , 6.693 , 0.0 , 0.0 , 0.0 , 0.0 , 

8.0 , 4135.38461538 , 4135.38461538 , 4110.76923077 , 4135.8974359 , 4134.35897436 , 4133.84615385 , 4134.35897436 , 4141.53846154 , 4136.92307692 , 4144.61538462 , 4159.48717949 , 4465.64102564 , 4134.35897436 , 4138.46153846 , 2066.0 , 2034.0 , 6.701 , 0.0 , 0.0 , 0.0 , 0.0 , 

9.0 , 4135.8974359 , 4134.87179487 , 4110.76923077 , 4135.8974359 , 4133.84615385 , 4133.84615385 , 4134.35897436 , 4142.56410256 , 4135.8974359 , 4143.58974359 , 4160.51282051 , 4466.66666667 , 4135.8974359 , 4136.92307692 , 2066.0 , 2037.0 , 6.709 , 0.0 , 0.0 , 0.0 , 0.0 , 

10.0 , 4135.8974359 , 4135.38461538 , 4109.74358974 , 4135.8974359 , 4135.8974359 , 4133.84615385 , 4134.35897436 , 4137.94871795 , 4138.46153846 , 4145.12820513 , 4160.0 , 4465.64102564 , 4132.82051282 , 4134.35897436 , 2065.0 , 2037.0 , 6.716 , 0.0 , 0.0 , 0.0 , 0.0 , 

11.0 , 4135.38461538 , 4135.38461538 , 4113.33333333 , 4135.8974359 , 4136.92307692 , 4133.84615385 , 4134.35897436 , 4134.87179487 , 4139.48717949 , 4146.66666667 , 4160.51282051 , 4461.02564103 , 4132.30769231 , 4135.38461538 , 2065.0 , 2037.0 , 6.724 , 0.0 , 0.0 , 0.0 , 0.0 , 

12.0 , 4133.84615385 , 4135.38461538 , 4117.43589744 , 4135.8974359 , 4135.38461538 , 4133.84615385 , 4134.35897436 , 4135.38461538 , 4140.51282051 , 4144.1025641 , 4160.0 , 4459.48717949 , 4134.35897436 , 4137.43589744 , 2065.0 , 2038.0 , 6.732 , 0.0 , 0.0 , 0.0 , 0.0 , 

13.0 , 4133.84615385 , 4136.41025641 , 4114.35897436 , 4135.8974359 , 4134.87179487 , 4133.84615385 , 4134.35897436 , 4135.38461538 , 4138.46153846 , 4143.07692308 , 4160.0 , 4458.97435897 , 4133.84615385 , 4134.87179487 , 2064.0 , 2038.0 , 6.74 , 0.0 , 0.0 , 0.0 , 0.0 , 

14.0 , 4134.87179487 , 4134.87179487 , 4098.46153846 , 4135.8974359 , 4136.41025641 , 4133.84615385 , 4134.35897436 , 4134.35897436 , 4135.8974359 , 4143.58974359 , 4159.48717949 , 4454.87179487 , 4130.76923077 , 4131.28205128 , 2064.0 , 2037.0 , 6.747 , 0.0 , 0.0 , 0.0 , 0.0 , 

15.0 , 4134.87179487 , 4133.84615385 , 4091.28205128 , 4135.8974359 , 4135.8974359 , 4133.84615385 , 4134.35897436 , 4134.35897436 , 4138.97435897 , 4142.05128205 , 4158.46153846 , 4453.33333333 , 4129.74358974 , 4132.82051282 , 2061.0 , 2039.0 , 6.756 , 0.0 , 0.0 , 0.0 , 0.0 , 

16.0 , 4134.35897436 , 4135.8974359 , 4102.05128205 , 4135.8974359 , 4134.35897436 , 4133.84615385 , 4134.35897436 , 4135.8974359 , 4140.0 , 4142.05128205 , 4159.48717949 , 4458.97435897 , 4132.82051282 , 4134.35897436 , 2061.0 , 2039.0 , 6.763 , 0.0 , 0.0 , 0.0 , 0.0 , 

17.0 , 4135.8974359 , 4135.38461538 , 4124.61538462 , 4135.8974359 , 4134.35897436 , 4133.84615385 , 4134.35897436 , 4138.46153846 , 4136.41025641 , 4144.61538462 , 4162.56410256 , 4460.51282051 , 4135.8974359 , 4134.87179487 , 2059.0 , 2038.0 , 6.772 , 0.0 , 0.0 , 0.0 , 0.0 , 

18.0 , 4135.8974359 , 4134.35897436 , 4153.84615385 , 4135.8974359 , 4134.35897436 , 4133.84615385 , 4134.35897436 , 4142.56410256 , 4141.53846154 , 4147.17948718 , 4162.56410256 , 4457.94871795 , 4133.33333333 , 4137.43589744 , 2059.0 , 2038.0 , 6.779 , 0.0 , 0.0 , 0.0 , 0.0 , 

19.0 , 4134.35897436 , 4135.8974359 , 4187.17948718 , 4135.8974359 , 4133.84615385 , 4133.84615385 , 4134.35897436 , 4146.15384615 , 4145.12820513 , 4151.28205128 , 4162.56410256 , 4462.05128205 , 4135.8974359 , 4141.53846154 , 2057.0 , 2038.0 , 6.786 , 0.0 , 0.0 , 0.0 , 0.0 , 

20.0 , 4135.38461538 , 4133.84615385 , 4217.43589744 , 4135.8974359 , 4135.38461538 , 4133.84615385 , 4134.35897436 , 4146.15384615 , 4144.61538462 , 4155.38461538 , 4164.1025641 , 4467.17948718 , 4141.02564103 , 4141.02564103 , 2057.0 , 2039.0 , 6.795 , 0.0 , 0.0 , 0.0 , 0.0 , 

21.0 , 4136.41025641 , 4132.30769231 , 4230.76923077 , 4135.8974359 , 4132.82051282 , 4133.84615385 , 4134.35897436 , 4145.12820513 , 4146.66666667 , 4151.79487179 , 4163.58974359 , 4465.64102564 , 4140.51282051 , 4136.41025641 , 2056.0 , 2037.0 , 6.804 , 0.0 , 0.0 , 0.0 , 0.0 , 

22.0 , 4135.8974359 , 4134.35897436 , 4229.23076923 , 4135.8974359 , 4129.74358974 , 4133.84615385 , 4134.35897436 , 4144.61538462 , 4147.69230769 , 4147.69230769 , 4163.58974359 , 4464.1025641 , 4138.97435897 , 4137.43589744 , 2055.0 , 2038.0 , 6.812 , 0.0 , 0.0 , 0.0 , 0.0 , 

23.0 , 4135.8974359 , 4136.41025641 , 4220.0 , 4135.8974359 , 4133.33333333 , 4133.84615385 , 4134.35897436 , 4143.07692308 , 4144.61538462 , 4147.69230769 , 4162.56410256 , 4463.58974359 , 4137.94871795 , 4139.48717949 , 2053.0 , 2036.0 , 6.819 , 0.0 , 0.0 , 0.0 , 0.0 , 

24.0 , 4136.41025641 , 4135.38461538 , 4205.64102564 , 4135.8974359 , 4136.92307692 , 4134.35897436 , 4134.35897436 , 4140.51282051 , 4141.02564103 , 4146.15384615 , 4161.02564103 , 4464.61538462 , 4133.33333333 , 4137.43589744 , 2050.0 , 2035.0 , 6.827 , 0.0 , 0.0 , 0.0 , 0.0 , 

25.0 , 4135.8974359 , 4135.38461538 , 4180.0 , 4135.8974359 , 4134.87179487 , 4134.87179487 , 4134.35897436 , 4134.35897436 , 4137.43589744 , 4143.07692308 , 4161.02564103 , 4462.56410256 , 4130.76923077 , 4135.8974359 , 2047.0 , 2034.0 , 6.835 , 0.0 , 0.0 , 0.0 , 0.0 , 

26.0 , 4135.8974359 , 4135.38461538 , 4161.53846154 , 4135.8974359 , 4133.84615385 , 4135.38461538 , 4134.35897436 , 4130.76923077 , 4136.41025641 , 4142.05128205 , 4160.51282051 , 4459.48717949 , 4131.28205128 , 4136.41025641 , 2045.0 , 2034.0 , 6.843 , 0.0 , 0.0 , 0.0 , 0.0 , 

27.0 , 4136.41025641 , 4132.30769231 , 4152.82051282 , 4135.8974359 , 4135.8974359 , 4135.38461538 , 4134.35897436 , 4131.79487179 , 4137.43589744 , 4140.0 , 4156.92307692 , 4458.46153846 , 4126.66666667 , 4133.84615385 , 2045.0 , 2031.0 , 6.85 , 0.0 , 0.0 , 0.0 , 0.0 , 

28.0 , 4135.8974359 , 4133.84615385 , 4144.1025641 , 4135.8974359 , 4135.8974359 , 4135.38461538 , 4134.35897436 , 4133.33333333 , 4133.84615385 , 4140.51282051 , 4156.92307692 , 4460.0 , 4127.17948718 , 4133.33333333 , 2042.0 , 2028.0 , 6.858 , 0.0 , 0.0 , 0.0 , 0.0 , 

29.0 , 4133.84615385 , 4136.92307692 , 4139.48717949 , 4135.8974359 , 4134.87179487 , 4135.38461538 , 4134.35897436 , 4132.82051282 , 4132.82051282 , 4141.02564103 , 4158.46153846 , 4458.97435897 , 4132.82051282 , 4135.8974359 , 2040.0 , 2027.0 , 6.866 , 0.0 , 0.0 , 0.0 , 0.0 , 

30.0 , 4134.35897436 , 4134.87179487 , 4141.02564103 , 4135.8974359 , 4133.84615385 , 4135.38461538 , 4133.84615385 , 4131.79487179 , 4137.43589744 , 4141.02564103 , 4157.43589744 , 4458.46153846 , 4132.30769231 , 4137.43589744 , 2038.0 , 2028.0 , 6.874 , 0.0 , 0.0 , 0.0 , 0.0 , 

31.0 , 4136.41025641 , 4135.38461538 , 4151.28205128 , 4135.8974359 , 4133.33333333 , 4135.38461538 , 4135.8974359 , 4132.30769231 , 4136.92307692 , 4142.05128205 , 4157.43589744 , 4461.53846154 , 4128.71794872 , 4136.92307692 , 2038.0 , 2027.0 , 6.882 , 0.0 , 0.0 , 0.0 , 0.0 , 

32.0 , 4135.38461538 , 4137.43589744 , 4167.69230769 , 4135.8974359 , 4133.84615385 , 4135.38461538 , 4136.41025641 , 4135.8974359 , 4136.92307692 , 4145.64102564 , 4159.48717949 , 4465.64102564 , 4130.76923077 , 4136.92307692 , 2037.0 , 2026.0 , 6.89 , 0.0 , 0.0 , 0.0 , 0.0 , 

33.0 , 4134.35897436 , 4129.74358974 , 4176.92307692 , 4135.8974359 , 4133.84615385 , 4135.38461538 , 4132.30769231 , 4137.43589744 , 4137.94871795 , 4147.69230769 , 4160.51282051 , 4466.15384615 , 4132.30769231 , 4137.94871795 , 2037.0 , 2026.0 , 6.898 , 0.0 , 0.0 , 0.0 , 0.0 , 

34.0 , 4136.41025641 , 4126.15384615 , 4175.38461538 , 4135.8974359 , 4134.87179487 , 4135.38461538 , 4131.28205128 , 4136.92307692 , 4137.43589744 , 4146.15384615 , 4160.0 , 4465.12820513 , 4130.25641026 , 4137.94871795 , 2036.0 , 2026.0 , 6.906 , 0.0 , 0.0 , 0.0 , 0.0 , 

35.0 , 4136.41025641 , 4134.87179487 , 4161.53846154 , 4135.8974359 , 4135.38461538 , 4135.38461538 , 4134.35897436 , 4133.84615385 , 4135.38461538 , 4140.51282051 , 4157.43589744 , 4464.1025641 , 4128.71794872 , 4134.35897436 , 2034.0 , 2028.0 , 6.914 , 0.0 , 0.0 , 0.0 , 0.0 , 

36.0 , 4135.38461538 , 4137.94871795 , 4140.51282051 , 4135.8974359 , 4135.38461538 , 4135.38461538 , 4134.87179487 , 4130.25641026 , 4131.79487179 , 4138.46153846 , 4157.43589744 , 4463.07692308 , 4127.69230769 , 4131.28205128 , 2034.0 , 2030.0 , 6.921 , 0.0 , 0.0 , 0.0 , 0.0 , 

37.0 , 4136.41025641 , 4133.33333333 , 4121.53846154 , 4135.8974359 , 4135.38461538 , 4135.38461538 , 4133.84615385 , 4130.25641026 , 4129.74358974 , 4141.53846154 , 4157.43589744 , 4462.56410256 , 4126.15384615 , 4132.82051282 , 2035.0 , 2032.0 , 6.929 , 0.0 , 0.0 , 0.0 , 0.0 , 

38.0 , 4136.92307692 , 4134.35897436 , 4111.79487179 , 4135.8974359 , 4135.38461538 , 4135.38461538 , 4135.38461538 , 4131.28205128 , 4133.84615385 , 4141.53846154 , 4155.38461538 , 4464.1025641 , 4127.17948718 , 4133.84615385 , 2034.0 , 2032.0 , 6.937 , 0.0 , 0.0 , 0.0 , 0.0 , 

39.0 , 4134.87179487 , 4136.41025641 , 4105.64102564 , 4135.8974359 , 4135.38461538 , 4135.38461538 , 4135.8974359 , 4130.76923077 , 4137.43589744 , 4136.92307692 , 4155.38461538 , 4463.58974359 , 4128.20512821 , 4131.79487179 , 2035.0 , 2033.0 , 6.945 , 0.0 , 0.0 , 0.0 , 0.0 , 

40.0 , 4134.35897436 , 4135.8974359 , 4095.38461538 , 4135.8974359 , 4135.38461538 , 4135.38461538 , 4135.38461538 , 4129.23076923 , 4133.84615385 , 4136.41025641 , 4156.92307692 , 4456.92307692 , 4126.15384615 , 4132.82051282 , 2036.0 , 2032.0 , 6.952 , 0.0 , 0.0 , 0.0 , 0.0 , 

41.0 , 4135.8974359 , 4135.8974359 , 4080.0 , 4135.8974359 , 4135.38461538 , 4135.38461538 , 4135.38461538 , 4130.25641026 , 4133.84615385 , 4140.0 , 4157.94871795 , 4457.94871795 , 4125.12820513 , 4134.87179487 , 2035.0 , 2033.0 , 6.961 , 0.0 , 0.0 , 0.0 , 0.0 , 

42.0 , 4135.38461538 , 4135.38461538 , 4073.84615385 , 4135.8974359 , 4135.38461538 , 4135.38461538 , 4135.38461538 , 4130.76923077 , 4134.87179487 , 4137.94871795 , 4158.46153846 , 4462.56410256 , 4128.20512821 , 4133.84615385 , 2033.0 , 2034.0 , 6.969 , 0.0 , 0.0 , 0.0 , 0.0 , 

43.0 , 4133.84615385 , 4136.41025641 , 4088.71794872 , 4135.8974359 , 4135.38461538 , 4135.38461538 , 4135.38461538 , 4132.30769231 , 4132.30769231 , 4137.43589744 , 4159.48717949 , 4461.53846154 , 4130.76923077 , 4132.82051282 , 2032.0 , 2035.0 , 6.977 , 0.0 , 0.0 , 0.0 , 0.0 , 

44.0 , 4133.84615385 , 4135.38461538 , 4097.43589744 , 4135.8974359 , 4135.38461538 , 4135.38461538 , 4135.38461538 , 4132.30769231 , 4132.30769231 , 4141.53846154 , 4158.46153846 , 4456.92307692 , 4127.69230769 , 4134.35897436 , 2032.0 , 2033.0 , 6.984 , 0.0 , 0.0 , 0.0 , 0.0 , 

45.0 , 4136.41025641 , 4133.84615385 , 4092.30769231 , 4135.8974359 , 4135.38461538 , 4135.38461538 , 4135.38461538 , 4132.30769231 , 4135.38461538 , 4143.58974359 , 4159.48717949 , 4456.41025641 , 4127.69230769 , 4138.46153846 , 2033.0 , 2034.0 , 6.992 , 0.0 , 0.0 , 0.0 , 0.0 , 

46.0 , 4137.43589744 , 4135.38461538 , 4094.35897436 , 4135.8974359 , 4135.38461538 , 4135.38461538 , 4135.38461538 , 4133.33333333 , 4135.8974359 , 4141.53846154 , 4160.0 , 4455.8974359 , 4129.74358974 , 4137.43589744 , 2033.0 , 2036.0 , 7.001 , 0.0 , 0.0 , 0.0 , 0.0 , 

47.0 , 4136.41025641 , 4135.38461538 , 4104.61538462 , 4135.8974359 , 4135.38461538 , 4135.38461538 , 4135.38461538 , 4134.35897436 , 4136.92307692 , 4143.58974359 , 4158.46153846 , 4457.94871795 , 4131.28205128 , 4134.87179487 , 2032.0 , 2036.0 , 7.009 , 0.0 , 0.0 , 0.0 , 0.0 , 

48.0 , 4135.8974359 , 4134.35897436 , 4109.74358974 , 4135.8974359 , 4135.38461538 , 4135.38461538 , 4135.38461538 , 4134.35897436 , 4138.97435897 , 4145.12820513 , 4157.94871795 , 4460.51282051 , 4130.76923077 , 4135.8974359 , 2032.0 , 2039.0 , 7.016 , 0.0 , 0.0 , 0.0 , 0.0 , 

49.0 , 4135.8974359 , 4134.87179487 , 4111.79487179 , 4135.8974359 , 4135.38461538 , 4135.38461538 , 4135.38461538 , 4135.8974359 , 4138.97435897 , 4143.58974359 , 4160.0 , 4460.51282051 , 4129.74358974 , 4137.43589744 , 2032.0 , 2039.0 , 7.024 , 0.0 , 0.0 , 0.0 , 0.0 , 

50.0 , 4134.87179487 , 4135.38461538 , 4112.30769231 , 4135.8974359 , 4135.38461538 , 4135.38461538 , 4135.38461538 , 4135.38461538 , 4137.43589744 , 4143.58974359 , 4158.97435897 , 4458.46153846 , 4129.74358974 , 4134.35897436 , 2032.0 , 2038.0 , 7.032 , 0.0 , 0.0 , 0.0 , 0.0 , 

51.0 , 4135.38461538 , 4134.35897436 , 4115.8974359 , 4135.8974359 , 4135.38461538 , 4135.38461538 , 4135.38461538 , 4132.82051282 , 4136.41025641 , 4144.1025641 , 4157.43589744 , 4457.94871795 , 4132.82051282 , 4134.35897436 , 2029.0 , 2037.0 , 7.04 , 0.0 , 0.0 , 0.0 , 0.0 , 

52.0 , 4136.41025641 , 4134.35897436 , 4122.56410256 , 4135.8974359 , 4135.38461538 , 4135.38461538 , 4135.38461538 , 4134.87179487 , 4136.92307692 , 4143.58974359 , 4158.46153846 , 4456.92307692 , 4135.38461538 , 4135.38461538 , 2029.0 , 2036.0 , 7.047 , 0.0 , 0.0 , 0.0 , 0.0 , 

53.0 , 4136.41025641 , 4134.87179487 , 4123.58974359 , 4135.8974359 , 4135.38461538 , 4135.38461538 , 4135.38461538 , 4138.46153846 , 4138.97435897 , 4142.56410256 , 4158.97435897 , 4457.94871795 , 4133.33333333 , 4132.82051282 , 2029.0 , 2034.0 , 7.056 , 0.0 , 0.0 , 0.0 , 0.0 , 

54.0 , 4135.38461538 , 4134.87179487 , 4123.07692308 , 4135.8974359 , 4135.38461538 , 4135.38461538 , 4135.38461538 , 4136.92307692 , 4138.46153846 , 4142.56410256 , 4159.48717949 , 4456.92307692 , 4132.82051282 , 4133.84615385 , 2029.0 , 2032.0 , 7.063 , 0.0 , 0.0 , 0.0 , 0.0 , 

55.0 , 4134.35897436 , 4135.8974359 , 4129.23076923 , 4135.8974359 , 4135.38461538 , 4135.38461538 , 4135.38461538 , 4135.38461538 , 4136.92307692 , 4144.1025641 , 4160.0 , 4454.35897436 , 4133.33333333 , 4137.94871795 , 2028.0 , 2032.0 , 7.071 , 0.0 , 0.0 , 0.0 , 0.0 , 

56.0 , 4134.35897436 , 4133.33333333 , 4141.02564103 , 4135.8974359 , 4135.38461538 , 4135.38461538 , 4135.38461538 , 4136.41025641 , 4137.43589744 , 4144.61538462 , 4160.51282051 , 4457.43589744 , 4132.82051282 , 4138.97435897 , 2028.0 , 2032.0 , 7.079 , 0.0 , 0.0 , 0.0 , 0.0 , 

57.0 , 4134.35897436 , 4130.25641026 , 4150.25641026 , 4135.8974359 , 4135.38461538 , 4135.38461538 , 4135.38461538 , 4139.48717949 , 4137.43589744 , 4144.61538462 , 4161.02564103 , 4461.02564103 , 4134.87179487 , 4138.46153846 , 2028.0 , 2032.0 , 7.087 , 0.0 , 0.0 , 0.0 , 0.0 , 

58.0 , 4134.35897436 , 4132.82051282 , 4161.02564103 , 4135.8974359 , 4135.38461538 , 4134.87179487 , 4135.38461538 , 4143.07692308 , 4138.97435897 , 4146.15384615 , 4160.51282051 , 4458.97435897 , 4135.38461538 , 4136.92307692 , 2029.0 , 2032.0 , 7.095 , 0.0 , 0.0 , 0.0 , 0.0 , 

59.0 , 4134.35897436 , 4136.92307692 , 4166.15384615 , 4135.8974359 , 4135.38461538 , 4134.87179487 , 4135.38461538 , 4141.02564103 , 4141.02564103 , 4145.64102564 , 4159.48717949 , 4454.87179487 , 4132.82051282 , 4134.87179487 , 2030.0 , 2034.0 , 7.103 , 0.0 , 0.0 , 0.0 , 0.0 , 

60.0 , 4134.35897436 , 4134.35897436 , 4165.64102564 , 4135.38461538 , 4134.87179487 , 4136.41025641 , 4135.8974359 , 4137.43589744 , 4141.02564103 , 4145.12820513 , 4158.97435897 , 4454.87179487 , 4134.35897436 , 4135.8974359 , 2030.0 , 2035.0 , 7.11 , 0.0 , 0.0 , 0.0 , 0.0 , 

61.0 , 4134.35897436 , 4132.30769231 , 4168.71794872 , 4135.8974359 , 4135.38461538 , 4133.84615385 , 4135.38461538 , 4138.97435897 , 4138.97435897 , 4145.12820513 , 4158.46153846 , 4455.38461538 , 4135.38461538 , 4136.41025641 , 2030.0 , 2036.0 , 7.118 , 0.0 , 0.0 , 0.0 , 0.0 , 

62.0 , 4134.87179487 , 4133.33333333 , 4169.74358974 , 4137.43589744 , 4135.38461538 , 4130.25641026 , 4134.87179487 , 4140.51282051 , 4140.51282051 , 4145.64102564 , 4158.46153846 , 4457.94871795 , 4131.79487179 , 4134.35897436 , 2031.0 , 2037.0 , 7.126 , 0.0 , 0.0 , 0.0 , 0.0 , 

63.0 , 4135.38461538 , 4132.30769231 , 4166.15384615 , 4136.92307692 , 4134.87179487 , 4132.30769231 , 4136.41025641 , 4135.38461538 , 4141.53846154 , 4145.64102564 , 4160.0 , 4457.43589744 , 4130.76923077 , 4134.35897436 , 2032.0 , 2039.0 , 7.133 , 0.0 , 0.0 , 0.0 , 0.0 , 

64.0 , 4134.35897436 , 4133.84615385 , 4166.66666667 , 4135.8974359 , 4134.35897436 , 4135.8974359 , 4134.35897436 , 4135.8974359 , 4139.48717949 , 4146.15384615 , 4158.97435897 , 4456.92307692 , 4134.87179487 , 4136.92307692 , 2032.0 , 2037.0 , 7.142 , 0.0 , 0.0 , 0.0 , 0.0 , 

65.0 , 4134.35897436 , 4136.41025641 , 4176.92307692 , 4135.8974359 , 4134.87179487 , 4133.84615385 , 4131.28205128 , 4141.53846154 , 4138.46153846 , 4145.64102564 , 4157.94871795 , 4458.46153846 , 4135.38461538 , 4135.38461538 , 2031.0 , 2037.0 , 7.15 , 0.0 , 0.0 , 0.0 , 0.0 , 

66.0 , 4135.8974359 , 4135.38461538 , 4185.64102564 , 4135.8974359 , 4134.87179487 , 4132.30769231 , 4133.84615385 , 4142.05128205 , 4140.0 , 4144.1025641 , 4158.97435897 , 4461.53846154 , 4133.33333333 , 4135.38461538 , 2032.0 , 2037.0 , 7.158 , 0.0 , 0.0 , 0.0 , 0.0 , 

67.0 , 4135.8974359 , 4134.35897436 , 4188.20512821 , 4134.35897436 , 4134.87179487 , 4133.33333333 , 4135.38461538 , 4137.94871795 , 4138.46153846 , 4144.61538462 , 4160.0 , 4461.02564103 , 4131.28205128 , 4135.38461538 , 2033.0 , 2034.0 , 7.166 , 0.0 , 0.0 , 0.0 , 0.0 , 

68.0 , 4134.35897436 , 4136.41025641 , 4188.20512821 , 4133.84615385 , 4135.38461538 , 4133.84615385 , 4134.35897436 , 4136.92307692 , 4137.94871795 , 4146.66666667 , 4161.02564103 , 4460.51282051 , 4132.30769231 , 4134.87179487 , 2033.0 , 2035.0 , 7.174 , 0.0 , 0.0 , 0.0 , 0.0 , 

69.0 , 4133.84615385 , 4134.87179487 , 4197.94871795 , 4134.35897436 , 4135.38461538 , 4134.35897436 , 4134.87179487 , 4138.46153846 , 4142.56410256 , 4146.66666667 , 4158.97435897 , 4462.56410256 , 4135.38461538 , 4133.84615385 , 2033.0 , 2032.0 , 7.181 , 0.0 , 0.0 , 0.0 , 0.0 , 

70.0 , 4134.87179487 , 4131.79487179 , 4214.35897436 , 4134.35897436 , 4134.87179487 , 4133.84615385 , 4135.38461538 , 4139.48717949 , 4143.58974359 , 4146.15384615 , 4157.94871795 , 4465.64102564 , 4136.41025641 , 4136.41025641 , 2034.0 , 2031.0 , 7.189 , 0.0 , 0.0 , 0.0 , 0.0 , 

71.0 , 4135.8974359 , 4134.35897436 , 4231.28205128 , 4134.35897436 , 4135.8974359 , 4133.84615385 , 4134.35897436 , 4141.53846154 , 4140.51282051 , 4147.69230769 , 4161.53846154 , 4467.17948718 , 4135.38461538 , 4139.48717949 , 2034.0 , 2030.0 , 7.197 , 0.0 , 0.0 , 0.0 , 0.0 , 

72.0 , 4135.8974359 , 4136.41025641 , 4249.23076923 , 4134.35897436 , 4136.41025641 , 4134.35897436 , 4133.84615385 , 4144.1025641 , 4140.51282051 , 4148.71794872 , 4162.05128205 , 4469.23076923 , 4137.43589744 , 4140.0 , 2034.0 , 2028.0 , 7.205 , 0.0 , 0.0 , 0.0 , 0.0 , 

73.0 , 4135.8974359 , 4133.84615385 , 4278.97435897 , 4134.35897436 , 4134.87179487 , 4134.87179487 , 4134.35897436 , 4145.12820513 , 4145.64102564 , 4149.23076923 , 4159.48717949 , 4472.30769231 , 4141.02564103 , 4137.43589744 , 2034.0 , 2028.0 , 7.213 , 0.0 , 0.0 , 0.0 , 0.0 , 

74.0 , 4135.8974359 , 4132.30769231 , 4310.76923077 , 4134.35897436 , 4134.35897436 , 4133.84615385 , 4134.35897436 , 4144.1025641 , 4145.64102564 , 4151.28205128 , 4161.53846154 , 4477.43589744 , 4138.97435897 , 4138.46153846 , 2036.0 , 2028.0 , 7.221 , 0.0 , 0.0 , 0.0 , 0.0 , 

75.0 , 4136.92307692 , 4133.33333333 , 4327.69230769 , 4133.84615385 , 4134.35897436 , 4133.33333333 , 4134.35897436 , 4144.61538462 , 4145.12820513 , 4149.23076923 , 4163.07692308 , 4480.51282051 , 4137.94871795 , 4142.56410256 , 2036.0 , 2030.0 , 7.229 , 0.0 , 0.0 , 0.0 , 0.0 , 

76.0 , 4135.38461538 , 4134.35897436 , 4376.41025641 , 4134.35897436 , 4134.35897436 , 4136.41025641 , 4134.35897436 , 4149.74358974 , 4150.25641026 , 4153.33333333 , 4165.64102564 , 4484.1025641 , 4147.17948718 , 4144.1025641 , 2036.0 , 2030.0 , 7.237 , 0.0 , 0.0 , 0.0 , 0.0 , 

77.0 , 4135.8974359 , 4132.82051282 , 4374.35897436 , 4134.87179487 , 4134.35897436 , 4131.28205128 , 4134.35897436 , 4143.07692308 , 4146.15384615 , 4154.87179487 , 4164.1025641 , 4484.61538462 , 4143.07692308 , 4140.0 , 2036.0 , 2030.0 , 7.245 , 0.0 , 0.0 , 0.0 , 0.0 , 

78.0 , 4138.46153846 , 4129.74358974 , 4313.33333333 , 4135.38461538 , 4134.35897436 , 4123.58974359 , 4134.35897436 , 4133.84615385 , 4137.43589744 , 4147.17948718 , 4156.92307692 , 4485.64102564 , 4135.38461538 , 4137.43589744 , 2037.0 , 2032.0 , 7.253 , 0.0 , 0.0 , 0.0 , 0.0 , 

79.0 , 4131.79487179 , 4130.76923077 , 4283.07692308 , 4135.38461538 , 4134.35897436 , 4128.71794872 , 4134.35897436 , 4135.38461538 , 4136.41025641 , 4139.48717949 , 4154.35897436 , 4486.66666667 , 4135.38461538 , 4135.8974359 , 2038.0 , 2034.0 , 7.261 , 0.0 , 0.0 , 0.0 , 0.0 , 

80.0 , 4127.69230769 , 4135.8974359 , 4294.35897436 , 4136.41025641 , 4134.35897436 , 4134.87179487 , 4134.87179487 , 4137.94871795 , 4140.0 , 4142.56410256 , 4158.97435897 , 4488.71794872 , 4137.94871795 , 4135.8974359 , 2039.0 , 2035.0 , 7.268 , 0.0 , 0.0 , 0.0 , 0.0 , 

81.0 , 4132.30769231 , 4132.82051282 , 4289.74358974 , 4135.8974359 , 4134.35897436 , 4130.76923077 , 4132.82051282 , 4134.87179487 , 4138.46153846 , 4141.53846154 , 4158.97435897 , 4491.28205128 , 4133.33333333 , 4135.38461538 , 2041.0 , 2037.0 , 7.276 , 0.0 , 0.0 , 0.0 , 0.0 , 

82.0 , 4135.38461538 , 4130.76923077 , 4272.82051282 , 4135.38461538 , 4134.35897436 , 4132.82051282 , 4131.79487179 , 4135.38461538 , 4136.92307692 , 4135.8974359 , 4158.46153846 , 4492.82051282 , 4133.33333333 , 4135.38461538 , 2039.0 , 2038.0 , 7.283 , 0.0 , 0.0 , 0.0 , 0.0 , 

83.0 , 4130.76923077 , 4132.82051282 , 4278.97435897 , 4136.41025641 , 4134.35897436 , 4135.38461538 , 4132.82051282 , 4137.43589744 , 4137.94871795 , 4137.43589744 , 4162.05128205 , 4492.30769231 , 4136.92307692 , 4138.46153846 , 2038.0 , 2039.0 , 7.292 , 0.0 , 0.0 , 0.0 , 0.0 , 

84.0 , 4129.74358974 , 4129.74358974 , 4264.61538462 , 4136.41025641 , 4133.84615385 , 4129.74358974 , 4132.30769231 , 4134.87179487 , 4137.43589744 , 4139.48717949 , 4160.0 , 4494.35897436 , 4133.33333333 , 4140.51282051 , 2038.0 , 2040.0 , 7.3 , 0.0 , 0.0 , 0.0 , 0.0 , 

85.0 , 4133.33333333 , 4128.20512821 , 4268.71794872 , 4135.38461538 , 4133.84615385 , 4131.28205128 , 4132.82051282 , 4136.92307692 , 4138.46153846 , 4137.94871795 , 4157.43589744 , 4505.12820513 , 4134.87179487 , 4140.51282051 , 2038.0 , 2039.0 , 7.308 , 0.0 , 0.0 , 0.0 , 0.0 , 

86.0 , 4136.41025641 , 4128.20512821 , 4267.69230769 , 4136.41025641 , 4134.35897436 , 4137.94871795 , 4135.38461538 , 4136.92307692 , 4135.8974359 , 4138.97435897 , 4160.51282051 , 4508.20512821 , 4134.87179487 , 4137.43589744 , 2037.0 , 2040.0 , 7.315 , 0.0 , 0.0 , 0.0 , 0.0 , 

87.0 , 4137.43589744 , 4128.71794872 , 4259.48717949 , 4137.94871795 , 4133.84615385 , 4134.87179487 , 4135.38461538 , 4136.92307692 , 4135.8974359 , 4149.23076923 , 4162.56410256 , 4504.61538462 , 4135.38461538 , 4135.38461538 , 2036.0 , 2040.0 , 7.323 , 0.0 , 0.0 , 0.0 , 0.0 , 

88.0 , 4133.84615385 , 4133.33333333 , 4254.35897436 , 4137.43589744 , 4134.35897436 , 4134.35897436 , 4133.84615385 , 4137.43589744 , 4136.41025641 , 4148.71794872 , 4160.0 , 4508.71794872 , 4134.87179487 , 4135.8974359 , 2034.0 , 2041.0 , 7.331 , 0.0 , 0.0 , 0.0 , 0.0 , 

89.0 , 4133.33333333 , 4135.8974359 , 4251.79487179 , 4135.38461538 , 4135.38461538 , 4135.38461538 , 4134.87179487 , 4137.43589744 , 4135.8974359 , 4137.43589744 , 4159.48717949 , 4513.84615385 , 4133.84615385 , 4137.43589744 , 2033.0 , 2041.0 , 7.339 , 0.0 , 0.0 , 0.0 , 0.0 , 

90.0 , 4136.41025641 , 4134.35897436 , 4253.33333333 , 4133.84615385 , 4135.8974359 , 4131.28205128 , 4132.30769231 , 4136.92307692 , 4135.8974359 , 4135.38461538 , 4162.05128205 , 4511.28205128 , 4134.35897436 , 4137.94871795 , 2029.0 , 2040.0 , 7.347 , 0.0 , 0.0 , 0.0 , 0.0 , 

91.0 , 4135.8974359 , 4133.84615385 , 4246.66666667 , 4134.35897436 , 4134.87179487 , 4129.23076923 , 4127.69230769 , 4136.41025641 , 4135.8974359 , 4140.0 , 4161.53846154 , 4515.8974359 , 4136.41025641 , 4138.97435897 , 2028.0 , 2041.0 , 7.355 , 0.0 , 0.0 , 0.0 , 0.0 , 

92.0 , 4134.87179487 , 4130.25641026 , 4243.58974359 , 4136.92307692 , 4133.84615385 , 4132.30769231 , 4128.20512821 , 4137.94871795 , 4135.8974359 , 4140.0 , 4160.0 , 4522.56410256 , 4137.94871795 , 4138.97435897 , 2026.0 , 2042.0 , 7.363 , 0.0 , 0.0 , 0.0 , 0.0 , 

93.0 , 4135.38461538 , 4126.66666667 , 4246.15384615 , 4136.92307692 , 4134.35897436 , 4132.30769231 , 4130.25641026 , 4138.97435897 , 4135.8974359 , 4139.48717949 , 4161.02564103 , 4521.02564103 , 4137.43589744 , 4136.92307692 , 2024.0 , 2043.0 , 7.371 , 0.0 , 0.0 , 0.0 , 0.0 , 

94.0 , 4135.8974359 , 4133.33333333 , 4247.69230769 , 4135.8974359 , 4134.35897436 , 4134.35897436 , 4126.15384615 , 4136.41025641 , 4135.8974359 , 4140.0 , 4161.02564103 , 4521.53846154 , 4136.92307692 , 4135.8974359 , 2023.0 , 2044.0 , 7.378 , 0.0 , 0.0 , 0.0 , 0.0 , 

95.0 , 4134.35897436 , 4136.41025641 , 4244.1025641 , 4136.41025641 , 4134.35897436 , 4139.48717949 , 4126.15384615 , 4133.84615385 , 4135.8974359 , 4136.92307692 , 4159.48717949 , 4523.07692308 , 4136.92307692 , 4137.43589744 , 2021.0 , 2045.0 , 7.386 , 0.0 , 0.0 , 0.0 , 0.0 , 

96.0 , 4132.82051282 , 4132.82051282 , 4244.1025641 , 4136.41025641 , 4134.35897436 , 4130.76923077 , 4134.35897436 , 4135.8974359 , 4135.8974359 , 4140.0 , 4160.51282051 , 4525.64102564 , 4136.41025641 , 4137.94871795 , 2020.0 , 2044.0 , 7.394 , 0.0 , 0.0 , 0.0 , 0.0 , 

97.0 , 4131.79487179 , 4132.82051282 , 4246.15384615 , 4135.38461538 , 4134.35897436 , 4122.56410256 , 4136.92307692 , 4137.94871795 , 4135.8974359 , 4143.58974359 , 4161.53846154 , 4531.79487179 , 4135.38461538 , 4137.94871795 , 2020.0 , 2044.0 , 7.402 , 0.0 , 0.0 , 0.0 , 0.0 , 

98.0 , 4133.33333333 , 4134.35897436 , 4237.94871795 , 4135.38461538 , 4134.35897436 , 4130.25641026 , 4133.33333333 , 4136.92307692 , 4135.8974359 , 4140.0 , 4161.02564103 , 4532.30769231 , 4134.87179487 , 4137.94871795 , 2019.0 , 2044.0 , 7.41 , 0.0 , 0.0 , 0.0 , 0.0 , 

99.0 , 4137.94871795 , 4133.33333333 , 4236.41025641 , 4135.8974359 , 4134.35897436 , 4136.41025641 , 4133.84615385 , 4135.8974359 , 4135.8974359 , 4136.92307692 , 4161.53846154 , 4529.74358974 , 4135.38461538 , 4137.43589744 , 2019.0 , 2044.0 , 7.418 , 0.0 , 0.0 , 0.0 , 0.0 , 

100.0 , 4136.41025641 , 4134.87179487 , 4243.58974359 , 4135.38461538 , 4134.35897436 , 4131.28205128 , 4131.28205128 , 4136.41025641 , 4135.8974359 , 4137.94871795 , 4164.61538462 , 4537.43589744 , 4136.41025641 , 4137.43589744 , 2019.0 , 2042.0 , 7.426 , 0.0 , 0.0 , 0.0 , 0.0 , 

101.0 , 4132.82051282 , 4136.92307692 , 4247.69230769 , 4136.92307692 , 4134.35897436 , 4131.79487179 , 4128.71794872 , 4136.41025641 , 4135.8974359 , 4138.46153846 , 4163.58974359 , 4542.05128205 , 4135.8974359 , 4138.46153846 , 2019.0 , 2042.0 , 7.434 , 0.0 , 0.0 , 0.0 , 0.0 , 

102.0 , 4134.87179487 , 4135.8974359 , 4240.51282051 , 4138.46153846 , 4134.35897436 , 4135.38461538 , 4131.79487179 , 4135.38461538 , 4135.8974359 , 4140.0 , 4160.0 , 4540.51282051 , 4135.38461538 , 4138.97435897 , 2023.0 , 2042.0 , 7.441 , 0.0 , 0.0 , 0.0 , 0.0 , 

103.0 , 4136.92307692 , 4135.38461538 , 4236.92307692 , 4137.43589744 , 4134.35897436 , 4131.28205128 , 4132.30769231 , 4135.38461538 , 4135.8974359 , 4139.48717949 , 4158.97435897 , 4544.61538462 , 4135.8974359 , 4137.94871795 , 2025.0 , 2042.0 , 7.449 , 0.0 , 0.0 , 0.0 , 0.0 , 

104.0 , 4135.8974359 , 4135.8974359 , 4238.97435897 , 4135.38461538 , 4134.35897436 , 4130.25641026 , 4131.79487179 , 4137.43589744 , 4135.8974359 , 4140.0 , 4162.56410256 , 4546.15384615 , 4135.8974359 , 4137.43589744 , 2029.0 , 2042.0 , 7.458 , 0.0 , 0.0 , 0.0 , 0.0 , 

105.0 , 4135.38461538 , 4136.41025641 , 4241.02564103 , 4134.87179487 , 4134.35897436 , 4135.38461538 , 4134.87179487 , 4137.94871795 , 4135.8974359 , 4148.71794872 , 4163.58974359 , 4545.12820513 , 4135.8974359 , 4138.97435897 , 2031.0 , 2039.0 , 7.466 , 0.0 , 0.0 , 0.0 , 0.0 , 

106.0 , 4136.41025641 , 4131.79487179 , 4236.41025641 , 4136.41025641 , 4134.35897436 , 4135.38461538 , 4135.8974359 , 4136.92307692 , 4135.8974359 , 4147.17948718 , 4160.51282051 , 4548.71794872 , 4135.8974359 , 4138.97435897 , 2035.0 , 2037.0 , 7.472 , 0.0 , 0.0 , 0.0 , 0.0 , 

107.0 , 4135.38461538 , 4128.20512821 , 4232.82051282 , 4137.43589744 , 4134.35897436 , 4131.28205128 , 4134.87179487 , 4136.41025641 , 4135.8974359 , 4135.38461538 , 4157.43589744 , 4550.76923077 , 4135.8974359 , 4137.94871795 , 2037.0 , 2037.0 , 7.481 , 0.0 , 0.0 , 0.0 , 0.0 , 

108.0 , 4133.33333333 , 4130.25641026 , 4233.84615385 , 4136.41025641 , 4134.35897436 , 4132.82051282 , 4134.35897436 , 4136.41025641 , 4135.8974359 , 4141.02564103 , 4159.48717949 , 4552.30769231 , 4135.8974359 , 4138.97435897 , 2040.0 , 2036.0 , 7.489 , 0.0 , 0.0 , 0.0 , 0.0 , 

109.0 , 4134.87179487 , 4131.28205128 , 4236.92307692 , 4135.38461538 , 4134.35897436 , 4134.87179487 , 4135.38461538 , 4135.8974359 , 4135.8974359 , 4151.79487179 , 4162.56410256 , 4554.87179487 , 4136.41025641 , 4139.48717949 , 2043.0 , 2033.0 , 7.54 , 0.0 , 0.0 , 0.0 , 0.0 , 

110.0 , 4136.41025641 , 4128.71794872 , 4231.28205128 , 4135.8974359 , 4134.35897436 , 4131.28205128 , 4135.38461538 , 4136.41025641 , 4135.8974359 , 4147.17948718 , 4161.02564103 , 4554.87179487 , 4135.8974359 , 4138.46153846 , 2044.0 , 2033.0 , 7.541 , 0.0 , 0.0 , 0.0 , 0.0 , 

111.0 , 4136.41025641 , 4127.69230769 , 4223.58974359 , 4135.8974359 , 4134.35897436 , 4128.71794872 , 4132.82051282 , 4134.87179487 , 4135.8974359 , 4140.51282051 , 4159.48717949 , 4555.38461538 , 4135.38461538 , 4137.43589744 , 2043.0 , 2030.0 , 7.541 , 0.0 , 0.0 , 0.0 , 0.0 , 

112.0 , 4135.38461538 , 4131.28205128 , 4225.64102564 , 4137.43589744 , 4135.8974359 , 4129.74358974 , 4130.25641026 , 4133.84615385 , 4135.8974359 , 4137.94871795 , 4161.02564103 , 4557.94871795 , 4135.8974359 , 4136.41025641 , 2043.0 , 2032.0 , 7.541 , 0.0 , 0.0 , 0.0 , 0.0 , 

113.0 , 4135.8974359 , 4128.71794872 , 4229.74358974 , 4138.46153846 , 4136.41025641 , 4130.76923077 , 4133.84615385 , 4135.8974359 , 4135.8974359 , 4138.97435897 , 4163.07692308 , 4561.02564103 , 4135.8974359 , 4136.41025641 , 2042.0 , 2032.0 , 7.541 , 0.0 , 0.0 , 0.0 , 0.0 , 

114.0 , 4136.92307692 , 4128.20512821 , 4227.17948718 , 4138.46153846 , 4135.8974359 , 4130.25641026 , 4136.92307692 , 4135.8974359 , 4135.8974359 , 4142.05128205 , 4161.02564103 , 4563.58974359 , 4135.8974359 , 4137.43589744 , 2040.0 , 2033.0 , 7.541 , 0.0 , 0.0 , 0.0 , 0.0 , 

115.0 , 4134.87179487 , 4130.76923077 , 4222.56410256 , 4137.94871795 , 4135.8974359 , 4130.25641026 , 4132.30769231 , 4134.87179487 , 4135.8974359 , 4144.1025641 , 4158.46153846 , 4564.61538462 , 4136.41025641 , 4138.46153846 , 2040.0 , 2036.0 , 7.546 , 0.0 , 0.0 , 0.0 , 0.0 , 

116.0 , 4133.84615385 , 4129.74358974 , 4224.1025641 , 4137.43589744 , 4135.8974359 , 4128.71794872 , 4130.25641026 , 4135.38461538 , 4135.8974359 , 4143.07692308 , 4160.51282051 , 4565.64102564 , 4137.43589744 , 4137.94871795 , 2039.0 , 2035.0 , 7.552 , 0.0 , 0.0 , 0.0 , 0.0 , 

117.0 , 4134.87179487 , 4130.76923077 , 4221.53846154 , 4135.8974359 , 4135.8974359 , 4129.74358974 , 4135.8974359 , 4136.41025641 , 4136.41025641 , 4140.51282051 , 4162.56410256 , 4571.28205128 , 4136.41025641 , 4135.8974359 , 2038.0 , 2035.0 , 7.559 , 0.0 , 0.0 , 0.0 , 0.0 , 

118.0 , 4136.41025641 , 4132.30769231 , 4222.05128205 , 4136.92307692 , 4135.38461538 , 4130.25641026 , 4136.41025641 , 4135.8974359 , 4137.43589744 , 4137.94871795 , 4160.0 , 4572.82051282 , 4134.87179487 , 4135.8974359 , 2038.0 , 2034.0 , 7.566 , 0.0 , 0.0 , 0.0 , 0.0 , 

119.0 , 4137.94871795 , 4130.25641026 , 4224.1025641 , 4138.97435897 , 4134.35897436 , 4129.74358974 , 4132.82051282 , 4135.38461538 , 4137.94871795 , 4140.0 , 4160.51282051 , 4573.33333333 , 4135.8974359 , 4137.94871795 , 2038.0 , 2033.0 , 7.726 , 0.0 , 0.0 , 0.0 , 0.0 , 

120.0 , 4137.43589744 , 4128.71794872 , 4224.61538462 , 4137.43589744 , 4134.35897436 , 4129.74358974 , 4134.87179487 , 4135.8974359 , 4137.94871795 , 4141.02564103 , 4162.56410256 , 4576.92307692 , 4137.43589744 , 4137.94871795 , 2039.0 , 2030.0 , 7.727 , 0.0 , 0.0 , 0.0 , 0.0 , 

121.0 , 4135.38461538 , 4131.79487179 , 4223.58974359 , 4135.38461538 , 4135.8974359 , 4130.25641026 , 4138.97435897 , 4135.8974359 , 4136.41025641 , 4138.46153846 , 4161.02564103 , 4576.41025641 , 4137.94871795 , 4136.92307692 , 2039.0 , 2031.0 , 7.727 , 0.0 , 0.0 , 0.0 , 0.0 , 

122.0 , 4134.87179487 , 4133.84615385 , 4224.61538462 , 4136.41025641 , 4136.41025641 , 4130.25641026 , 4137.43589744 , 4135.38461538 , 4136.92307692 , 4134.87179487 , 4159.48717949 , 4575.8974359 , 4136.41025641 , 4136.92307692 , 2039.0 , 2032.0 , 7.727 , 0.0 , 0.0 , 0.0 , 0.0 , 

123.0 , 4135.38461538 , 4131.28205128 , 4222.56410256 , 4137.94871795 , 4135.8974359 , 4130.25641026 , 4136.92307692 , 4135.8974359 , 4137.43589744 , 4138.46153846 , 4161.02564103 , 4584.61538462 , 4136.92307692 , 4137.43589744 , 2038.0 , 2033.0 , 7.727 , 0.0 , 0.0 , 0.0 , 0.0 , 

124.0 , 4134.87179487 , 4131.28205128 , 4217.94871795 , 4136.92307692 , 4135.8974359 , 4130.25641026 , 4137.94871795 , 4133.84615385 , 4136.41025641 , 4143.07692308 , 4161.53846154 , 4585.64102564 , 4138.46153846 , 4136.92307692 , 2041.0 , 2031.0 , 7.727 , 0.0 , 0.0 , 0.0 , 0.0 , 

125.0 , 4133.33333333 , 4131.79487179 , 4212.30769231 , 4136.92307692 , 4135.8974359 , 4130.25641026 , 4137.43589744 , 4134.35897436 , 4135.8974359 , 4140.51282051 , 4161.53846154 , 4582.05128205 , 4135.8974359 , 4136.92307692 , 2040.0 , 2032.0 , 7.727 , 0.0 , 0.0 , 0.0 , 0.0 , 

126.0 , 4134.35897436 , 4132.82051282 , 4217.43589744 , 4137.94871795 , 4135.8974359 , 4130.25641026 , 4137.43589744 , 4136.92307692 , 4135.8974359 , 4136.92307692 , 4160.51282051 , 4587.17948718 , 4131.79487179 , 4137.94871795 , 2041.0 , 2033.0 , 7.727 , 0.0 , 0.0 , 0.0 , 0.0 , 

127.0 , 4136.41025641 , 4133.84615385 , 4203.58974359 , 4136.41025641 , 4135.8974359 , 4130.25641026 , 4137.43589744 , 4132.82051282 , 4135.8974359 , 4137.94871795 , 4158.97435897 , 4591.79487179 , 4132.30769231 , 4137.43589744 , 2044.0 , 2036.0 , 7.727 , 0.0 , 0.0 , 0.0 , 0.0 , 

128.0 , 4135.38461538 , 4131.79487179 , 4198.46153846 , 4135.38461538 , 4135.8974359 , 4130.25641026 , 4137.43589744 , 4130.25641026 , 4136.92307692 , 4138.46153846 , 4160.0 , 4591.79487179 , 4137.43589744 , 4136.92307692 , 2045.0 , 2037.0 , 7.727 , 0.0 , 0.0 , 0.0 , 0.0 , 

0.0 , 4132.30769231 , 4128.71794872 , 4195.8974359 , 4136.92307692 , 4135.8974359 , 4130.25641026 , 4137.43589744 , 4133.84615385 , 4135.38461538 , 4137.43589744 , 4159.48717949 , 4589.74358974 , 4134.35897436 , 4138.97435897 , 2047.0 , 2036.0 , 7.727 , 0.0 , 0.0 , 0.0 , 0.0 , 

1.0 , 4134.35897436 , 4127.69230769 , 4196.92307692 , 4136.41025641 , 4135.8974359 , 4130.25641026 , 4137.43589744 , 4137.43589744 , 4133.84615385 , 4140.0 , 4158.97435897 , 4590.76923077 , 4129.74358974 , 4138.46153846 , 2049.0 , 2038.0 , 7.727 , 0.0 , 0.0 , 0.0 , 0.0 , 

2.0 , 4136.92307692 , 4129.23076923 , 4190.76923077 , 4135.8974359 , 4135.8974359 , 4130.25641026 , 4137.43589744 , 4135.38461538 , 4134.87179487 , 4137.94871795 , 4160.51282051 , 4592.82051282 , 4128.71794872 , 4134.87179487 , 2048.0 , 2038.0 , 7.727 , 0.0 , 0.0 , 0.0 , 0.0 , 

3.0 , 4136.41025641 , 4131.79487179 , 4195.38461538 , 4137.43589744 , 4135.8974359 , 4130.25641026 , 4137.43589744 , 4135.8974359 , 4136.41025641 , 4140.0 , 4161.53846154 , 4596.92307692 , 4134.35897436 , 4137.43589744 , 2048.0 , 2037.0 , 7.727 , 0.0 , 0.0 , 0.0 , 0.0 , 

4.0 , 4135.38461538 , 4136.41025641 , 4200.51282051 , 4136.92307692 , 4135.8974359 , 4130.25641026 , 4137.43589744 , 4134.87179487 , 4136.41025641 , 4142.05128205 , 4160.51282051 , 4594.35897436 , 4133.84615385 , 4137.94871795 , 2047.0 , 2036.0 , 7.727 , 0.0 , 0.0 , 0.0 , 0.0 , 

5.0 , 4135.8974359 , 4133.33333333 , 4194.87179487 , 4135.8974359 , 4135.8974359 , 4130.25641026 , 4137.43589744 , 4133.84615385 , 4137.43589744 , 4142.56410256 , 4160.0 , 4595.38461538 , 4128.71794872 , 4135.8974359 , 2049.0 , 2037.0 , 7.727 , 0.0 , 0.0 , 0.0 , 0.0 , 

6.0 , 4135.38461538 , 4124.1025641 , 4195.8974359 , 4135.8974359 , 4135.8974359 , 4130.25641026 , 4137.43589744 , 4133.84615385 , 4139.48717949 , 4143.07692308 , 4158.97435897 , 4600.0 , 4128.20512821 , 4135.38461538 , 2049.0 , 2037.0 , 7.727 , 0.0 , 0.0 , 0.0 , 0.0 , 

7.0 , 4136.41025641 , 4128.71794872 , 4190.25641026 , 4136.41025641 , 4135.8974359 , 4130.25641026 , 4137.43589744 , 4133.84615385 , 4139.48717949 , 4142.56410256 , 4158.97435897 , 4602.05128205 , 4132.30769231 , 4135.8974359 , 2048.0 , 2036.0 , 7.727 , 0.0 , 0.0 , 0.0 , 0.0 , 

8.0 , 4135.8974359 , 4136.92307692 , 4189.74358974 , 4135.8974359 , 4135.8974359 , 4130.25641026 , 4137.43589744 , 4133.84615385 , 4137.94871795 , 4142.05128205 , 4160.51282051 , 4603.07692308 , 4131.28205128 , 4133.84615385 , 2050.0 , 2036.0 , 7.727 , 0.0 , 0.0 , 0.0 , 0.0 , 

9.0 , 4134.35897436 , 4134.87179487 , 4175.38461538 , 4136.92307692 , 4135.8974359 , 4130.25641026 , 4137.43589744 , 4131.28205128 , 4136.92307692 , 4142.05128205 , 4160.51282051 , 4603.58974359 , 4127.69230769 , 4133.33333333 , 2050.0 , 2036.0 , 7.727 , 0.0 , 0.0 , 0.0 , 0.0 , 

10.0 , 4134.35897436 , 4129.74358974 , 4167.69230769 , 4137.43589744 , 4135.8974359 , 4130.25641026 , 4137.43589744 , 4130.25641026 , 4136.92307692 , 4140.0 , 4158.97435897 , 4603.58974359 , 4127.69230769 , 4134.87179487 , 2051.0 , 2037.0 , 7.733 , 0.0 , 0.0 , 0.0 , 0.0 , 

11.0 , 4134.87179487 , 4131.79487179 , 4152.30769231 , 4136.92307692 , 4135.8974359 , 4130.25641026 , 4137.43589744 , 4130.25641026 , 4137.43589744 , 4135.38461538 , 4157.43589744 , 4603.07692308 , 4127.17948718 , 4134.87179487 , 2052.0 , 2038.0 , 7.741 , 0.0 , 0.0 , 0.0 , 0.0 , 

12.0 , 4135.8974359 , 4136.41025641 , 4133.84615385 , 4135.8974359 , 4135.8974359 , 4130.25641026 , 4137.43589744 , 4130.76923077 , 4135.8974359 , 4137.43589744 , 4155.38461538 , 4601.02564103 , 4127.17948718 , 4135.8974359 , 2053.0 , 2039.0 , 7.748 , 0.0 , 0.0 , 0.0 , 0.0 , 

13.0 , 4136.41025641 , 4134.87179487 , 4120.0 , 4135.8974359 , 4135.8974359 , 4130.25641026 , 4137.43589744 , 4129.23076923 , 4131.28205128 , 4138.46153846 , 4154.87179487 , 4600.51282051 , 4126.15384615 , 4136.41025641 , 2053.0 , 2038.0 , 7.757 , 0.0 , 0.0 , 0.0 , 0.0 , 

14.0 , 4136.41025641 , 4131.79487179 , 4116.41025641 , 4135.8974359 , 4135.8974359 , 4130.25641026 , 4137.43589744 , 4129.23076923 , 4130.76923077 , 4133.84615385 , 4155.38461538 , 4601.02564103 , 4124.1025641 , 4133.84615385 , 2055.0 , 2041.0 , 7.763 , 0.0 , 0.0 , 0.0 , 0.0 , 

15.0 , 4134.87179487 , 4132.30769231 , 4103.07692308 , 4135.8974359 , 4135.8974359 , 4130.25641026 , 4137.43589744 , 4129.23076923 , 4130.76923077 , 4130.25641026 , 4157.43589744 , 4599.48717949 , 4126.66666667 , 4131.28205128 , 2055.0 , 2040.0 , 7.773 , 0.0 , 0.0 , 0.0 , 0.0 , 

16.0 , 4134.87179487 , 4136.92307692 , 4086.66666667 , 4135.8974359 , 4135.8974359 , 4130.25641026 , 4137.43589744 , 4127.17948718 , 4130.76923077 , 4131.28205128 , 4158.97435897 , 4597.94871795 , 4128.20512821 , 4132.82051282 , 2056.0 , 2043.0 , 7.78 , 0.0 , 0.0 , 0.0 , 0.0 , 

17.0 , 4136.41025641 , 4136.41025641 , 4091.79487179 , 4135.8974359 , 4135.8974359 , 4130.25641026 , 4137.43589744 , 4127.17948718 , 4133.33333333 , 4133.84615385 , 4161.53846154 , 4601.02564103 , 4126.66666667 , 4133.33333333 , 2057.0 , 2043.0 , 7.788 , 0.0 , 0.0 , 0.0 , 0.0 , 

18.0 , 4135.8974359 , 4132.82051282 , 4105.12820513 , 4135.8974359 , 4135.8974359 , 4130.25641026 , 4137.43589744 , 4129.23076923 , 4137.43589744 , 4137.94871795 , 4162.56410256 , 4604.61538462 , 4128.20512821 , 4133.33333333 , 2056.0 , 2041.0 , 7.795 , 0.0 , 0.0 , 0.0 , 0.0 , 

19.0 , 4133.33333333 , 4133.33333333 , 4109.74358974 , 4135.8974359 , 4135.8974359 , 4130.25641026 , 4137.43589744 , 4130.25641026 , 4137.94871795 , 4138.97435897 , 4158.97435897 , 4604.61538462 , 4129.74358974 , 4133.84615385 , 2057.0 , 2040.0 , 7.804 , 0.0 , 0.0 , 0.0 , 0.0 , 

20.0 , 4133.84615385 , 4133.84615385 , 4118.46153846 , 4135.8974359 , 4135.8974359 , 4130.25641026 , 4137.43589744 , 4131.79487179 , 4137.94871795 , 4138.46153846 , 4158.46153846 , 4603.58974359 , 4129.74358974 , 4133.84615385 , 2059.0 , 2040.0 , 7.812 , 0.0 , 0.0 , 0.0 , 0.0 , 

21.0 , 4136.41025641 , 4130.25641026 , 4139.48717949 , 4135.8974359 , 4135.8974359 , 4130.25641026 , 4137.43589744 , 4134.87179487 , 4137.94871795 , 4141.02564103 , 4161.53846154 , 4604.1025641 , 4132.82051282 , 4134.35897436 , 2059.0 , 2041.0 , 7.82 , 0.0 , 0.0 , 0.0 , 0.0 , 

22.0 , 4135.38461538 , 4130.76923077 , 4154.35897436 , 4135.8974359 , 4135.8974359 , 4130.25641026 , 4137.43589744 , 4136.92307692 , 4139.48717949 , 4144.1025641 , 4165.12820513 , 4605.12820513 , 4134.35897436 , 4134.87179487 , 2058.0 , 2043.0 , 7.828 , 0.0 , 0.0 , 0.0 , 0.0 , 

23.0 , 4132.82051282 , 4136.92307692 , 4152.82051282 , 4135.8974359 , 4135.8974359 , 4130.25641026 , 4137.43589744 , 4136.41025641 , 4143.58974359 , 4145.12820513 , 4163.07692308 , 4603.58974359 , 4132.82051282 , 4135.38461538 , 2059.0 , 2040.0 , 7.836 , 0.0 , 0.0 , 0.0 , 0.0 , 

24.0 , 4133.84615385 , 4135.8974359 , 4150.76923077 , 4135.38461538 , 4135.8974359 , 4130.25641026 , 4137.43589744 , 4136.41025641 , 4142.05128205 , 4142.56410256 , 4161.53846154 , 4604.61538462 , 4133.33333333 , 4138.46153846 , 2061.0 , 2039.0 , 7.843 , 0.0 , 0.0 , 0.0 , 0.0 , 

25.0 , 4136.41025641 , 4130.25641026 , 4143.07692308 , 4135.8974359 , 4134.87179487 , 4130.25641026 , 4137.43589744 , 4134.35897436 , 4136.41025641 , 4138.97435897 , 4161.53846154 , 4605.12820513 , 4131.79487179 , 4137.94871795 , 2061.0 , 2036.0 , 7.851 , 0.0 , 0.0 , 0.0 , 0.0 , 

26.0 , 4135.8974359 , 4132.82051282 , 4127.69230769 , 4136.92307692 , 4134.35897436 , 4130.25641026 , 4137.43589744 , 4131.79487179 , 4139.48717949 , 4136.92307692 , 4160.51282051 , 4604.61538462 , 4128.20512821 , 4133.33333333 , 2060.0 , 2031.0 , 7.859 , 0.0 , 0.0 , 0.0 , 0.0 , 

27.0 , 4133.33333333 , 4136.41025641 , 4109.23076923 , 4136.41025641 , 4134.35897436 , 4130.25641026 , 4137.43589744 , 4128.71794872 , 4139.48717949 , 4134.87179487 , 4160.51282051 , 4603.58974359 , 4127.17948718 , 4132.30769231 , 2060.0 , 2030.0 , 7.867 , 0.0 , 0.0 , 0.0 , 0.0 , 

28.0 , 4134.35897436 , 4134.87179487 , 4097.43589744 , 4134.87179487 , 4134.35897436 , 4130.25641026 , 4137.43589744 , 4129.23076923 , 4131.28205128 , 4137.94871795 , 4162.05128205 , 4602.56410256 , 4128.71794872 , 4135.38461538 , 2056.0 , 2033.0 , 7.875 , 0.0 , 0.0 , 0.0 , 0.0 , 

29.0 , 4136.41025641 , 4134.87179487 , 4088.71794872 , 4134.87179487 , 4134.35897436 , 4130.25641026 , 4137.43589744 , 4131.28205128 , 4129.23076923 , 4140.0 , 4159.48717949 , 4601.53846154 , 4127.17948718 , 4134.35897436 , 2056.0 , 2033.0 , 7.883 , 0.0 , 0.0 , 0.0 , 0.0 , 

30.0 , 4135.8974359 , 4136.41025641 , 4074.35897436 , 4135.38461538 , 4134.35897436 , 4130.25641026 , 4137.43589744 , 4130.25641026 , 4133.84615385 , 4136.41025641 , 4157.43589744 , 4601.02564103 , 4127.17948718 , 4131.28205128 , 2056.0 , 2036.0 , 7.891 , 0.0 , 0.0 , 0.0 , 0.0 , 

31.0 , 4135.38461538 , 4136.41025641 , 4054.35897436 , 4136.92307692 , 4134.35897436 , 4130.25641026 , 4137.43589744 , 4127.69230769 , 4134.35897436 , 4133.84615385 , 4157.43589744 , 4600.0 , 4126.66666667 , 4130.25641026 , 2053.0 , 2036.0 , 7.899 , 0.0 , 0.0 , 0.0 , 0.0 , 

32.0 , 4135.38461538 , 4136.41025641 , 4043.58974359 , 4136.92307692 , 4134.35897436 , 4130.25641026 , 4137.43589744 , 4130.76923077 , 4131.79487179 , 4135.38461538 , 4158.97435897 , 4600.0 , 4126.66666667 , 4131.79487179 , 2055.0 , 2037.0 , 7.907 , 0.0 , 0.0 , 0.0 , 0.0 , 

33.0 , 4135.38461538 , 4136.41025641 , 4035.8974359 , 4136.41025641 , 4134.35897436 , 4130.25641026 , 4137.43589744 , 4130.76923077 , 4131.79487179 , 4130.76923077 , 4158.46153846 , 4596.92307692 , 4125.64102564 , 4133.33333333 , 2053.0 , 2039.0 , 7.915 , 0.0 , 0.0 , 0.0 , 0.0 , 

34.0 , 4135.38461538 , 4133.84615385 , 4018.46153846 , 4135.8974359 , 4134.35897436 , 4130.25641026 , 4137.43589744 , 4127.17948718 , 4131.79487179 , 4129.23076923 , 4156.92307692 , 4593.84615385 , 4124.61538462 , 4132.30769231 , 2053.0 , 2040.0 , 7.922 , 0.0 , 0.0 , 0.0 , 0.0 , 

35.0 , 4134.35897436 , 4134.35897436 , 4007.69230769 , 4136.41025641 , 4134.35897436 , 4130.25641026 , 4137.43589744 , 4127.17948718 , 4132.30769231 , 4135.8974359 , 4158.46153846 , 4592.82051282 , 4124.61538462 , 4130.25641026 , 2054.0 , 2040.0 , 7.93 , 0.0 , 0.0 , 0.0 , 0.0 , 

36.0 , 4132.30769231 , 4136.41025641 , 4007.69230769 , 4136.41025641 , 4134.35897436 , 4130.25641026 , 4137.43589744 , 4129.23076923 , 4131.79487179 , 4134.35897436 , 4161.02564103 , 4591.28205128 , 4126.66666667 , 4130.25641026 , 2054.0 , 2041.0 , 7.938 , 0.0 , 0.0 , 0.0 , 0.0 , 

37.0 , 4134.35897436 , 4135.38461538 , 4000.51282051 , 4135.38461538 , 4134.35897436 , 4130.25641026 , 4137.43589744 , 4127.69230769 , 4131.28205128 , 4131.79487179 , 4159.48717949 , 4589.74358974 , 4127.17948718 , 4131.28205128 , 2054.0 , 2042.0 , 7.946 , 0.0 , 0.0 , 0.0 , 0.0 , 

38.0 , 4136.41025641 , 4134.35897436 , 3981.53846154 , 4135.38461538 , 4134.35897436 , 4130.25641026 , 4137.43589744 , 4126.15384615 , 4130.76923077 , 4132.30769231 , 4155.8974359 , 4588.20512821 , 4124.1025641 , 4131.28205128 , 2055.0 , 2040.0 , 7.954 , 0.0 , 0.0 , 0.0 , 0.0 , 

39.0 , 4134.35897436 , 4134.87179487 , 3966.66666667 , 4136.41025641 , 4134.35897436 , 4130.25641026 , 4137.43589744 , 4127.17948718 , 4130.25641026 , 4131.79487179 , 4156.92307692 , 4583.07692308 , 4123.07692308 , 4130.25641026 , 2053.0 , 2040.0 , 7.962 , 0.0 , 0.0 , 0.0 , 0.0 , 

40.0 , 4134.87179487 , 4134.87179487 , 3954.35897436 , 4135.8974359 , 4134.35897436 , 4130.25641026 , 4137.43589744 , 4127.69230769 , 4130.25641026 , 4131.28205128 , 4157.94871795 , 4577.43589744 , 4123.58974359 , 4131.28205128 , 2051.0 , 2038.0 , 7.969 , 0.0 , 0.0 , 0.0 , 0.0 , 

41.0 , 4135.8974359 , 4134.87179487 , 3942.05128205 , 4135.38461538 , 4134.35897436 , 4130.25641026 , 4137.43589744 , 4126.15384615 , 4130.25641026 , 4133.33333333 , 4155.8974359 , 4577.94871795 , 4122.56410256 , 4133.84615385 , 2050.0 , 2038.0 , 7.977 , 0.0 , 0.0 , 0.0 , 0.0 , 

42.0 , 4134.87179487 , 4135.8974359 , 3921.53846154 , 4136.92307692 , 4134.35897436 , 4130.25641026 , 4137.43589744 , 4124.61538462 , 4128.20512821 , 4132.82051282 , 4155.38461538 , 4573.84615385 , 4121.02564103 , 4132.82051282 , 2053.0 , 2036.0 , 7.985 , 0.0 , 0.0 , 0.0 , 0.0 , 

43.0 , 4134.87179487 , 4135.8974359 , 3901.53846154 , 4136.41025641 , 4134.35897436 , 4130.25641026 , 4137.43589744 , 4125.12820513 , 4127.69230769 , 4130.25641026 , 4156.92307692 , 4565.12820513 , 4123.07692308 , 4130.76923077 , 2053.0 , 2034.0 , 7.993 , 0.0 , 0.0 , 0.0 , 0.0 , 

44.0 , 4135.8974359 , 4133.84615385 , 3886.66666667 , 4134.35897436 , 4134.35897436 , 4130.25641026 , 4137.43589744 , 4123.58974359 , 4128.20512821 , 4129.23076923 , 4156.92307692 , 4561.02564103 , 4122.56410256 , 4129.74358974 , 2054.0 , 2038.0 , 8.001 , 0.0 , 0.0 , 0.0 , 0.0 , 

45.0 , 4135.8974359 , 4133.33333333 , 3872.30769231 , 4134.87179487 , 4134.35897436 , 4130.25641026 , 4137.43589744 , 4121.53846154 , 4129.74358974 , 4128.71794872 , 4155.38461538 , 4556.41025641 , 4120.51282051 , 4131.28205128 , 2056.0 , 2040.0 , 8.008 , 0.0 , 0.0 , 0.0 , 0.0 , 

46.0 , 4135.38461538 , 4135.38461538 , 3858.46153846 , 4135.8974359 , 4134.35897436 , 4130.25641026 , 4137.43589744 , 4123.07692308 , 4128.20512821 , 4131.28205128 , 4152.82051282 , 4548.71794872 , 4123.07692308 , 4131.79487179 , 2057.0 , 2040.0 , 8.016 , 0.0 , 0.0 , 0.0 , 0.0 , 

47.0 , 4134.87179487 , 4136.41025641 , 3868.20512821 , 4135.8974359 , 4134.35897436 , 4130.25641026 , 4137.43589744 , 4128.71794872 , 4127.69230769 , 4136.41025641 , 4154.87179487 , 4546.15384615 , 4128.20512821 , 4132.30769231 , 2057.0 , 2043.0 , 8.024 , 0.0 , 0.0 , 0.0 , 0.0 , 

48.0 , 4134.87179487 , 4135.8974359 , 3892.30769231 , 4135.8974359 , 4134.35897436 , 4130.25641026 , 4137.43589744 , 4131.28205128 , 4132.82051282 , 4137.43589744 , 4157.43589744 , 4546.66666667 , 4129.23076923 , 4133.33333333 , 2057.0 , 2044.0 , 8.032 , 0.0 , 0.0 , 0.0 , 0.0 , 

49.0 , 4135.38461538 , 4135.8974359 , 3910.76923077 , 4135.8974359 , 4134.35897436 , 4130.25641026 , 4137.43589744 , 4133.33333333 , 4137.94871795 , 4139.48717949 , 4157.94871795 , 4545.12820513 , 4127.69230769 , 4134.87179487 , 2060.0 , 2041.0 , 8.04 , 0.0 , 0.0 , 0.0 , 0.0 , 

50.0 , 4136.41025641 , 4135.38461538 , 3925.64102564 , 4135.8974359 , 4134.35897436 , 4130.25641026 , 4137.43589744 , 4134.87179487 , 4133.84615385 , 4143.58974359 , 4158.97435897 , 4542.56410256 , 4129.74358974 , 4136.41025641 , 2060.0 , 2041.0 , 8.047 , 0.0 , 0.0 , 0.0 , 0.0 , 

51.0 , 4135.8974359 , 4134.87179487 , 3939.48717949 , 4135.8974359 , 4134.35897436 , 4130.25641026 , 4137.43589744 , 4134.87179487 , 4134.87179487 , 4146.66666667 , 4162.05128205 , 4538.97435897 , 4131.28205128 , 4136.92307692 , 2061.0 , 2037.0 , 8.057 , 0.0 , 0.0 , 0.0 , 0.0 , 

52.0 , 4135.8974359 , 4134.87179487 , 3950.25641026 , 4135.8974359 , 4134.35897436 , 4130.25641026 , 4137.43589744 , 4134.87179487 , 4141.53846154 , 4145.12820513 , 4162.05128205 , 4532.30769231 , 4132.82051282 , 4134.87179487 , 2059.0 , 2034.0 , 8.064 , 0.0 , 0.0 , 0.0 , 0.0 , 

53.0 , 4135.8974359 , 4135.38461538 , 3955.38461538 , 4135.8974359 , 4136.41025641 , 4130.25641026 , 4137.43589744 , 4134.87179487 , 4141.02564103 , 4143.07692308 , 4160.51282051 , 4530.25641026 , 4134.35897436 , 4135.38461538 , 2059.0 , 2032.0 , 8.073 , 0.0 , 0.0 , 0.0 , 0.0 , 

54.0 , 4135.8974359 , 4135.38461538 , 3958.97435897 , 4134.87179487 , 4137.43589744 , 4130.25641026 , 4137.43589744 , 4133.84615385 , 4136.92307692 , 4143.58974359 , 4161.53846154 , 4529.74358974 , 4134.35897436 , 4135.8974359 , 2059.0 , 2030.0 , 8.08 , 0.0 , 0.0 , 0.0 , 0.0 , 

55.0 , 4134.87179487 , 4134.35897436 , 3955.8974359 , 4134.35897436 , 4136.41025641 , 4130.25641026 , 4137.43589744 , 4135.8974359 , 4140.0 , 4144.1025641 , 4161.02564103 , 4524.61538462 , 4131.79487179 , 4135.38461538 , 2057.0 , 2029.0 , 8.088 , 0.0 , 0.0 , 0.0 , 0.0 , 

56.0 , 4135.8974359 , 4135.38461538 , 3956.41025641 , 4134.35897436 , 4135.8974359 , 4130.25641026 , 4137.43589744 , 4140.0 , 4139.48717949 , 4144.1025641 , 4162.56410256 , 4519.48717949 , 4131.79487179 , 4134.87179487 , 2055.0 , 2030.0 , 8.096 , 0.0 , 0.0 , 0.0 , 0.0 , 

57.0 , 4136.92307692 , 4135.8974359 , 3966.66666667 , 4134.87179487 , 4136.41025641 , 4130.25641026 , 4137.43589744 , 4137.94871795 , 4136.92307692 , 4143.58974359 , 4162.56410256 , 4517.94871795 , 4134.87179487 , 4131.28205128 , 2053.0 , 2029.0 , 8.103 , 0.0 , 0.0 , 0.0 , 0.0 , 

58.0 , 4136.92307692 , 4135.38461538 , 3981.53846154 , 4136.41025641 , 4136.41025641 , 4130.25641026 , 4137.43589744 , 4136.92307692 , 4139.48717949 , 4145.12820513 , 4160.51282051 , 4516.92307692 , 4136.92307692 , 4131.28205128 , 2052.0 , 2030.0 , 8.111 , 0.0 , 0.0 , 0.0 , 0.0 , 

59.0 , 4136.41025641 , 4135.8974359 , 3986.66666667 , 4136.41025641 , 4135.8974359 , 4130.25641026 , 4137.43589744 , 4142.05128205 , 4141.53846154 , 4145.64102564 , 4159.48717949 , 4511.79487179 , 4134.87179487 , 4135.8974359 , 2050.0 , 2031.0 , 8.119 , 0.0 , 0.0 , 0.0 , 0.0 , 

60.0 , 4136.41025641 , 4136.92307692 , 3985.12820513 , 4134.87179487 , 4136.41025641 , 4130.25641026 , 4137.43589744 , 4143.07692308 , 4139.48717949 , 4144.1025641 , 4161.53846154 , 4507.69230769 , 4131.28205128 , 4136.92307692 , 2051.0 , 2034.0 , 8.127 , 0.0 , 0.0 , 0.0 , 0.0 , 

61.0 , 4136.92307692 , 4135.8974359 , 3987.17948718 , 4134.35897436 , 4136.41025641 , 4130.25641026 , 4137.43589744 , 4139.48717949 , 4140.0 , 4144.61538462 , 4162.56410256 , 4507.17948718 , 4130.25641026 , 4134.87179487 , 2052.0 , 2035.0 , 8.135 , 0.0 , 0.0 , 0.0 , 0.0 , 

62.0 , 4137.43589744 , 4134.35897436 , 3991.79487179 , 4134.87179487 , 4135.38461538 , 4130.25641026 , 4137.43589744 , 4141.53846154 , 4141.53846154 , 4146.66666667 , 4161.53846154 , 4504.61538462 , 4134.35897436 , 4138.97435897 , 2050.0 , 2036.0 , 8.143 , 0.0 , 0.0 , 0.0 , 0.0 , 

63.0 , 4136.92307692 , 4134.87179487 , 3992.82051282 , 4134.87179487 , 4134.87179487 , 4130.25641026 , 4137.43589744 , 4140.0 , 4137.94871795 , 4144.61538462 , 4160.51282051 , 4498.46153846 , 4136.41025641 , 4142.05128205 , 2050.0 , 2038.0 , 8.151 , 0.0 , 0.0 , 0.0 , 0.0 , 

64.0 , 4136.92307692 , 4136.41025641 , 4001.02564103 , 4134.87179487 , 4135.38461538 , 4130.25641026 , 4137.43589744 , 4136.92307692 , 4136.92307692 , 4144.61538462 , 4160.51282051 , 4497.43589744 , 4136.41025641 , 4137.43589744 , 2049.0 , 2039.0 , 8.161 , 0.0 , 0.0 , 0.0 , 0.0 , 

65.0 , 4136.92307692 , 4135.38461538 , 4009.74358974 , 4134.87179487 , 4134.87179487 , 4130.25641026 , 4137.43589744 , 4139.48717949 , 4141.02564103 , 4144.61538462 , 4160.0 , 4497.94871795 , 4135.38461538 , 4134.87179487 , 2049.0 , 2035.0 , 8.167 , 0.0 , 0.0 , 0.0 , 0.0 , 

66.0 , 4136.92307692 , 4133.33333333 , 4007.17948718 , 4134.87179487 , 4133.84615385 , 4130.25641026 , 4137.43589744 , 4139.48717949 , 4142.05128205 , 4144.1025641 , 4160.0 , 4492.30769231 , 4133.84615385 , 4137.43589744 , 2050.0 , 2034.0 , 8.174 , 0.0 , 0.0 , 0.0 , 0.0 , 

67.0 , 4136.41025641 , 4134.87179487 , 4004.1025641 , 4134.87179487 , 4134.35897436 , 4130.25641026 , 4137.43589744 , 4135.38461538 , 4141.02564103 , 4144.61538462 , 4161.02564103 , 4484.1025641 , 4132.82051282 , 4135.38461538 , 2049.0 , 2032.0 , 8.182 , 0.0 , 0.0 , 0.0 , 0.0 , 

68.0 , 4134.35897436 , 4135.8974359 , 4010.25641026 , 4134.87179487 , 4134.35897436 , 4130.25641026 , 4137.43589744 , 4136.92307692 , 4143.58974359 , 4145.64102564 , 4160.0 , 4484.61538462 , 4133.84615385 , 4131.79487179 , 2050.0 , 2032.0 , 8.19 , 0.0 , 0.0 , 0.0 , 0.0 , 

69.0 , 4134.35897436 , 4135.8974359 , 4010.76923077 , 4134.35897436 , 4134.35897436 , 4130.25641026 , 4137.43589744 , 4137.94871795 , 4142.56410256 , 4144.1025641 , 4160.0 , 4483.58974359 , 4130.76923077 , 4131.79487179 , 2050.0 , 2031.0 , 8.198 , 0.0 , 0.0 , 0.0 , 0.0 , 

70.0 , 4135.8974359 , 4134.87179487 , 4004.61538462 , 4135.38461538 , 4136.41025641 , 4130.25641026 , 4137.43589744 , 4134.35897436 , 4137.43589744 , 4143.07692308 , 4162.05128205 , 4478.46153846 , 4128.20512821 , 4133.84615385 , 2049.0 , 2032.0 , 8.206 , 0.0 , 0.0 , 0.0 , 0.0 , 

71.0 , 4135.8974359 , 4135.8974359 , 4007.17948718 , 4136.92307692 , 4137.43589744 , 4130.25641026 , 4137.43589744 , 4135.38461538 , 4135.38461538 , 4142.56410256 , 4160.51282051 , 4477.43589744 , 4132.30769231 , 4134.35897436 , 2049.0 , 2034.0 , 8.214 , 0.0 , 0.0 , 0.0 , 0.0 , 

72.0 , 4134.87179487 , 4135.8974359 , 4013.84615385 , 4136.92307692 , 4135.8974359 , 4130.25641026 , 4137.43589744 , 4134.87179487 , 4137.43589744 , 4142.56410256 , 4156.92307692 , 4476.41025641 , 4135.38461538 , 4134.35897436 , 2047.0 , 2035.0 , 8.222 , 0.0 , 0.0 , 0.0 , 0.0 , 

73.0 , 4135.8974359 , 4132.82051282 , 4015.8974359 , 4135.8974359 , 4134.35897436 , 4130.25641026 , 4137.43589744 , 4133.84615385 , 4137.94871795 , 4144.61538462 , 4157.94871795 , 4470.25641026 , 4133.33333333 , 4136.41025641 , 2048.0 , 2035.0 , 8.23 , 0.0 , 0.0 , 0.0 , 0.0 , 

74.0 , 4136.41025641 , 4133.84615385 , 4023.58974359 , 4135.8974359 , 4134.35897436 , 4130.25641026 , 4137.43589744 , 4138.97435897 , 4137.94871795 , 4146.15384615 , 4162.05128205 , 4467.17948718 , 4134.35897436 , 4137.94871795 , 2046.0 , 2037.0 , 8.237 , 0.0 , 0.0 , 0.0 , 0.0 , 

75.0 , 4135.38461538 , 4134.35897436 , 4038.46153846 , 4136.41025641 , 4134.35897436 , 4130.25641026 , 4137.43589744 , 4140.51282051 , 4139.48717949 , 4145.64102564 , 4163.07692308 , 4469.23076923 , 4136.41025641 , 4135.8974359 , 2045.0 , 2038.0 , 8.245 , 0.0 , 0.0 , 0.0 , 0.0 , 

76.0 , 4134.87179487 , 4132.30769231 , 4050.25641026 , 4135.8974359 , 4134.35897436 , 4130.25641026 , 4137.43589744 , 4139.48717949 , 4138.97435897 , 4145.64102564 , 4162.56410256 , 4467.69230769 , 4135.8974359 , 4135.38461538 , 2044.0 , 2039.0 , 8.253 , 0.0 , 0.0 , 0.0 , 0.0 , 

77.0 , 4135.8974359 , 4132.82051282 , 4063.07692308 , 4135.8974359 , 4134.35897436 , 4130.25641026 , 4137.43589744 , 4143.07692308 , 4140.0 , 4146.15384615 , 4162.05128205 , 4465.64102564 , 4138.97435897 , 4138.46153846 , 2042.0 , 2041.0 , 8.261 , 0.0 , 0.0 , 0.0 , 0.0 , 

78.0 , 4136.92307692 , 4135.8974359 , 4074.87179487 , 4135.8974359 , 4135.8974359 , 4130.25641026 , 4137.43589744 , 4142.05128205 , 4143.07692308 , 4146.66666667 , 4160.51282051 , 4464.61538462 , 4139.48717949 , 4136.92307692 , 2043.0 , 2041.0 , 8.269 , 0.0 , 0.0 , 0.0 , 0.0 , 

79.0 , 4134.35897436 , 4134.87179487 , 4082.56410256 , 4135.8974359 , 4137.43589744 , 4130.25641026 , 4137.43589744 , 4137.94871795 , 4144.61538462 , 4147.69230769 , 4161.53846154 , 4465.12820513 , 4137.43589744 , 4136.41025641 , 2041.0 , 2039.0 , 8.277 , 0.0 , 0.0 , 0.0 , 0.0 , 

80.0 , 4131.79487179 , 4135.38461538 , 4081.53846154 , 4136.41025641 , 4136.92307692 , 4130.25641026 , 4137.43589744 , 4140.0 , 4139.48717949 , 4147.17948718 , 4163.07692308 , 4465.12820513 , 4135.8974359 , 4140.51282051 , 2040.0 , 2038.0 , 8.285 , 0.0 , 0.0 , 0.0 , 0.0 , 

81.0 , 4134.35897436 , 4136.41025641 , 4082.05128205 , 4135.8974359 , 4135.38461538 , 4130.25641026 , 4137.43589744 , 4140.51282051 , 4138.97435897 , 4146.15384615 , 4161.53846154 , 4464.1025641 , 4134.87179487 , 4138.97435897 , 2038.0 , 2034.0 , 8.293 , 0.0 , 0.0 , 0.0 , 0.0 , 

82.0 , 4136.41025641 , 4133.84615385 , 4091.28205128 , 4134.35897436 , 4134.87179487 , 4130.25641026 , 4137.43589744 , 4134.35897436 , 4141.02564103 , 4145.12820513 , 4161.02564103 , 4460.51282051 , 4133.33333333 , 4135.38461538 , 2039.0 , 2034.0 , 8.301 , 0.0 , 0.0 , 0.0 , 0.0 , 

83.0 , 4134.35897436 , 4132.82051282 , 4103.07692308 , 4134.87179487 , 4134.35897436 , 4130.25641026 , 4137.43589744 , 4135.8974359 , 4141.02564103 , 4146.66666667 , 4164.1025641 , 4457.94871795 , 4133.84615385 , 4137.43589744 , 2038.0 , 2031.0 , 8.308 , 0.0 , 0.0 , 0.0 , 0.0 , 

84.0 , 4135.38461538 , 4133.84615385 , 4105.12820513 , 4135.38461538 , 4134.35897436 , 4130.25641026 , 4137.43589744 , 4141.53846154 , 4143.07692308 , 4146.15384615 , 4162.56410256 , 4457.94871795 , 4134.87179487 , 4136.92307692 , 2037.0 , 2031.0 , 8.316 , 0.0 , 0.0 , 0.0 , 0.0 , 

85.0 , 4138.46153846 , 4132.82051282 , 4106.66666667 , 4134.87179487 , 4134.35897436 , 4130.25641026 , 4137.43589744 , 4142.05128205 , 4141.53846154 , 4146.66666667 , 4160.51282051 , 4458.46153846 , 4134.87179487 , 4135.8974359 , 2039.0 , 2032.0 , 8.324 , 0.0 , 0.0 , 0.0 , 0.0 , 

86.0 , 4137.94871795 , 4132.30769231 , 4105.64102564 , 4134.87179487 , 4134.35897436 , 4130.25641026 , 4137.43589744 , 4137.94871795 , 4136.92307692 , 4146.66666667 , 4162.56410256 , 4455.38461538 , 4134.35897436 , 4135.38461538 , 2041.0 , 2033.0 , 8.332 , 0.0 , 0.0 , 0.0 , 0.0 , 

87.0 , 4136.92307692 , 4133.33333333 , 4098.97435897 , 4135.38461538 , 4134.35897436 , 4130.25641026 , 4137.43589744 , 4138.97435897 , 4138.97435897 , 4145.12820513 , 4163.07692308 , 4452.30769231 , 4133.33333333 , 4133.33333333 , 2041.0 , 2034.0 , 8.34 , 0.0 , 0.0 , 0.0 , 0.0 , 

88.0 , 4137.94871795 , 4133.33333333 , 4100.51282051 , 4135.38461538 , 4134.35897436 , 4130.25641026 , 4137.43589744 , 4140.51282051 , 4141.53846154 , 4145.12820513 , 4162.05128205 , 4451.28205128 , 4132.30769231 , 4132.30769231 , 2042.0 , 2035.0 , 8.348 , 0.0 , 0.0 , 0.0 , 0.0 , 

89.0 , 4137.43589744 , 4132.30769231 , 4116.92307692 , 4134.87179487 , 4134.35897436 , 4130.25641026 , 4137.43589744 , 4136.41025641 , 4138.46153846 , 4146.66666667 , 4163.58974359 , 4452.82051282 , 4133.33333333 , 4135.38461538 , 2044.0 , 2036.0 , 8.356 , 0.0 , 0.0 , 0.0 , 0.0 , 

90.0 , 4135.8974359 , 4133.33333333 , 4128.20512821 , 4135.38461538 , 4134.35897436 , 4130.25641026 , 4137.43589744 , 4132.82051282 , 4140.51282051 , 4145.64102564 , 4163.58974359 , 4451.28205128 , 4133.84615385 , 4137.43589744 , 2044.0 , 2037.0 , 8.364 , 0.0 , 0.0 , 0.0 , 0.0 , 

91.0 , 4135.38461538 , 4134.35897436 , 4128.71794872 , 4135.38461538 , 4134.35897436 , 4130.25641026 , 4137.43589744 , 4137.94871795 , 4145.12820513 , 4145.12820513 , 4162.56410256 , 4449.74358974 , 4133.84615385 , 4135.38461538 , 2043.0 , 2039.0 , 8.372 , 0.0 , 0.0 , 0.0 , 0.0 , 

92.0 , 4136.41025641 , 4134.87179487 , 4133.33333333 , 4135.38461538 , 4134.35897436 , 4130.25641026 , 4137.43589744 , 4141.53846154 , 4141.02564103 , 4146.15384615 , 4162.56410256 , 4449.23076923 , 4134.35897436 , 4136.92307692 , 2044.0 , 2038.0 , 8.379 , 0.0 , 0.0 , 0.0 , 0.0 , 

93.0 , 4135.8974359 , 4134.87179487 , 4130.25641026 , 4135.38461538 , 4134.35897436 , 4130.25641026 , 4137.43589744 , 4136.92307692 , 4137.43589744 , 4146.15384615 , 4161.02564103 , 4451.28205128 , 4135.8974359 , 4140.0 , 2043.0 , 2037.0 , 8.387 , 0.0 , 0.0 , 0.0 , 0.0 , 

94.0 , 4135.8974359 , 4135.8974359 , 4120.0 , 4135.38461538 , 4134.35897436 , 4130.25641026 , 4137.43589744 , 4135.8974359 , 4137.94871795 , 4144.61538462 , 4161.02564103 , 4451.79487179 , 4134.35897436 , 4138.46153846 , 2042.0 , 2036.0 , 8.395 , 0.0 , 0.0 , 0.0 , 0.0 , 

95.0 , 4135.8974359 , 4133.84615385 , 4120.0 , 4135.38461538 , 4134.35897436 , 4130.25641026 , 4137.43589744 , 4139.48717949 , 4138.46153846 , 4144.1025641 , 4162.56410256 , 4449.74358974 , 4131.79487179 , 4135.38461538 , 2042.0 , 2034.0 , 8.403 , 0.0 , 0.0 , 0.0 , 0.0 , 

96.0 , 4134.87179487 , 4132.82051282 , 4131.79487179 , 4134.87179487 , 4134.35897436 , 4130.25641026 , 4137.43589744 , 4141.02564103 , 4138.97435897 , 4146.15384615 , 4163.07692308 , 4450.25641026 , 4134.35897436 , 4136.92307692 , 2040.0 , 2032.0 , 8.411 , 0.0 , 0.0 , 0.0 , 0.0 , 

97.0 , 4133.84615385 , 4133.33333333 , 4142.05128205 , 4133.33333333 , 4134.35897436 , 4130.25641026 , 4137.43589744 , 4136.92307692 , 4139.48717949 , 4146.15384615 , 4162.05128205 , 4450.76923077 , 4135.8974359 , 4135.38461538 , 2041.0 , 2031.0 , 8.419 , 0.0 , 0.0 , 0.0 , 0.0 , 

98.0 , 4134.35897436 , 4132.30769231 , 4142.56410256 , 4133.33333333 , 4134.35897436 , 4130.25641026 , 4137.43589744 , 4136.92307692 , 4137.94871795 , 4145.12820513 , 4162.56410256 , 4451.28205128 , 4132.82051282 , 4131.79487179 , 2040.0 , 2031.0 , 8.427 , 0.0 , 0.0 , 0.0 , 0.0 , 

99.0 , 4134.35897436 , 4133.84615385 , 4136.41025641 , 4132.82051282 , 4134.35897436 , 4130.25641026 , 4137.43589744 , 4138.97435897 , 4138.46153846 , 4143.58974359 , 4163.07692308 , 4449.74358974 , 4129.74358974 , 4134.35897436 , 2038.0 , 2031.0 , 8.434 , 0.0 , 0.0 , 0.0 , 0.0 , 

100.0 , 4133.84615385 , 4134.87179487 , 4129.74358974 , 4132.82051282 , 4134.87179487 , 4130.25641026 , 4137.43589744 , 4137.43589744 , 4140.0 , 4144.61538462 , 4162.56410256 , 4448.20512821 , 4131.79487179 , 4136.92307692 , 2038.0 , 2029.0 , 8.442 , 0.0 , 0.0 , 0.0 , 0.0 , 

101.0 , 4134.35897436 , 4132.82051282 , 4120.51282051 , 4134.35897436 , 4134.35897436 , 4130.25641026 , 4137.43589744 , 4134.35897436 , 4138.46153846 , 4144.61538462 , 4162.05128205 , 4446.15384615 , 4129.74358974 , 4132.82051282 , 2039.0 , 2026.0 , 8.45 , 0.0 , 0.0 , 0.0 , 0.0 , 

102.0 , 4135.38461538 , 4133.84615385 , 4110.76923077 , 4135.38461538 , 4134.87179487 , 4130.25641026 , 4137.43589744 , 4133.33333333 , 4137.43589744 , 4141.53846154 , 4161.53846154 , 4445.12820513 , 4127.17948718 , 4132.82051282 , 2038.0 , 2026.0 , 8.458 , 0.0 , 0.0 , 0.0 , 0.0 , 

103.0 , 4135.38461538 , 4136.41025641 , 4104.61538462 , 4134.87179487 , 4135.8974359 , 4130.25641026 , 4137.43589744 , 4131.79487179 , 4137.43589744 , 4141.53846154 , 4160.51282051 , 4443.07692308 , 4132.30769231 , 4134.35897436 , 2039.0 , 2028.0 , 8.466 , 0.0 , 0.0 , 0.0 , 0.0 , 

104.0 , 4134.35897436 , 4135.38461538 , 4104.61538462 , 4134.87179487 , 4135.38461538 , 4130.25641026 , 4137.43589744 , 4132.82051282 , 4137.94871795 , 4144.61538462 , 4160.51282051 , 4441.02564103 , 4133.84615385 , 4134.87179487 , 2036.0 , 2029.0 , 8.474 , 0.0 , 0.0 , 0.0 , 0.0 , 

105.0 , 4133.84615385 , 4134.87179487 , 4093.33333333 , 4135.38461538 , 4135.38461538 , 4130.25641026 , 4137.43589744 , 4135.38461538 , 4137.43589744 , 4141.53846154 , 4160.51282051 , 4440.0 , 4128.20512821 , 4136.92307692 , 2036.0 , 2031.0 , 8.482 , 0.0 , 0.0 , 0.0 , 0.0 , 

106.0 , 4135.38461538 , 4136.41025641 , 4078.46153846 , 4135.38461538 , 4136.92307692 , 4130.25641026 , 4137.43589744 , 4135.8974359 , 4136.41025641 , 4136.92307692 , 4161.02564103 , 4440.51282051 , 4125.64102564 , 4136.41025641 , 2034.0 , 2032.0 , 8.49 , 0.0 , 0.0 , 0.0 , 0.0 , 

107.0 , 4135.8974359 , 4135.8974359 , 4068.20512821 , 4133.84615385 , 4136.92307692 , 4130.25641026 , 4137.43589744 , 4130.76923077 , 4136.41025641 , 4135.8974359 , 4159.48717949 , 4436.41025641 , 4127.17948718 , 4132.30769231 , 2030.0 , 2032.0 , 8.497 , 0.0 , 0.0 , 0.0 , 0.0 , 

108.0 , 4134.87179487 , 4135.38461538 , 4056.92307692 , 4133.33333333 , 4134.87179487 , 4130.25641026 , 4137.43589744 , 4128.71794872 , 4133.84615385 , 4134.87179487 , 4156.92307692 , 4432.30769231 , 4127.69230769 , 4132.82051282 , 2028.0 , 2032.0 , 8.505 , 0.0 , 0.0 , 0.0 , 0.0 , 

109.0 , 4134.87179487 , 4133.33333333 , 4042.05128205 , 4133.33333333 , 4134.87179487 , 4130.25641026 , 4137.43589744 , 4132.30769231 , 4130.76923077 , 4133.33333333 , 4155.38461538 , 4432.82051282 , 4126.66666667 , 4134.87179487 , 2027.0 , 2035.0 , 8.513 , 0.0 , 0.0 , 0.0 , 0.0 , 

110.0 , 4134.87179487 , 4131.28205128 , 4027.17948718 , 4133.33333333 , 4135.38461538 , 4130.25641026 , 4137.43589744 , 4131.79487179 , 4131.28205128 , 4136.92307692 , 4157.43589744 , 4431.28205128 , 4125.64102564 , 4131.79487179 , 2026.0 , 2034.0 , 8.521 , 0.0 , 0.0 , 0.0 , 0.0 , 

111.0 , 4134.87179487 , 4133.84615385 , 4018.97435897 , 4133.33333333 , 4134.35897436 , 4130.25641026 , 4137.43589744 , 4128.20512821 , 4133.84615385 , 4138.46153846 , 4158.46153846 , 4426.66666667 , 4125.12820513 , 4132.30769231 , 2024.0 , 2034.0 , 8.529 , 0.0 , 0.0 , 0.0 , 0.0 , 

112.0 , 4134.87179487 , 4135.38461538 , 4014.87179487 , 4133.33333333 , 4134.87179487 , 4130.25641026 , 4137.43589744 , 4130.76923077 , 4131.79487179 , 4132.82051282 , 4156.41025641 , 4425.12820513 , 4127.17948718 , 4136.41025641 , 2024.0 , 2035.0 , 8.537 , 0.0 , 0.0 , 0.0 , 0.0 , 

113.0 , 4134.87179487 , 4134.35897436 , 4017.94871795 , 4132.82051282 , 4135.38461538 , 4130.25641026 , 4137.43589744 , 4133.84615385 , 4131.28205128 , 4133.84615385 , 4156.92307692 , 4423.07692308 , 4127.69230769 , 4134.35897436 , 2023.0 , 2036.0 , 8.544 , 0.0 , 0.0 , 0.0 , 0.0 , 

114.0 , 4134.87179487 , 4133.84615385 , 4025.12820513 , 4133.33333333 , 4135.38461538 , 4130.25641026 , 4137.43589744 , 4131.28205128 , 4134.87179487 , 4140.0 , 4158.97435897 , 4420.0 , 4125.64102564 , 4132.30769231 , 2022.0 , 2032.0 , 8.553 , 0.0 , 0.0 , 0.0 , 0.0 , 

115.0 , 4134.87179487 , 4134.87179487 , 4033.84615385 , 4133.33333333 , 4135.38461538 , 4130.25641026 , 4137.43589744 , 4131.79487179 , 4137.94871795 , 4143.07692308 , 4160.0 , 4421.02564103 , 4128.71794872 , 4135.38461538 , 2022.0 , 2030.0 , 8.56 , 0.0 , 0.0 , 0.0 , 0.0 , 

116.0 , 4134.87179487 , 4135.38461538 , 4042.56410256 , 4132.82051282 , 4135.8974359 , 4130.25641026 , 4137.43589744 , 4134.35897436 , 4137.43589744 , 4143.58974359 , 4159.48717949 , 4421.02564103 , 4129.74358974 , 4135.38461538 , 2020.0 , 2028.0 , 8.568 , 0.0 , 0.0 , 0.0 , 0.0 , 

117.0 , 4134.87179487 , 4135.8974359 , 4051.79487179 , 4133.33333333 , 4136.41025641 , 4130.25641026 , 4137.43589744 , 4135.8974359 , 4133.84615385 , 4144.1025641 , 4159.48717949 , 4420.0 , 4130.25641026 , 4133.84615385 , 2020.0 , 2027.0 , 8.576 , 0.0 , 0.0 , 0.0 , 0.0 , 

118.0 , 4134.87179487 , 4133.84615385 , 4061.53846154 , 4134.87179487 , 4135.8974359 , 4130.25641026 , 4137.94871795 , 4136.41025641 , 4135.8974359 , 4143.58974359 , 4160.0 , 4421.02564103 , 4132.30769231 , 4135.8974359 , 2020.0 , 2024.0 , 8.584 , 0.0 , 0.0 , 0.0 , 0.0 , 

119.0 , 4134.87179487 , 4132.30769231 , 4067.69230769 , 4135.38461538 , 4135.8974359 , 4130.25641026 , 4137.43589744 , 4135.8974359 , 4139.48717949 , 4144.1025641 , 4160.51282051 , 4421.02564103 , 4134.87179487 , 4137.43589744 , 2019.0 , 2025.0 , 8.592 , 0.0 , 0.0 , 0.0 , 0.0 , 

120.0 , 4134.87179487 , 4135.8974359 , 4070.76923077 , 4134.87179487 , 4135.8974359 , 4130.25641026 , 4134.35897436 , 4135.38461538 , 4137.94871795 , 4143.07692308 , 4158.97435897 , 4417.43589744 , 4133.33333333 , 4134.87179487 , 2017.0 , 2025.0 , 8.6 , 0.0 , 0.0 , 0.0 , 0.0 , 

121.0 , 4134.87179487 , 4134.87179487 , 4080.51282051 , 4135.38461538 , 4135.8974359 , 4130.25641026 , 4133.84615385 , 4139.48717949 , 4136.92307692 , 4143.58974359 , 4158.97435897 , 4416.41025641 , 4133.33333333 , 4134.35897436 , 2018.0 , 2028.0 , 8.609 , 0.0 , 0.0 , 0.0 , 0.0 , 

122.0 , 4134.87179487 , 4131.79487179 , 4094.87179487 , 4135.38461538 , 4135.8974359 , 4130.25641026 , 4134.35897436 , 4143.58974359 , 4141.02564103 , 4147.17948718 , 4160.0 , 4415.8974359 , 4136.41025641 , 4133.84615385 , 2016.0 , 2030.0 , 8.617 , 0.0 , 0.0 , 0.0 , 0.0 , 

123.0 , 4134.87179487 , 4133.33333333 , 4097.43589744 , 4134.87179487 , 4135.8974359 , 4130.25641026 , 4133.33333333 , 4141.02564103 , 4143.07692308 , 4145.64102564 , 4160.51282051 , 4412.82051282 , 4134.35897436 , 4135.38461538 , 2015.0 , 2032.0 , 8.625 , 0.0 , 0.0 , 0.0 , 0.0 , 

124.0 , 4134.87179487 , 4133.84615385 , 4095.8974359 , 4135.38461538 , 4135.8974359 , 4130.25641026 , 4132.82051282 , 4136.92307692 , 4137.43589744 , 4142.05128205 , 4160.0 , 4412.82051282 , 4132.30769231 , 4138.97435897 , 2017.0 , 2033.0 , 8.631 , 0.0 , 0.0 , 0.0 , 0.0 , 

125.0 , 4134.87179487 , 4132.82051282 , 4109.23076923 , 4135.38461538 , 4135.8974359 , 4130.25641026 , 4134.35897436 , 4140.0 , 4136.41025641 , 4144.61538462 , 4161.53846154 , 4413.84615385 , 4134.35897436 , 4138.97435897 , 2017.0 , 2036.0 , 8.639 , 0.0 , 0.0 , 0.0 , 0.0 , 

126.0 , 4134.87179487 , 4132.30769231 , 4129.23076923 , 4135.38461538 , 4136.41025641 , 4130.25641026 , 4134.35897436 , 4144.1025641 , 4141.53846154 , 4146.15384615 , 4164.1025641 , 4412.30769231 , 4134.87179487 , 4137.43589744 , 2019.0 , 2035.0 , 8.647 , 0.0 , 0.0 , 0.0 , 0.0 , 

127.0 , 4134.87179487 , 4133.84615385 , 4139.48717949 , 4134.87179487 , 4135.8974359 , 4130.25641026 , 4133.84615385 , 4138.97435897 , 4142.56410256 , 4144.61538462 , 4163.07692308 , 4411.28205128 , 4133.84615385 , 4136.92307692 , 2020.0 , 2034.0 , 8.656 , 0.0 , 0.0 , 0.0 , 0.0 , 

128.0 , 4134.87179487 , 4134.35897436 , 4141.02564103 , 4135.38461538 , 4134.87179487 , 4130.25641026 , 4134.35897436 , 4135.38461538 , 4144.1025641 , 4145.12820513 , 4161.02564103 , 4412.30769231 , 4135.38461538 , 4136.92307692 , 2020.0 , 2035.0 , 8.663 , 0.0 , 0.0 , 0.0 , 0.0 , 

0.0 , 4134.87179487 , 4134.87179487 , 4138.97435897 , 4135.8974359 , 4133.84615385 , 4130.25641026 , 4134.35897436 , 4140.0 , 4143.58974359 , 4146.66666667 , 4161.53846154 , 4410.76923077 , 4137.43589744 , 4136.92307692 , 2021.0 , 2035.0 , 8.671 , 0.0 , 0.0 , 0.0 , 0.0 , 

1.0 , 4134.87179487 , 4134.87179487 , 4137.94871795 , 4136.41025641 , 4133.84615385 , 4130.25641026 , 4134.35897436 , 4138.97435897 , 4138.97435897 , 4146.15384615 , 4162.05128205 , 4407.69230769 , 4134.35897436 , 4136.92307692 , 2023.0 , 2034.0 , 8.679 , 0.0 , 0.0 , 0.0 , 0.0 , 

2.0 , 4134.87179487 , 4135.8974359 , 4136.41025641 , 4136.41025641 , 4135.8974359 , 4130.25641026 , 4134.35897436 , 4132.82051282 , 4136.41025641 , 4145.64102564 , 4158.46153846 , 4407.69230769 , 4131.79487179 , 4134.35897436 , 2025.0 , 2035.0 , 8.687 , 0.0 , 0.0 , 0.0 , 0.0 , 

3.0 , 4134.87179487 , 4136.41025641 , 4138.97435897 , 4135.38461538 , 4137.43589744 , 4130.25641026 , 4134.35897436 , 4134.87179487 , 4138.46153846 , 4144.61538462 , 4158.97435897 , 4408.71794872 , 4133.84615385 , 4135.38461538 , 2027.0 , 2034.0 , 8.694 , 0.0 , 0.0 , 0.0 , 0.0 , 

4.0 , 4134.87179487 , 4132.82051282 , 4143.07692308 , 4134.35897436 , 4136.41025641 , 4130.25641026 , 4133.84615385 , 4142.56410256 , 4140.0 , 4144.1025641 , 4160.51282051 , 4410.76923077 , 4133.84615385 , 4140.51282051 , 2028.0 , 2035.0 , 8.702 , 0.0 , 0.0 , 0.0 , 0.0 , 

5.0 , 4134.87179487 , 4134.87179487 , 4143.07692308 , 4134.35897436 , 4135.8974359 , 4130.25641026 , 4134.35897436 , 4141.02564103 , 4140.0 , 4146.66666667 , 4160.0 , 4411.28205128 , 4131.79487179 , 4136.92307692 , 2029.0 , 2034.0 , 8.71 , 0.0 , 0.0 , 0.0 , 0.0 , 

6.0 , 4134.87179487 , 4135.8974359 , 4142.56410256 , 4134.35897436 , 4135.8974359 , 4130.25641026 , 4134.87179487 , 4135.8974359 , 4138.46153846 , 4146.66666667 , 4158.97435897 , 4409.23076923 , 4130.76923077 , 4133.33333333 , 2033.0 , 2033.0 , 8.718 , 0.0 , 0.0 , 0.0 , 0.0 , 

7.0 , 4134.87179487 , 4130.76923077 , 4148.71794872 , 4134.35897436 , 4135.38461538 , 4130.25641026 , 4131.28205128 , 4138.97435897 , 4138.46153846 , 4144.61538462 , 4161.53846154 , 4409.23076923 , 4133.84615385 , 4138.97435897 , 2035.0 , 2033.0 , 8.726 , 0.0 , 0.0 , 0.0 , 0.0 , 

8.0 , 4134.87179487 , 4131.28205128 , 4155.38461538 , 4134.35897436 , 4134.87179487 , 4130.25641026 , 4131.28205128 , 4140.51282051 , 4142.05128205 , 4144.61538462 , 4161.53846154 , 4409.74358974 , 4135.8974359 , 4139.48717949 , 2035.0 , 2032.0 , 8.734 , 0.0 , 0.0 , 0.0 , 0.0 , 

9.0 , 4134.87179487 , 4133.84615385 , 4157.43589744 , 4134.35897436 , 4134.87179487 , 4130.25641026 , 4135.8974359 , 4138.97435897 , 4143.07692308 , 4146.66666667 , 4158.46153846 , 4409.74358974 , 4135.38461538 , 4133.84615385 , 2036.0 , 2033.0 , 8.742 , 0.0 , 0.0 , 0.0 , 0.0 , 

10.0 , 4134.87179487 , 4130.25641026 , 4168.71794872 , 4134.35897436 , 4134.87179487 , 4130.25641026 , 4138.46153846 , 4139.48717949 , 4141.53846154 , 4145.64102564 , 4160.0 , 4412.30769231 , 4133.84615385 , 4135.8974359 , 2038.0 , 2036.0 , 8.75 , 0.0 , 0.0 , 0.0 , 0.0 , 

11.0 , 4134.87179487 , 4129.74358974 , 4180.51282051 , 4134.35897436 , 4134.87179487 , 4130.25641026 , 4137.43589744 , 4142.05128205 , 4142.05128205 , 4145.64102564 , 4164.1025641 , 4413.33333333 , 4133.33333333 , 4138.97435897 , 2040.0 , 2037.0 , 8.758 , 0.0 , 0.0 , 0.0 , 0.0 , 

12.0 , 4134.87179487 , 4134.87179487 , 4191.28205128 , 4134.35897436 , 4134.87179487 , 4130.25641026 , 4137.43589744 , 4140.51282051 , 4138.97435897 , 4146.15384615 , 4163.07692308 , 4410.76923077 , 4134.35897436 , 4137.94871795 , 2041.0 , 2040.0 , 8.765 , 0.0 , 0.0 , 0.0 , 0.0 , 

13.0 , 4134.87179487 , 4134.35897436 , 4202.05128205 , 4134.35897436 , 4134.87179487 , 4130.25641026 , 4137.94871795 , 4139.48717949 , 4137.94871795 , 4145.64102564 , 4161.02564103 , 4413.84615385 , 4136.41025641 , 4138.97435897 , 2042.0 , 2039.0 , 8.772 , 0.0 , 0.0 , 0.0 , 0.0 , 

14.0 , 4134.87179487 , 4130.76923077 , 4213.84615385 , 4134.35897436 , 4134.87179487 , 4130.25641026 , 4137.43589744 , 4141.02564103 , 4143.58974359 , 4146.66666667 , 4161.02564103 , 4416.92307692 , 4135.8974359 , 4138.97435897 , 2043.0 , 2039.0 , 8.781 , 0.0 , 0.0 , 0.0 , 0.0 , 

15.0 , 4134.87179487 , 4132.30769231 , 4222.56410256 , 4134.35897436 , 4134.87179487 , 4130.25641026 , 4137.43589744 , 4140.51282051 , 4145.64102564 , 4147.69230769 , 4162.56410256 , 4414.87179487 , 4134.87179487 , 4141.02564103 , 2043.0 , 2038.0 , 8.789 , 0.0 , 0.0 , 0.0 , 0.0 , 

16.0 , 4134.87179487 , 4133.33333333 , 4230.76923077 , 4134.35897436 , 4134.87179487 , 4130.25641026 , 4137.43589744 , 4141.02564103 , 4143.58974359 , 4146.66666667 , 4163.07692308 , 4415.38461538 , 4136.92307692 , 4142.56410256 , 2043.0 , 2037.0 , 8.797 , 0.0 , 0.0 , 0.0 , 0.0 , 

17.0 , 4134.87179487 , 4132.82051282 , 4237.94871795 , 4134.35897436 , 4134.87179487 , 4130.25641026 , 4137.43589744 , 4143.07692308 , 4141.53846154 , 4146.66666667 , 4163.07692308 , 4417.94871795 , 4139.48717949 , 4139.48717949 , 2043.0 , 2037.0 , 8.805 , 0.0 , 0.0 , 0.0 , 0.0 , 

18.0 , 4134.87179487 , 4133.33333333 , 4250.76923077 , 4134.35897436 , 4134.35897436 , 4130.25641026 , 4137.43589744 , 4143.07692308 , 4141.02564103 , 4147.17948718 , 4163.07692308 , 4417.94871795 , 4138.97435897 , 4137.43589744 , 2043.0 , 2036.0 , 8.814 , 0.0 , 0.0 , 0.0 , 0.0 , 

19.0 , 4134.87179487 , 4133.84615385 , 4271.79487179 , 4134.35897436 , 4134.35897436 , 4130.25641026 , 4137.43589744 , 4142.05128205 , 4141.02564103 , 4151.28205128 , 4164.1025641 , 4421.02564103 , 4138.97435897 , 4141.02564103 , 2043.0 , 2035.0 , 8.821 , 0.0 , 0.0 , 0.0 , 0.0 , 

20.0 , 4134.87179487 , 4130.76923077 , 4292.30769231 , 4134.35897436 , 4134.35897436 , 4130.25641026 , 4137.43589744 , 4144.1025641 , 4143.07692308 , 4155.8974359 , 4163.07692308 , 4425.12820513 , 4137.94871795 , 4142.56410256 , 2042.0 , 2035.0 , 8.828 , 0.0 , 0.0 , 0.0 , 0.0 , 

21.0 , 4135.38461538 , 4127.17948718 , 4308.71794872 , 4134.35897436 , 4134.35897436 , 4130.25641026 , 4137.43589744 , 4145.12820513 , 4142.56410256 , 4152.82051282 , 4162.56410256 , 4429.23076923 , 4141.02564103 , 4140.51282051 , 2042.0 , 2035.0 , 8.836 , 0.0 , 0.0 , 0.0 , 0.0 , 

22.0 , 4134.35897436 , 4132.82051282 , 4321.53846154 , 4133.84615385 , 4134.35897436 , 4130.25641026 , 4137.94871795 , 4144.1025641 , 4143.58974359 , 4148.20512821 , 4163.07692308 , 4433.33333333 , 4142.56410256 , 4138.46153846 , 2042.0 , 2036.0 , 8.844 , 0.0 , 0.0 , 0.0 , 0.0 , 

23.0 , 4134.87179487 , 4142.05128205 , 4338.46153846 , 4134.35897436 , 4133.84615385 , 4130.25641026 , 4137.43589744 , 4144.61538462 , 4146.66666667 , 4151.79487179 , 4163.58974359 , 4436.92307692 , 4138.97435897 , 4138.46153846 , 2042.0 , 2037.0 , 8.851 , 0.0 , 0.0 , 0.0 , 0.0 , 

24.0 , 4135.38461538 , 4135.38461538 , 4335.8974359 , 4134.35897436 , 4134.35897436 , 4130.25641026 , 4137.43589744 , 4142.56410256 , 4144.1025641 , 4152.30769231 , 4165.12820513 , 4435.8974359 , 4135.8974359 , 4140.0 , 2041.0 , 2038.0 , 8.86 , 0.0 , 0.0 , 0.0 , 0.0 , 

25.0 , 4133.84615385 , 4125.64102564 , 4332.30769231 , 4133.84615385 , 4134.87179487 , 4130.25641026 , 4138.46153846 , 4141.02564103 , 4141.53846154 , 4148.20512821 , 4164.1025641 , 4436.92307692 , 4136.92307692 , 4140.0 , 2040.0 , 2039.0 , 8.868 , 0.0 , 0.0 , 0.0 , 0.0 , 

26.0 , 4132.82051282 , 4131.28205128 , 4326.66666667 , 4135.38461538 , 4134.35897436 , 4130.25641026 , 4135.8974359 , 4140.51282051 , 4141.02564103 , 4145.64102564 , 4161.02564103 , 4440.51282051 , 4136.41025641 , 4135.38461538 , 2040.0 , 2038.0 , 8.876 , 0.0 , 0.0 , 0.0 , 0.0 , 

27.0 , 4137.43589744 , 4134.87179487 , 4298.97435897 , 4137.43589744 , 4134.87179487 , 4130.25641026 , 4133.84615385 , 4137.43589744 , 4138.97435897 , 4144.61538462 , 4160.51282051 , 4442.05128205 , 4134.87179487 , 4133.33333333 , 2040.0 , 2038.0 , 8.884 , 0.0 , 0.0 , 0.0 , 0.0 , 

28.0 , 4135.8974359 , 4129.74358974 , 4280.0 , 4136.92307692 , 4136.92307692 , 4130.25641026 , 4131.28205128 , 4137.43589744 , 4137.94871795 , 4143.07692308 , 4163.07692308 , 4447.69230769 , 4130.76923077 , 4136.92307692 , 2039.0 , 2036.0 , 8.891 , 0.0 , 0.0 , 0.0 , 0.0 , 

29.0 , 4126.66666667 , 4133.84615385 , 4274.35897436 , 4135.38461538 , 4137.43589744 , 4129.74358974 , 4127.17948718 , 4137.43589744 , 4136.92307692 , 4138.97435897 , 4161.02564103 , 4449.74358974 , 4128.71794872 , 4138.97435897 , 2038.0 , 2036.0 , 8.899 , 0.0 , 0.0 , 0.0 , 0.0 , 

30.0 , 4127.17948718 , 4135.8974359 , 4278.97435897 , 4135.8974359 , 4135.8974359 , 4129.74358974 , 4129.74358974 , 4133.84615385 , 4136.92307692 , 4139.48717949 , 4160.0 , 4447.17948718 , 4133.84615385 , 4137.43589744 , 2039.0 , 2035.0 , 8.907 , 0.0 , 0.0 , 0.0 , 0.0 , 

31.0 , 4136.41025641 , 4128.20512821 , 4269.74358974 , 4136.41025641 , 4134.35897436 , 4130.25641026 , 4135.38461538 , 4131.28205128 , 4136.92307692 , 4139.48717949 , 4162.05128205 , 4449.23076923 , 4134.87179487 , 4136.92307692 , 2039.0 , 2034.0 , 8.915 , 0.0 , 0.0 , 0.0 , 0.0 , 

32.0 , 4136.92307692 , 4128.20512821 , 4270.76923077 , 4135.8974359 , 4134.35897436 , 4129.74358974 , 4134.87179487 , 4137.43589744 , 4138.97435897 , 4139.48717949 , 4163.07692308 , 4458.46153846 , 4131.79487179 , 4139.48717949 , 2037.0 , 2033.0 , 8.923 , 0.0 , 0.0 , 0.0 , 0.0 , 

33.0 , 4133.33333333 , 4130.76923077 , 4266.15384615 , 4135.8974359 , 4134.35897436 , 4129.23076923 , 4132.82051282 , 4136.92307692 , 4135.38461538 , 4139.48717949 , 4161.02564103 , 4458.46153846 , 4131.79487179 , 4136.92307692 , 2039.0 , 2031.0 , 8.931 , 0.0 , 0.0 , 0.0 , 0.0 , 

34.0 , 4135.8974359 , 4127.17948718 , 4260.51282051 , 4135.8974359 , 4135.38461538 , 4131.79487179 , 4135.8974359 , 4133.33333333 , 4134.35897436 , 4143.07692308 , 4159.48717949 , 4457.43589744 , 4136.92307692 , 4136.41025641 , 2038.0 , 2032.0 , 8.938 , 0.0 , 0.0 , 0.0 , 0.0 , 

35.0 , 4136.41025641 , 4126.66666667 , 4259.48717949 , 4135.8974359 , 4135.38461538 , 4136.41025641 , 4136.41025641 , 4135.38461538 , 4134.87179487 , 4143.58974359 , 4160.51282051 , 4464.1025641 , 4138.46153846 , 4138.46153846 , 2037.0 , 2030.0 , 8.947 , 0.0 , 0.0 , 0.0 , 0.0 , 

36.0 , 4135.38461538 , 4131.79487179 , 4254.35897436 , 4135.8974359 , 4135.38461538 , 4136.41025641 , 4134.35897436 , 4135.38461538 , 4135.8974359 , 4139.48717949 , 4160.51282051 , 4464.61538462 , 4134.35897436 , 4137.43589744 , 2038.0 , 2031.0 , 8.955 , 0.0 , 0.0 , 0.0 , 0.0 , 

37.0 , 4135.38461538 , 4135.38461538 , 4254.87179487 , 4135.8974359 , 4135.38461538 , 4134.35897436 , 4134.35897436 , 4130.76923077 , 4136.92307692 , 4140.51282051 , 4158.97435897 , 4463.58974359 , 4128.71794872 , 4134.35897436 , 2039.0 , 2032.0 , 8.962 , 0.0 , 0.0 , 0.0 , 0.0 , 

38.0 , 4134.35897436 , 4133.84615385 , 4253.84615385 , 4135.8974359 , 4135.38461538 , 4135.8974359 , 4134.35897436 , 4132.30769231 , 4137.43589744 , 4145.12820513 , 4159.48717949 , 4470.25641026 , 4133.33333333 , 4133.84615385 , 2039.0 , 2032.0 , 8.97 , 0.0 , 0.0 , 0.0 , 0.0 , 

39.0 , 4135.8974359 , 4131.28205128 , 4255.8974359 , 4135.8974359 , 4135.38461538 , 4136.41025641 , 4134.35897436 , 4137.43589744 , 4137.94871795 , 4143.07692308 , 4160.51282051 , 4471.79487179 , 4140.51282051 , 4137.43589744 , 2038.0 , 2032.0 , 8.978 , 0.0 , 0.0 , 0.0 , 0.0 , 

40.0 , 4137.43589744 , 4133.84615385 , 4250.25641026 , 4135.8974359 , 4135.38461538 , 4135.8974359 , 4134.35897436 , 4134.87179487 , 4136.41025641 , 4136.92307692 , 4161.02564103 , 4469.74358974 , 4132.82051282 , 4137.43589744 , 2036.0 , 2028.0 , 8.986 , 0.0 , 0.0 , 0.0 , 0.0 , 

41.0 , 4135.8974359 , 4136.41025641 , 4241.53846154 , 4135.8974359 , 4135.38461538 , 4135.8974359 , 4134.35897436 , 4135.38461538 , 4134.87179487 , 4138.46153846 , 4159.48717949 , 4475.8974359 , 4127.17948718 , 4134.35897436 , 2037.0 , 2028.0 , 8.994 , 0.0 , 0.0 , 0.0 , 0.0 , 

42.0 , 4136.41025641 , 4132.82051282 , 4247.69230769 , 4135.8974359 , 4135.38461538 , 4135.8974359 , 4134.35897436 , 4136.92307692 , 4135.8974359 , 4142.05128205 , 4156.41025641 , 4480.0 , 4130.76923077 , 4135.8974359 , 2037.0 , 2028.0 , 9.002 , 0.0 , 0.0 , 0.0 , 0.0 , 

43.0 , 4135.38461538 , 4129.74358974 , 4251.79487179 , 4135.8974359 , 4135.38461538 , 4135.8974359 , 4134.35897436 , 4133.33333333 , 4137.94871795 , 4142.56410256 , 4157.43589744 , 4477.94871795 , 4130.76923077 , 4138.46153846 , 2036.0 , 2026.0 , 9.01 , 0.0 , 0.0 , 0.0 , 0.0 , 

44.0 , 4132.82051282 , 4129.74358974 , 4252.30769231 , 4135.8974359 , 4135.38461538 , 4135.8974359 , 4134.35897436 , 4131.79487179 , 4135.8974359 , 4142.05128205 , 4160.0 , 4483.58974359 , 4130.25641026 , 4136.92307692 , 2037.0 , 2026.0 , 9.018 , 0.0 , 0.0 , 0.0 , 0.0 , 

45.0 , 4134.35897436 , 4131.28205128 , 4253.84615385 , 4135.8974359 , 4135.38461538 , 4135.8974359 , 4134.35897436 , 4135.8974359 , 4135.38461538 , 4141.53846154 , 4159.48717949 , 4491.28205128 , 4136.41025641 , 4135.8974359 , 2037.0 , 2023.0 , 9.025 , 0.0 , 0.0 , 0.0 , 0.0 , 

46.0 , 4137.43589744 , 4133.84615385 , 4254.87179487 , 4135.8974359 , 4135.38461538 , 4135.8974359 , 4134.35897436 , 4134.87179487 , 4137.94871795 , 4142.56410256 , 4157.94871795 , 4488.71794872 , 4136.41025641 , 4137.94871795 , 2038.0 , 2021.0 , 9.033 , 0.0 , 0.0 , 0.0 , 0.0 , 

47.0 , 4136.41025641 , 4133.84615385 , 4244.1025641 , 4136.92307692 , 4135.38461538 , 4135.8974359 , 4134.35897436 , 4129.74358974 , 4138.46153846 , 4143.07692308 , 4157.43589744 , 4488.71794872 , 4130.25641026 , 4137.43589744 , 2035.0 , 2021.0 , 9.041 , 0.0 , 0.0 , 0.0 , 0.0 , 

48.0 , 4133.84615385 , 4133.84615385 , 4243.07692308 , 4135.8974359 , 4135.38461538 , 4135.8974359 , 4134.35897436 , 4130.25641026 , 4136.41025641 , 4142.56410256 , 4157.43589744 , 4494.87179487 , 4131.28205128 , 4134.87179487 , 2035.0 , 2022.0 , 9.05 , 0.0 , 0.0 , 0.0 , 0.0 , 

49.0 , 4133.84615385 , 4133.84615385 , 4261.02564103 , 4134.87179487 , 4135.38461538 , 4135.8974359 , 4134.35897436 , 4136.92307692 , 4136.41025641 , 4142.56410256 , 4160.0 , 4496.92307692 , 4133.33333333 , 4137.43589744 , 2030.0 , 2024.0 , 9.057 , 0.0 , 0.0 , 0.0 , 0.0 , 

50.0 , 4134.87179487 , 4127.17948718 , 4258.97435897 , 4134.87179487 , 4135.38461538 , 4135.8974359 , 4134.35897436 , 4136.92307692 , 4135.8974359 , 4140.51282051 , 4160.0 , 4496.92307692 , 4131.28205128 , 4137.94871795 , 2029.0 , 2025.0 , 9.066 , 0.0 , 0.0 , 0.0 , 0.0 , 

51.0 , 4136.92307692 , 4126.15384615 , 4244.61538462 , 4134.87179487 , 4135.38461538 , 4135.8974359 , 4134.35897436 , 4134.35897436 , 4136.41025641 , 4137.43589744 , 4157.43589744 , 4501.02564103 , 4131.79487179 , 4137.94871795 , 2028.0 , 2028.0 , 9.074 , 0.0 , 0.0 , 0.0 , 0.0 , 

52.0 , 4135.38461538 , 4134.35897436 , 4247.17948718 , 4134.87179487 , 4135.38461538 , 4135.8974359 , 4133.84615385 , 4136.92307692 , 4137.94871795 , 4139.48717949 , 4157.94871795 , 4503.58974359 , 4131.79487179 , 4138.46153846 , 2027.0 , 2034.0 , 9.081 , 0.0 , 0.0 , 0.0 , 0.0 , 

53.0 , 4132.30769231 , 4134.87179487 , 4224.1025641 , 4135.38461538 , 4135.38461538 , 4135.8974359 , 4134.87179487 , 4134.87179487 , 4131.79487179 , 4140.51282051 , 4159.48717949 , 4502.05128205 , 4127.69230769 , 4134.35897436 , 2028.0 , 2035.0 , 9.088 , 0.0 , 0.0 , 0.0 , 0.0 , 

54.0 , 4134.87179487 , 4130.76923077 , 4207.17948718 , 4136.41025641 , 4135.38461538 , 4135.8974359 , 4135.8974359 , 4131.79487179 , 4129.23076923 , 4140.0 , 4158.46153846 , 4504.61538462 , 4127.69230769 , 4132.82051282 , 2026.0 , 2034.0 , 9.096 , 0.0 , 0.0 , 0.0 , 0.0 , 

55.0 , 4137.43589744 , 4132.82051282 , 4198.46153846 , 4136.92307692 , 4135.38461538 , 4135.8974359 , 4135.38461538 , 4130.76923077 , 4132.30769231 , 4139.48717949 , 4156.41025641 , 4503.07692308 , 4127.69230769 , 4133.33333333 , 2025.0 , 2032.0 , 9.104 , 0.0 , 0.0 , 0.0 , 0.0 , 

56.0 , 4133.33333333 , 4134.87179487 , 4184.61538462 , 4136.41025641 , 4135.38461538 , 4135.8974359 , 4134.87179487 , 4131.28205128 , 4134.87179487 , 4136.92307692 , 4156.92307692 , 4503.58974359 , 4125.64102564 , 4134.35897436 , 2027.0 , 2031.0 , 9.112 , 0.0 , 0.0 , 0.0 , 0.0 , 

57.0 , 4131.28205128 , 4131.79487179 , 4163.58974359 , 4134.87179487 , 4135.38461538 , 4135.8974359 , 4134.87179487 , 4130.25641026 , 4132.82051282 , 4134.35897436 , 4158.97435897 , 4504.61538462 , 4126.15384615 , 4131.79487179 , 2027.0 , 2030.0 , 9.12 , 0.0 , 0.0 , 0.0 , 0.0 , 

58.0 , 4135.8974359 , 4133.33333333 , 4151.28205128 , 4134.87179487 , 4135.38461538 , 4135.8974359 , 4135.38461538 , 4131.79487179 , 4133.84615385 , 4134.35897436 , 4155.8974359 , 4505.64102564 , 4127.69230769 , 4131.79487179 , 2027.0 , 2028.0 , 9.129 , 0.0 , 0.0 , 0.0 , 0.0 , 

59.0 , 4136.41025641 , 4133.84615385 , 4135.8974359 , 4135.38461538 , 4135.38461538 , 4135.8974359 , 4134.87179487 , 4129.23076923 , 4132.82051282 , 4132.82051282 , 4152.82051282 , 4505.64102564 , 4126.15384615 , 4129.74358974 , 2028.0 , 2025.0 , 9.136 , 0.0 , 0.0 , 0.0 , 0.0 , 

60.0 , 4133.84615385 , 4132.82051282 , 4126.66666667 , 4136.41025641 , 4135.38461538 , 4135.8974359 , 4134.87179487 , 4127.17948718 , 4131.28205128 , 4132.30769231 , 4155.38461538 , 4508.71794872 , 4124.1025641 , 4129.74358974 , 2030.0 , 2026.0 , 9.144 , 0.0 , 0.0 , 0.0 , 0.0 , 

61.0 , 4136.92307692 , 4136.41025641 , 4127.17948718 , 4136.92307692 , 4135.38461538 , 4135.8974359 , 4134.87179487 , 4127.69230769 , 4131.28205128 , 4133.33333333 , 4158.46153846 , 4508.71794872 , 4122.56410256 , 4131.28205128 , 2030.0 , 2026.0 , 9.151 , 0.0 , 0.0 , 0.0 , 0.0 , 

62.0 , 4138.46153846 , 4134.87179487 , 4097.94871795 , 4135.8974359 , 4135.38461538 , 4135.8974359 , 4134.87179487 , 4127.17948718 , 4129.74358974 , 4132.82051282 , 4154.87179487 , 4506.15384615 , 4121.02564103 , 4131.79487179 , 2031.0 , 2025.0 , 9.159 , 0.0 , 0.0 , 0.0 , 0.0 , 

63.0 , 4135.8974359 , 4131.28205128 , 4082.05128205 , 4135.8974359 , 4135.38461538 , 4135.8974359 , 4134.87179487 , 4127.17948718 , 4130.76923077 , 4132.82051282 , 4150.76923077 , 4506.15384615 , 4122.05128205 , 4133.84615385 , 2033.0 , 2027.0 , 9.167 , 0.0 , 0.0 , 0.0 , 0.0 , 

64.0 , 4134.87179487 , 4129.74358974 , 4081.53846154 , 4136.41025641 , 4135.38461538 , 4135.8974359 , 4134.87179487 , 4125.64102564 , 4130.25641026 , 4133.33333333 , 4154.35897436 , 4504.61538462 , 4125.12820513 , 4133.33333333 , 2036.0 , 2029.0 , 9.175 , 0.0 , 0.0 , 0.0 , 0.0 , 

65.0 , 4133.84615385 , 4131.28205128 , 4082.05128205 , 4135.8974359 , 4135.38461538 , 4135.8974359 , 4134.87179487 , 4127.69230769 , 4129.23076923 , 4134.87179487 , 4157.94871795 , 4503.58974359 , 4127.17948718 , 4129.74358974 , 2038.0 , 2031.0 , 9.183 , 0.0 , 0.0 , 0.0 , 0.0 , 

66.0 , 4133.33333333 , 4130.76923077 , 4077.94871795 , 4135.8974359 , 4135.38461538 , 4135.8974359 , 4134.87179487 , 4129.23076923 , 4128.71794872 , 4135.8974359 , 4157.94871795 , 4505.12820513 , 4127.69230769 , 4129.23076923 , 2041.0 , 2033.0 , 9.191 , 0.0 , 0.0 , 0.0 , 0.0 , 

67.0 , 4135.8974359 , 4127.69230769 , 4076.92307692 , 4135.8974359 , 4135.38461538 , 4135.8974359 , 4134.87179487 , 4128.71794872 , 4131.79487179 , 4134.87179487 , 4158.46153846 , 4505.64102564 , 4127.17948718 , 4134.35897436 , 2043.0 , 2034.0 , 9.199 , 0.0 , 0.0 , 0.0 , 0.0 , 

68.0 , 4135.8974359 , 4126.15384615 , 4081.53846154 , 4135.8974359 , 4135.38461538 , 4135.8974359 , 4134.87179487 , 4129.74358974 , 4137.43589744 , 4137.43589744 , 4161.02564103 , 4504.61538462 , 4128.71794872 , 4136.41025641 , 2045.0 , 2033.0 , 9.206 , 0.0 , 0.0 , 0.0 , 0.0 , 

69.0 , 4134.35897436 , 4133.33333333 , 4084.1025641 , 4136.41025641 , 4135.38461538 , 4135.8974359 , 4134.87179487 , 4130.76923077 , 4139.48717949 , 4141.53846154 , 4160.0 , 4504.61538462 , 4128.71794872 , 4132.82051282 , 2047.0 , 2033.0 , 9.215 , 0.0 , 0.0 , 0.0 , 0.0 , 

70.0 , 4134.87179487 , 4139.48717949 , 4081.53846154 , 4135.8974359 , 4135.38461538 , 4135.8974359 , 4134.87179487 , 4129.23076923 , 4135.38461538 , 4142.05128205 , 4157.43589744 , 4507.69230769 , 4127.69230769 , 4132.82051282 , 2046.0 , 2032.0 , 9.222 , 0.0 , 0.0 , 0.0 , 0.0 , 

71.0 , 4134.87179487 , 4130.76923077 , 4083.58974359 , 4135.8974359 , 4135.38461538 , 4135.8974359 , 4134.87179487 , 4129.74358974 , 4131.79487179 , 4140.0 , 4158.97435897 , 4508.71794872 , 4128.20512821 , 4136.41025641 , 2047.0 , 2031.0 , 9.23 , 0.0 , 0.0 , 0.0 , 0.0 , 

72.0 , 4133.33333333 , 4126.15384615 , 4094.87179487 , 4137.43589744 , 4135.38461538 , 4135.8974359 , 4134.87179487 , 4132.30769231 , 4136.92307692 , 4141.02564103 , 4158.46153846 , 4506.66666667 , 4129.74358974 , 4136.41025641 , 2048.0 , 2032.0 , 9.238 , 0.0 , 0.0 , 0.0 , 0.0 , 

73.0 , 4134.35897436 , 4134.35897436 , 4103.07692308 , 4136.92307692 , 4135.38461538 , 4135.8974359 , 4134.87179487 , 4132.30769231 , 4139.48717949 , 4143.58974359 , 4157.94871795 , 4506.66666667 , 4130.25641026 , 4132.82051282 , 2048.0 , 2030.0 , 9.246 , 0.0 , 0.0 , 0.0 , 0.0 , 

74.0 , 4134.35897436 , 4134.87179487 , 4100.51282051 , 4135.38461538 , 4135.38461538 , 4135.8974359 , 4134.87179487 , 4131.28205128 , 4136.41025641 , 4142.56410256 , 4160.0 , 4506.66666667 , 4130.25641026 , 4133.33333333 , 2048.0 , 2029.0 , 9.254 , 0.0 , 0.0 , 0.0 , 0.0 , 

75.0 , 4134.87179487 , 4130.25641026 , 4097.43589744 , 4135.38461538 , 4135.38461538 , 4135.8974359 , 4134.87179487 , 4134.87179487 , 4135.38461538 , 4140.51282051 , 4162.05128205 , 4504.61538462 , 4131.28205128 , 4136.41025641 , 2049.0 , 2030.0 , 9.263 , 0.0 , 0.0 , 0.0 , 0.0 , 

76.0 , 4136.41025641 , 4131.28205128 , 4093.33333333 , 4135.38461538 , 4135.38461538 , 4135.8974359 , 4134.87179487 , 4136.41025641 , 4134.35897436 , 4141.53846154 , 4159.48717949 , 4503.07692308 , 4131.79487179 , 4135.38461538 , 2050.0 , 2030.0 , 9.271 , 0.0 , 0.0 , 0.0 , 0.0 , 

77.0 , 4136.92307692 , 4135.38461538 , 4086.66666667 , 4134.87179487 , 4135.38461538 , 4135.8974359 , 4134.87179487 , 4134.87179487 , 4131.28205128 , 4142.56410256 , 4157.94871795 , 4502.05128205 , 4131.79487179 , 4132.30769231 , 2052.0 , 2031.0 , 9.278 , 0.0 , 0.0 , 0.0 , 0.0 , 

78.0 , 4135.8974359 , 4132.30769231 , 4073.84615385 , 4134.87179487 , 4135.38461538 , 4135.8974359 , 4134.87179487 , 4133.33333333 , 4132.82051282 , 4137.43589744 , 4159.48717949 , 4499.48717949 , 4130.76923077 , 4132.82051282 , 2052.0 , 2032.0 , 9.285 , 0.0 , 0.0 , 0.0 , 0.0 , 

79.0 , 4134.87179487 , 4132.82051282 , 4063.07692308 , 4134.87179487 , 4135.38461538 , 4135.8974359 , 4134.87179487 , 4132.30769231 , 4138.97435897 , 4137.94871795 , 4160.0 , 4498.97435897 , 4128.71794872 , 4135.38461538 , 2053.0 , 2035.0 , 9.293 , 0.0 , 0.0 , 0.0 , 0.0 , 

80.0 , 4135.38461538 , 4139.48717949 , 4059.48717949 , 4134.35897436 , 4135.38461538 , 4135.8974359 , 4134.87179487 , 4130.76923077 , 4134.87179487 , 4142.05128205 , 4155.38461538 , 4498.46153846 , 4125.64102564 , 4133.33333333 , 2054.0 , 2037.0 , 9.301 , 0.0 , 0.0 , 0.0 , 0.0 , 

81.0 , 4134.87179487 , 4132.82051282 , 4063.58974359 , 4135.38461538 , 4135.38461538 , 4135.8974359 , 4134.87179487 , 4131.79487179 , 4130.25641026 , 4142.05128205 , 4156.41025641 , 4497.43589744 , 4125.64102564 , 4132.30769231 , 2056.0 , 2039.0 , 9.309 , 0.0 , 0.0 , 0.0 , 0.0 , 

82.0 , 4133.84615385 , 4126.66666667 , 4058.46153846 , 4136.41025641 , 4135.38461538 , 4135.8974359 , 4134.87179487 , 4130.25641026 , 4131.79487179 , 4138.97435897 , 4160.0 , 4495.38461538 , 4126.66666667 , 4131.79487179 , 2060.0 , 2043.0 , 9.316 , 0.0 , 0.0 , 0.0 , 0.0 , 

83.0 , 4135.38461538 , 4133.84615385 , 4049.23076923 , 4136.41025641 , 4135.38461538 , 4135.8974359 , 4134.87179487 , 4129.74358974 , 4132.82051282 , 4139.48717949 , 4159.48717949 , 4496.41025641 , 4128.20512821 , 4131.28205128 , 2062.0 , 2043.0 , 9.325 , 0.0 , 0.0 , 0.0 , 0.0 , 

84.0 , 4136.92307692 , 4131.79487179 , 4050.25641026 , 4135.8974359 , 4135.38461538 , 4135.8974359 , 4134.87179487 , 4130.25641026 , 4131.79487179 , 4139.48717949 , 4157.94871795 , 4497.43589744 , 4128.20512821 , 4132.82051282 , 2065.0 , 2042.0 , 9.333 , 0.0 , 0.0 , 0.0 , 0.0 , 

85.0 , 4135.8974359 , 4126.66666667 , 4058.46153846 , 4135.38461538 , 4135.38461538 , 4135.8974359 , 4135.38461538 , 4133.33333333 , 4134.87179487 , 4140.0 , 4159.48717949 , 4493.33333333 , 4129.74358974 , 4134.35897436 , 2067.0 , 2042.0 , 9.341 , 0.0 , 0.0 , 0.0 , 0.0 , 

86.0 , 4134.87179487 , 4134.35897436 , 4071.28205128 , 4134.87179487 , 4135.38461538 , 4135.8974359 , 4135.38461538 , 4137.43589744 , 4135.38461538 , 4143.58974359 , 4160.51282051 , 4489.74358974 , 4131.79487179 , 4131.79487179 , 2067.0 , 2039.0 , 9.348 , 0.0 , 0.0 , 0.0 , 0.0 , 

87.0 , 4135.38461538 , 4134.87179487 , 4094.35897436 , 4134.87179487 , 4135.38461538 , 4135.8974359 , 4134.87179487 , 4140.0 , 4134.87179487 , 4145.12820513 , 4161.53846154 , 4495.38461538 , 4132.82051282 , 4134.87179487 , 2069.0 , 2039.0 , 9.357 , 0.0 , 0.0 , 0.0 , 0.0 , 

88.0 , 4136.41025641 , 4127.17948718 , 4114.87179487 , 4134.87179487 , 4135.38461538 , 4135.8974359 , 4135.8974359 , 4137.43589744 , 4140.0 , 4143.58974359 , 4161.53846154 , 4499.48717949 , 4132.30769231 , 4140.51282051 , 2070.0 , 2038.0 , 9.363 , 0.0 , 0.0 , 0.0 , 0.0 , 

89.0 , 4136.41025641 , 4130.25641026 , 4126.66666667 , 4134.87179487 , 4135.38461538 , 4135.8974359 , 4135.38461538 , 4138.46153846 , 4144.61538462 , 4144.1025641 , 4161.53846154 , 4495.38461538 , 4134.35897436 , 4140.0 , 2072.0 , 2037.0 , 9.372 , 0.0 , 0.0 , 0.0 , 0.0 , 

90.0 , 4132.30769231 , 4135.38461538 , 4137.43589744 , 4134.87179487 , 4135.38461538 , 4135.8974359 , 4130.76923077 , 4142.56410256 , 4140.51282051 , 4148.20512821 , 4162.56410256 , 4494.35897436 , 4136.92307692 , 4137.43589744 , 2073.0 , 2037.0 , 9.38 , 0.0 , 0.0 , 0.0 , 0.0 , 

91.0 , 4131.28205128 , 4133.33333333 , 4151.28205128 , 4134.87179487 , 4135.38461538 , 4135.8974359 , 4127.69230769 , 4142.05128205 , 4138.46153846 , 4148.20512821 , 4162.56410256 , 4497.43589744 , 4136.41025641 , 4139.48717949 , 2072.0 , 2036.0 , 9.388 , 0.0 , 0.0 , 0.0 , 0.0 , 

92.0 , 4135.8974359 , 4131.28205128 , 4166.66666667 , 4135.38461538 , 4135.38461538 , 4135.8974359 , 4128.71794872 , 4138.97435897 , 4140.51282051 , 4146.15384615 , 4164.1025641 , 4496.92307692 , 4133.84615385 , 4137.43589744 , 2071.0 , 2036.0 , 9.396 , 0.0 , 0.0 , 0.0 , 0.0 , 

