['COUNTER', 'AF3', 'F7', 'F3', 'FC5', 'T7', 'P7', 'O1', 'O2', 'P8', 'T8', 'FC6', 'F4', 'F8', 'AF4', 'GYROX', 'GYROY', 'TIMESTAMP', 'FUNC_ID', 'FUNC_VALUE', 'MARKER', 'SYNC_SIGNAL']
74.0 , 4127.69230769 , 4129.23076923 , 4164.61538462 , 4136.41025641 , 4132.30769231 , 4135.8974359 , 4126.15384615 , 4132.82051282 , 4133.84615385 , 4135.8974359 , 4180.0 , 4796.92307692 , 4134.35897436 , 4135.8974359 , 2038.0 , 2037.0 , 6.032 , 0.0 , 0.0 , 0.0 , 0.0 , 

75.0 , 4130.25641026 , 4129.23076923 , 4163.07692308 , 4135.38461538 , 4133.33333333 , 4132.82051282 , 4128.20512821 , 4128.71794872 , 4135.38461538 , 4135.8974359 , 4177.43589744 , 4795.38461538 , 4134.35897436 , 4138.46153846 , 2038.0 , 2039.0 , 6.04 , 0.0 , 0.0 , 0.0 , 0.0 , 

76.0 , 4133.33333333 , 4130.76923077 , 4160.51282051 , 4135.8974359 , 4132.82051282 , 4131.28205128 , 4129.23076923 , 4129.23076923 , 4133.84615385 , 4135.8974359 , 4174.87179487 , 4797.94871795 , 4134.35897436 , 4140.51282051 , 2038.0 , 2039.0 , 6.048 , 0.0 , 0.0 , 0.0 , 0.0 , 

77.0 , 4130.76923077 , 4130.76923077 , 4163.07692308 , 4137.94871795 , 4132.82051282 , 4131.28205128 , 4127.17948718 , 4130.76923077 , 4134.87179487 , 4135.8974359 , 4178.46153846 , 4798.46153846 , 4134.35897436 , 4138.97435897 , 2038.0 , 2043.0 , 6.056 , 0.0 , 0.0 , 0.0 , 0.0 , 

78.0 , 4131.28205128 , 4127.69230769 , 4161.53846154 , 4138.46153846 , 4133.33333333 , 4126.66666667 , 4124.1025641 , 4129.74358974 , 4137.43589744 , 4135.8974359 , 4178.46153846 , 4797.94871795 , 4134.87179487 , 4136.92307692 , 2038.0 , 2043.0 , 6.064 , 0.0 , 0.0 , 0.0 , 0.0 , 

79.0 , 4130.76923077 , 4125.12820513 , 4161.53846154 , 4135.38461538 , 4132.82051282 , 4121.02564103 , 4124.61538462 , 4130.76923077 , 4135.8974359 , 4135.8974359 , 4176.92307692 , 4795.38461538 , 4134.87179487 , 4137.94871795 , 2036.0 , 2046.0 , 6.072 , 0.0 , 0.0 , 0.0 , 0.0 , 

80.0 , 4128.20512821 , 4127.69230769 , 4165.12820513 , 4131.28205128 , 4133.84615385 , 4125.64102564 , 4126.66666667 , 4135.8974359 , 4134.87179487 , 4135.8974359 , 4178.97435897 , 4796.41025641 , 4135.38461538 , 4137.94871795 , 2037.0 , 2047.0 , 6.08 , 0.0 , 0.0 , 0.0 , 0.0 , 

81.0 , 4129.74358974 , 4129.74358974 , 4168.71794872 , 4129.74358974 , 4134.35897436 , 4128.71794872 , 4126.66666667 , 4135.8974359 , 4136.92307692 , 4135.8974359 , 4180.0 , 4800.51282051 , 4134.87179487 , 4137.94871795 , 2038.0 , 2049.0 , 6.087 , 0.0 , 0.0 , 0.0 , 0.0 , 

82.0 , 4131.28205128 , 4128.71794872 , 4170.25641026 , 4134.87179487 , 4135.8974359 , 4127.17948718 , 4125.12820513 , 4133.33333333 , 4137.43589744 , 4135.8974359 , 4175.8974359 , 4797.94871795 , 4134.87179487 , 4137.94871795 , 2039.0 , 2051.0 , 6.095 , 0.0 , 0.0 , 0.0 , 0.0 , 

83.0 , 4128.71794872 , 4128.71794872 , 4170.25641026 , 4137.94871795 , 4134.87179487 , 4128.20512821 , 4124.1025641 , 4135.8974359 , 4135.8974359 , 4135.8974359 , 4175.8974359 , 4798.46153846 , 4134.35897436 , 4138.46153846 , 2038.0 , 2053.0 , 6.103 , 0.0 , 0.0 , 0.0 , 0.0 , 

84.0 , 4128.71794872 , 4127.69230769 , 4169.74358974 , 4131.79487179 , 4131.79487179 , 4130.76923077 , 4124.1025641 , 4134.87179487 , 4135.8974359 , 4135.8974359 , 4179.48717949 , 4801.53846154 , 4135.38461538 , 4137.94871795 , 2038.0 , 2055.0 , 6.111 , 0.0 , 0.0 , 0.0 , 0.0 , 

85.0 , 4129.23076923 , 4129.23076923 , 4170.76923077 , 4129.23076923 , 4132.30769231 , 4129.23076923 , 4124.1025641 , 4132.30769231 , 4136.41025641 , 4135.8974359 , 4177.43589744 , 4802.05128205 , 4135.8974359 , 4136.41025641 , 2038.0 , 2055.0 , 6.119 , 0.0 , 0.0 , 0.0 , 0.0 , 

86.0 , 4127.17948718 , 4130.76923077 , 4168.20512821 , 4135.8974359 , 4135.38461538 , 4128.20512821 , 4124.1025641 , 4131.28205128 , 4135.8974359 , 4135.8974359 , 4173.84615385 , 4803.07692308 , 4134.35897436 , 4137.43589744 , 2038.0 , 2056.0 , 6.128 , 0.0 , 0.0 , 0.0 , 0.0 , 

87.0 , 4128.20512821 , 4128.20512821 , 4163.58974359 , 4140.0 , 4135.38461538 , 4128.71794872 , 4124.1025641 , 4130.76923077 , 4135.8974359 , 4135.8974359 , 4176.41025641 , 4803.58974359 , 4135.38461538 , 4137.94871795 , 2038.0 , 2055.0 , 6.136 , 0.0 , 0.0 , 0.0 , 0.0 , 

88.0 , 4131.28205128 , 4128.20512821 , 4164.61538462 , 4136.41025641 , 4133.84615385 , 4125.12820513 , 4127.17948718 , 4131.79487179 , 4135.8974359 , 4135.8974359 , 4178.46153846 , 4798.97435897 , 4136.41025641 , 4136.41025641 , 2038.0 , 2052.0 , 6.143 , 0.0 , 0.0 , 0.0 , 0.0 , 

89.0 , 4129.23076923 , 4131.28205128 , 4165.64102564 , 4130.25641026 , 4134.87179487 , 4124.61538462 , 4127.17948718 , 4135.8974359 , 4135.8974359 , 4136.41025641 , 4174.87179487 , 4798.46153846 , 4132.82051282 , 4136.92307692 , 2038.0 , 2049.0 , 6.15 , 0.0 , 0.0 , 0.0 , 0.0 , 

90.0 , 4127.17948718 , 4129.23076923 , 4167.69230769 , 4133.33333333 , 4135.8974359 , 4127.69230769 , 4125.12820513 , 4136.41025641 , 4135.8974359 , 4136.41025641 , 4174.35897436 , 4803.58974359 , 4131.28205128 , 4136.92307692 , 2038.0 , 2049.0 , 6.158 , 0.0 , 0.0 , 0.0 , 0.0 , 

91.0 , 4130.25641026 , 4126.15384615 , 4171.28205128 , 4138.97435897 , 4135.38461538 , 4125.64102564 , 4128.20512821 , 4134.87179487 , 4135.8974359 , 4135.38461538 , 4177.43589744 , 4802.05128205 , 4135.38461538 , 4134.87179487 , 2039.0 , 2047.0 , 6.167 , 0.0 , 0.0 , 0.0 , 0.0 , 

92.0 , 4132.82051282 , 4129.23076923 , 4169.74358974 , 4131.79487179 , 4135.38461538 , 4125.64102564 , 4130.25641026 , 4133.84615385 , 4135.8974359 , 4136.92307692 , 4174.87179487 , 4804.1025641 , 4135.8974359 , 4135.8974359 , 2039.0 , 2047.0 , 6.175 , 0.0 , 0.0 , 0.0 , 0.0 , 

93.0 , 4129.23076923 , 4129.23076923 , 4162.56410256 , 4124.61538462 , 4134.87179487 , 4129.23076923 , 4125.64102564 , 4132.82051282 , 4135.8974359 , 4138.97435897 , 4178.97435897 , 4807.17948718 , 4134.35897436 , 4138.46153846 , 2040.0 , 2044.0 , 6.182 , 0.0 , 0.0 , 0.0 , 0.0 , 

94.0 , 4128.20512821 , 4127.17948718 , 4162.56410256 , 4134.35897436 , 4134.35897436 , 4128.71794872 , 4124.61538462 , 4133.33333333 , 4135.8974359 , 4137.94871795 , 4185.64102564 , 4806.66666667 , 4134.87179487 , 4137.43589744 , 2040.0 , 2044.0 , 6.19 , 0.0 , 0.0 , 0.0 , 0.0 , 

95.0 , 4130.76923077 , 4129.74358974 , 4165.64102564 , 4140.51282051 , 4135.8974359 , 4126.66666667 , 4129.74358974 , 4135.38461538 , 4135.8974359 , 4136.41025641 , 4177.94871795 , 4804.61538462 , 4133.84615385 , 4136.41025641 , 2040.0 , 2045.0 , 6.198 , 0.0 , 0.0 , 0.0 , 0.0 , 

96.0 , 4129.23076923 , 4129.74358974 , 4166.15384615 , 4135.8974359 , 4134.87179487 , 4128.71794872 , 4126.66666667 , 4133.84615385 , 4135.8974359 , 4137.43589744 , 4170.76923077 , 4807.17948718 , 4132.82051282 , 4138.97435897 , 2040.0 , 2045.0 , 6.205 , 0.0 , 0.0 , 0.0 , 0.0 , 

97.0 , 4127.17948718 , 4126.66666667 , 4164.1025641 , 4135.38461538 , 4131.79487179 , 4128.71794872 , 4123.07692308 , 4134.35897436 , 4135.8974359 , 4136.92307692 , 4175.8974359 , 4806.15384615 , 4135.38461538 , 4140.0 , 2040.0 , 2047.0 , 6.214 , 0.0 , 0.0 , 0.0 , 0.0 , 

98.0 , 4129.74358974 , 4127.17948718 , 4166.15384615 , 4137.43589744 , 4133.33333333 , 4124.61538462 , 4126.15384615 , 4135.38461538 , 4135.8974359 , 4135.8974359 , 4180.51282051 , 4802.56410256 , 4135.38461538 , 4137.43589744 , 2040.0 , 2048.0 , 6.221 , 0.0 , 0.0 , 0.0 , 0.0 , 

99.0 , 4132.82051282 , 4129.23076923 , 4163.58974359 , 4135.8974359 , 4135.8974359 , 4125.12820513 , 4126.66666667 , 4134.87179487 , 4135.8974359 , 4135.8974359 , 4178.97435897 , 4807.17948718 , 4134.35897436 , 4136.41025641 , 2039.0 , 2050.0 , 6.229 , 0.0 , 0.0 , 0.0 , 0.0 , 

100.0 , 4130.76923077 , 4127.69230769 , 4156.92307692 , 4135.38461538 , 4134.87179487 , 4127.69230769 , 4128.20512821 , 4134.35897436 , 4135.8974359 , 4136.41025641 , 4178.97435897 , 4811.79487179 , 4134.35897436 , 4137.43589744 , 2038.0 , 2050.0 , 6.237 , 0.0 , 0.0 , 0.0 , 0.0 , 

101.0 , 4129.74358974 , 4127.69230769 , 4153.84615385 , 4135.38461538 , 4134.35897436 , 4127.17948718 , 4129.74358974 , 4134.35897436 , 4135.8974359 , 4135.8974359 , 4181.02564103 , 4811.28205128 , 4134.35897436 , 4136.41025641 , 2038.0 , 2050.0 , 6.245 , 0.0 , 0.0 , 0.0 , 0.0 , 

102.0 , 4130.76923077 , 4127.17948718 , 4157.43589744 , 4135.8974359 , 4135.8974359 , 4128.20512821 , 4126.15384615 , 4134.35897436 , 4135.8974359 , 4135.8974359 , 4182.56410256 , 4810.25641026 , 4134.35897436 , 4136.92307692 , 2040.0 , 2050.0 , 6.253 , 0.0 , 0.0 , 0.0 , 0.0 , 

103.0 , 4131.28205128 , 4128.20512821 , 4157.94871795 , 4135.38461538 , 4136.41025641 , 4134.87179487 , 4125.12820513 , 4134.87179487 , 4135.8974359 , 4135.8974359 , 4180.51282051 , 4811.79487179 , 4134.35897436 , 4137.94871795 , 2040.0 , 2050.0 , 6.261 , 0.0 , 0.0 , 0.0 , 0.0 , 

104.0 , 4129.74358974 , 4129.74358974 , 4153.33333333 , 4133.84615385 , 4136.41025641 , 4134.87179487 , 4126.15384615 , 4135.8974359 , 4135.8974359 , 4135.8974359 , 4176.92307692 , 4812.82051282 , 4133.84615385 , 4137.43589744 , 2041.0 , 2050.0 , 6.268 , 0.0 , 0.0 , 0.0 , 0.0 , 

105.0 , 4129.74358974 , 4129.74358974 , 4152.30769231 , 4135.38461538 , 4136.41025641 , 4126.66666667 , 4125.64102564 , 4133.84615385 , 4135.8974359 , 4135.8974359 , 4179.48717949 , 4811.28205128 , 4134.87179487 , 4136.92307692 , 2042.0 , 2051.0 , 6.276 , 0.0 , 0.0 , 0.0 , 0.0 , 

106.0 , 4129.74358974 , 4128.20512821 , 4155.8974359 , 4136.41025641 , 4134.35897436 , 4126.15384615 , 4128.20512821 , 4132.30769231 , 4135.8974359 , 4135.8974359 , 4181.02564103 , 4813.84615385 , 4136.92307692 , 4136.41025641 , 2041.0 , 2051.0 , 6.284 , 0.0 , 0.0 , 0.0 , 0.0 , 

107.0 , 4130.25641026 , 4128.71794872 , 4159.48717949 , 4134.87179487 , 4133.84615385 , 4130.25641026 , 4128.71794872 , 4135.38461538 , 4135.8974359 , 4135.8974359 , 4177.94871795 , 4814.35897436 , 4136.41025641 , 4137.43589744 , 2043.0 , 2051.0 , 6.292 , 0.0 , 0.0 , 0.0 , 0.0 , 

108.0 , 4130.25641026 , 4130.25641026 , 4157.94871795 , 4135.38461538 , 4134.35897436 , 4125.12820513 , 4127.17948718 , 4136.92307692 , 4135.8974359 , 4135.8974359 , 4176.92307692 , 4813.84615385 , 4134.35897436 , 4137.94871795 , 2045.0 , 2050.0 , 6.3 , 0.0 , 0.0 , 0.0 , 0.0 , 

109.0 , 4132.30769231 , 4129.23076923 , 4156.92307692 , 4136.92307692 , 4134.35897436 , 4129.74358974 , 4128.71794872 , 4133.84615385 , 4135.8974359 , 4135.8974359 , 4176.41025641 , 4813.84615385 , 4135.38461538 , 4136.92307692 , 2046.0 , 2049.0 , 6.308 , 0.0 , 0.0 , 0.0 , 0.0 , 

110.0 , 4135.8974359 , 4127.17948718 , 4156.92307692 , 4136.92307692 , 4133.84615385 , 4140.0 , 4126.15384615 , 4132.30769231 , 4135.8974359 , 4135.8974359 , 4175.38461538 , 4813.84615385 , 4134.35897436 , 4136.41025641 , 2045.0 , 2049.0 , 6.316 , 0.0 , 0.0 , 0.0 , 0.0 , 

111.0 , 4132.30769231 , 4126.66666667 , 4160.51282051 , 4135.8974359 , 4134.35897436 , 4132.30769231 , 4124.1025641 , 4135.38461538 , 4135.8974359 , 4136.41025641 , 4173.84615385 , 4813.33333333 , 4131.28205128 , 4135.8974359 , 2048.0 , 2045.0 , 6.324 , 0.0 , 0.0 , 0.0 , 0.0 , 

112.0 , 4127.69230769 , 4129.23076923 , 4163.58974359 , 4136.41025641 , 4134.35897436 , 4123.07692308 , 4126.15384615 , 4137.43589744 , 4135.8974359 , 4136.41025641 , 4175.8974359 , 4814.35897436 , 4133.33333333 , 4134.87179487 , 2050.0 , 2044.0 , 6.333 , 0.0 , 0.0 , 0.0 , 0.0 , 

113.0 , 4130.25641026 , 4128.71794872 , 4163.07692308 , 4135.38461538 , 4134.35897436 , 4126.66666667 , 4124.1025641 , 4135.38461538 , 4135.8974359 , 4135.38461538 , 4180.0 , 4815.8974359 , 4135.8974359 , 4135.8974359 , 2052.0 , 2043.0 , 6.34 , 0.0 , 0.0 , 0.0 , 0.0 , 

114.0 , 4133.84615385 , 4126.66666667 , 4163.58974359 , 4134.87179487 , 4133.33333333 , 4130.76923077 , 4121.53846154 , 4133.33333333 , 4135.8974359 , 4137.43589744 , 4180.51282051 , 4815.38461538 , 4135.38461538 , 4136.92307692 , 2054.0 , 2038.0 , 6.347 , 0.0 , 0.0 , 0.0 , 0.0 , 

115.0 , 4132.30769231 , 4128.20512821 , 4168.20512821 , 4134.35897436 , 4134.35897436 , 4128.20512821 , 4127.69230769 , 4134.87179487 , 4135.8974359 , 4140.0 , 4176.41025641 , 4815.38461538 , 4134.87179487 , 4136.92307692 , 2054.0 , 2036.0 , 6.355 , 0.0 , 0.0 , 0.0 , 0.0 , 

116.0 , 4128.20512821 , 4129.23076923 , 4165.64102564 , 4131.79487179 , 4137.94871795 , 4125.12820513 , 4129.23076923 , 4136.41025641 , 4135.8974359 , 4138.46153846 , 4178.97435897 , 4815.38461538 , 4135.38461538 , 4136.41025641 , 2056.0 , 2033.0 , 6.363 , 0.0 , 0.0 , 0.0 , 0.0 , 

117.0 , 4128.20512821 , 4127.69230769 , 4161.02564103 , 4132.82051282 , 4131.79487179 , 4127.69230769 , 4123.07692308 , 4134.87179487 , 4135.8974359 , 4135.8974359 , 4186.66666667 , 4814.87179487 , 4134.87179487 , 4137.94871795 , 2056.0 , 2032.0 , 6.371 , 0.0 , 0.0 , 0.0 , 0.0 , 

118.0 , 4128.71794872 , 4127.17948718 , 4162.05128205 , 4137.43589744 , 4123.07692308 , 4134.87179487 , 4124.61538462 , 4134.35897436 , 4135.8974359 , 4136.41025641 , 4182.56410256 , 4814.87179487 , 4133.84615385 , 4137.94871795 , 2054.0 , 2033.0 , 6.379 , 0.0 , 0.0 , 0.0 , 0.0 , 

119.0 , 4128.20512821 , 4127.69230769 , 4165.12820513 , 4137.43589744 , 4129.74358974 , 4135.38461538 , 4128.20512821 , 4135.38461538 , 4135.8974359 , 4137.94871795 , 4175.38461538 , 4814.87179487 , 4134.35897436 , 4137.43589744 , 2054.0 , 2032.0 , 6.387 , 0.0 , 0.0 , 0.0 , 0.0 , 

120.0 , 4128.71794872 , 4128.71794872 , 4162.05128205 , 4135.8974359 , 4136.92307692 , 4129.23076923 , 4128.20512821 , 4136.41025641 , 4135.8974359 , 4137.94871795 , 4177.94871795 , 4814.87179487 , 4135.38461538 , 4136.92307692 , 2054.0 , 2030.0 , 6.395 , 0.0 , 0.0 , 0.0 , 0.0 , 

121.0 , 4128.20512821 , 4127.69230769 , 4155.38461538 , 4136.41025641 , 4130.76923077 , 4130.76923077 , 4129.74358974 , 4135.8974359 , 4135.8974359 , 4137.43589744 , 4182.56410256 , 4815.38461538 , 4135.8974359 , 4136.41025641 , 2052.0 , 2029.0 , 6.403 , 0.0 , 0.0 , 0.0 , 0.0 , 

122.0 , 4129.23076923 , 4127.69230769 , 4151.79487179 , 4134.87179487 , 4127.17948718 , 4130.76923077 , 4129.23076923 , 4134.35897436 , 4136.41025641 , 4137.94871795 , 4181.53846154 , 4815.38461538 , 4134.35897436 , 4137.43589744 , 2052.0 , 2027.0 , 6.411 , 0.0 , 0.0 , 0.0 , 0.0 , 

123.0 , 4130.25641026 , 4129.23076923 , 4152.30769231 , 4132.82051282 , 4131.79487179 , 4127.17948718 , 4125.12820513 , 4135.38461538 , 4135.8974359 , 4137.94871795 , 4180.0 , 4816.92307692 , 4134.35897436 , 4138.46153846 , 2049.0 , 2023.0 , 6.419 , 0.0 , 0.0 , 0.0 , 0.0 , 

124.0 , 4131.79487179 , 4129.74358974 , 4154.87179487 , 4133.84615385 , 4130.25641026 , 4127.17948718 , 4125.12820513 , 4136.92307692 , 4135.8974359 , 4137.94871795 , 4178.46153846 , 4815.38461538 , 4134.87179487 , 4136.41025641 , 2051.0 , 2023.0 , 6.427 , 0.0 , 0.0 , 0.0 , 0.0 , 

125.0 , 4131.28205128 , 4129.74358974 , 4155.38461538 , 4133.33333333 , 4127.69230769 , 4128.20512821 , 4128.20512821 , 4134.35897436 , 4136.41025641 , 4137.94871795 , 4176.92307692 , 4814.87179487 , 4134.35897436 , 4135.38461538 , 2049.0 , 2021.0 , 6.434 , 0.0 , 0.0 , 0.0 , 0.0 , 

126.0 , 4129.74358974 , 4130.25641026 , 4156.92307692 , 4133.84615385 , 4129.23076923 , 4126.66666667 , 4127.69230769 , 4132.30769231 , 4135.8974359 , 4137.94871795 , 4177.94871795 , 4822.05128205 , 4134.35897436 , 4138.97435897 , 2048.0 , 2021.0 , 6.442 , 0.0 , 0.0 , 0.0 , 0.0 , 

127.0 , 4129.74358974 , 4128.71794872 , 4162.56410256 , 4135.8974359 , 4129.74358974 , 4125.12820513 , 4125.64102564 , 4135.8974359 , 4134.87179487 , 4137.94871795 , 4176.92307692 , 4824.1025641 , 4134.35897436 , 4140.51282051 , 2063.0 , 2022.0 , 6.45 , 0.0 , 0.0 , 0.0 , 0.0 , 

128.0 , 4132.30769231 , 4128.20512821 , 4165.64102564 , 4136.92307692 , 4130.25641026 , 4126.66666667 , 4123.07692308 , 4136.41025641 , 4134.35897436 , 4137.43589744 , 4177.94871795 , 4821.53846154 , 4134.87179487 , 4137.43589744 , 2045.0 , 2020.0 , 6.458 , 0.0 , 0.0 , 0.0 , 0.0 , 

0.0 , 4131.79487179 , 4130.25641026 , 4156.92307692 , 4136.92307692 , 4129.74358974 , 4128.20512821 , 4124.61538462 , 4133.84615385 , 4135.38461538 , 4137.43589744 , 4177.94871795 , 4823.58974359 , 4134.35897436 , 4135.8974359 , 2046.0 , 2020.0 , 6.466 , 0.0 , 0.0 , 0.0 , 0.0 , 

1.0 , 4129.23076923 , 4128.71794872 , 4151.79487179 , 4137.43589744 , 4129.74358974 , 4125.12820513 , 4130.25641026 , 4134.87179487 , 4134.87179487 , 4138.46153846 , 4173.84615385 , 4826.15384615 , 4133.84615385 , 4137.94871795 , 2046.0 , 2018.0 , 6.475 , 0.0 , 0.0 , 0.0 , 0.0 , 

2.0 , 4132.82051282 , 4124.61538462 , 4154.35897436 , 4136.41025641 , 4130.25641026 , 4125.64102564 , 4129.74358974 , 4136.41025641 , 4133.84615385 , 4136.92307692 , 4174.87179487 , 4822.05128205 , 4133.33333333 , 4138.46153846 , 2048.0 , 2017.0 , 6.481 , 0.0 , 0.0 , 0.0 , 0.0 , 

3.0 , 4135.38461538 , 4126.15384615 , 4156.92307692 , 4135.38461538 , 4130.25641026 , 4130.25641026 , 4130.76923077 , 4135.38461538 , 4134.35897436 , 4135.38461538 , 4178.97435897 , 4822.56410256 , 4134.35897436 , 4137.43589744 , 2051.0 , 2016.0 , 6.489 , 0.0 , 0.0 , 0.0 , 0.0 , 

4.0 , 4131.79487179 , 4128.71794872 , 4157.43589744 , 4135.38461538 , 4130.25641026 , 4131.28205128 , 4135.8974359 , 4135.38461538 , 4136.41025641 , 4136.41025641 , 4176.92307692 , 4823.07692308 , 4134.87179487 , 4135.8974359 , 2053.0 , 2016.0 , 6.497 , 0.0 , 0.0 , 0.0 , 0.0 , 

5.0 , 4130.25641026 , 4127.69230769 , 4160.51282051 , 4135.8974359 , 4130.25641026 , 4126.66666667 , 4132.82051282 , 4135.38461538 , 4137.43589744 , 4136.92307692 , 4173.33333333 , 4819.48717949 , 4135.8974359 , 4136.41025641 , 2055.0 , 2015.0 , 6.505 , 0.0 , 0.0 , 0.0 , 0.0 , 

6.0 , 4131.28205128 , 4128.71794872 , 4162.56410256 , 4135.8974359 , 4130.25641026 , 4125.64102564 , 4125.12820513 , 4135.8974359 , 4136.41025641 , 4136.41025641 , 4175.8974359 , 4820.0 , 4134.35897436 , 4136.41025641 , 2054.0 , 2017.0 , 6.514 , 0.0 , 0.0 , 0.0 , 0.0 , 

7.0 , 4129.74358974 , 4128.71794872 , 4165.64102564 , 4135.8974359 , 4130.25641026 , 4129.23076923 , 4124.61538462 , 4136.41025641 , 4135.8974359 , 4136.92307692 , 4177.43589744 , 4822.05128205 , 4132.82051282 , 4134.87179487 , 2055.0 , 2018.0 , 6.521 , 0.0 , 0.0 , 0.0 , 0.0 , 

8.0 , 4129.74358974 , 4129.74358974 , 4162.56410256 , 4136.41025641 , 4130.25641026 , 4131.79487179 , 4124.61538462 , 4134.35897436 , 4135.8974359 , 4137.94871795 , 4174.35897436 , 4823.58974359 , 4132.30769231 , 4135.38461538 , 2055.0 , 2021.0 , 6.53 , 0.0 , 0.0 , 0.0 , 0.0 , 

9.0 , 4130.25641026 , 4130.25641026 , 4157.94871795 , 4136.41025641 , 4130.25641026 , 4131.28205128 , 4121.53846154 , 4135.38461538 , 4136.41025641 , 4137.94871795 , 4174.87179487 , 4826.15384615 , 4134.35897436 , 4136.92307692 , 2056.0 , 2023.0 , 6.537 , 0.0 , 0.0 , 0.0 , 0.0 , 

10.0 , 4130.76923077 , 4129.23076923 , 4156.92307692 , 4136.41025641 , 4130.25641026 , 4132.82051282 , 4124.61538462 , 4136.41025641 , 4135.8974359 , 4137.43589744 , 4176.92307692 , 4827.69230769 , 4133.33333333 , 4134.87179487 , 2056.0 , 2026.0 , 6.544 , 0.0 , 0.0 , 0.0 , 0.0 , 

11.0 , 4130.25641026 , 4128.71794872 , 4146.15384615 , 4137.43589744 , 4130.25641026 , 4135.38461538 , 4128.20512821 , 4134.35897436 , 4135.38461538 , 4137.43589744 , 4176.92307692 , 4827.17948718 , 4128.71794872 , 4134.35897436 , 2055.0 , 2026.0 , 6.553 , 0.0 , 0.0 , 0.0 , 0.0 , 

12.0 , 4129.74358974 , 4130.25641026 , 4143.07692308 , 4136.92307692 , 4130.25641026 , 4130.25641026 , 4129.23076923 , 4132.82051282 , 4135.8974359 , 4137.43589744 , 4176.41025641 , 4827.69230769 , 4130.25641026 , 4136.41025641 , 2054.0 , 2027.0 , 6.561 , 0.0 , 0.0 , 0.0 , 0.0 , 

13.0 , 4129.23076923 , 4131.28205128 , 4141.02564103 , 4135.38461538 , 4130.25641026 , 4123.58974359 , 4127.69230769 , 4131.28205128 , 4135.8974359 , 4136.92307692 , 4176.41025641 , 4826.66666667 , 4131.28205128 , 4135.38461538 , 2054.0 , 2028.0 , 6.568 , 0.0 , 0.0 , 0.0 , 0.0 , 

14.0 , 4129.23076923 , 4128.71794872 , 4142.56410256 , 4136.41025641 , 4130.25641026 , 4132.30769231 , 4125.12820513 , 4131.79487179 , 4136.41025641 , 4137.94871795 , 4176.92307692 , 4824.61538462 , 4129.23076923 , 4133.84615385 , 2052.0 , 2028.0 , 6.576 , 0.0 , 0.0 , 0.0 , 0.0 , 

15.0 , 4130.25641026 , 4128.20512821 , 4137.94871795 , 4135.38461538 , 4130.25641026 , 4140.51282051 , 4124.1025641 , 4132.30769231 , 4135.8974359 , 4138.46153846 , 4176.41025641 , 4827.69230769 , 4127.17948718 , 4136.41025641 , 2053.0 , 2027.0 , 6.584 , 0.0 , 0.0 , 0.0 , 0.0 , 

16.0 , 4129.74358974 , 4130.25641026 , 4144.61538462 , 4134.87179487 , 4130.25641026 , 4133.33333333 , 4125.64102564 , 4133.33333333 , 4136.41025641 , 4137.43589744 , 4177.43589744 , 4829.74358974 , 4130.25641026 , 4137.43589744 , 2053.0 , 2027.0 , 6.592 , 0.0 , 0.0 , 0.0 , 0.0 , 

17.0 , 4128.71794872 , 4130.76923077 , 4148.20512821 , 4136.92307692 , 4130.25641026 , 4127.69230769 , 4124.61538462 , 4131.28205128 , 4136.41025641 , 4135.8974359 , 4176.92307692 , 4828.71794872 , 4129.74358974 , 4134.87179487 , 2053.0 , 2025.0 , 6.6 , 0.0 , 0.0 , 0.0 , 0.0 , 

18.0 , 4130.25641026 , 4128.71794872 , 4147.17948718 , 4136.92307692 , 4130.25641026 , 4133.33333333 , 4122.56410256 , 4132.30769231 , 4135.38461538 , 4138.46153846 , 4175.38461538 , 4827.69230769 , 4128.20512821 , 4136.41025641 , 2053.0 , 2026.0 , 6.607 , 0.0 , 0.0 , 0.0 , 0.0 , 

19.0 , 4129.23076923 , 4130.25641026 , 4142.05128205 , 4134.87179487 , 4130.25641026 , 4133.84615385 , 4123.07692308 , 4130.76923077 , 4133.33333333 , 4139.48717949 , 4176.41025641 , 4828.71794872 , 4127.69230769 , 4136.41025641 , 2052.0 , 2028.0 , 6.616 , 0.0 , 0.0 , 0.0 , 0.0 , 

20.0 , 4132.30769231 , 4132.82051282 , 4136.92307692 , 4135.8974359 , 4130.25641026 , 4132.30769231 , 4127.69230769 , 4128.71794872 , 4134.35897436 , 4137.94871795 , 4177.43589744 , 4829.23076923 , 4128.20512821 , 4134.87179487 , 2053.0 , 2026.0 , 6.624 , 0.0 , 0.0 , 0.0 , 0.0 , 

21.0 , 4139.48717949 , 4129.74358974 , 4142.56410256 , 4136.92307692 , 4130.25641026 , 4135.8974359 , 4127.17948718 , 4129.74358974 , 4136.41025641 , 4136.92307692 , 4177.43589744 , 4829.23076923 , 4131.28205128 , 4133.84615385 , 2052.0 , 2027.0 , 6.632 , 0.0 , 0.0 , 0.0 , 0.0 , 

22.0 , 4134.87179487 , 4128.20512821 , 4145.12820513 , 4135.8974359 , 4130.25641026 , 4131.79487179 , 4121.53846154 , 4130.76923077 , 4132.82051282 , 4137.94871795 , 4175.38461538 , 4828.20512821 , 4133.84615385 , 4135.38461538 , 2054.0 , 2027.0 , 6.639 , 0.0 , 0.0 , 0.0 , 0.0 , 

23.0 , 4127.17948718 , 4130.25641026 , 4146.15384615 , 4136.41025641 , 4130.25641026 , 4124.1025641 , 4123.07692308 , 4133.84615385 , 4132.82051282 , 4138.97435897 , 4175.8974359 , 4829.23076923 , 4129.74358974 , 4135.38461538 , 2053.0 , 2028.0 , 6.647 , 0.0 , 0.0 , 0.0 , 0.0 , 

24.0 , 4129.74358974 , 4128.71794872 , 4136.41025641 , 4137.43589744 , 4130.25641026 , 4127.69230769 , 4128.71794872 , 4133.33333333 , 4136.92307692 , 4138.97435897 , 4177.43589744 , 4828.20512821 , 4127.17948718 , 4130.76923077 , 2055.0 , 2027.0 , 6.655 , 0.0 , 0.0 , 0.0 , 0.0 , 

25.0 , 4132.82051282 , 4129.74358974 , 4133.84615385 , 4136.92307692 , 4130.25641026 , 4133.33333333 , 4125.64102564 , 4132.30769231 , 4137.43589744 , 4140.51282051 , 4176.92307692 , 4827.17948718 , 4130.76923077 , 4130.76923077 , 2054.0 , 2027.0 , 6.663 , 0.0 , 0.0 , 0.0 , 0.0 , 

26.0 , 4129.23076923 , 4132.30769231 , 4145.64102564 , 4134.87179487 , 4130.25641026 , 4133.33333333 , 4119.48717949 , 4134.35897436 , 4136.41025641 , 4140.51282051 , 4176.41025641 , 4829.74358974 , 4133.33333333 , 4137.94871795 , 2054.0 , 2027.0 , 6.671 , 0.0 , 0.0 , 0.0 , 0.0 , 

27.0 , 4129.23076923 , 4129.74358974 , 4150.25641026 , 4134.35897436 , 4130.25641026 , 4134.35897436 , 4121.53846154 , 4134.35897436 , 4136.92307692 , 4139.48717949 , 4176.92307692 , 4830.25641026 , 4132.30769231 , 4141.02564103 , 2053.0 , 2027.0 , 6.678 , 0.0 , 0.0 , 0.0 , 0.0 , 

28.0 , 4128.71794872 , 4126.66666667 , 4140.51282051 , 4134.87179487 , 4130.25641026 , 4135.38461538 , 4126.15384615 , 4130.25641026 , 4132.82051282 , 4137.94871795 , 4176.41025641 , 4828.20512821 , 4131.28205128 , 4134.87179487 , 2053.0 , 2026.0 , 6.686 , 0.0 , 0.0 , 0.0 , 0.0 , 

29.0 , 4127.69230769 , 4129.74358974 , 4138.97435897 , 4135.38461538 , 4130.25641026 , 4133.84615385 , 4124.1025641 , 4130.25641026 , 4129.23076923 , 4137.94871795 , 4176.41025641 , 4829.23076923 , 4131.28205128 , 4134.35897436 , 2052.0 , 2026.0 , 6.694 , 0.0 , 0.0 , 0.0 , 0.0 , 

30.0 , 4131.28205128 , 4130.76923077 , 4142.05128205 , 4135.8974359 , 4130.25641026 , 4134.35897436 , 4126.15384615 , 4132.82051282 , 4133.33333333 , 4137.94871795 , 4177.94871795 , 4829.23076923 , 4130.25641026 , 4137.43589744 , 2052.0 , 2028.0 , 6.702 , 0.0 , 0.0 , 0.0 , 0.0 , 

31.0 , 4132.30769231 , 4129.74358974 , 4140.51282051 , 4137.43589744 , 4130.25641026 , 4136.41025641 , 4133.84615385 , 4130.25641026 , 4135.8974359 , 4136.92307692 , 4178.46153846 , 4828.71794872 , 4130.76923077 , 4136.92307692 , 2049.0 , 2029.0 , 6.71 , 0.0 , 0.0 , 0.0 , 0.0 , 

32.0 , 4129.74358974 , 4128.71794872 , 4146.66666667 , 4136.41025641 , 4130.25641026 , 4134.87179487 , 4134.35897436 , 4129.74358974 , 4134.87179487 , 4137.43589744 , 4177.43589744 , 4829.23076923 , 4129.74358974 , 4134.87179487 , 2048.0 , 2030.0 , 6.718 , 0.0 , 0.0 , 0.0 , 0.0 , 

33.0 , 4129.74358974 , 4128.71794872 , 4149.23076923 , 4134.87179487 , 4130.25641026 , 4134.35897436 , 4127.17948718 , 4132.82051282 , 4136.92307692 , 4138.97435897 , 4176.41025641 , 4829.23076923 , 4127.17948718 , 4133.33333333 , 2049.0 , 2030.0 , 6.726 , 0.0 , 0.0 , 0.0 , 0.0 , 

34.0 , 4132.30769231 , 4128.20512821 , 4145.64102564 , 4135.38461538 , 4130.25641026 , 4134.35897436 , 4124.1025641 , 4132.82051282 , 4136.41025641 , 4138.97435897 , 4177.43589744 , 4828.71794872 , 4129.74358974 , 4135.8974359 , 2047.0 , 2029.0 , 6.734 , 0.0 , 0.0 , 0.0 , 0.0 , 

35.0 , 4132.82051282 , 4126.66666667 , 4146.15384615 , 4135.38461538 , 4130.25641026 , 4134.87179487 , 4126.15384615 , 4131.28205128 , 4133.33333333 , 4138.46153846 , 4176.92307692 , 4831.79487179 , 4132.82051282 , 4137.94871795 , 2050.0 , 2028.0 , 6.741 , 0.0 , 0.0 , 0.0 , 0.0 , 

36.0 , 4131.28205128 , 4125.64102564 , 4153.33333333 , 4136.41025641 , 4130.25641026 , 4134.35897436 , 4124.61538462 , 4131.79487179 , 4134.87179487 , 4139.48717949 , 4177.43589744 , 4832.82051282 , 4132.82051282 , 4136.92307692 , 2049.0 , 2026.0 , 6.749 , 0.0 , 0.0 , 0.0 , 0.0 , 

37.0 , 4128.20512821 , 4127.69230769 , 4154.87179487 , 4135.38461538 , 4130.25641026 , 4133.33333333 , 4122.56410256 , 4131.28205128 , 4138.46153846 , 4139.48717949 , 4178.46153846 , 4830.76923077 , 4130.76923077 , 4136.41025641 , 2050.0 , 2026.0 , 6.757 , 0.0 , 0.0 , 0.0 , 0.0 , 

38.0 , 4129.23076923 , 4131.79487179 , 4153.33333333 , 4132.82051282 , 4130.25641026 , 4135.8974359 , 4125.64102564 , 4130.76923077 , 4136.92307692 , 4139.48717949 , 4178.46153846 , 4829.23076923 , 4130.25641026 , 4136.92307692 , 2049.0 , 2025.0 , 6.765 , 0.0 , 0.0 , 0.0 , 0.0 , 

39.0 , 4130.76923077 , 4131.79487179 , 4161.53846154 , 4132.30769231 , 4130.25641026 , 4132.82051282 , 4126.15384615 , 4135.38461538 , 4136.92307692 , 4141.02564103 , 4175.8974359 , 4831.28205128 , 4132.30769231 , 4136.92307692 , 2049.0 , 2026.0 , 6.773 , 0.0 , 0.0 , 0.0 , 0.0 , 

40.0 , 4129.23076923 , 4129.23076923 , 4154.35897436 , 4135.38461538 , 4130.25641026 , 4126.15384615 , 4123.58974359 , 4134.87179487 , 4138.97435897 , 4140.0 , 4176.41025641 , 4830.76923077 , 4130.76923077 , 4135.8974359 , 2051.0 , 2028.0 , 6.782 , 0.0 , 0.0 , 0.0 , 0.0 , 

41.0 , 4130.25641026 , 4128.20512821 , 4145.64102564 , 4136.92307692 , 4130.25641026 , 4125.64102564 , 4124.1025641 , 4129.74358974 , 4137.94871795 , 4137.43589744 , 4181.02564103 , 4831.28205128 , 4129.23076923 , 4137.94871795 , 2051.0 , 2028.0 , 6.789 , 0.0 , 0.0 , 0.0 , 0.0 , 

42.0 , 4133.84615385 , 4130.25641026 , 4144.61538462 , 4136.92307692 , 4130.25641026 , 4125.64102564 , 4129.23076923 , 4129.74358974 , 4135.8974359 , 4137.94871795 , 4181.02564103 , 4833.84615385 , 4130.25641026 , 4138.46153846 , 2049.0 , 2030.0 , 6.798 , 0.0 , 0.0 , 0.0 , 0.0 , 

43.0 , 4132.82051282 , 4131.28205128 , 4150.25641026 , 4136.41025641 , 4130.25641026 , 4126.15384615 , 4129.23076923 , 4132.82051282 , 4136.92307692 , 4139.48717949 , 4177.43589744 , 4832.82051282 , 4132.82051282 , 4137.94871795 , 2049.0 , 2030.0 , 6.805 , 0.0 , 0.0 , 0.0 , 0.0 , 

44.0 , 4129.74358974 , 4129.23076923 , 4145.64102564 , 4135.8974359 , 4130.25641026 , 4135.38461538 , 4126.15384615 , 4130.76923077 , 4135.38461538 , 4138.46153846 , 4176.92307692 , 4829.74358974 , 4129.74358974 , 4137.94871795 , 2048.0 , 2031.0 , 6.812 , 0.0 , 0.0 , 0.0 , 0.0 , 

45.0 , 4129.23076923 , 4125.64102564 , 4146.15384615 , 4136.92307692 , 4130.25641026 , 4138.97435897 , 4124.1025641 , 4128.71794872 , 4134.35897436 , 4137.94871795 , 4180.0 , 4831.28205128 , 4127.69230769 , 4138.46153846 , 2047.0 , 2034.0 , 6.82 , 0.0 , 0.0 , 0.0 , 0.0 , 

46.0 , 4131.28205128 , 4126.15384615 , 4148.71794872 , 4136.92307692 , 4130.25641026 , 4125.64102564 , 4123.58974359 , 4130.76923077 , 4136.41025641 , 4137.94871795 , 4180.0 , 4834.87179487 , 4131.28205128 , 4137.94871795 , 2046.0 , 2034.0 , 6.828 , 0.0 , 0.0 , 0.0 , 0.0 , 

47.0 , 4131.28205128 , 4129.23076923 , 4152.30769231 , 4134.87179487 , 4130.25641026 , 4122.05128205 , 4125.64102564 , 4135.38461538 , 4136.41025641 , 4137.43589744 , 4178.46153846 , 4837.94871795 , 4132.30769231 , 4137.43589744 , 2046.0 , 2032.0 , 6.836 , 0.0 , 0.0 , 0.0 , 0.0 , 

48.0 , 4129.23076923 , 4129.74358974 , 4155.8974359 , 4134.87179487 , 4130.25641026 , 4133.84615385 , 4125.12820513 , 4135.8974359 , 4135.38461538 , 4138.46153846 , 4177.43589744 , 4839.48717949 , 4130.76923077 , 4137.43589744 , 2046.0 , 2031.0 , 6.844 , 0.0 , 0.0 , 0.0 , 0.0 , 

49.0 , 4129.23076923 , 4129.74358974 , 4154.87179487 , 4135.38461538 , 4130.25641026 , 4137.43589744 , 4122.05128205 , 4136.92307692 , 4136.92307692 , 4139.48717949 , 4179.48717949 , 4837.94871795 , 4130.25641026 , 4136.92307692 , 2044.0 , 2029.0 , 6.852 , 0.0 , 0.0 , 0.0 , 0.0 , 

50.0 , 4128.71794872 , 4132.82051282 , 4154.87179487 , 4135.8974359 , 4130.25641026 , 4126.15384615 , 4123.07692308 , 4136.41025641 , 4136.92307692 , 4137.94871795 , 4178.46153846 , 4837.94871795 , 4129.74358974 , 4136.41025641 , 2045.0 , 2028.0 , 6.86 , 0.0 , 0.0 , 0.0 , 0.0 , 

51.0 , 4128.71794872 , 4131.79487179 , 4151.28205128 , 4136.41025641 , 4130.25641026 , 4123.58974359 , 4129.23076923 , 4135.38461538 , 4136.41025641 , 4135.8974359 , 4176.92307692 , 4838.97435897 , 4131.79487179 , 4137.43589744 , 2044.0 , 2026.0 , 6.868 , 0.0 , 0.0 , 0.0 , 0.0 , 

52.0 , 4132.30769231 , 4129.74358974 , 4146.15384615 , 4133.84615385 , 4130.25641026 , 4133.84615385 , 4127.17948718 , 4136.41025641 , 4136.92307692 , 4137.43589744 , 4180.0 , 4838.97435897 , 4135.38461538 , 4137.43589744 , 2044.0 , 2027.0 , 6.876 , 0.0 , 0.0 , 0.0 , 0.0 , 

53.0 , 4132.82051282 , 4129.74358974 , 4148.71794872 , 4133.84615385 , 4130.25641026 , 4134.87179487 , 4123.07692308 , 4136.41025641 , 4135.8974359 , 4140.51282051 , 4180.51282051 , 4837.94871795 , 4133.84615385 , 4136.92307692 , 2044.0 , 2027.0 , 6.884 , 0.0 , 0.0 , 0.0 , 0.0 , 

54.0 , 4130.76923077 , 4129.23076923 , 4151.79487179 , 4136.41025641 , 4130.25641026 , 4125.12820513 , 4128.20512821 , 4129.74358974 , 4135.38461538 , 4140.0 , 4175.8974359 , 4836.41025641 , 4127.17948718 , 4136.92307692 , 2046.0 , 2029.0 , 6.891 , 0.0 , 0.0 , 0.0 , 0.0 , 

55.0 , 4131.79487179 , 4129.23076923 , 4150.76923077 , 4136.41025641 , 4130.25641026 , 4124.1025641 , 4129.23076923 , 4130.76923077 , 4137.43589744 , 4137.43589744 , 4175.38461538 , 4835.8974359 , 4129.74358974 , 4136.92307692 , 2046.0 , 2031.0 , 6.899 , 0.0 , 0.0 , 0.0 , 0.0 , 

56.0 , 4131.28205128 , 4130.25641026 , 4150.76923077 , 4135.8974359 , 4130.25641026 , 4127.69230769 , 4121.53846154 , 4134.87179487 , 4135.8974359 , 4136.92307692 , 4180.0 , 4839.48717949 , 4135.8974359 , 4136.41025641 , 2047.0 , 2030.0 , 6.907 , 0.0 , 0.0 , 0.0 , 0.0 , 

57.0 , 4129.23076923 , 4130.76923077 , 4146.15384615 , 4136.92307692 , 4130.25641026 , 4126.15384615 , 4122.05128205 , 4133.84615385 , 4132.82051282 , 4137.43589744 , 4180.0 , 4841.53846154 , 4135.38461538 , 4135.8974359 , 2047.0 , 2030.0 , 6.915 , 0.0 , 0.0 , 0.0 , 0.0 , 

58.0 , 4129.23076923 , 4129.74358974 , 4145.12820513 , 4136.92307692 , 4130.25641026 , 4128.20512821 , 4130.25641026 , 4135.38461538 , 4134.87179487 , 4136.92307692 , 4177.43589744 , 4838.46153846 , 4134.35897436 , 4135.38461538 , 2047.0 , 2030.0 , 6.923 , 0.0 , 0.0 , 0.0 , 0.0 , 

59.0 , 4128.20512821 , 4129.23076923 , 4144.61538462 , 4135.38461538 , 4130.25641026 , 4132.82051282 , 4128.20512821 , 4137.94871795 , 4137.43589744 , 4138.46153846 , 4176.92307692 , 4837.43589744 , 4134.87179487 , 4134.87179487 , 2047.0 , 2031.0 , 6.931 , 0.0 , 0.0 , 0.0 , 0.0 , 

60.0 , 4128.20512821 , 4127.69230769 , 4146.15384615 , 4134.35897436 , 4130.25641026 , 4129.23076923 , 4122.56410256 , 4134.87179487 , 4136.41025641 , 4140.0 , 4177.94871795 , 4841.02564103 , 4136.41025641 , 4136.41025641 , 2047.0 , 2030.0 , 6.938 , 0.0 , 0.0 , 0.0 , 0.0 , 

61.0 , 4133.33333333 , 4130.76923077 , 4150.76923077 , 4132.82051282 , 4130.25641026 , 4123.58974359 , 4122.05128205 , 4132.82051282 , 4135.8974359 , 4136.92307692 , 4179.48717949 , 4843.07692308 , 4136.41025641 , 4136.92307692 , 2044.0 , 2030.0 , 6.946 , 0.0 , 0.0 , 0.0 , 0.0 , 

62.0 , 4132.82051282 , 4133.33333333 , 4161.53846154 , 4133.33333333 , 4130.25641026 , 4122.56410256 , 4123.58974359 , 4135.8974359 , 4137.43589744 , 4135.8974359 , 4176.41025641 , 4840.0 , 4129.23076923 , 4136.41025641 , 2043.0 , 2031.0 , 6.955 , 0.0 , 0.0 , 0.0 , 0.0 , 

63.0 , 4128.20512821 , 4129.74358974 , 4162.56410256 , 4135.8974359 , 4130.25641026 , 4124.61538462 , 4125.12820513 , 4136.41025641 , 4135.8974359 , 4142.05128205 , 4174.87179487 , 4840.51282051 , 4125.12820513 , 4136.41025641 , 2042.0 , 2032.0 , 6.962 , 0.0 , 0.0 , 0.0 , 0.0 , 

64.0 , 4128.20512821 , 4128.20512821 , 4161.53846154 , 4135.38461538 , 4130.25641026 , 4126.15384615 , 4124.61538462 , 4133.84615385 , 4134.35897436 , 4143.58974359 , 4182.05128205 , 4845.12820513 , 4133.33333333 , 4136.92307692 , 2041.0 , 2032.0 , 6.97 , 0.0 , 0.0 , 0.0 , 0.0 , 

65.0 , 4130.25641026 , 4132.82051282 , 4154.35897436 , 4135.8974359 , 4130.25641026 , 4126.66666667 , 4123.07692308 , 4132.82051282 , 4134.35897436 , 4137.94871795 , 4186.15384615 , 4843.58974359 , 4136.92307692 , 4136.92307692 , 2039.0 , 2033.0 , 6.978 , 0.0 , 0.0 , 0.0 , 0.0 , 

66.0 , 4130.25641026 , 4132.82051282 , 4154.87179487 , 4136.92307692 , 4130.25641026 , 4127.17948718 , 4124.61538462 , 4136.41025641 , 4135.38461538 , 4136.92307692 , 4178.97435897 , 4841.53846154 , 4134.35897436 , 4137.43589744 , 2039.0 , 2033.0 , 6.986 , 0.0 , 0.0 , 0.0 , 0.0 , 

67.0 , 4129.23076923 , 4129.23076923 , 4155.38461538 , 4134.87179487 , 4130.25641026 , 4126.66666667 , 4125.64102564 , 4135.8974359 , 4134.87179487 , 4137.94871795 , 4173.33333333 , 4843.07692308 , 4135.38461538 , 4137.43589744 , 2039.0 , 2033.0 , 6.994 , 0.0 , 0.0 , 0.0 , 0.0 , 

68.0 , 4128.20512821 , 4128.20512821 , 4155.8974359 , 4133.33333333 , 4130.25641026 , 4123.58974359 , 4123.58974359 , 4134.87179487 , 4136.41025641 , 4136.41025641 , 4181.53846154 , 4844.1025641 , 4135.38461538 , 4137.43589744 , 2038.0 , 2032.0 , 7.002 , 0.0 , 0.0 , 0.0 , 0.0 , 

69.0 , 4129.74358974 , 4128.71794872 , 4155.8974359 , 4135.8974359 , 4130.25641026 , 4123.58974359 , 4124.1025641 , 4135.8974359 , 4137.43589744 , 4136.41025641 , 4185.64102564 , 4843.58974359 , 4131.79487179 , 4137.43589744 , 2038.0 , 2031.0 , 7.009 , 0.0 , 0.0 , 0.0 , 0.0 , 

70.0 , 4130.25641026 , 4128.20512821 , 4155.38461538 , 4136.41025641 , 4130.25641026 , 4127.69230769 , 4126.66666667 , 4136.41025641 , 4137.94871795 , 4137.94871795 , 4178.97435897 , 4844.61538462 , 4131.79487179 , 4136.92307692 , 2037.0 , 2031.0 , 7.017 , 0.0 , 0.0 , 0.0 , 0.0 , 

71.0 , 4127.17948718 , 4128.71794872 , 4153.84615385 , 4135.38461538 , 4130.25641026 , 4128.71794872 , 4123.58974359 , 4135.38461538 , 4137.43589744 , 4136.41025641 , 4176.92307692 , 4844.1025641 , 4132.30769231 , 4136.92307692 , 2035.0 , 2030.0 , 7.025 , 0.0 , 0.0 , 0.0 , 0.0 , 

72.0 , 4129.23076923 , 4129.23076923 , 4152.30769231 , 4136.41025641 , 4130.25641026 , 4131.79487179 , 4122.56410256 , 4135.38461538 , 4134.87179487 , 4136.41025641 , 4178.97435897 , 4843.58974359 , 4133.84615385 , 4136.41025641 , 2036.0 , 2031.0 , 7.033 , 0.0 , 0.0 , 0.0 , 0.0 , 

73.0 , 4131.79487179 , 4130.25641026 , 4153.33333333 , 4135.38461538 , 4130.25641026 , 4131.79487179 , 4126.15384615 , 4134.87179487 , 4134.87179487 , 4136.92307692 , 4179.48717949 , 4843.07692308 , 4134.87179487 , 4135.38461538 , 2036.0 , 2032.0 , 7.041 , 0.0 , 0.0 , 0.0 , 0.0 , 

74.0 , 4129.74358974 , 4132.30769231 , 4151.28205128 , 4134.35897436 , 4130.25641026 , 4125.64102564 , 4125.64102564 , 4134.87179487 , 4137.43589744 , 4136.92307692 , 4177.94871795 , 4842.56410256 , 4133.33333333 , 4136.41025641 , 2034.0 , 2033.0 , 7.049 , 0.0 , 0.0 , 0.0 , 0.0 , 

75.0 , 4128.71794872 , 4129.74358974 , 4151.28205128 , 4136.41025641 , 4130.25641026 , 4131.28205128 , 4122.05128205 , 4136.41025641 , 4137.94871795 , 4136.92307692 , 4176.41025641 , 4844.1025641 , 4134.35897436 , 4137.43589744 , 2037.0 , 2034.0 , 7.057 , 0.0 , 0.0 , 0.0 , 0.0 , 

76.0 , 4130.25641026 , 4126.15384615 , 4149.74358974 , 4136.41025641 , 4130.25641026 , 4136.92307692 , 4124.61538462 , 4135.8974359 , 4136.92307692 , 4136.92307692 , 4178.46153846 , 4844.1025641 , 4136.41025641 , 4136.41025641 , 2039.0 , 2034.0 , 7.066 , 0.0 , 0.0 , 0.0 , 0.0 , 

77.0 , 4130.25641026 , 4128.71794872 , 4151.28205128 , 4135.38461538 , 4130.25641026 , 4128.71794872 , 4126.66666667 , 4135.38461538 , 4136.92307692 , 4136.92307692 , 4183.07692308 , 4843.58974359 , 4136.92307692 , 4135.8974359 , 2040.0 , 2033.0 , 7.073 , 0.0 , 0.0 , 0.0 , 0.0 , 

78.0 , 4130.76923077 , 4129.74358974 , 4151.28205128 , 4136.92307692 , 4130.25641026 , 4127.17948718 , 4125.64102564 , 4135.38461538 , 4136.41025641 , 4136.92307692 , 4183.58974359 , 4844.1025641 , 4135.38461538 , 4135.8974359 , 2041.0 , 2033.0 , 7.081 , 0.0 , 0.0 , 0.0 , 0.0 , 

79.0 , 4131.28205128 , 4127.69230769 , 4150.25641026 , 4136.41025641 , 4130.25641026 , 4131.28205128 , 4126.15384615 , 4134.87179487 , 4134.87179487 , 4136.92307692 , 4182.05128205 , 4844.1025641 , 4134.35897436 , 4135.8974359 , 2043.0 , 2033.0 , 7.089 , 0.0 , 0.0 , 0.0 , 0.0 , 

80.0 , 4132.30769231 , 4129.74358974 , 4150.76923077 , 4135.38461538 , 4130.25641026 , 4123.07692308 , 4126.15384615 , 4134.87179487 , 4134.35897436 , 4136.92307692 , 4183.07692308 , 4843.58974359 , 4133.84615385 , 4136.41025641 , 2044.0 , 2032.0 , 7.096 , 0.0 , 0.0 , 0.0 , 0.0 , 

81.0 , 4132.30769231 , 4131.28205128 , 4154.87179487 , 4136.41025641 , 4130.25641026 , 4124.61538462 , 4124.61538462 , 4135.38461538 , 4134.87179487 , 4137.43589744 , 4184.1025641 , 4844.61538462 , 4135.8974359 , 4137.43589744 , 2043.0 , 2031.0 , 7.104 , 0.0 , 0.0 , 0.0 , 0.0 , 

82.0 , 4130.25641026 , 4128.71794872 , 4152.82051282 , 4136.92307692 , 4130.25641026 , 4137.94871795 , 4126.66666667 , 4136.41025641 , 4134.87179487 , 4137.43589744 , 4180.51282051 , 4845.12820513 , 4136.41025641 , 4137.43589744 , 2046.0 , 2032.0 , 7.112 , 0.0 , 0.0 , 0.0 , 0.0 , 

83.0 , 4129.74358974 , 4128.71794872 , 4149.23076923 , 4135.38461538 , 4130.25641026 , 4132.30769231 , 4125.64102564 , 4135.38461538 , 4134.87179487 , 4137.94871795 , 4176.92307692 , 4845.12820513 , 4135.8974359 , 4137.43589744 , 2046.0 , 2033.0 , 7.12 , 0.0 , 0.0 , 0.0 , 0.0 , 

84.0 , 4131.79487179 , 4130.25641026 , 4150.76923077 , 4135.8974359 , 4130.25641026 , 4121.53846154 , 4122.56410256 , 4134.35897436 , 4134.87179487 , 4140.0 , 4177.43589744 , 4846.15384615 , 4135.8974359 , 4136.92307692 , 2044.0 , 2034.0 , 7.128 , 0.0 , 0.0 , 0.0 , 0.0 , 

85.0 , 4131.28205128 , 4129.23076923 , 4146.66666667 , 4136.92307692 , 4130.25641026 , 4128.71794872 , 4126.66666667 , 4135.8974359 , 4134.87179487 , 4140.0 , 4180.51282051 , 4846.66666667 , 4135.8974359 , 4136.41025641 , 2045.0 , 2035.0 , 7.136 , 0.0 , 0.0 , 0.0 , 0.0 , 

86.0 , 4130.76923077 , 4129.23076923 , 4142.56410256 , 4136.41025641 , 4130.25641026 , 4133.33333333 , 4127.69230769 , 4135.8974359 , 4134.87179487 , 4137.43589744 , 4180.0 , 4846.15384615 , 4134.35897436 , 4135.38461538 , 2043.0 , 2033.0 , 7.143 , 0.0 , 0.0 , 0.0 , 0.0 , 

87.0 , 4129.74358974 , 4128.71794872 , 4148.71794872 , 4136.41025641 , 4130.25641026 , 4127.69230769 , 4123.58974359 , 4135.38461538 , 4134.87179487 , 4136.41025641 , 4182.05128205 , 4846.66666667 , 4134.35897436 , 4135.8974359 , 2044.0 , 2034.0 , 7.151 , 0.0 , 0.0 , 0.0 , 0.0 , 

88.0 , 4127.69230769 , 4128.20512821 , 4153.33333333 , 4135.8974359 , 4130.25641026 , 4124.61538462 , 4126.15384615 , 4135.38461538 , 4134.87179487 , 4136.92307692 , 4183.58974359 , 4846.15384615 , 4135.38461538 , 4137.43589744 , 2044.0 , 2034.0 , 7.16 , 0.0 , 0.0 , 0.0 , 0.0 , 

89.0 , 4129.23076923 , 4127.17948718 , 4152.30769231 , 4135.8974359 , 4130.25641026 , 4128.71794872 , 4129.23076923 , 4135.38461538 , 4134.35897436 , 4135.8974359 , 4182.05128205 , 4846.66666667 , 4134.87179487 , 4138.46153846 , 2042.0 , 2035.0 , 7.167 , 0.0 , 0.0 , 0.0 , 0.0 , 

90.0 , 4131.28205128 , 4127.69230769 , 4153.84615385 , 4135.8974359 , 4130.25641026 , 4132.82051282 , 4125.64102564 , 4135.38461538 , 4135.8974359 , 4135.8974359 , 4184.1025641 , 4847.69230769 , 4134.87179487 , 4137.43589744 , 2042.0 , 2036.0 , 7.175 , 0.0 , 0.0 , 0.0 , 0.0 , 

91.0 , 4127.69230769 , 4129.74358974 , 4155.8974359 , 4136.92307692 , 4130.25641026 , 4133.84615385 , 4124.61538462 , 4134.35897436 , 4136.92307692 , 4136.41025641 , 4181.53846154 , 4846.15384615 , 4136.92307692 , 4137.43589744 , 2040.0 , 2034.0 , 7.183 , 0.0 , 0.0 , 0.0 , 0.0 , 

92.0 , 4126.15384615 , 4129.23076923 , 4155.38461538 , 4135.38461538 , 4130.25641026 , 4127.17948718 , 4125.12820513 , 4133.84615385 , 4136.92307692 , 4135.8974359 , 4174.35897436 , 4848.71794872 , 4135.8974359 , 4138.46153846 , 2039.0 , 2034.0 , 7.191 , 0.0 , 0.0 , 0.0 , 0.0 , 

93.0 , 4129.23076923 , 4125.64102564 , 4153.33333333 , 4135.8974359 , 4130.25641026 , 4123.58974359 , 4124.61538462 , 4134.87179487 , 4136.92307692 , 4135.8974359 , 4180.0 , 4851.28205128 , 4133.33333333 , 4137.94871795 , 2037.0 , 2035.0 , 7.199 , 0.0 , 0.0 , 0.0 , 0.0 , 

94.0 , 4131.79487179 , 4127.17948718 , 4148.20512821 , 4136.92307692 , 4130.25641026 , 4128.71794872 , 4126.66666667 , 4133.33333333 , 4136.41025641 , 4135.8974359 , 4185.12820513 , 4849.74358974 , 4134.35897436 , 4136.41025641 , 2038.0 , 2035.0 , 7.206 , 0.0 , 0.0 , 0.0 , 0.0 , 

95.0 , 4131.79487179 , 4130.25641026 , 4147.69230769 , 4132.82051282 , 4130.25641026 , 4129.23076923 , 4128.71794872 , 4132.30769231 , 4135.38461538 , 4135.8974359 , 4182.56410256 , 4847.69230769 , 4136.41025641 , 4136.41025641 , 2038.0 , 2035.0 , 7.214 , 0.0 , 0.0 , 0.0 , 0.0 , 

96.0 , 4130.76923077 , 4126.66666667 , 4155.38461538 , 4131.79487179 , 4130.25641026 , 4129.23076923 , 4125.12820513 , 4135.38461538 , 4136.92307692 , 4135.8974359 , 4183.58974359 , 4849.74358974 , 4135.8974359 , 4136.92307692 , 2035.0 , 2033.0 , 7.222 , 0.0 , 0.0 , 0.0 , 0.0 , 

97.0 , 4130.76923077 , 4126.15384615 , 4153.33333333 , 4134.87179487 , 4130.25641026 , 4133.33333333 , 4123.07692308 , 4135.38461538 , 4136.92307692 , 4135.8974359 , 4182.56410256 , 4848.71794872 , 4135.8974359 , 4136.41025641 , 2033.0 , 2031.0 , 7.23 , 0.0 , 0.0 , 0.0 , 0.0 , 

98.0 , 4129.74358974 , 4129.74358974 , 4150.25641026 , 4135.8974359 , 4130.25641026 , 4133.33333333 , 4127.17948718 , 4131.79487179 , 4135.8974359 , 4135.8974359 , 4177.43589744 , 4851.28205128 , 4135.8974359 , 4135.8974359 , 2036.0 , 2029.0 , 7.238 , 0.0 , 0.0 , 0.0 , 0.0 , 

99.0 , 4130.25641026 , 4130.25641026 , 4150.76923077 , 4134.35897436 , 4130.25641026 , 4132.30769231 , 4129.74358974 , 4133.33333333 , 4136.41025641 , 4135.8974359 , 4180.51282051 , 4854.87179487 , 4134.87179487 , 4136.92307692 , 2036.0 , 2028.0 , 7.246 , 0.0 , 0.0 , 0.0 , 0.0 , 

100.0 , 4132.82051282 , 4128.20512821 , 4153.84615385 , 4135.38461538 , 4130.25641026 , 4131.79487179 , 4125.64102564 , 4135.8974359 , 4136.41025641 , 4135.8974359 , 4185.64102564 , 4851.79487179 , 4136.41025641 , 4137.43589744 , 2037.0 , 2029.0 , 7.254 , 0.0 , 0.0 , 0.0 , 0.0 , 

101.0 , 4131.79487179 , 4129.74358974 , 4153.84615385 , 4137.43589744 , 4130.25641026 , 4128.71794872 , 4122.56410256 , 4135.8974359 , 4136.41025641 , 4135.8974359 , 4184.1025641 , 4851.79487179 , 4137.43589744 , 4136.92307692 , 2037.0 , 2030.0 , 7.261 , 0.0 , 0.0 , 0.0 , 0.0 , 

102.0 , 4127.69230769 , 4129.74358974 , 4154.35897436 , 4136.92307692 , 4130.25641026 , 4126.66666667 , 4125.64102564 , 4135.38461538 , 4136.41025641 , 4135.8974359 , 4183.07692308 , 4854.35897436 , 4136.41025641 , 4136.92307692 , 2036.0 , 2031.0 , 7.27 , 0.0 , 0.0 , 0.0 , 0.0 , 

103.0 , 4128.20512821 , 4127.69230769 , 4153.33333333 , 4136.41025641 , 4129.74358974 , 4128.71794872 , 4126.15384615 , 4134.87179487 , 4134.87179487 , 4135.8974359 , 4184.61538462 , 4854.35897436 , 4135.8974359 , 4137.43589744 , 2036.0 , 2031.0 , 7.277 , 0.0 , 0.0 , 0.0 , 0.0 , 

104.0 , 4132.30769231 , 4128.20512821 , 4150.76923077 , 4135.38461538 , 4129.74358974 , 4130.25641026 , 4123.07692308 , 4135.8974359 , 4134.35897436 , 4135.8974359 , 4183.58974359 , 4856.92307692 , 4136.41025641 , 4137.43589744 , 2038.0 , 2031.0 , 7.285 , 0.0 , 0.0 , 0.0 , 0.0 , 

105.0 , 4131.79487179 , 4128.71794872 , 4150.76923077 , 4134.87179487 , 4129.74358974 , 4129.23076923 , 4123.58974359 , 4135.8974359 , 4136.41025641 , 4135.8974359 , 4183.07692308 , 4856.41025641 , 4136.41025641 , 4137.43589744 , 2039.0 , 2029.0 , 7.293 , 0.0 , 0.0 , 0.0 , 0.0 , 

106.0 , 4129.74358974 , 4127.17948718 , 4152.82051282 , 4135.8974359 , 4130.25641026 , 4127.17948718 , 4127.17948718 , 4135.38461538 , 4135.8974359 , 4135.8974359 , 4184.1025641 , 4851.79487179 , 4135.38461538 , 4137.43589744 , 2038.0 , 2029.0 , 7.301 , 0.0 , 0.0 , 0.0 , 0.0 , 

107.0 , 4130.25641026 , 4127.69230769 , 4152.30769231 , 4137.43589744 , 4129.23076923 , 4127.17948718 , 4129.74358974 , 4136.41025641 , 4134.35897436 , 4135.8974359 , 4183.58974359 , 4852.82051282 , 4135.38461538 , 4136.41025641 , 2040.0 , 2028.0 , 7.309 , 0.0 , 0.0 , 0.0 , 0.0 , 

108.0 , 4130.25641026 , 4128.71794872 , 4149.23076923 , 4136.41025641 , 4130.25641026 , 4128.71794872 , 4126.66666667 , 4136.92307692 , 4136.41025641 , 4135.8974359 , 4184.1025641 , 4856.41025641 , 4135.8974359 , 4136.41025641 , 2041.0 , 2029.0 , 7.317 , 0.0 , 0.0 , 0.0 , 0.0 , 

109.0 , 4130.25641026 , 4128.71794872 , 4154.35897436 , 4133.33333333 , 4134.35897436 , 4125.64102564 , 4123.58974359 , 4135.38461538 , 4137.43589744 , 4135.8974359 , 4184.61538462 , 4853.84615385 , 4135.38461538 , 4137.94871795 , 2041.0 , 2028.0 , 7.326 , 0.0 , 0.0 , 0.0 , 0.0 , 

110.0 , 4130.25641026 , 4128.71794872 , 4157.43589744 , 4132.82051282 , 4136.41025641 , 4121.53846154 , 4126.66666667 , 4134.35897436 , 4136.41025641 , 4135.8974359 , 4184.1025641 , 4853.84615385 , 4135.38461538 , 4138.97435897 , 2041.0 , 2026.0 , 7.333 , 0.0 , 0.0 , 0.0 , 0.0 , 

111.0 , 4129.74358974 , 4127.17948718 , 4154.87179487 , 4134.87179487 , 4135.38461538 , 4128.71794872 , 4128.20512821 , 4134.35897436 , 4135.8974359 , 4135.8974359 , 4183.07692308 , 4857.43589744 , 4135.8974359 , 4137.43589744 , 2041.0 , 2027.0 , 7.34 , 0.0 , 0.0 , 0.0 , 0.0 , 

112.0 , 4129.74358974 , 4128.20512821 , 4152.30769231 , 4137.94871795 , 4135.38461538 , 4135.38461538 , 4125.12820513 , 4134.35897436 , 4136.41025641 , 4135.8974359 , 4182.56410256 , 4857.43589744 , 4135.8974359 , 4136.41025641 , 2041.0 , 2026.0 , 7.348 , 0.0 , 0.0 , 0.0 , 0.0 , 

113.0 , 4130.25641026 , 4130.25641026 , 4152.82051282 , 4136.92307692 , 4135.38461538 , 4128.71794872 , 4123.07692308 , 4134.35897436 , 4135.8974359 , 4135.8974359 , 4183.07692308 , 4856.41025641 , 4134.87179487 , 4135.8974359 , 2041.0 , 2026.0 , 7.356 , 0.0 , 0.0 , 0.0 , 0.0 , 

114.0 , 4129.23076923 , 4129.23076923 , 4153.84615385 , 4133.33333333 , 4134.87179487 , 4122.56410256 , 4126.66666667 , 4134.35897436 , 4135.8974359 , 4135.8974359 , 4184.61538462 , 4856.92307692 , 4134.87179487 , 4135.38461538 , 2040.0 , 2027.0 , 7.364 , 0.0 , 0.0 , 0.0 , 0.0 , 

115.0 , 4128.20512821 , 4127.69230769 , 4156.92307692 , 4134.35897436 , 4134.87179487 , 4129.23076923 , 4130.76923077 , 4134.87179487 , 4135.8974359 , 4135.8974359 , 4184.61538462 , 4858.46153846 , 4134.87179487 , 4135.8974359 , 2040.0 , 2027.0 , 7.372 , 0.0 , 0.0 , 0.0 , 0.0 , 

116.0 , 4130.76923077 , 4130.25641026 , 4155.38461538 , 4137.43589744 , 4134.87179487 , 4133.33333333 , 4127.17948718 , 4134.87179487 , 4135.8974359 , 4136.41025641 , 4183.07692308 , 4858.46153846 , 4135.38461538 , 4137.43589744 , 2039.0 , 2029.0 , 7.38 , 0.0 , 0.0 , 0.0 , 0.0 , 

117.0 , 4131.79487179 , 4130.25641026 , 4152.82051282 , 4136.41025641 , 4134.87179487 , 4126.66666667 , 4124.1025641 , 4134.87179487 , 4135.8974359 , 4135.8974359 , 4184.61538462 , 4856.92307692 , 4135.38461538 , 4138.46153846 , 2040.0 , 2030.0 , 7.388 , 0.0 , 0.0 , 0.0 , 0.0 , 

118.0 , 4129.23076923 , 4128.71794872 , 4155.38461538 , 4135.38461538 , 4134.87179487 , 4127.17948718 , 4125.64102564 , 4135.8974359 , 4135.8974359 , 4136.92307692 , 4186.15384615 , 4859.48717949 , 4135.38461538 , 4136.92307692 , 2039.0 , 2032.0 , 7.396 , 0.0 , 0.0 , 0.0 , 0.0 , 

119.0 , 4127.69230769 , 4127.69230769 , 4155.38461538 , 4135.8974359 , 4134.87179487 , 4132.30769231 , 4125.12820513 , 4135.8974359 , 4135.8974359 , 4138.46153846 , 4184.1025641 , 4861.53846154 , 4135.38461538 , 4136.41025641 , 2040.0 , 2033.0 , 7.403 , 0.0 , 0.0 , 0.0 , 0.0 , 

120.0 , 4127.69230769 , 4127.69230769 , 4152.82051282 , 4135.38461538 , 4134.87179487 , 4130.25641026 , 4124.1025641 , 4135.8974359 , 4135.8974359 , 4138.46153846 , 4182.56410256 , 4857.94871795 , 4134.87179487 , 4137.43589744 , 2040.0 , 2032.0 , 7.411 , 0.0 , 0.0 , 0.0 , 0.0 , 

121.0 , 4127.17948718 , 4127.69230769 , 4155.8974359 , 4133.33333333 , 4134.87179487 , 4126.66666667 , 4125.64102564 , 4135.8974359 , 4135.8974359 , 4136.92307692 , 4183.58974359 , 4857.43589744 , 4135.38461538 , 4137.94871795 , 2039.0 , 2032.0 , 7.419 , 0.0 , 0.0 , 0.0 , 0.0 , 

122.0 , 4128.71794872 , 4127.17948718 , 4155.8974359 , 4128.71794872 , 4134.87179487 , 4129.23076923 , 4126.66666667 , 4134.87179487 , 4136.41025641 , 4136.41025641 , 4183.07692308 , 4860.0 , 4134.87179487 , 4137.43589744 , 2038.0 , 2030.0 , 7.427 , 0.0 , 0.0 , 0.0 , 0.0 , 

123.0 , 4129.74358974 , 4127.69230769 , 4152.30769231 , 4129.23076923 , 4134.87179487 , 4130.25641026 , 4127.17948718 , 4134.87179487 , 4135.38461538 , 4136.92307692 , 4183.58974359 , 4860.0 , 4134.35897436 , 4137.94871795 , 2040.0 , 2029.0 , 7.435 , 0.0 , 0.0 , 0.0 , 0.0 , 

124.0 , 4129.23076923 , 4129.23076923 , 4152.82051282 , 4133.84615385 , 4134.87179487 , 4126.66666667 , 4126.66666667 , 4136.92307692 , 4135.8974359 , 4137.43589744 , 4184.1025641 , 4859.48717949 , 4134.35897436 , 4137.94871795 , 2039.0 , 2029.0 , 7.443 , 0.0 , 0.0 , 0.0 , 0.0 , 

125.0 , 4128.20512821 , 4128.71794872 , 4154.87179487 , 4133.33333333 , 4134.87179487 , 4125.12820513 , 4124.61538462 , 4136.41025641 , 4136.92307692 , 4137.94871795 , 4183.07692308 , 4860.51282051 , 4134.87179487 , 4136.92307692 , 2040.0 , 2028.0 , 7.451 , 0.0 , 0.0 , 0.0 , 0.0 , 

126.0 , 4126.66666667 , 4128.20512821 , 4155.8974359 , 4131.79487179 , 4135.38461538 , 4125.12820513 , 4125.12820513 , 4134.87179487 , 4136.92307692 , 4137.94871795 , 4182.56410256 , 4861.53846154 , 4135.38461538 , 4138.97435897 , 2038.0 , 2028.0 , 7.459 , 0.0 , 0.0 , 0.0 , 0.0 , 

127.0 , 4128.20512821 , 4128.71794872 , 4153.84615385 , 4135.38461538 , 4134.87179487 , 4125.64102564 , 4127.17948718 , 4134.35897436 , 4135.8974359 , 4137.43589744 , 4185.12820513 , 4861.53846154 , 4136.41025641 , 4140.0 , 2038.0 , 2027.0 , 7.466 , 0.0 , 0.0 , 0.0 , 0.0 , 

128.0 , 4130.25641026 , 4127.69230769 , 4151.28205128 , 4137.94871795 , 4134.87179487 , 4126.15384615 , 4125.64102564 , 4135.38461538 , 4135.8974359 , 4137.94871795 , 4185.12820513 , 4861.53846154 , 4136.92307692 , 4137.43589744 , 2038.0 , 2027.0 , 7.474 , 0.0 , 0.0 , 0.0 , 0.0 , 

0.0 , 4128.71794872 , 4127.69230769 , 4152.30769231 , 4135.8974359 , 4135.8974359 , 4124.1025641 , 4122.05128205 , 4135.38461538 , 4136.41025641 , 4137.94871795 , 4183.07692308 , 4861.53846154 , 4135.38461538 , 4135.8974359 , 2037.0 , 2029.0 , 7.482 , 0.0 , 0.0 , 0.0 , 0.0 , 

1.0 , 4128.20512821 , 4128.20512821 , 4154.35897436 , 4136.41025641 , 4133.84615385 , 4130.25641026 , 4122.56410256 , 4135.38461538 , 4135.8974359 , 4137.94871795 , 4183.07692308 , 4861.02564103 , 4134.87179487 , 4138.46153846 , 2039.0 , 2028.0 , 7.49 , 0.0 , 0.0 , 0.0 , 0.0 , 

2.0 , 4130.25641026 , 4128.20512821 , 4150.76923077 , 4137.43589744 , 4129.74358974 , 4138.46153846 , 4127.69230769 , 4134.35897436 , 4136.41025641 , 4137.43589744 , 4184.61538462 , 4860.0 , 4134.87179487 , 4140.0 , 2040.0 , 2029.0 , 7.498 , 0.0 , 0.0 , 0.0 , 0.0 , 

3.0 , 4127.17948718 , 4129.23076923 , 4150.76923077 , 4136.92307692 , 4126.66666667 , 4131.28205128 , 4129.74358974 , 4133.84615385 , 4135.8974359 , 4137.94871795 , 4184.61538462 , 4861.02564103 , 4134.87179487 , 4137.43589744 , 2040.0 , 2028.0 , 7.506 , 0.0 , 0.0 , 0.0 , 0.0 , 

4.0 , 4124.61538462 , 4130.25641026 , 4154.35897436 , 4135.8974359 , 4128.71794872 , 4124.61538462 , 4124.1025641 , 4134.35897436 , 4135.38461538 , 4137.43589744 , 4184.1025641 , 4861.53846154 , 4136.92307692 , 4136.41025641 , 2041.0 , 2030.0 , 7.514 , 0.0 , 0.0 , 0.0 , 0.0 , 

5.0 , 4129.74358974 , 4127.17948718 , 4155.8974359 , 4134.87179487 , 4132.30769231 , 4128.71794872 , 4121.53846154 , 4134.87179487 , 4137.43589744 , 4136.92307692 , 4184.61538462 , 4860.51282051 , 4137.43589744 , 4137.94871795 , 2040.0 , 2030.0 , 7.522 , 0.0 , 0.0 , 0.0 , 0.0 , 

6.0 , 4132.82051282 , 4126.15384615 , 4154.87179487 , 4136.92307692 , 4133.33333333 , 4132.30769231 , 4124.61538462 , 4135.8974359 , 4134.87179487 , 4137.43589744 , 4184.61538462 , 4861.02564103 , 4136.41025641 , 4138.97435897 , 2040.0 , 2030.0 , 7.53 , 0.0 , 0.0 , 0.0 , 0.0 , 

7.0 , 4129.23076923 , 4129.23076923 , 4155.38461538 , 4136.41025641 , 4129.74358974 , 4129.23076923 , 4123.58974359 , 4135.38461538 , 4130.76923077 , 4135.38461538 , 4184.1025641 , 4862.05128205 , 4135.8974359 , 4136.92307692 , 2039.0 , 2031.0 , 7.538 , 0.0 , 0.0 , 0.0 , 0.0 , 

8.0 , 4129.74358974 , 4130.76923077 , 4151.28205128 , 4130.76923077 , 4128.20512821 , 4127.69230769 , 4121.53846154 , 4134.35897436 , 4133.33333333 , 4138.97435897 , 4184.1025641 , 4862.56410256 , 4135.8974359 , 4137.43589744 , 2037.0 , 2031.0 , 7.545 , 0.0 , 0.0 , 0.0 , 0.0 , 

9.0 , 4133.33333333 , 4127.17948718 , 4149.23076923 , 4131.28205128 , 4132.30769231 , 4125.12820513 , 4124.61538462 , 4134.35897436 , 4137.43589744 , 4149.23076923 , 4184.61538462 , 4862.05128205 , 4135.8974359 , 4138.97435897 , 2039.0 , 2028.0 , 7.553 , 0.0 , 0.0 , 0.0 , 0.0 , 

10.0 , 4130.25641026 , 4128.20512821 , 4150.76923077 , 4136.92307692 , 4136.41025641 , 4124.1025641 , 4126.66666667 , 4134.35897436 , 4135.38461538 , 4146.66666667 , 4184.1025641 , 4861.53846154 , 4135.8974359 , 4136.92307692 , 2039.0 , 2027.0 , 7.561 , 0.0 , 0.0 , 0.0 , 0.0 , 

11.0 , 4126.66666667 , 4131.28205128 , 4152.82051282 , 4137.43589744 , 4135.38461538 , 4128.71794872 , 4124.1025641 , 4133.84615385 , 4133.33333333 , 4135.38461538 , 4182.56410256 , 4861.53846154 , 4135.38461538 , 4136.41025641 , 2038.0 , 2028.0 , 7.569 , 0.0 , 0.0 , 0.0 , 0.0 , 

12.0 , 4128.20512821 , 4129.23076923 , 4150.76923077 , 4134.35897436 , 4131.79487179 , 4131.79487179 , 4122.56410256 , 4134.87179487 , 4135.38461538 , 4135.8974359 , 4182.56410256 , 4861.53846154 , 4134.87179487 , 4138.46153846 , 2039.0 , 2029.0 , 7.577 , 0.0 , 0.0 , 0.0 , 0.0 , 

13.0 , 4128.71794872 , 4128.20512821 , 4148.71794872 , 4134.35897436 , 4133.33333333 , 4131.28205128 , 4123.58974359 , 4135.8974359 , 4135.8974359 , 4140.51282051 , 4184.1025641 , 4861.02564103 , 4134.87179487 , 4137.94871795 , 2037.0 , 2029.0 , 7.585 , 0.0 , 0.0 , 0.0 , 0.0 , 

14.0 , 4128.71794872 , 4130.25641026 , 4151.28205128 , 4135.38461538 , 4132.82051282 , 4128.71794872 , 4124.1025641 , 4135.38461538 , 4135.38461538 , 4136.92307692 , 4183.58974359 , 4860.0 , 4135.38461538 , 4135.8974359 , 2037.0 , 2028.0 , 7.593 , 0.0 , 0.0 , 0.0 , 0.0 , 

15.0 , 4129.23076923 , 4131.79487179 , 4152.82051282 , 4135.8974359 , 4130.76923077 , 4126.15384615 , 4123.58974359 , 4134.35897436 , 4135.8974359 , 4135.38461538 , 4183.58974359 , 4863.07692308 , 4135.38461538 , 4136.41025641 , 2038.0 , 2027.0 , 7.6 , 0.0 , 0.0 , 0.0 , 0.0 , 

16.0 , 4130.25641026 , 4131.79487179 , 4149.74358974 , 4135.8974359 , 4132.82051282 , 4126.15384615 , 4123.07692308 , 4134.35897436 , 4136.41025641 , 4136.92307692 , 4184.61538462 , 4864.61538462 , 4134.35897436 , 4136.41025641 , 2039.0 , 2028.0 , 7.608 , 0.0 , 0.0 , 0.0 , 0.0 , 

17.0 , 4131.28205128 , 4129.23076923 , 4147.69230769 , 4135.8974359 , 4132.30769231 , 4127.69230769 , 4124.1025641 , 4134.35897436 , 4137.43589744 , 4137.43589744 , 4184.1025641 , 4861.53846154 , 4134.35897436 , 4136.92307692 , 2039.0 , 2027.0 , 7.616 , 0.0 , 0.0 , 0.0 , 0.0 , 

18.0 , 4131.28205128 , 4125.64102564 , 4149.23076923 , 4135.8974359 , 4130.25641026 , 4128.71794872 , 4125.64102564 , 4136.41025641 , 4136.92307692 , 4137.94871795 , 4184.1025641 , 4863.07692308 , 4135.38461538 , 4137.94871795 , 2040.0 , 2026.0 , 7.624 , 0.0 , 0.0 , 0.0 , 0.0 , 

19.0 , 4131.79487179 , 4127.69230769 , 4147.69230769 , 4136.92307692 , 4133.33333333 , 4124.61538462 , 4126.66666667 , 4133.84615385 , 4136.92307692 , 4137.43589744 , 4185.12820513 , 4867.17948718 , 4135.38461538 , 4137.94871795 , 2041.0 , 2025.0 , 7.632 , 0.0 , 0.0 , 0.0 , 0.0 , 

20.0 , 4130.76923077 , 4130.76923077 , 4145.64102564 , 4133.33333333 , 4134.87179487 , 4127.69230769 , 4124.61538462 , 4131.79487179 , 4137.43589744 , 4137.94871795 , 4184.61538462 , 4866.15384615 , 4134.87179487 , 4136.92307692 , 2041.0 , 2023.0 , 7.64 , 0.0 , 0.0 , 0.0 , 0.0 , 

21.0 , 4129.23076923 , 4129.74358974 , 4145.64102564 , 4132.30769231 , 4132.82051282 , 4139.48717949 , 4125.12820513 , 4133.33333333 , 4136.41025641 , 4137.43589744 , 4183.07692308 , 4862.05128205 , 4135.8974359 , 4136.41025641 , 2041.0 , 2021.0 , 7.648 , 0.0 , 0.0 , 0.0 , 0.0 , 

22.0 , 4128.71794872 , 4128.20512821 , 4148.20512821 , 4133.84615385 , 4133.33333333 , 4136.92307692 , 4126.66666667 , 4133.33333333 , 4134.35897436 , 4135.8974359 , 4183.58974359 , 4865.64102564 , 4135.8974359 , 4137.43589744 , 2042.0 , 2021.0 , 7.656 , 0.0 , 0.0 , 0.0 , 0.0 , 

23.0 , 4130.25641026 , 4128.71794872 , 4150.76923077 , 4130.76923077 , 4134.35897436 , 4123.07692308 , 4125.64102564 , 4132.82051282 , 4135.8974359 , 4135.8974359 , 4185.12820513 , 4868.20512821 , 4134.35897436 , 4137.94871795 , 2042.0 , 2023.0 , 7.663 , 0.0 , 0.0 , 0.0 , 0.0 , 

24.0 , 4129.74358974 , 4128.20512821 , 4154.35897436 , 4129.23076923 , 4133.84615385 , 4125.12820513 , 4124.61538462 , 4134.35897436 , 4137.43589744 , 4136.41025641 , 4184.1025641 , 4865.12820513 , 4133.84615385 , 4137.94871795 , 2043.0 , 2027.0 , 7.671 , 0.0 , 0.0 , 0.0 , 0.0 , 

25.0 , 4128.71794872 , 4129.74358974 , 4155.38461538 , 4136.41025641 , 4132.82051282 , 4136.92307692 , 4126.66666667 , 4133.33333333 , 4136.41025641 , 4135.8974359 , 4183.58974359 , 4861.02564103 , 4134.35897436 , 4137.43589744 , 2042.0 , 2028.0 , 7.679 , 0.0 , 0.0 , 0.0 , 0.0 , 

26.0 , 4129.74358974 , 4131.28205128 , 4153.84615385 , 4139.48717949 , 4133.84615385 , 4133.33333333 , 4125.64102564 , 4134.35897436 , 4135.8974359 , 4135.8974359 , 4186.66666667 , 4862.05128205 , 4134.87179487 , 4137.43589744 , 2044.0 , 2030.0 , 7.687 , 0.0 , 0.0 , 0.0 , 0.0 , 

27.0 , 4130.76923077 , 4129.74358974 , 4148.20512821 , 4135.8974359 , 4135.8974359 , 4124.1025641 , 4123.58974359 , 4136.41025641 , 4136.41025641 , 4138.97435897 , 4188.20512821 , 4865.12820513 , 4133.84615385 , 4137.43589744 , 2045.0 , 2034.0 , 7.695 , 0.0 , 0.0 , 0.0 , 0.0 , 

28.0 , 4130.25641026 , 4126.66666667 , 4144.1025641 , 4135.8974359 , 4135.8974359 , 4124.1025641 , 4127.69230769 , 4132.82051282 , 4136.41025641 , 4140.51282051 , 4184.1025641 , 4865.64102564 , 4134.35897436 , 4137.43589744 , 2046.0 , 2035.0 , 7.703 , 0.0 , 0.0 , 0.0 , 0.0 , 

29.0 , 4129.23076923 , 4127.69230769 , 4145.64102564 , 4136.41025641 , 4134.35897436 , 4125.64102564 , 4128.71794872 , 4132.30769231 , 4135.8974359 , 4136.92307692 , 4182.56410256 , 4864.1025641 , 4134.87179487 , 4137.43589744 , 2044.0 , 2035.0 , 7.712 , 0.0 , 0.0 , 0.0 , 0.0 , 

30.0 , 4128.71794872 , 4128.71794872 , 4151.28205128 , 4135.38461538 , 4134.35897436 , 4123.58974359 , 4122.56410256 , 4134.35897436 , 4135.8974359 , 4135.8974359 , 4184.1025641 , 4866.15384615 , 4133.33333333 , 4138.46153846 , 2044.0 , 2034.0 , 7.72 , 0.0 , 0.0 , 0.0 , 0.0 , 

31.0 , 4129.74358974 , 4129.23076923 , 4150.25641026 , 4135.8974359 , 4132.30769231 , 4123.07692308 , 4122.05128205 , 4131.79487179 , 4135.8974359 , 4137.94871795 , 4183.58974359 , 4869.74358974 , 4132.82051282 , 4137.43589744 , 2045.0 , 2033.0 , 7.727 , 0.0 , 0.0 , 0.0 , 0.0 , 

32.0 , 4129.23076923 , 4129.74358974 , 4145.64102564 , 4135.38461538 , 4128.71794872 , 4126.15384615 , 4124.1025641 , 4132.82051282 , 4135.8974359 , 4137.43589744 , 4182.56410256 , 4870.76923077 , 4134.87179487 , 4135.8974359 , 2044.0 , 2031.0 , 7.734 , 0.0 , 0.0 , 0.0 , 0.0 , 

33.0 , 4128.20512821 , 4129.23076923 , 4149.23076923 , 4135.8974359 , 4130.25641026 , 4125.64102564 , 4122.05128205 , 4136.41025641 , 4135.8974359 , 4138.97435897 , 4184.61538462 , 4870.76923077 , 4135.38461538 , 4137.43589744 , 2044.0 , 2031.0 , 7.742 , 0.0 , 0.0 , 0.0 , 0.0 , 

34.0 , 4128.20512821 , 4126.66666667 , 4152.82051282 , 4136.41025641 , 4130.76923077 , 4125.12820513 , 4123.58974359 , 4134.87179487 , 4135.8974359 , 4140.51282051 , 4184.1025641 , 4869.74358974 , 4134.87179487 , 4138.46153846 , 2046.0 , 2026.0 , 7.75 , 0.0 , 0.0 , 0.0 , 0.0 , 

35.0 , 4127.69230769 , 4125.64102564 , 4153.33333333 , 4135.8974359 , 4128.71794872 , 4128.71794872 , 4127.17948718 , 4135.38461538 , 4135.8974359 , 4136.92307692 , 4183.07692308 , 4868.20512821 , 4135.8974359 , 4137.43589744 , 2046.0 , 2027.0 , 7.758 , 0.0 , 0.0 , 0.0 , 0.0 , 

36.0 , 4127.69230769 , 4127.69230769 , 4154.87179487 , 4135.8974359 , 4132.82051282 , 4130.76923077 , 4124.61538462 , 4135.8974359 , 4135.8974359 , 4134.87179487 , 4183.58974359 , 4867.69230769 , 4136.41025641 , 4136.92307692 , 2045.0 , 2028.0 , 7.767 , 0.0 , 0.0 , 0.0 , 0.0 , 

37.0 , 4128.71794872 , 4128.20512821 , 4155.38461538 , 4135.8974359 , 4134.87179487 , 4126.66666667 , 4123.58974359 , 4131.28205128 , 4135.8974359 , 4137.43589744 , 4183.58974359 , 4866.66666667 , 4135.8974359 , 4137.43589744 , 2044.0 , 2026.0 , 7.775 , 0.0 , 0.0 , 0.0 , 0.0 , 

38.0 , 4126.66666667 , 4127.69230769 , 4152.82051282 , 4135.8974359 , 4129.74358974 , 4125.12820513 , 4125.64102564 , 4133.33333333 , 4135.8974359 , 4137.43589744 , 4183.58974359 , 4868.71794872 , 4135.38461538 , 4137.43589744 , 2045.0 , 2027.0 , 7.783 , 0.0 , 0.0 , 0.0 , 0.0 , 

39.0 , 4125.12820513 , 4128.71794872 , 4157.43589744 , 4135.38461538 , 4131.28205128 , 4127.17948718 , 4125.12820513 , 4137.94871795 , 4136.41025641 , 4135.38461538 , 4184.1025641 , 4873.33333333 , 4135.38461538 , 4136.92307692 , 2045.0 , 2027.0 , 7.79 , 0.0 , 0.0 , 0.0 , 0.0 , 

40.0 , 4127.69230769 , 4128.71794872 , 4158.97435897 , 4133.33333333 , 4136.41025641 , 4126.66666667 , 4125.12820513 , 4132.82051282 , 4135.8974359 , 4135.8974359 , 4184.61538462 , 4874.35897436 , 4135.38461538 , 4136.92307692 , 2046.0 , 2027.0 , 7.798 , 0.0 , 0.0 , 0.0 , 0.0 , 

41.0 , 4128.71794872 , 4127.17948718 , 4153.84615385 , 4134.35897436 , 4134.35897436 , 4125.12820513 , 4126.15384615 , 4129.23076923 , 4135.38461538 , 4136.41025641 , 4184.1025641 , 4872.82051282 , 4134.35897436 , 4136.92307692 , 2044.0 , 2028.0 , 7.805 , 0.0 , 0.0 , 0.0 , 0.0 , 

42.0 , 4129.74358974 , 4129.74358974 , 4151.28205128 , 4136.92307692 , 4134.87179487 , 4124.61538462 , 4126.15384615 , 4134.35897436 , 4134.87179487 , 4136.41025641 , 4184.1025641 , 4872.82051282 , 4133.84615385 , 4136.41025641 , 2045.0 , 2029.0 , 7.813 , 0.0 , 0.0 , 0.0 , 0.0 , 

43.0 , 4129.74358974 , 4131.28205128 , 4155.38461538 , 4136.92307692 , 4138.97435897 , 4124.61538462 , 4125.12820513 , 4136.92307692 , 4135.38461538 , 4135.38461538 , 4184.1025641 , 4871.28205128 , 4134.35897436 , 4136.92307692 , 2043.0 , 2028.0 , 7.821 , 0.0 , 0.0 , 0.0 , 0.0 , 

44.0 , 4127.17948718 , 4129.23076923 , 4157.43589744 , 4135.38461538 , 4135.8974359 , 4126.66666667 , 4124.61538462 , 4133.84615385 , 4135.38461538 , 4136.92307692 , 4184.1025641 , 4869.74358974 , 4134.35897436 , 4137.94871795 , 2044.0 , 2028.0 , 7.829 , 0.0 , 0.0 , 0.0 , 0.0 , 

45.0 , 4127.69230769 , 4129.74358974 , 4154.87179487 , 4135.8974359 , 4133.84615385 , 4126.15384615 , 4124.61538462 , 4133.84615385 , 4134.35897436 , 4138.97435897 , 4184.1025641 , 4870.25641026 , 4134.35897436 , 4137.43589744 , 2042.0 , 2029.0 , 7.837 , 0.0 , 0.0 , 0.0 , 0.0 , 

46.0 , 4131.28205128 , 4131.79487179 , 4148.71794872 , 4136.41025641 , 4135.38461538 , 4123.07692308 , 4123.58974359 , 4134.87179487 , 4134.87179487 , 4138.46153846 , 4184.1025641 , 4871.79487179 , 4134.35897436 , 4136.92307692 , 2041.0 , 2029.0 , 7.845 , 0.0 , 0.0 , 0.0 , 0.0 , 

47.0 , 4130.25641026 , 4129.74358974 , 4147.69230769 , 4135.8974359 , 4134.87179487 , 4123.07692308 , 4123.07692308 , 4134.87179487 , 4137.43589744 , 4136.41025641 , 4184.61538462 , 4873.84615385 , 4134.35897436 , 4137.94871795 , 2042.0 , 2028.0 , 7.853 , 0.0 , 0.0 , 0.0 , 0.0 , 

48.0 , 4129.23076923 , 4128.71794872 , 4149.23076923 , 4135.8974359 , 4134.35897436 , 4127.17948718 , 4124.1025641 , 4134.87179487 , 4137.43589744 , 4136.92307692 , 4184.61538462 , 4872.82051282 , 4134.35897436 , 4136.41025641 , 2041.0 , 2028.0 , 7.861 , 0.0 , 0.0 , 0.0 , 0.0 , 

49.0 , 4132.30769231 , 4131.79487179 , 4146.66666667 , 4135.8974359 , 4133.84615385 , 4127.69230769 , 4123.58974359 , 4135.8974359 , 4134.87179487 , 4136.92307692 , 4184.1025641 , 4872.82051282 , 4134.35897436 , 4135.8974359 , 2041.0 , 2027.0 , 7.868 , 0.0 , 0.0 , 0.0 , 0.0 , 

50.0 , 4132.30769231 , 4132.30769231 , 4144.1025641 , 4135.8974359 , 4133.33333333 , 4127.69230769 , 4122.56410256 , 4135.8974359 , 4134.35897436 , 4135.8974359 , 4183.58974359 , 4874.87179487 , 4134.35897436 , 4137.43589744 , 2041.0 , 2027.0 , 7.876 , 0.0 , 0.0 , 0.0 , 0.0 , 

51.0 , 4130.25641026 , 4127.17948718 , 4144.61538462 , 4135.38461538 , 4134.87179487 , 4128.71794872 , 4125.12820513 , 4136.41025641 , 4134.87179487 , 4135.8974359 , 4184.1025641 , 4875.38461538 , 4134.35897436 , 4137.43589744 , 2041.0 , 2028.0 , 7.884 , 0.0 , 0.0 , 0.0 , 0.0 , 

52.0 , 4130.25641026 , 4126.66666667 , 4144.61538462 , 4134.87179487 , 4135.8974359 , 4127.69230769 , 4126.15384615 , 4136.41025641 , 4134.87179487 , 4136.41025641 , 4186.15384615 , 4873.33333333 , 4134.35897436 , 4138.46153846 , 2039.0 , 2030.0 , 7.892 , 0.0 , 0.0 , 0.0 , 0.0 , 

53.0 , 4131.79487179 , 4129.23076923 , 4145.64102564 , 4134.35897436 , 4134.35897436 , 4127.69230769 , 4121.53846154 , 4135.38461538 , 4134.35897436 , 4135.8974359 , 4186.15384615 , 4871.79487179 , 4134.35897436 , 4140.0 , 2038.0 , 2028.0 , 7.9 , 0.0 , 0.0 , 0.0 , 0.0 , 

54.0 , 4131.79487179 , 4128.71794872 , 4148.71794872 , 4134.87179487 , 4132.30769231 , 4127.17948718 , 4120.0 , 4135.38461538 , 4133.33333333 , 4135.8974359 , 4184.1025641 , 4871.79487179 , 4134.35897436 , 4136.92307692 , 2034.0 , 2028.0 , 7.908 , 0.0 , 0.0 , 0.0 , 0.0 , 

55.0 , 4130.76923077 , 4126.15384615 , 4148.20512821 , 4135.38461538 , 4130.25641026 , 4126.66666667 , 4124.61538462 , 4135.38461538 , 4132.82051282 , 4135.8974359 , 4184.1025641 , 4874.35897436 , 4134.35897436 , 4134.87179487 , 2034.0 , 2030.0 , 7.916 , 0.0 , 0.0 , 0.0 , 0.0 , 

56.0 , 4132.30769231 , 4126.66666667 , 4147.17948718 , 4136.41025641 , 4128.71794872 , 4128.20512821 , 4127.69230769 , 4132.30769231 , 4134.87179487 , 4135.8974359 , 4184.61538462 , 4875.38461538 , 4134.35897436 , 4137.43589744 , 2032.0 , 2028.0 , 7.923 , 0.0 , 0.0 , 0.0 , 0.0 , 

57.0 , 4131.79487179 , 4128.20512821 , 4147.17948718 , 4136.92307692 , 4128.71794872 , 4129.23076923 , 4125.12820513 , 4131.79487179 , 4136.41025641 , 4135.8974359 , 4184.1025641 , 4874.35897436 , 4134.35897436 , 4139.48717949 , 2033.0 , 2030.0 , 7.931 , 0.0 , 0.0 , 0.0 , 0.0 , 

58.0 , 4128.20512821 , 4127.17948718 , 4151.28205128 , 4135.8974359 , 4128.71794872 , 4126.15384615 , 4122.05128205 , 4134.35897436 , 4135.38461538 , 4135.8974359 , 4184.61538462 , 4875.8974359 , 4134.35897436 , 4138.46153846 , 2032.0 , 2031.0 , 7.939 , 0.0 , 0.0 , 0.0 , 0.0 , 

59.0 , 4127.69230769 , 4128.20512821 , 4153.84615385 , 4135.38461538 , 4129.23076923 , 4124.1025641 , 4123.58974359 , 4134.87179487 , 4134.87179487 , 4135.8974359 , 4185.64102564 , 4876.92307692 , 4134.35897436 , 4135.8974359 , 2031.0 , 2033.0 , 7.947 , 0.0 , 0.0 , 0.0 , 0.0 , 

60.0 , 4129.74358974 , 4128.71794872 , 4152.30769231 , 4136.41025641 , 4132.30769231 , 4127.69230769 , 4127.17948718 , 4133.84615385 , 4135.38461538 , 4135.8974359 , 4184.61538462 , 4874.87179487 , 4134.35897436 , 4136.41025641 , 2031.0 , 2033.0 , 7.955 , 0.0 , 0.0 , 0.0 , 0.0 , 

61.0 , 4129.74358974 , 4129.23076923 , 4148.20512821 , 4136.92307692 , 4134.87179487 , 4130.76923077 , 4126.15384615 , 4135.8974359 , 4134.87179487 , 4135.8974359 , 4183.58974359 , 4874.35897436 , 4135.38461538 , 4137.94871795 , 2031.0 , 2031.0 , 7.963 , 0.0 , 0.0 , 0.0 , 0.0 , 

62.0 , 4129.74358974 , 4129.23076923 , 4149.74358974 , 4135.38461538 , 4135.8974359 , 4132.30769231 , 4123.07692308 , 4135.8974359 , 4134.35897436 , 4135.8974359 , 4183.58974359 , 4875.8974359 , 4136.41025641 , 4137.94871795 , 2031.0 , 2031.0 , 7.971 , 0.0 , 0.0 , 0.0 , 0.0 , 

63.0 , 4130.25641026 , 4129.23076923 , 4151.79487179 , 4135.38461538 , 4135.38461538 , 4129.23076923 , 4123.07692308 , 4135.38461538 , 4135.38461538 , 4135.8974359 , 4184.1025641 , 4876.41025641 , 4135.8974359 , 4137.94871795 , 2032.0 , 2029.0 , 7.98 , 0.0 , 0.0 , 0.0 , 0.0 , 

64.0 , 4128.71794872 , 4127.17948718 , 4149.23076923 , 4135.8974359 , 4134.35897436 , 4122.56410256 , 4123.58974359 , 4135.38461538 , 4135.38461538 , 4135.8974359 , 4184.61538462 , 4875.8974359 , 4134.35897436 , 4138.46153846 , 2034.0 , 2027.0 , 7.987 , 0.0 , 0.0 , 0.0 , 0.0 , 

65.0 , 4129.23076923 , 4128.20512821 , 4149.74358974 , 4135.8974359 , 4135.38461538 , 4124.61538462 , 4123.07692308 , 4135.38461538 , 4134.87179487 , 4135.8974359 , 4185.12820513 , 4875.38461538 , 4134.35897436 , 4137.94871795 , 2035.0 , 2026.0 , 7.994 , 0.0 , 0.0 , 0.0 , 0.0 , 

66.0 , 4128.71794872 , 4129.23076923 , 4152.82051282 , 4136.92307692 , 4134.35897436 , 4131.28205128 , 4124.1025641 , 4135.38461538 , 4135.38461538 , 4135.8974359 , 4184.61538462 , 4875.38461538 , 4134.35897436 , 4136.41025641 , 2036.0 , 2026.0 , 8.002 , 0.0 , 0.0 , 0.0 , 0.0 , 

67.0 , 4128.20512821 , 4127.69230769 , 4151.79487179 , 4134.35897436 , 4131.79487179 , 4130.76923077 , 4123.58974359 , 4135.38461538 , 4135.8974359 , 4135.8974359 , 4184.1025641 , 4874.87179487 , 4134.35897436 , 4136.92307692 , 2038.0 , 2026.0 , 8.01 , 0.0 , 0.0 , 0.0 , 0.0 , 

68.0 , 4130.25641026 , 4129.74358974 , 4152.82051282 , 4130.76923077 , 4133.33333333 , 4127.69230769 , 4123.07692308 , 4135.8974359 , 4135.8974359 , 4135.8974359 , 4183.58974359 , 4874.35897436 , 4134.35897436 , 4137.94871795 , 2037.0 , 2027.0 , 8.018 , 0.0 , 0.0 , 0.0 , 0.0 , 

69.0 , 4130.76923077 , 4131.28205128 , 4151.79487179 , 4132.82051282 , 4133.84615385 , 4128.20512821 , 4126.15384615 , 4135.8974359 , 4135.8974359 , 4135.8974359 , 4184.61538462 , 4874.87179487 , 4134.35897436 , 4137.94871795 , 2039.0 , 2028.0 , 8.026 , 0.0 , 0.0 , 0.0 , 0.0 , 

70.0 , 4130.25641026 , 4130.25641026 , 4147.69230769 , 4137.94871795 , 4129.23076923 , 4128.20512821 , 4125.64102564 , 4134.87179487 , 4135.8974359 , 4135.8974359 , 4185.12820513 , 4876.41025641 , 4134.35897436 , 4136.92307692 , 2042.0 , 2028.0 , 8.034 , 0.0 , 0.0 , 0.0 , 0.0 , 

71.0 , 4132.30769231 , 4129.23076923 , 4145.64102564 , 4137.94871795 , 4127.69230769 , 4125.12820513 , 4122.05128205 , 4135.8974359 , 4135.8974359 , 4135.8974359 , 4184.61538462 , 4876.41025641 , 4134.35897436 , 4136.41025641 , 2040.0 , 2028.0 , 8.042 , 0.0 , 0.0 , 0.0 , 0.0 , 

72.0 , 4130.76923077 , 4127.69230769 , 4145.64102564 , 4135.8974359 , 4129.74358974 , 4121.53846154 , 4122.56410256 , 4135.38461538 , 4135.8974359 , 4135.8974359 , 4184.61538462 , 4874.87179487 , 4134.35897436 , 4137.43589744 , 2041.0 , 2030.0 , 8.05 , 0.0 , 0.0 , 0.0 , 0.0 , 

73.0 , 4127.69230769 , 4125.64102564 , 4144.61538462 , 4135.8974359 , 4128.71794872 , 4129.74358974 , 4125.12820513 , 4131.28205128 , 4135.8974359 , 4135.8974359 , 4185.64102564 , 4875.38461538 , 4133.84615385 , 4138.97435897 , 2042.0 , 2031.0 , 8.057 , 0.0 , 0.0 , 0.0 , 0.0 , 

74.0 , 4130.25641026 , 4128.20512821 , 4145.12820513 , 4135.8974359 , 4128.20512821 , 4141.02564103 , 4123.58974359 , 4127.17948718 , 4135.8974359 , 4135.8974359 , 4185.64102564 , 4876.41025641 , 4133.84615385 , 4137.94871795 , 2042.0 , 2031.0 , 8.066 , 0.0 , 0.0 , 0.0 , 0.0 , 

75.0 , 4130.25641026 , 4130.25641026 , 4146.66666667 , 4136.92307692 , 4129.74358974 , 4135.38461538 , 4122.56410256 , 4128.20512821 , 4135.8974359 , 4136.41025641 , 4183.58974359 , 4875.38461538 , 4134.35897436 , 4136.92307692 , 2043.0 , 2030.0 , 8.073 , 0.0 , 0.0 , 0.0 , 0.0 , 

76.0 , 4127.17948718 , 4128.71794872 , 4145.64102564 , 4137.94871795 , 4129.74358974 , 4127.17948718 , 4123.58974359 , 4133.33333333 , 4136.41025641 , 4135.8974359 , 4183.07692308 , 4874.35897436 , 4133.84615385 , 4137.43589744 , 2042.0 , 2029.0 , 8.082 , 0.0 , 0.0 , 0.0 , 0.0 , 

77.0 , 4128.71794872 , 4127.69230769 , 4151.79487179 , 4132.30769231 , 4128.71794872 , 4130.25641026 , 4124.61538462 , 4137.94871795 , 4135.8974359 , 4136.41025641 , 4183.58974359 , 4875.8974359 , 4134.35897436 , 4137.43589744 , 2042.0 , 2025.0 , 8.089 , 0.0 , 0.0 , 0.0 , 0.0 , 

78.0 , 4131.79487179 , 4128.71794872 , 4155.38461538 , 4128.20512821 , 4127.69230769 , 4129.23076923 , 4122.56410256 , 4135.8974359 , 4135.8974359 , 4136.92307692 , 4185.12820513 , 4876.92307692 , 4135.8974359 , 4138.46153846 , 2042.0 , 2025.0 , 8.097 , 0.0 , 0.0 , 0.0 , 0.0 , 

79.0 , 4131.28205128 , 4128.71794872 , 4148.71794872 , 4131.79487179 , 4128.20512821 , 4123.07692308 , 4122.05128205 , 4130.25641026 , 4136.41025641 , 4137.43589744 , 4184.1025641 , 4875.8974359 , 4135.8974359 , 4138.97435897 , 2042.0 , 2024.0 , 8.105 , 0.0 , 0.0 , 0.0 , 0.0 , 

80.0 , 4128.71794872 , 4128.20512821 , 4143.07692308 , 4135.8974359 , 4129.23076923 , 4125.12820513 , 4124.61538462 , 4132.30769231 , 4134.87179487 , 4137.94871795 , 4182.56410256 , 4875.8974359 , 4134.35897436 , 4136.92307692 , 2044.0 , 2021.0 , 8.113 , 0.0 , 0.0 , 0.0 , 0.0 , 

81.0 , 4128.20512821 , 4125.12820513 , 4148.20512821 , 4132.82051282 , 4127.17948718 , 4125.64102564 , 4122.56410256 , 4137.43589744 , 4133.33333333 , 4137.43589744 , 4183.58974359 , 4875.38461538 , 4134.35897436 , 4136.41025641 , 2044.0 , 2022.0 , 8.121 , 0.0 , 0.0 , 0.0 , 0.0 , 

82.0 , 4130.25641026 , 4127.17948718 , 4150.76923077 , 4127.69230769 , 4127.69230769 , 4124.61538462 , 4121.53846154 , 4135.8974359 , 4134.87179487 , 4136.41025641 , 4184.61538462 , 4875.38461538 , 4134.35897436 , 4140.0 , 2045.0 , 2023.0 , 8.128 , 0.0 , 0.0 , 0.0 , 0.0 , 

83.0 , 4131.79487179 , 4129.74358974 , 4146.66666667 , 4127.69230769 , 4133.84615385 , 4125.12820513 , 4125.12820513 , 4133.84615385 , 4136.41025641 , 4137.94871795 , 4183.58974359 , 4877.43589744 , 4133.84615385 , 4140.0 , 2044.0 , 2022.0 , 8.136 , 0.0 , 0.0 , 0.0 , 0.0 , 

84.0 , 4129.74358974 , 4127.69230769 , 4149.74358974 , 4133.33333333 , 4137.43589744 , 4124.1025641 , 4125.64102564 , 4135.38461538 , 4135.38461538 , 4138.46153846 , 4184.61538462 , 4877.43589744 , 4134.87179487 , 4136.92307692 , 2045.0 , 2025.0 , 8.145 , 0.0 , 0.0 , 0.0 , 0.0 , 

85.0 , 4129.23076923 , 4127.17948718 , 4150.25641026 , 4137.94871795 , 4135.38461538 , 4123.07692308 , 4123.58974359 , 4136.41025641 , 4135.38461538 , 4136.41025641 , 4185.64102564 , 4876.41025641 , 4135.8974359 , 4136.92307692 , 2045.0 , 2025.0 , 8.152 , 0.0 , 0.0 , 0.0 , 0.0 , 

86.0 , 4132.82051282 , 4129.74358974 , 4141.53846154 , 4136.92307692 , 4135.38461538 , 4124.1025641 , 4124.61538462 , 4135.8974359 , 4136.41025641 , 4136.41025641 , 4184.1025641 , 4876.92307692 , 4135.38461538 , 4139.48717949 , 2044.0 , 2025.0 , 8.16 , 0.0 , 0.0 , 0.0 , 0.0 , 

87.0 , 4132.30769231 , 4129.23076923 , 4142.05128205 , 4134.87179487 , 4135.8974359 , 4123.58974359 , 4127.69230769 , 4135.8974359 , 4136.41025641 , 4137.43589744 , 4183.07692308 , 4878.46153846 , 4134.87179487 , 4138.97435897 , 2042.0 , 2026.0 , 8.168 , 0.0 , 0.0 , 0.0 , 0.0 , 

88.0 , 4131.28205128 , 4127.17948718 , 4148.71794872 , 4135.38461538 , 4132.30769231 , 4123.58974359 , 4125.64102564 , 4135.8974359 , 4135.8974359 , 4135.8974359 , 4183.58974359 , 4877.43589744 , 4134.87179487 , 4135.38461538 , 2042.0 , 2027.0 , 8.176 , 0.0 , 0.0 , 0.0 , 0.0 , 

89.0 , 4130.76923077 , 4127.17948718 , 4147.69230769 , 4136.41025641 , 4131.28205128 , 4124.1025641 , 4122.56410256 , 4135.8974359 , 4135.8974359 , 4135.38461538 , 4184.1025641 , 4876.92307692 , 4135.38461538 , 4135.38461538 , 2042.0 , 2026.0 , 8.184 , 0.0 , 0.0 , 0.0 , 0.0 , 

90.0 , 4127.69230769 , 4126.66666667 , 4146.15384615 , 4135.8974359 , 4126.66666667 , 4123.58974359 , 4124.1025641 , 4135.8974359 , 4135.8974359 , 4136.41025641 , 4184.61538462 , 4878.97435897 , 4134.87179487 , 4137.94871795 , 2042.0 , 2026.0 , 8.191 , 0.0 , 0.0 , 0.0 , 0.0 , 

91.0 , 4129.23076923 , 4127.17948718 , 4147.69230769 , 4130.76923077 , 4124.61538462 , 4125.12820513 , 4125.64102564 , 4135.8974359 , 4135.8974359 , 4136.92307692 , 4185.64102564 , 4878.97435897 , 4134.87179487 , 4137.94871795 , 2040.0 , 2026.0 , 8.199 , 0.0 , 0.0 , 0.0 , 0.0 , 

92.0 , 4132.30769231 , 4127.69230769 , 4145.64102564 , 4131.79487179 , 4131.28205128 , 4129.23076923 , 4122.56410256 , 4135.8974359 , 4134.87179487 , 4138.46153846 , 4185.64102564 , 4875.38461538 , 4134.87179487 , 4136.92307692 , 2040.0 , 2025.0 , 8.207 , 0.0 , 0.0 , 0.0 , 0.0 , 

93.0 , 4129.74358974 , 4127.69230769 , 4143.07692308 , 4137.94871795 , 4134.87179487 , 4130.25641026 , 4122.56410256 , 4135.8974359 , 4133.33333333 , 4138.97435897 , 4185.12820513 , 4873.84615385 , 4134.87179487 , 4136.92307692 , 2040.0 , 2026.0 , 8.215 , 0.0 , 0.0 , 0.0 , 0.0 , 

94.0 , 4129.74358974 , 4129.74358974 , 4145.64102564 , 4135.8974359 , 4134.87179487 , 4126.15384615 , 4129.23076923 , 4135.8974359 , 4134.87179487 , 4137.94871795 , 4185.12820513 , 4878.46153846 , 4134.87179487 , 4137.43589744 , 2039.0 , 2026.0 , 8.223 , 0.0 , 0.0 , 0.0 , 0.0 , 

95.0 , 4133.33333333 , 4131.79487179 , 4146.15384615 , 4131.79487179 , 4135.8974359 , 4124.1025641 , 4128.71794872 , 4135.8974359 , 4136.92307692 , 4136.92307692 , 4186.15384615 , 4878.97435897 , 4134.87179487 , 4137.94871795 , 2038.0 , 2028.0 , 8.232 , 0.0 , 0.0 , 0.0 , 0.0 , 

96.0 , 4132.30769231 , 4129.23076923 , 4145.12820513 , 4134.35897436 , 4136.41025641 , 4127.69230769 , 4122.05128205 , 4135.8974359 , 4135.8974359 , 4136.41025641 , 4185.12820513 , 4874.87179487 , 4134.87179487 , 4137.43589744 , 2037.0 , 2029.0 , 8.24 , 0.0 , 0.0 , 0.0 , 0.0 , 

97.0 , 4129.23076923 , 4128.71794872 , 4142.56410256 , 4137.94871795 , 4134.87179487 , 4131.28205128 , 4123.07692308 , 4135.8974359 , 4134.87179487 , 4136.92307692 , 4183.07692308 , 4877.43589744 , 4134.87179487 , 4136.41025641 , 2035.0 , 2028.0 , 8.247 , 0.0 , 0.0 , 0.0 , 0.0 , 

98.0 , 4128.71794872 , 4130.25641026 , 4145.12820513 , 4136.41025641 , 4135.8974359 , 4127.69230769 , 4127.69230769 , 4135.8974359 , 4135.8974359 , 4137.43589744 , 4183.58974359 , 4881.53846154 , 4134.87179487 , 4137.43589744 , 2036.0 , 2027.0 , 8.254 , 0.0 , 0.0 , 0.0 , 0.0 , 

99.0 , 4129.74358974 , 4130.76923077 , 4147.17948718 , 4133.84615385 , 4135.38461538 , 4122.05128205 , 4126.15384615 , 4135.8974359 , 4134.87179487 , 4137.94871795 , 4184.61538462 , 4880.0 , 4134.87179487 , 4138.97435897 , 2034.0 , 2027.0 , 8.262 , 0.0 , 0.0 , 0.0 , 0.0 , 

100.0 , 4130.25641026 , 4129.23076923 , 4143.07692308 , 4134.35897436 , 4134.87179487 , 4124.61538462 , 4122.56410256 , 4135.8974359 , 4134.35897436 , 4137.94871795 , 4184.61538462 , 4877.43589744 , 4135.38461538 , 4138.46153846 , 2033.0 , 2026.0 , 8.27 , 0.0 , 0.0 , 0.0 , 0.0 , 

101.0 , 4130.25641026 , 4128.20512821 , 4138.97435897 , 4135.38461538 , 4136.41025641 , 4127.69230769 , 4124.1025641 , 4135.8974359 , 4136.41025641 , 4137.43589744 , 4184.61538462 , 4878.46153846 , 4134.87179487 , 4136.92307692 , 2035.0 , 2026.0 , 8.278 , 0.0 , 0.0 , 0.0 , 0.0 , 

102.0 , 4129.74358974 , 4127.17948718 , 4143.07692308 , 4133.84615385 , 4135.8974359 , 4125.12820513 , 4124.61538462 , 4135.8974359 , 4137.94871795 , 4137.94871795 , 4185.12820513 , 4880.0 , 4134.87179487 , 4137.43589744 , 2035.0 , 2025.0 , 8.286 , 0.0 , 0.0 , 0.0 , 0.0 , 

103.0 , 4130.25641026 , 4126.66666667 , 4145.64102564 , 4133.33333333 , 4136.41025641 , 4125.64102564 , 4122.56410256 , 4135.8974359 , 4135.8974359 , 4137.94871795 , 4185.12820513 , 4877.43589744 , 4135.8974359 , 4137.43589744 , 2036.0 , 2027.0 , 8.294 , 0.0 , 0.0 , 0.0 , 0.0 , 

104.0 , 4130.76923077 , 4126.66666667 , 4140.51282051 , 4133.84615385 , 4135.38461538 , 4127.69230769 , 4123.07692308 , 4136.41025641 , 4134.87179487 , 4136.92307692 , 4184.61538462 , 4875.8974359 , 4133.84615385 , 4137.94871795 , 2038.0 , 2028.0 , 8.302 , 0.0 , 0.0 , 0.0 , 0.0 , 

105.0 , 4131.28205128 , 4129.74358974 , 4140.51282051 , 4135.8974359 , 4135.8974359 , 4126.66666667 , 4126.15384615 , 4135.38461538 , 4135.38461538 , 4135.38461538 , 4184.1025641 , 4877.94871795 , 4131.28205128 , 4137.43589744 , 2041.0 , 2029.0 , 8.31 , 0.0 , 0.0 , 0.0 , 0.0 , 

106.0 , 4131.28205128 , 4129.23076923 , 4143.58974359 , 4135.8974359 , 4137.94871795 , 4125.64102564 , 4124.61538462 , 4135.8974359 , 4135.8974359 , 4137.43589744 , 4184.61538462 , 4880.51282051 , 4133.33333333 , 4136.92307692 , 2043.0 , 2030.0 , 8.319 , 0.0 , 0.0 , 0.0 , 0.0 , 

107.0 , 4130.25641026 , 4126.66666667 , 4141.53846154 , 4133.84615385 , 4132.30769231 , 4126.66666667 , 4120.51282051 , 4136.92307692 , 4134.87179487 , 4139.48717949 , 4184.61538462 , 4879.48717949 , 4134.87179487 , 4136.92307692 , 2046.0 , 2030.0 , 8.325 , 0.0 , 0.0 , 0.0 , 0.0 , 

108.0 , 4130.25641026 , 4129.23076923 , 4142.05128205 , 4134.35897436 , 4128.71794872 , 4127.69230769 , 4124.61538462 , 4133.84615385 , 4133.84615385 , 4137.43589744 , 4183.58974359 , 4878.46153846 , 4133.84615385 , 4137.94871795 , 2047.0 , 2028.0 , 8.333 , 0.0 , 0.0 , 0.0 , 0.0 , 

109.0 , 4130.25641026 , 4129.74358974 , 4147.17948718 , 4130.76923077 , 4132.82051282 , 4126.15384615 , 4130.25641026 , 4131.28205128 , 4134.35897436 , 4140.0 , 4183.07692308 , 4877.43589744 , 4134.87179487 , 4136.92307692 , 2047.0 , 2027.0 , 8.341 , 0.0 , 0.0 , 0.0 , 0.0 , 

110.0 , 4129.23076923 , 4127.17948718 , 4146.66666667 , 4127.17948718 , 4133.84615385 , 4126.66666667 , 4126.15384615 , 4134.35897436 , 4134.35897436 , 4143.58974359 , 4184.1025641 , 4876.92307692 , 4135.8974359 , 4136.92307692 , 2048.0 , 2026.0 , 8.349 , 0.0 , 0.0 , 0.0 , 0.0 , 

111.0 , 4128.71794872 , 4127.69230769 , 4147.69230769 , 4132.30769231 , 4131.79487179 , 4128.20512821 , 4121.53846154 , 4137.43589744 , 4134.35897436 , 4138.97435897 , 4186.15384615 , 4880.0 , 4135.38461538 , 4137.43589744 , 2048.0 , 2026.0 , 8.357 , 0.0 , 0.0 , 0.0 , 0.0 , 

112.0 , 4129.74358974 , 4129.74358974 , 4149.74358974 , 4134.35897436 , 4134.87179487 , 4127.69230769 , 4124.1025641 , 4132.82051282 , 4134.35897436 , 4135.38461538 , 4185.64102564 , 4878.46153846 , 4135.38461538 , 4136.41025641 , 2045.0 , 2024.0 , 8.445 , 0.0 , 0.0 , 0.0 , 0.0 , 

113.0 , 4130.76923077 , 4127.69230769 , 4150.25641026 , 4131.28205128 , 4135.38461538 , 4125.12820513 , 4123.07692308 , 4131.28205128 , 4134.35897436 , 4137.43589744 , 4183.58974359 , 4878.97435897 , 4135.38461538 , 4135.8974359 , 2045.0 , 2025.0 , 8.447 , 0.0 , 0.0 , 0.0 , 0.0 , 

114.0 , 4131.28205128 , 4129.74358974 , 4149.23076923 , 4134.87179487 , 4134.87179487 , 4125.12820513 , 4122.05128205 , 4134.35897436 , 4134.35897436 , 4136.92307692 , 4184.61538462 , 4881.53846154 , 4135.38461538 , 4136.41025641 , 2043.0 , 2025.0 , 8.447 , 0.0 , 0.0 , 0.0 , 0.0 , 

115.0 , 4130.25641026 , 4131.79487179 , 4144.1025641 , 4137.94871795 , 4134.87179487 , 4126.15384615 , 4128.20512821 , 4135.8974359 , 4134.35897436 , 4133.33333333 , 4185.12820513 , 4881.02564103 , 4135.38461538 , 4137.94871795 , 2041.0 , 2025.0 , 8.447 , 0.0 , 0.0 , 0.0 , 0.0 , 

116.0 , 4128.20512821 , 4128.20512821 , 4136.92307692 , 4135.38461538 , 4130.25641026 , 4125.12820513 , 4129.23076923 , 4134.35897436 , 4134.35897436 , 4133.33333333 , 4183.58974359 , 4882.05128205 , 4135.38461538 , 4137.43589744 , 2040.0 , 2026.0 , 8.447 , 0.0 , 0.0 , 0.0 , 0.0 , 

117.0 , 4127.17948718 , 4127.69230769 , 4141.02564103 , 4135.8974359 , 4130.76923077 , 4127.69230769 , 4124.1025641 , 4133.84615385 , 4134.35897436 , 4136.92307692 , 4185.12820513 , 4886.66666667 , 4135.38461538 , 4137.94871795 , 2039.0 , 2029.0 , 8.447 , 0.0 , 0.0 , 0.0 , 0.0 , 

118.0 , 4129.74358974 , 4129.74358974 , 4147.17948718 , 4137.43589744 , 4136.41025641 , 4128.20512821 , 4124.1025641 , 4135.38461538 , 4134.35897436 , 4140.51282051 , 4186.66666667 , 4885.64102564 , 4135.38461538 , 4138.97435897 , 2037.0 , 2028.0 , 8.447 , 0.0 , 0.0 , 0.0 , 0.0 , 

119.0 , 4130.76923077 , 4127.69230769 , 4141.53846154 , 4134.87179487 , 4135.8974359 , 4121.53846154 , 4126.66666667 , 4136.41025641 , 4134.35897436 , 4138.97435897 , 4184.61538462 , 4881.02564103 , 4135.38461538 , 4138.46153846 , 2037.0 , 2029.0 , 8.447 , 0.0 , 0.0 , 0.0 , 0.0 , 

120.0 , 4130.25641026 , 4126.66666667 , 4138.97435897 , 4133.33333333 , 4135.38461538 , 4122.05128205 , 4126.15384615 , 4135.8974359 , 4134.35897436 , 4135.38461538 , 4183.07692308 , 4881.02564103 , 4135.38461538 , 4138.97435897 , 2038.0 , 2029.0 , 8.447 , 0.0 , 0.0 , 0.0 , 0.0 , 

121.0 , 4130.25641026 , 4128.20512821 , 4143.07692308 , 4132.82051282 , 4134.87179487 , 4129.74358974 , 4123.07692308 , 4135.8974359 , 4134.35897436 , 4136.92307692 , 4184.61538462 , 4882.05128205 , 4135.38461538 , 4138.97435897 , 2037.0 , 2029.0 , 8.447 , 0.0 , 0.0 , 0.0 , 0.0 , 

122.0 , 4130.25641026 , 4129.23076923 , 4143.58974359 , 4129.23076923 , 4132.82051282 , 4129.74358974 , 4123.07692308 , 4135.8974359 , 4134.35897436 , 4138.46153846 , 4184.1025641 , 4883.07692308 , 4135.38461538 , 4136.92307692 , 2038.0 , 2030.0 , 8.447 , 0.0 , 0.0 , 0.0 , 0.0 , 

123.0 , 4129.74358974 , 4130.25641026 , 4143.07692308 , 4129.23076923 , 4132.82051282 , 4126.15384615 , 4124.1025641 , 4135.8974359 , 4133.84615385 , 4136.92307692 , 4184.61538462 , 4884.1025641 , 4135.38461538 , 4136.41025641 , 2040.0 , 2032.0 , 8.451 , 0.0 , 0.0 , 0.0 , 0.0 , 

124.0 , 4130.25641026 , 4131.28205128 , 4144.61538462 , 4134.35897436 , 4133.33333333 , 4127.17948718 , 4124.61538462 , 4135.8974359 , 4134.87179487 , 4137.94871795 , 4185.12820513 , 4884.1025641 , 4135.38461538 , 4137.94871795 , 2040.0 , 2031.0 , 8.459 , 0.0 , 0.0 , 0.0 , 0.0 , 

125.0 , 4131.28205128 , 4129.23076923 , 4146.15384615 , 4136.41025641 , 4132.30769231 , 4127.17948718 , 4123.58974359 , 4135.8974359 , 4135.8974359 , 4140.51282051 , 4184.1025641 , 4882.56410256 , 4135.38461538 , 4137.94871795 , 2040.0 , 2031.0 , 8.467 , 0.0 , 0.0 , 0.0 , 0.0 , 

126.0 , 4130.76923077 , 4127.17948718 , 4147.69230769 , 4132.30769231 , 4135.38461538 , 4125.64102564 , 4123.58974359 , 4135.38461538 , 4135.8974359 , 4138.97435897 , 4184.61538462 , 4881.53846154 , 4135.38461538 , 4136.41025641 , 2042.0 , 2031.0 , 8.475 , 0.0 , 0.0 , 0.0 , 0.0 , 

127.0 , 4128.71794872 , 4129.23076923 , 4147.17948718 , 4131.79487179 , 4136.92307692 , 4125.64102564 , 4124.1025641 , 4135.8974359 , 4135.8974359 , 4135.8974359 , 4185.12820513 , 4885.12820513 , 4135.38461538 , 4136.92307692 , 2043.0 , 2031.0 , 8.483 , 0.0 , 0.0 , 0.0 , 0.0 , 

128.0 , 4128.20512821 , 4131.28205128 , 4149.74358974 , 4133.84615385 , 4133.33333333 , 4125.12820513 , 4124.1025641 , 4135.38461538 , 4135.8974359 , 4136.92307692 , 4184.1025641 , 4888.71794872 , 4135.38461538 , 4137.43589744 , 2044.0 , 2028.0 , 8.491 , 0.0 , 0.0 , 0.0 , 0.0 , 

0.0 , 4129.23076923 , 4130.25641026 , 4153.33333333 , 4132.30769231 , 4131.79487179 , 4128.20512821 , 4124.1025641 , 4132.82051282 , 4135.8974359 , 4138.46153846 , 4184.1025641 , 4887.17948718 , 4135.38461538 , 4137.43589744 , 2045.0 , 2029.0 , 8.499 , 0.0 , 0.0 , 0.0 , 0.0 , 

1.0 , 4129.74358974 , 4126.66666667 , 4150.25641026 , 4134.35897436 , 4134.35897436 , 4128.71794872 , 4123.07692308 , 4132.30769231 , 4136.41025641 , 4137.43589744 , 4184.61538462 , 4883.07692308 , 4135.38461538 , 4137.94871795 , 2044.0 , 2030.0 , 8.507 , 0.0 , 0.0 , 0.0 , 0.0 , 

2.0 , 4130.76923077 , 4125.64102564 , 4145.64102564 , 4136.92307692 , 4134.87179487 , 4125.12820513 , 4123.58974359 , 4134.87179487 , 4135.8974359 , 4137.43589744 , 4184.1025641 , 4884.1025641 , 4135.38461538 , 4137.94871795 , 2045.0 , 2031.0 , 8.515 , 0.0 , 0.0 , 0.0 , 0.0 , 

3.0 , 4129.23076923 , 4127.69230769 , 4150.25641026 , 4136.41025641 , 4134.35897436 , 4126.15384615 , 4124.61538462 , 4135.38461538 , 4134.35897436 , 4138.46153846 , 4185.12820513 , 4888.20512821 , 4135.38461538 , 4136.92307692 , 2046.0 , 2032.0 , 8.522 , 0.0 , 0.0 , 0.0 , 0.0 , 

4.0 , 4128.20512821 , 4129.23076923 , 4147.69230769 , 4135.8974359 , 4134.35897436 , 4130.76923077 , 4125.12820513 , 4134.35897436 , 4135.38461538 , 4138.46153846 , 4186.15384615 , 4887.69230769 , 4135.38461538 , 4136.92307692 , 2046.0 , 2034.0 , 8.53 , 0.0 , 0.0 , 0.0 , 0.0 , 

5.0 , 4128.20512821 , 4128.71794872 , 4139.48717949 , 4135.8974359 , 4134.87179487 , 4128.71794872 , 4125.12820513 , 4134.87179487 , 4137.43589744 , 4137.94871795 , 4184.61538462 , 4882.05128205 , 4135.38461538 , 4136.92307692 , 2045.0 , 2036.0 , 8.538 , 0.0 , 0.0 , 0.0 , 0.0 , 

6.0 , 4129.23076923 , 4130.76923077 , 4137.43589744 , 4136.41025641 , 4133.84615385 , 4122.56410256 , 4127.17948718 , 4135.38461538 , 4136.41025641 , 4137.94871795 , 4183.58974359 , 4882.56410256 , 4135.38461538 , 4136.41025641 , 2043.0 , 2039.0 , 8.546 , 0.0 , 0.0 , 0.0 , 0.0 , 

7.0 , 4129.23076923 , 4130.25641026 , 4136.92307692 , 4136.41025641 , 4134.35897436 , 4126.15384615 , 4126.66666667 , 4135.8974359 , 4134.35897436 , 4137.94871795 , 4184.1025641 , 4889.23076923 , 4135.38461538 , 4137.94871795 , 2041.0 , 2038.0 , 8.554 , 0.0 , 0.0 , 0.0 , 0.0 , 

8.0 , 4130.25641026 , 4128.20512821 , 4136.41025641 , 4135.38461538 , 4134.35897436 , 4136.92307692 , 4124.1025641 , 4136.41025641 , 4136.41025641 , 4137.94871795 , 4185.12820513 , 4887.69230769 , 4135.38461538 , 4138.46153846 , 2041.0 , 2038.0 , 8.562 , 0.0 , 0.0 , 0.0 , 0.0 , 

9.0 , 4130.76923077 , 4129.23076923 , 4136.41025641 , 4132.82051282 , 4134.35897436 , 4134.87179487 , 4126.15384615 , 4135.38461538 , 4137.43589744 , 4137.94871795 , 4185.64102564 , 4882.56410256 , 4135.38461538 , 4136.92307692 , 2039.0 , 2035.0 , 8.57 , 0.0 , 0.0 , 0.0 , 0.0 , 

10.0 , 4131.79487179 , 4130.25641026 , 4134.87179487 , 4136.41025641 , 4134.35897436 , 4125.64102564 , 4125.64102564 , 4134.87179487 , 4136.41025641 , 4137.94871795 , 4184.1025641 , 4884.61538462 , 4135.38461538 , 4138.97435897 , 2037.0 , 2034.0 , 8.578 , 0.0 , 0.0 , 0.0 , 0.0 , 

11.0 , 4131.28205128 , 4128.71794872 , 4138.46153846 , 4137.94871795 , 4134.35897436 , 4125.12820513 , 4122.05128205 , 4135.8974359 , 4135.8974359 , 4137.94871795 , 4184.1025641 , 4885.12820513 , 4135.38461538 , 4141.02564103 , 2036.0 , 2031.0 , 8.585 , 0.0 , 0.0 , 0.0 , 0.0 , 

12.0 , 4129.74358974 , 4130.25641026 , 4144.1025641 , 4134.87179487 , 4134.87179487 , 4126.66666667 , 4123.07692308 , 4134.35897436 , 4136.41025641 , 4137.94871795 , 4185.12820513 , 4883.07692308 , 4135.38461538 , 4136.92307692 , 2036.0 , 2030.0 , 8.593 , 0.0 , 0.0 , 0.0 , 0.0 , 

13.0 , 4129.23076923 , 4130.25641026 , 4143.58974359 , 4135.38461538 , 4134.35897436 , 4124.1025641 , 4124.1025641 , 4134.35897436 , 4136.41025641 , 4137.94871795 , 4185.12820513 , 4883.58974359 , 4135.38461538 , 4134.87179487 , 2037.0 , 2030.0 , 8.601 , 0.0 , 0.0 , 0.0 , 0.0 , 

14.0 , 4130.25641026 , 4126.66666667 , 4144.1025641 , 4135.8974359 , 4134.35897436 , 4127.17948718 , 4120.51282051 , 4135.38461538 , 4136.41025641 , 4137.94871795 , 4184.1025641 , 4885.64102564 , 4135.38461538 , 4135.8974359 , 2036.0 , 2030.0 , 8.609 , 0.0 , 0.0 , 0.0 , 0.0 , 

15.0 , 4128.20512821 , 4125.12820513 , 4147.17948718 , 4132.82051282 , 4134.87179487 , 4128.71794872 , 4122.56410256 , 4134.87179487 , 4135.38461538 , 4138.46153846 , 4184.1025641 , 4887.69230769 , 4135.8974359 , 4136.41025641 , 2037.0 , 2031.0 , 8.617 , 0.0 , 0.0 , 0.0 , 0.0 , 

16.0 , 4126.66666667 , 4127.17948718 , 4147.69230769 , 4131.28205128 , 4133.84615385 , 4123.58974359 , 4126.15384615 , 4133.84615385 , 4134.35897436 , 4137.94871795 , 4184.61538462 , 4889.23076923 , 4135.38461538 , 4135.8974359 , 2040.0 , 2031.0 , 8.625 , 0.0 , 0.0 , 0.0 , 0.0 , 

17.0 , 4127.69230769 , 4126.66666667 , 4146.66666667 , 4131.79487179 , 4130.25641026 , 4123.58974359 , 4124.1025641 , 4135.38461538 , 4134.35897436 , 4137.94871795 , 4185.64102564 , 4888.20512821 , 4134.87179487 , 4136.41025641 , 2040.0 , 2032.0 , 8.633 , 0.0 , 0.0 , 0.0 , 0.0 , 

18.0 , 4127.17948718 , 4126.66666667 , 4148.71794872 , 4133.33333333 , 4128.71794872 , 4130.25641026 , 4122.56410256 , 4134.35897436 , 4134.35897436 , 4138.46153846 , 4185.12820513 , 4886.66666667 , 4136.41025641 , 4134.35897436 , 2043.0 , 2036.0 , 8.641 , 0.0 , 0.0 , 0.0 , 0.0 , 

19.0 , 4126.15384615 , 4128.20512821 , 4150.76923077 , 4137.43589744 , 4133.33333333 , 4132.82051282 , 4124.1025641 , 4132.82051282 , 4133.84615385 , 4137.94871795 , 4185.12820513 , 4887.17948718 , 4135.38461538 , 4135.38461538 , 2043.0 , 2037.0 , 8.649 , 0.0 , 0.0 , 0.0 , 0.0 , 

20.0 , 4129.74358974 , 4127.17948718 , 4149.74358974 , 4137.43589744 , 4133.84615385 , 4127.17948718 , 4124.1025641 , 4132.82051282 , 4135.38461538 , 4136.41025641 , 4185.64102564 , 4884.1025641 , 4131.79487179 , 4136.92307692 , 2043.0 , 2040.0 , 8.656 , 0.0 , 0.0 , 0.0 , 0.0 , 

21.0 , 4130.25641026 , 4126.15384615 , 4143.58974359 , 4134.35897436 , 4130.25641026 , 4122.56410256 , 4123.07692308 , 4132.82051282 , 4137.43589744 , 4136.92307692 , 4184.61538462 , 4884.1025641 , 4131.79487179 , 4135.38461538 , 2043.0 , 2040.0 , 8.664 , 0.0 , 0.0 , 0.0 , 0.0 , 

22.0 , 4128.20512821 , 4128.20512821 , 4141.02564103 , 4135.38461538 , 4132.30769231 , 4129.23076923 , 4121.02564103 , 4133.84615385 , 4136.92307692 , 4137.43589744 , 4185.12820513 , 4889.74358974 , 4134.35897436 , 4135.38461538 , 2043.0 , 2040.0 , 8.672 , 0.0 , 0.0 , 0.0 , 0.0 , 

23.0 , 4130.76923077 , 4130.76923077 , 4139.48717949 , 4137.43589744 , 4136.92307692 , 4137.43589744 , 4124.61538462 , 4135.8974359 , 4135.8974359 , 4135.8974359 , 4185.64102564 , 4889.23076923 , 4134.87179487 , 4137.43589744 , 2042.0 , 2038.0 , 8.682 , 0.0 , 0.0 , 0.0 , 0.0 , 

24.0 , 4130.25641026 , 4130.25641026 , 4135.8974359 , 4134.87179487 , 4134.35897436 , 4132.30769231 , 4130.25641026 , 4135.38461538 , 4135.8974359 , 4136.92307692 , 4185.12820513 , 4884.61538462 , 4134.35897436 , 4138.46153846 , 2041.0 , 2037.0 , 8.689 , 0.0 , 0.0 , 0.0 , 0.0 , 

25.0 , 4128.71794872 , 4129.74358974 , 4131.28205128 , 4135.38461538 , 4134.35897436 , 4121.53846154 , 4127.69230769 , 4133.33333333 , 4136.41025641 , 4139.48717949 , 4185.12820513 , 4886.15384615 , 4133.84615385 , 4137.43589744 , 2042.0 , 2037.0 , 8.697 , 0.0 , 0.0 , 0.0 , 0.0 , 

26.0 , 4131.28205128 , 4129.23076923 , 4131.28205128 , 4136.92307692 , 4136.41025641 , 4126.15384615 , 4121.02564103 , 4134.87179487 , 4135.8974359 , 4138.46153846 , 4185.12820513 , 4890.25641026 , 4133.33333333 , 4137.43589744 , 2041.0 , 2036.0 , 8.704 , 0.0 , 0.0 , 0.0 , 0.0 , 

27.0 , 4130.76923077 , 4127.69230769 , 4133.33333333 , 4136.41025641 , 4132.30769231 , 4137.43589744 , 4122.56410256 , 4136.41025641 , 4135.8974359 , 4137.43589744 , 4184.61538462 , 4891.28205128 , 4134.87179487 , 4140.51282051 , 2041.0 , 2035.0 , 8.712 , 0.0 , 0.0 , 0.0 , 0.0 , 

28.0 , 4126.66666667 , 4127.69230769 , 4135.38461538 , 4135.8974359 , 4131.28205128 , 4135.38461538 , 4125.12820513 , 4132.82051282 , 4136.41025641 , 4137.94871795 , 4185.64102564 , 4889.23076923 , 4135.38461538 , 4140.51282051 , 2041.0 , 2038.0 , 8.719 , 0.0 , 0.0 , 0.0 , 0.0 , 

29.0 , 4129.23076923 , 4128.20512821 , 4131.79487179 , 4136.92307692 , 4135.38461538 , 4132.30769231 , 4125.64102564 , 4131.79487179 , 4135.8974359 , 4137.94871795 , 4186.15384615 , 4887.17948718 , 4132.82051282 , 4137.43589744 , 2043.0 , 2039.0 , 8.727 , 0.0 , 0.0 , 0.0 , 0.0 , 

30.0 , 4131.79487179 , 4127.17948718 , 4123.07692308 , 4135.8974359 , 4135.38461538 , 4131.79487179 , 4126.66666667 , 4135.38461538 , 4135.8974359 , 4136.92307692 , 4184.61538462 , 4887.69230769 , 4132.82051282 , 4136.41025641 , 2042.0 , 2039.0 , 8.735 , 0.0 , 0.0 , 0.0 , 0.0 , 

31.0 , 4130.76923077 , 4127.69230769 , 4121.53846154 , 4135.38461538 , 4133.84615385 , 4126.15384615 , 4126.15384615 , 4136.92307692 , 4136.41025641 , 4138.46153846 , 4185.12820513 , 4888.20512821 , 4133.33333333 , 4137.43589744 , 2043.0 , 2040.0 , 8.743 , 0.0 , 0.0 , 0.0 , 0.0 , 

32.0 , 4130.76923077 , 4129.74358974 , 4123.07692308 , 4137.43589744 , 4136.41025641 , 4125.12820513 , 4127.69230769 , 4136.41025641 , 4135.38461538 , 4137.94871795 , 4186.15384615 , 4889.74358974 , 4133.33333333 , 4137.43589744 , 2048.0 , 2041.0 , 8.751 , 0.0 , 0.0 , 0.0 , 0.0 , 

33.0 , 4131.79487179 , 4130.25641026 , 4121.53846154 , 4138.46153846 , 4135.8974359 , 4133.33333333 , 4129.23076923 , 4136.41025641 , 4134.35897436 , 4135.8974359 , 4185.64102564 , 4890.76923077 , 4132.82051282 , 4136.41025641 , 2047.0 , 2039.0 , 8.759 , 0.0 , 0.0 , 0.0 , 0.0 , 

34.0 , 4131.79487179 , 4127.69230769 , 4121.02564103 , 4135.8974359 , 4131.28205128 , 4134.35897436 , 4126.15384615 , 4135.8974359 , 4134.35897436 , 4142.05128205 , 4184.61538462 , 4888.20512821 , 4133.33333333 , 4136.41025641 , 2051.0 , 2040.0 , 8.767 , 0.0 , 0.0 , 0.0 , 0.0 , 

35.0 , 4130.76923077 , 4127.17948718 , 4125.64102564 , 4135.38461538 , 4132.82051282 , 4126.66666667 , 4122.56410256 , 4135.38461538 , 4134.35897436 , 4147.17948718 , 4184.1025641 , 4887.69230769 , 4133.33333333 , 4136.41025641 , 2050.0 , 2041.0 , 8.775 , 0.0 , 0.0 , 0.0 , 0.0 , 

36.0 , 4129.74358974 , 4129.74358974 , 4128.71794872 , 4137.94871795 , 4134.87179487 , 4127.69230769 , 4125.12820513 , 4136.41025641 , 4134.35897436 , 4140.0 , 4184.61538462 , 4889.23076923 , 4133.33333333 , 4138.46153846 , 2050.0 , 2039.0 , 8.783 , 0.0 , 0.0 , 0.0 , 0.0 , 

37.0 , 4130.25641026 , 4128.20512821 , 4128.20512821 , 4136.41025641 , 4134.35897436 , 4132.82051282 , 4128.20512821 , 4135.8974359 , 4135.38461538 , 4135.8974359 , 4185.64102564 , 4888.20512821 , 4133.33333333 , 4137.43589744 , 2049.0 , 2039.0 , 8.79 , 0.0 , 0.0 , 0.0 , 0.0 , 

38.0 , 4131.79487179 , 4127.17948718 , 4130.76923077 , 4135.8974359 , 4134.35897436 , 4134.35897436 , 4129.23076923 , 4135.8974359 , 4136.41025641 , 4137.94871795 , 4185.64102564 , 4888.71794872 , 4133.33333333 , 4135.38461538 , 2049.0 , 2039.0 , 8.799 , 0.0 , 0.0 , 0.0 , 0.0 , 

39.0 , 4131.79487179 , 4129.74358974 , 4131.28205128 , 4137.94871795 , 4134.87179487 , 4129.23076923 , 4128.20512821 , 4135.38461538 , 4136.41025641 , 4137.43589744 , 4184.61538462 , 4891.28205128 , 4133.33333333 , 4134.87179487 , 2048.0 , 2037.0 , 8.806 , 0.0 , 0.0 , 0.0 , 0.0 , 

40.0 , 4131.28205128 , 4130.25641026 , 4130.25641026 , 4138.46153846 , 4135.38461538 , 4126.15384615 , 4126.66666667 , 4133.33333333 , 4135.8974359 , 4137.94871795 , 4186.66666667 , 4889.23076923 , 4133.33333333 , 4137.43589744 , 2046.0 , 2039.0 , 8.815 , 0.0 , 0.0 , 0.0 , 0.0 , 

41.0 , 4131.28205128 , 4127.17948718 , 4131.79487179 , 4134.87179487 , 4134.35897436 , 4131.79487179 , 4127.69230769 , 4133.84615385 , 4134.87179487 , 4141.02564103 , 4186.66666667 , 4888.71794872 , 4133.33333333 , 4138.46153846 , 2044.0 , 2042.0 , 8.822 , 0.0 , 0.0 , 0.0 , 0.0 , 

42.0 , 4131.28205128 , 4127.69230769 , 4130.25641026 , 4133.33333333 , 4131.28205128 , 4135.8974359 , 4125.64102564 , 4135.38461538 , 4134.35897436 , 4138.46153846 , 4184.1025641 , 4889.74358974 , 4133.33333333 , 4136.92307692 , 2043.0 , 2043.0 , 8.831 , 0.0 , 0.0 , 0.0 , 0.0 , 

43.0 , 4128.71794872 , 4130.76923077 , 4130.25641026 , 4135.38461538 , 4131.79487179 , 4129.23076923 , 4121.02564103 , 4134.87179487 , 4133.84615385 , 4136.41025641 , 4185.12820513 , 4889.74358974 , 4133.33333333 , 4137.43589744 , 2042.0 , 2043.0 , 8.838 , 0.0 , 0.0 , 0.0 , 0.0 , 

44.0 , 4128.71794872 , 4130.76923077 , 4131.28205128 , 4135.38461538 , 4134.87179487 , 4125.64102564 , 4121.53846154 , 4134.87179487 , 4135.38461538 , 4136.92307692 , 4188.20512821 , 4889.74358974 , 4133.33333333 , 4138.46153846 , 2041.0 , 2044.0 , 8.845 , 0.0 , 0.0 , 0.0 , 0.0 , 

45.0 , 4128.71794872 , 4128.20512821 , 4131.79487179 , 4134.87179487 , 4135.38461538 , 4132.30769231 , 4125.12820513 , 4135.38461538 , 4137.43589744 , 4136.92307692 , 4187.69230769 , 4889.74358974 , 4133.33333333 , 4137.94871795 , 2040.0 , 2043.0 , 8.853 , 0.0 , 0.0 , 0.0 , 0.0 , 

46.0 , 4128.71794872 , 4127.69230769 , 4130.76923077 , 4136.41025641 , 4133.84615385 , 4136.41025641 , 4125.12820513 , 4134.35897436 , 4137.43589744 , 4136.41025641 , 4186.66666667 , 4890.25641026 , 4133.33333333 , 4136.41025641 , 2039.0 , 2040.0 , 8.862 , 0.0 , 0.0 , 0.0 , 0.0 , 

47.0 , 4128.71794872 , 4128.71794872 , 4131.79487179 , 4136.41025641 , 4133.33333333 , 4132.82051282 , 4121.53846154 , 4133.84615385 , 4134.87179487 , 4136.41025641 , 4187.69230769 , 4890.25641026 , 4133.33333333 , 4136.41025641 , 2039.0 , 2038.0 , 8.869 , 0.0 , 0.0 , 0.0 , 0.0 , 

48.0 , 4129.23076923 , 4128.71794872 , 4134.35897436 , 4134.87179487 , 4134.35897436 , 4128.71794872 , 4123.58974359 , 4134.35897436 , 4134.87179487 , 4138.46153846 , 4187.69230769 , 4889.74358974 , 4133.33333333 , 4136.92307692 , 2040.0 , 2038.0 , 8.877 , 0.0 , 0.0 , 0.0 , 0.0 , 

49.0 , 4130.25641026 , 4129.23076923 , 4135.38461538 , 4135.8974359 , 4135.38461538 , 4128.20512821 , 4127.17948718 , 4134.35897436 , 4135.38461538 , 4138.97435897 , 4187.17948718 , 4889.23076923 , 4133.33333333 , 4137.43589744 , 2041.0 , 2040.0 , 8.886 , 0.0 , 0.0 , 0.0 , 0.0 , 

50.0 , 4129.74358974 , 4131.28205128 , 4136.92307692 , 4136.92307692 , 4135.38461538 , 4129.74358974 , 4126.66666667 , 4134.87179487 , 4134.35897436 , 4137.43589744 , 4187.17948718 , 4889.23076923 , 4133.33333333 , 4137.94871795 , 2040.0 , 2041.0 , 8.893 , 0.0 , 0.0 , 0.0 , 0.0 , 

51.0 , 4128.20512821 , 4130.25641026 , 4135.8974359 , 4133.33333333 , 4133.84615385 , 4130.25641026 , 4123.58974359 , 4135.8974359 , 4134.35897436 , 4136.92307692 , 4187.17948718 , 4890.76923077 , 4133.33333333 , 4136.92307692 , 2042.0 , 2041.0 , 8.901 , 0.0 , 0.0 , 0.0 , 0.0 , 

52.0 , 4129.74358974 , 4129.74358974 , 4134.87179487 , 4133.33333333 , 4134.35897436 , 4127.17948718 , 4123.58974359 , 4136.41025641 , 4135.38461538 , 4136.41025641 , 4187.17948718 , 4891.28205128 , 4132.82051282 , 4137.43589744 , 2043.0 , 2043.0 , 8.909 , 0.0 , 0.0 , 0.0 , 0.0 , 

53.0 , 4132.82051282 , 4129.74358974 , 4129.23076923 , 4136.92307692 , 4134.35897436 , 4126.66666667 , 4126.66666667 , 4135.8974359 , 4134.87179487 , 4135.8974359 , 4187.69230769 , 4890.25641026 , 4133.33333333 , 4137.94871795 , 2044.0 , 2043.0 , 8.916 , 0.0 , 0.0 , 0.0 , 0.0 , 

54.0 , 4133.33333333 , 4130.76923077 , 4127.69230769 , 4136.41025641 , 4134.35897436 , 4128.20512821 , 4126.66666667 , 4134.87179487 , 4135.8974359 , 4140.51282051 , 4187.69230769 , 4889.74358974 , 4133.84615385 , 4137.43589744 , 2045.0 , 2044.0 , 8.924 , 0.0 , 0.0 , 0.0 , 0.0 , 

55.0 , 4132.30769231 , 4133.33333333 , 4123.58974359 , 4135.8974359 , 4134.35897436 , 4131.28205128 , 4125.12820513 , 4134.87179487 , 4136.41025641 , 4141.53846154 , 4187.17948718 , 4890.25641026 , 4131.28205128 , 4136.92307692 , 2047.0 , 2040.0 , 8.932 , 0.0 , 0.0 , 0.0 , 0.0 , 

56.0 , 4131.79487179 , 4133.33333333 , 4124.61538462 , 4136.92307692 , 4134.35897436 , 4131.79487179 , 4123.07692308 , 4135.8974359 , 4135.38461538 , 4138.46153846 , 4188.20512821 , 4891.28205128 , 4135.38461538 , 4137.43589744 , 2047.0 , 2040.0 , 8.94 , 0.0 , 0.0 , 0.0 , 0.0 , 

57.0 , 4131.79487179 , 4129.23076923 , 4118.46153846 , 4136.92307692 , 4134.35897436 , 4126.15384615 , 4124.1025641 , 4134.35897436 , 4134.87179487 , 4137.43589744 , 4186.66666667 , 4889.23076923 , 4134.87179487 , 4135.8974359 , 2050.0 , 2040.0 , 8.948 , 0.0 , 0.0 , 0.0 , 0.0 , 

58.0 , 4134.87179487 , 4127.17948718 , 4114.35897436 , 4135.8974359 , 4134.35897436 , 4128.20512821 , 4128.20512821 , 4136.92307692 , 4137.94871795 , 4139.48717949 , 4185.64102564 , 4888.20512821 , 4129.23076923 , 4134.87179487 , 2051.0 , 2041.0 , 8.956 , 0.0 , 0.0 , 0.0 , 0.0 , 

59.0 , 4133.84615385 , 4131.79487179 , 4113.33333333 , 4134.87179487 , 4134.35897436 , 4133.84615385 , 4127.69230769 , 4134.87179487 , 4135.38461538 , 4140.51282051 , 4182.56410256 , 4886.15384615 , 4126.66666667 , 4135.38461538 , 2050.0 , 2041.0 , 8.963 , 0.0 , 0.0 , 0.0 , 0.0 , 

60.0 , 4133.84615385 , 4132.82051282 , 4107.17948718 , 4134.87179487 , 4134.35897436 , 4133.84615385 , 4129.23076923 , 4129.74358974 , 4133.33333333 , 4140.0 , 4180.51282051 , 4886.66666667 , 4128.71794872 , 4137.94871795 , 2051.0 , 2040.0 , 8.972 , 0.0 , 0.0 , 0.0 , 0.0 , 

61.0 , 4137.94871795 , 4129.23076923 , 4108.20512821 , 4135.38461538 , 4134.35897436 , 4132.30769231 , 4134.87179487 , 4132.30769231 , 4133.84615385 , 4138.97435897 , 4181.53846154 , 4888.20512821 , 4129.74358974 , 4136.92307692 , 2050.0 , 2039.0 , 8.979 , 0.0 , 0.0 , 0.0 , 0.0 , 

62.0 , 4138.97435897 , 4128.20512821 , 4082.05128205 , 4135.38461538 , 4134.35897436 , 4134.35897436 , 4135.8974359 , 4133.33333333 , 4130.25641026 , 4136.92307692 , 4181.02564103 , 4884.61538462 , 4127.69230769 , 4132.82051282 , 2051.0 , 2038.0 , 8.987 , 0.0 , 0.0 , 0.0 , 0.0 , 

63.0 , 4136.41025641 , 4129.74358974 , 4075.38461538 , 4136.41025641 , 4134.35897436 , 4134.87179487 , 4135.38461538 , 4131.28205128 , 4130.76923077 , 4138.97435897 , 4178.97435897 , 4882.56410256 , 4126.66666667 , 4130.76923077 , 2051.0 , 2037.0 , 8.995 , 0.0 , 0.0 , 0.0 , 0.0 , 

64.0 , 4135.8974359 , 4128.71794872 , 4067.17948718 , 4136.41025641 , 4134.35897436 , 4132.82051282 , 4134.35897436 , 4129.23076923 , 4132.82051282 , 4136.92307692 , 4178.46153846 , 4881.53846154 , 4122.56410256 , 4131.28205128 , 2052.0 , 2035.0 , 9.003 , 0.0 , 0.0 , 0.0 , 0.0 , 

65.0 , 4136.92307692 , 4128.71794872 , 4051.79487179 , 4135.8974359 , 4134.35897436 , 4135.38461538 , 4127.69230769 , 4130.25641026 , 4131.79487179 , 4133.33333333 , 4180.51282051 , 4881.02564103 , 4124.1025641 , 4132.82051282 , 2052.0 , 2034.0 , 9.011 , 0.0 , 0.0 , 0.0 , 0.0 , 

66.0 , 4135.8974359 , 4130.76923077 , 4034.87179487 , 4133.84615385 , 4134.35897436 , 4134.87179487 , 4121.02564103 , 4128.71794872 , 4128.20512821 , 4135.38461538 , 4177.94871795 , 4879.48717949 , 4126.15384615 , 4130.76923077 , 2052.0 , 2035.0 , 9.019 , 0.0 , 0.0 , 0.0 , 0.0 , 

67.0 , 4135.8974359 , 4129.74358974 , 4050.76923077 , 4133.84615385 , 4134.35897436 , 4135.38461538 , 4124.61538462 , 4132.82051282 , 4131.28205128 , 4140.0 , 4178.46153846 , 4882.05128205 , 4126.15384615 , 4131.79487179 , 2053.0 , 2035.0 , 9.026 , 0.0 , 0.0 , 0.0 , 0.0 , 

68.0 , 4132.82051282 , 4128.71794872 , 4056.41025641 , 4134.87179487 , 4134.35897436 , 4134.35897436 , 4129.23076923 , 4132.82051282 , 4132.30769231 , 4136.92307692 , 4181.53846154 , 4881.02564103 , 4125.64102564 , 4133.33333333 , 2052.0 , 2037.0 , 9.034 , 0.0 , 0.0 , 0.0 , 0.0 , 

69.0 , 4133.33333333 , 4133.84615385 , 4032.82051282 , 4135.38461538 , 4134.35897436 , 4133.84615385 , 4125.64102564 , 4129.23076923 , 4131.28205128 , 4134.87179487 , 4182.56410256 , 4876.92307692 , 4122.56410256 , 4131.28205128 , 2051.0 , 2038.0 , 9.042 , 0.0 , 0.0 , 0.0 , 0.0 , 

70.0 , 4135.38461538 , 4135.38461538 , 4015.38461538 , 4133.84615385 , 4134.35897436 , 4134.35897436 , 4122.05128205 , 4127.17948718 , 4129.23076923 , 4134.35897436 , 4179.48717949 , 4873.33333333 , 4122.05128205 , 4127.17948718 , 2050.0 , 2040.0 , 9.05 , 0.0 , 0.0 , 0.0 , 0.0 , 

71.0 , 4130.76923077 , 4130.76923077 , 3999.48717949 , 4134.35897436 , 4134.35897436 , 4134.35897436 , 4129.74358974 , 4126.15384615 , 4128.20512821 , 4132.82051282 , 4175.8974359 , 4870.76923077 , 4122.05128205 , 4128.20512821 , 2050.0 , 2041.0 , 9.058 , 0.0 , 0.0 , 0.0 , 0.0 , 

72.0 , 4130.25641026 , 4129.23076923 , 3988.20512821 , 4135.8974359 , 4134.35897436 , 4134.35897436 , 4135.8974359 , 4126.66666667 , 4128.20512821 , 4130.76923077 , 4178.97435897 , 4869.74358974 , 4122.56410256 , 4131.28205128 , 2050.0 , 2042.0 , 9.066 , 0.0 , 0.0 , 0.0 , 0.0 , 

73.0 , 4134.35897436 , 4129.74358974 , 3979.48717949 , 4135.8974359 , 4134.35897436 , 4134.35897436 , 4130.25641026 , 4128.20512821 , 4128.20512821 , 4131.28205128 , 4181.53846154 , 4868.71794872 , 4121.53846154 , 4131.28205128 , 2048.0 , 2043.0 , 9.074 , 0.0 , 0.0 , 0.0 , 0.0 , 

74.0 , 4135.8974359 , 4127.17948718 , 3973.84615385 , 4134.87179487 , 4134.35897436 , 4134.35897436 , 4128.71794872 , 4129.23076923 , 4129.74358974 , 4135.38461538 , 4180.0 , 4866.66666667 , 4122.56410256 , 4130.76923077 , 2047.0 , 2043.0 , 9.083 , 0.0 , 0.0 , 0.0 , 0.0 , 

75.0 , 4134.87179487 , 4127.69230769 , 3976.92307692 , 4132.30769231 , 4134.35897436 , 4134.35897436 , 4135.38461538 , 4129.23076923 , 4129.74358974 , 4136.92307692 , 4180.51282051 , 4865.12820513 , 4125.12820513 , 4132.82051282 , 2047.0 , 2044.0 , 9.09 , 0.0 , 0.0 , 0.0 , 0.0 , 

76.0 , 4135.38461538 , 4129.74358974 , 3973.33333333 , 4131.79487179 , 4134.35897436 , 4134.35897436 , 4137.43589744 , 4128.71794872 , 4127.17948718 , 4135.38461538 , 4181.02564103 , 4863.07692308 , 4122.56410256 , 4132.82051282 , 2046.0 , 2042.0 , 9.099 , 0.0 , 0.0 , 0.0 , 0.0 , 

77.0 , 4133.84615385 , 4126.66666667 , 3968.71794872 , 4134.87179487 , 4134.35897436 , 4134.35897436 , 4130.25641026 , 4129.74358974 , 4128.71794872 , 4137.94871795 , 4179.48717949 , 4861.02564103 , 4123.07692308 , 4131.79487179 , 2046.0 , 2040.0 , 9.106 , 0.0 , 0.0 , 0.0 , 0.0 , 

78.0 , 4135.38461538 , 4126.66666667 , 3968.20512821 , 4136.92307692 , 4134.35897436 , 4134.35897436 , 4125.12820513 , 4130.25641026 , 4130.76923077 , 4141.53846154 , 4177.43589744 , 4858.97435897 , 4126.66666667 , 4132.82051282 , 2045.0 , 2038.0 , 9.113 , 0.0 , 0.0 , 0.0 , 0.0 , 

79.0 , 4132.82051282 , 4129.74358974 , 3972.82051282 , 4134.87179487 , 4133.84615385 , 4134.35897436 , 4126.66666667 , 4130.25641026 , 4132.82051282 , 4138.46153846 , 4178.46153846 , 4857.43589744 , 4126.15384615 , 4131.28205128 , 2046.0 , 2037.0 , 9.121 , 0.0 , 0.0 , 0.0 , 0.0 , 

80.0 , 4125.64102564 , 4128.71794872 , 3974.87179487 , 4134.87179487 , 4134.87179487 , 4134.35897436 , 4128.20512821 , 4129.23076923 , 4133.33333333 , 4136.92307692 , 4180.0 , 4854.87179487 , 4125.64102564 , 4129.74358974 , 2047.0 , 2034.0 , 9.13 , 0.0 , 0.0 , 0.0 , 0.0 , 

81.0 , 4128.71794872 , 4128.71794872 , 3978.46153846 , 4135.38461538 , 4134.87179487 , 4134.35897436 , 4126.15384615 , 4131.28205128 , 4131.79487179 , 4140.0 , 4180.0 , 4851.79487179 , 4128.71794872 , 4132.82051282 , 2048.0 , 2033.0 , 9.138 , 0.0 , 0.0 , 0.0 , 0.0 , 

82.0 , 4132.30769231 , 4132.82051282 , 3989.23076923 , 4133.33333333 , 4132.30769231 , 4134.35897436 , 4125.64102564 , 4133.84615385 , 4131.79487179 , 4139.48717949 , 4180.0 , 4848.20512821 , 4130.25641026 , 4134.35897436 , 2050.0 , 2032.0 , 9.146 , 0.0 , 0.0 , 0.0 , 0.0 , 

83.0 , 4129.74358974 , 4133.33333333 , 4001.53846154 , 4132.30769231 , 4132.30769231 , 4134.35897436 , 4122.56410256 , 4134.35897436 , 4134.87179487 , 4141.02564103 , 4183.07692308 , 4849.23076923 , 4129.23076923 , 4131.28205128 , 2052.0 , 2032.0 , 9.153 , 0.0 , 0.0 , 0.0 , 0.0 , 

84.0 , 4129.74358974 , 4129.74358974 , 4009.74358974 , 4135.38461538 , 4135.38461538 , 4134.35897436 , 4122.05128205 , 4130.76923077 , 4135.38461538 , 4141.02564103 , 4184.61538462 , 4848.20512821 , 4129.23076923 , 4130.76923077 , 2054.0 , 2031.0 , 9.161 , 0.0 , 0.0 , 0.0 , 0.0 , 

85.0 , 4130.25641026 , 4130.25641026 , 4010.25641026 , 4136.92307692 , 4136.41025641 , 4134.35897436 , 4130.25641026 , 4131.28205128 , 4137.94871795 , 4138.46153846 , 4183.58974359 , 4843.07692308 , 4128.71794872 , 4135.38461538 , 2055.0 , 2033.0 , 9.169 , 0.0 , 0.0 , 0.0 , 0.0 , 

86.0 , 4128.71794872 , 4131.79487179 , 4005.12820513 , 4131.79487179 , 4134.87179487 , 4134.35897436 , 4133.84615385 , 4134.35897436 , 4140.51282051 , 4141.02564103 , 4182.05128205 , 4840.51282051 , 4129.74358974 , 4134.87179487 , 2056.0 , 2034.0 , 9.176 , 0.0 , 0.0 , 0.0 , 0.0 , 

87.0 , 4130.76923077 , 4129.23076923 , 3997.43589744 , 4129.74358974 , 4134.35897436 , 4134.35897436 , 4130.76923077 , 4133.33333333 , 4135.38461538 , 4142.05128205 , 4183.07692308 , 4839.48717949 , 4129.23076923 , 4133.33333333 , 2057.0 , 2037.0 , 9.184 , 0.0 , 0.0 , 0.0 , 0.0 , 

88.0 , 4130.76923077 , 4127.17948718 , 4000.0 , 4134.87179487 , 4134.87179487 , 4134.35897436 , 4131.28205128 , 4131.79487179 , 4129.74358974 , 4138.97435897 , 4184.1025641 , 4837.43589744 , 4127.69230769 , 4134.87179487 , 2058.0 , 2040.0 , 9.192 , 0.0 , 0.0 , 0.0 , 0.0 , 

89.0 , 4129.23076923 , 4128.20512821 , 4000.51282051 , 4136.92307692 , 4134.87179487 , 4134.35897436 , 4131.28205128 , 4133.33333333 , 4130.76923077 , 4140.51282051 , 4185.64102564 , 4834.35897436 , 4128.71794872 , 4133.84615385 , 2057.0 , 2040.0 , 9.2 , 0.0 , 0.0 , 0.0 , 0.0 , 

90.0 , 4131.79487179 , 4129.23076923 , 3991.79487179 , 4135.38461538 , 4135.38461538 , 4134.35897436 , 4132.30769231 , 4133.84615385 , 4131.79487179 , 4141.53846154 , 4184.1025641 , 4833.84615385 , 4128.71794872 , 4130.76923077 , 2056.0 , 2040.0 , 9.208 , 0.0 , 0.0 , 0.0 , 0.0 , 

91.0 , 4130.25641026 , 4129.23076923 , 3975.38461538 , 4135.8974359 , 4134.87179487 , 4134.35897436 , 4136.41025641 , 4131.28205128 , 4130.25641026 , 4135.8974359 , 4180.0 , 4831.28205128 , 4126.66666667 , 4131.79487179 , 2054.0 , 2040.0 , 9.216 , 0.0 , 0.0 , 0.0 , 0.0 , 

92.0 , 4133.33333333 , 4128.20512821 , 3963.58974359 , 4136.41025641 , 4135.38461538 , 4134.35897436 , 4130.76923077 , 4131.28205128 , 4129.74358974 , 4137.43589744 , 4181.02564103 , 4826.66666667 , 4126.66666667 , 4136.41025641 , 2054.0 , 2039.0 , 9.224 , 0.0 , 0.0 , 0.0 , 0.0 , 

93.0 , 4138.97435897 , 4129.23076923 , 3946.15384615 , 4135.8974359 , 4135.38461538 , 4134.35897436 , 4123.58974359 , 4130.25641026 , 4129.23076923 , 4138.46153846 , 4180.51282051 , 4823.58974359 , 4124.61538462 , 4135.38461538 , 2053.0 , 2035.0 , 9.232 , 0.0 , 0.0 , 0.0 , 0.0 , 

94.0 , 4132.82051282 , 4130.25641026 , 3929.74358974 , 4135.8974359 , 4135.38461538 , 4134.35897436 , 4130.76923077 , 4127.69230769 , 4130.25641026 , 4131.79487179 , 4177.94871795 , 4823.58974359 , 4124.1025641 , 4131.79487179 , 2054.0 , 2035.0 , 9.239 , 0.0 , 0.0 , 0.0 , 0.0 , 

95.0 , 4127.69230769 , 4129.74358974 , 3921.53846154 , 4132.30769231 , 4135.38461538 , 4134.35897436 , 4135.38461538 , 4128.20512821 , 4128.71794872 , 4131.28205128 , 4177.43589744 , 4822.56410256 , 4126.66666667 , 4133.84615385 , 2054.0 , 2035.0 , 9.247 , 0.0 , 0.0 , 0.0 , 0.0 , 

96.0 , 4134.35897436 , 4128.71794872 , 3922.56410256 , 4133.33333333 , 4134.87179487 , 4134.35897436 , 4131.28205128 , 4129.74358974 , 4128.20512821 , 4134.87179487 , 4180.51282051 , 4815.38461538 , 4128.71794872 , 4135.8974359 , 2054.0 , 2035.0 , 9.255 , 0.0 , 0.0 , 0.0 , 0.0 , 

97.0 , 4134.35897436 , 4130.76923077 , 3924.1025641 , 4136.92307692 , 4135.38461538 , 4134.35897436 , 4134.87179487 , 4128.71794872 , 4130.25641026 , 4134.35897436 , 4181.53846154 , 4809.74358974 , 4125.12820513 , 4133.33333333 , 2054.0 , 2036.0 , 9.263 , 0.0 , 0.0 , 0.0 , 0.0 , 

98.0 , 4129.23076923 , 4131.79487179 , 3931.79487179 , 4135.8974359 , 4136.41025641 , 4134.35897436 , 4135.38461538 , 4128.71794872 , 4130.25641026 , 4135.8974359 , 4178.46153846 , 4808.20512821 , 4125.64102564 , 4133.84615385 , 2054.0 , 2036.0 , 9.271 , 0.0 , 0.0 , 0.0 , 0.0 , 

99.0 , 4135.8974359 , 4129.74358974 , 3940.0 , 4134.35897436 , 4132.82051282 , 4134.35897436 , 4125.64102564 , 4129.74358974 , 4129.23076923 , 4138.46153846 , 4180.51282051 , 4808.20512821 , 4128.20512821 , 4135.8974359 , 2054.0 , 2037.0 , 9.279 , 0.0 , 0.0 , 0.0 , 0.0 , 

100.0 , 4138.46153846 , 4129.74358974 , 3944.1025641 , 4134.35897436 , 4130.25641026 , 4134.35897436 , 4125.12820513 , 4130.76923077 , 4131.79487179 , 4140.0 , 4186.15384615 , 4806.15384615 , 4127.69230769 , 4134.35897436 , 2053.0 , 2038.0 , 9.287 , 0.0 , 0.0 , 0.0 , 0.0 , 

101.0 , 4131.28205128 , 4130.76923077 , 3943.07692308 , 4135.38461538 , 4133.84615385 , 4134.35897436 , 4134.87179487 , 4132.82051282 , 4132.82051282 , 4139.48717949 , 4185.12820513 , 4796.92307692 , 4127.17948718 , 4133.33333333 , 2052.0 , 2040.0 , 9.295 , 0.0 , 0.0 , 0.0 , 0.0 , 

102.0 , 4130.76923077 , 4126.66666667 , 3943.07692308 , 4136.41025641 , 4135.8974359 , 4134.35897436 , 4134.87179487 , 4132.82051282 , 4130.25641026 , 4137.94871795 , 4183.07692308 , 4794.35897436 , 4128.20512821 , 4136.41025641 , 2052.0 , 2040.0 , 9.303 , 0.0 , 0.0 , 0.0 , 0.0 , 

103.0 , 4136.92307692 , 4123.07692308 , 3952.82051282 , 4133.33333333 , 4133.33333333 , 4134.35897436 , 4125.64102564 , 4130.76923077 , 4131.28205128 , 4141.53846154 , 4186.66666667 , 4797.94871795 , 4130.25641026 , 4134.87179487 , 2050.0 , 2040.0 , 9.31 , 0.0 , 0.0 , 0.0 , 0.0 , 

104.0 , 4134.87179487 , 4126.15384615 , 3964.1025641 , 4131.28205128 , 4132.30769231 , 4134.35897436 , 4124.61538462 , 4132.30769231 , 4134.35897436 , 4145.64102564 , 4187.17948718 , 4795.8974359 , 4130.76923077 , 4133.84615385 , 2050.0 , 2038.0 , 9.318 , 0.0 , 0.0 , 0.0 , 0.0 , 

105.0 , 4129.23076923 , 4129.74358974 , 3970.25641026 , 4135.38461538 , 4133.84615385 , 4134.35897436 , 4130.25641026 , 4133.33333333 , 4131.79487179 , 4141.53846154 , 4179.48717949 , 4787.69230769 , 4128.71794872 , 4135.8974359 , 2049.0 , 2037.0 , 9.326 , 0.0 , 0.0 , 0.0 , 0.0 , 

106.0 , 4128.71794872 , 4127.69230769 , 3973.33333333 , 4137.43589744 , 4134.35897436 , 4134.35897436 , 4132.30769231 , 4131.79487179 , 4132.30769231 , 4137.43589744 , 4180.51282051 , 4786.15384615 , 4128.71794872 , 4136.92307692 , 2048.0 , 2037.0 , 9.335 , 0.0 , 0.0 , 0.0 , 0.0 , 

107.0 , 4128.71794872 , 4126.66666667 , 3982.05128205 , 4135.38461538 , 4132.82051282 , 4134.35897436 , 4131.79487179 , 4133.84615385 , 4136.92307692 , 4141.53846154 , 4184.61538462 , 4786.66666667 , 4130.25641026 , 4134.87179487 , 2048.0 , 2036.0 , 9.343 , 0.0 , 0.0 , 0.0 , 0.0 , 

108.0 , 4128.20512821 , 4129.23076923 , 3983.58974359 , 4135.8974359 , 4128.71794872 , 4134.35897436 , 4130.25641026 , 4133.84615385 , 4134.87179487 , 4142.56410256 , 4182.56410256 , 4783.58974359 , 4128.71794872 , 4135.38461538 , 2047.0 , 2036.0 , 9.35 , 0.0 , 0.0 , 0.0 , 0.0 , 

109.0 , 4129.74358974 , 4132.82051282 , 3992.30769231 , 4136.92307692 , 4127.17948718 , 4134.35897436 , 4128.71794872 , 4133.84615385 , 4130.25641026 , 4143.07692308 , 4183.07692308 , 4781.02564103 , 4128.71794872 , 4137.43589744 , 2048.0 , 2035.0 , 9.358 , 0.0 , 0.0 , 0.0 , 0.0 , 

110.0 , 4131.79487179 , 4131.79487179 , 4004.61538462 , 4136.41025641 , 4130.25641026 , 4134.35897436 , 4131.28205128 , 4135.38461538 , 4133.84615385 , 4143.58974359 , 4185.64102564 , 4777.43589744 , 4131.28205128 , 4137.94871795 , 2047.0 , 2036.0 , 9.366 , 0.0 , 0.0 , 0.0 , 0.0 , 

111.0 , 4129.74358974 , 4127.17948718 , 4019.48717949 , 4134.87179487 , 4134.87179487 , 4134.35897436 , 4137.43589744 , 4135.38461538 , 4138.97435897 , 4144.1025641 , 4183.58974359 , 4776.92307692 , 4131.79487179 , 4137.94871795 , 2046.0 , 2037.0 , 9.374 , 0.0 , 0.0 , 0.0 , 0.0 , 

112.0 , 4129.23076923 , 4129.23076923 , 4042.05128205 , 4130.25641026 , 4137.94871795 , 4134.35897436 , 4132.30769231 , 4137.94871795 , 4138.97435897 , 4145.64102564 , 4185.12820513 , 4776.41025641 , 4131.28205128 , 4137.94871795 , 2046.0 , 2039.0 , 9.381 , 0.0 , 0.0 , 0.0 , 0.0 , 

