['COUNTER', 'AF3', 'F7', 'F3', 'FC5', 'T7', 'P7', 'O1', 'O2', 'P8', 'T8', 'FC6', 'F4', 'F8', 'AF4', 'GYROX', 'GYROY', 'TIMESTAMP', 'FUNC_ID', 'FUNC_VALUE', 'MARKER', 'SYNC_SIGNAL']
59.0 , 4126.15384615 , 4128.20512821 , 4135.8974359 , 4138.97435897 , 4135.8974359 , 4123.07692308 , 4133.84615385 , 4129.74358974 , 4129.74358974 , 4140.0 , 4152.82051282 , 4427.17948718 , 4130.25641026 , 4130.76923077 , 2039.0 , 2035.0 , 6.032 , 0.0 , 0.0 , 0.0 , 0.0 , 

60.0 , 4129.23076923 , 4129.23076923 , 4131.79487179 , 4130.25641026 , 4135.8974359 , 4130.76923077 , 4126.15384615 , 4131.79487179 , 4132.30769231 , 4140.0 , 4155.38461538 , 4430.76923077 , 4131.28205128 , 4128.20512821 , 2039.0 , 2034.0 , 6.04 , 0.0 , 0.0 , 0.0 , 0.0 , 

61.0 , 4126.66666667 , 4126.15384615 , 4137.94871795 , 4123.07692308 , 4135.8974359 , 4133.33333333 , 4121.53846154 , 4132.82051282 , 4132.82051282 , 4140.51282051 , 4153.84615385 , 4433.84615385 , 4127.17948718 , 4131.79487179 , 2039.0 , 2032.0 , 6.047 , 0.0 , 0.0 , 0.0 , 0.0 , 

62.0 , 4123.07692308 , 4123.07692308 , 4137.94871795 , 4129.74358974 , 4135.8974359 , 4129.23076923 , 4124.61538462 , 4130.76923077 , 4130.25641026 , 4138.97435897 , 4149.23076923 , 4428.71794872 , 4125.64102564 , 4132.82051282 , 2040.0 , 2031.0 , 6.055 , 0.0 , 0.0 , 0.0 , 0.0 , 

63.0 , 4125.64102564 , 4127.17948718 , 4125.12820513 , 4137.43589744 , 4135.8974359 , 4129.23076923 , 4121.02564103 , 4128.71794872 , 4127.17948718 , 4136.92307692 , 4149.74358974 , 4427.17948718 , 4129.23076923 , 4131.79487179 , 2042.0 , 2031.0 , 6.063 , 0.0 , 0.0 , 0.0 , 0.0 , 

64.0 , 4130.25641026 , 4130.25641026 , 4124.61538462 , 4129.23076923 , 4135.8974359 , 4130.25641026 , 4126.66666667 , 4130.25641026 , 4127.69230769 , 4136.92307692 , 4153.33333333 , 4428.20512821 , 4131.28205128 , 4132.82051282 , 2042.0 , 2028.0 , 6.072 , 0.0 , 0.0 , 0.0 , 0.0 , 

65.0 , 4128.71794872 , 4125.12820513 , 4131.79487179 , 4123.58974359 , 4135.8974359 , 4128.71794872 , 4138.97435897 , 4129.74358974 , 4130.25641026 , 4137.94871795 , 4154.87179487 , 4426.15384615 , 4129.74358974 , 4132.82051282 , 2042.0 , 2029.0 , 6.079 , 0.0 , 0.0 , 0.0 , 0.0 , 

66.0 , 4124.1025641 , 4123.07692308 , 4137.94871795 , 4130.25641026 , 4135.8974359 , 4129.23076923 , 4129.23076923 , 4128.71794872 , 4132.30769231 , 4138.46153846 , 4154.87179487 , 4427.17948718 , 4129.74358974 , 4130.76923077 , 2041.0 , 2031.0 , 6.088 , 0.0 , 0.0 , 0.0 , 0.0 , 

67.0 , 4125.64102564 , 4126.66666667 , 4136.41025641 , 4135.8974359 , 4135.8974359 , 4130.76923077 , 4117.43589744 , 4129.74358974 , 4131.28205128 , 4138.97435897 , 4154.35897436 , 4428.71794872 , 4130.76923077 , 4130.25641026 , 2042.0 , 2030.0 , 6.095 , 0.0 , 0.0 , 0.0 , 0.0 , 

68.0 , 4128.20512821 , 4128.20512821 , 4135.38461538 , 4135.38461538 , 4135.8974359 , 4130.25641026 , 4125.12820513 , 4130.25641026 , 4131.28205128 , 4139.48717949 , 4153.33333333 , 4428.20512821 , 4129.74358974 , 4131.79487179 , 2042.0 , 2031.0 , 6.103 , 0.0 , 0.0 , 0.0 , 0.0 , 

69.0 , 4129.23076923 , 4127.17948718 , 4130.76923077 , 4134.87179487 , 4135.8974359 , 4129.23076923 , 4124.61538462 , 4129.74358974 , 4131.79487179 , 4137.43589744 , 4153.84615385 , 4429.74358974 , 4127.69230769 , 4130.76923077 , 2042.0 , 2032.0 , 6.11 , 0.0 , 0.0 , 0.0 , 0.0 , 

70.0 , 4127.17948718 , 4127.17948718 , 4132.82051282 , 4130.76923077 , 4135.8974359 , 4129.74358974 , 4120.51282051 , 4130.25641026 , 4130.25641026 , 4136.41025641 , 4153.84615385 , 4431.28205128 , 4127.17948718 , 4129.23076923 , 2041.0 , 2034.0 , 6.118 , 0.0 , 0.0 , 0.0 , 0.0 , 

71.0 , 4127.17948718 , 4126.66666667 , 4137.94871795 , 4124.1025641 , 4135.8974359 , 4131.28205128 , 4132.30769231 , 4130.25641026 , 4129.23076923 , 4139.48717949 , 4151.28205128 , 4428.71794872 , 4128.71794872 , 4130.25641026 , 2041.0 , 2035.0 , 6.127 , 0.0 , 0.0 , 0.0 , 0.0 , 

72.0 , 4129.23076923 , 4125.64102564 , 4141.53846154 , 4126.15384615 , 4135.8974359 , 4125.64102564 , 4135.38461538 , 4131.28205128 , 4132.30769231 , 4140.51282051 , 4153.33333333 , 4428.71794872 , 4130.76923077 , 4131.79487179 , 2042.0 , 2037.0 , 6.134 , 0.0 , 0.0 , 0.0 , 0.0 , 

73.0 , 4129.23076923 , 4125.12820513 , 4136.41025641 , 4133.33333333 , 4135.8974359 , 4122.56410256 , 4124.61538462 , 4132.82051282 , 4130.76923077 , 4135.38461538 , 4154.87179487 , 4429.23076923 , 4130.25641026 , 4131.28205128 , 2042.0 , 2038.0 , 6.142 , 0.0 , 0.0 , 0.0 , 0.0 , 

74.0 , 4126.66666667 , 4127.17948718 , 4128.71794872 , 4133.84615385 , 4135.8974359 , 4132.30769231 , 4119.48717949 , 4132.30769231 , 4128.71794872 , 4134.35897436 , 4153.84615385 , 4428.71794872 , 4128.71794872 , 4129.74358974 , 2042.0 , 2037.0 , 6.15 , 0.0 , 0.0 , 0.0 , 0.0 , 

75.0 , 4127.69230769 , 4127.17948718 , 4133.84615385 , 4130.76923077 , 4135.8974359 , 4138.46153846 , 4123.58974359 , 4132.82051282 , 4131.28205128 , 4140.0 , 4154.35897436 , 4428.71794872 , 4127.69230769 , 4129.23076923 , 2041.0 , 2035.0 , 6.158 , 0.0 , 0.0 , 0.0 , 0.0 , 

76.0 , 4131.79487179 , 4124.1025641 , 4145.12820513 , 4131.28205128 , 4135.8974359 , 4135.38461538 , 4129.23076923 , 4132.82051282 , 4133.84615385 , 4141.02564103 , 4154.87179487 , 4429.23076923 , 4130.76923077 , 4130.25641026 , 2042.0 , 2035.0 , 6.166 , 0.0 , 0.0 , 0.0 , 0.0 , 

77.0 , 4130.25641026 , 4124.61538462 , 4145.64102564 , 4135.38461538 , 4135.8974359 , 4134.87179487 , 4127.17948718 , 4129.74358974 , 4132.82051282 , 4138.97435897 , 4153.33333333 , 4429.23076923 , 4130.76923077 , 4131.28205128 , 2043.0 , 2035.0 , 6.174 , 0.0 , 0.0 , 0.0 , 0.0 , 

78.0 , 4129.23076923 , 4125.64102564 , 4136.92307692 , 4135.38461538 , 4135.8974359 , 4136.41025641 , 4124.1025641 , 4130.25641026 , 4130.25641026 , 4137.94871795 , 4152.30769231 , 4429.74358974 , 4127.69230769 , 4131.28205128 , 2042.0 , 2035.0 , 6.181 , 0.0 , 0.0 , 0.0 , 0.0 , 

79.0 , 4129.23076923 , 4124.1025641 , 4136.41025641 , 4133.84615385 , 4135.8974359 , 4134.87179487 , 4128.71794872 , 4132.30769231 , 4129.74358974 , 4140.0 , 4152.82051282 , 4429.74358974 , 4128.20512821 , 4131.28205128 , 2044.0 , 2035.0 , 6.189 , 0.0 , 0.0 , 0.0 , 0.0 , 

80.0 , 4126.15384615 , 4125.64102564 , 4138.46153846 , 4133.84615385 , 4135.8974359 , 4135.8974359 , 4132.82051282 , 4130.25641026 , 4130.25641026 , 4140.51282051 , 4153.84615385 , 4428.20512821 , 4128.20512821 , 4130.76923077 , 2044.0 , 2035.0 , 6.197 , 0.0 , 0.0 , 0.0 , 0.0 , 

81.0 , 4126.66666667 , 4129.74358974 , 4132.82051282 , 4136.41025641 , 4135.8974359 , 4136.41025641 , 4131.79487179 , 4129.23076923 , 4129.74358974 , 4136.92307692 , 4153.33333333 , 4427.17948718 , 4125.12820513 , 4130.25641026 , 2043.0 , 2035.0 , 6.205 , 0.0 , 0.0 , 0.0 , 0.0 , 

82.0 , 4128.71794872 , 4128.71794872 , 4121.53846154 , 4134.87179487 , 4135.8974359 , 4135.8974359 , 4133.84615385 , 4130.25641026 , 4129.23076923 , 4135.8974359 , 4152.82051282 , 4427.17948718 , 4126.66666667 , 4132.82051282 , 2042.0 , 2034.0 , 6.213 , 0.0 , 0.0 , 0.0 , 0.0 , 

83.0 , 4126.15384615 , 4125.64102564 , 4127.17948718 , 4134.35897436 , 4135.8974359 , 4135.8974359 , 4135.8974359 , 4129.74358974 , 4130.76923077 , 4140.51282051 , 4153.33333333 , 4429.74358974 , 4130.76923077 , 4132.30769231 , 2043.0 , 2034.0 , 6.222 , 0.0 , 0.0 , 0.0 , 0.0 , 

84.0 , 4126.66666667 , 4127.69230769 , 4137.43589744 , 4134.35897436 , 4135.8974359 , 4135.8974359 , 4133.84615385 , 4130.25641026 , 4130.25641026 , 4141.02564103 , 4153.84615385 , 4431.28205128 , 4129.23076923 , 4131.79487179 , 2041.0 , 2035.0 , 6.232 , 0.0 , 0.0 , 0.0 , 0.0 , 

85.0 , 4130.25641026 , 4127.17948718 , 4142.05128205 , 4134.35897436 , 4135.8974359 , 4135.8974359 , 4135.38461538 , 4131.79487179 , 4128.71794872 , 4135.8974359 , 4153.33333333 , 4433.84615385 , 4127.69230769 , 4133.84615385 , 2040.0 , 2036.0 , 6.237 , 0.0 , 0.0 , 0.0 , 0.0 , 

86.0 , 4127.69230769 , 4125.64102564 , 4141.02564103 , 4134.35897436 , 4135.8974359 , 4135.8974359 , 4134.35897436 , 4130.76923077 , 4131.28205128 , 4136.92307692 , 4153.33333333 , 4433.84615385 , 4128.71794872 , 4133.84615385 , 2041.0 , 2036.0 , 6.244 , 0.0 , 0.0 , 0.0 , 0.0 , 

87.0 , 4125.12820513 , 4127.17948718 , 4146.15384615 , 4133.84615385 , 4136.41025641 , 4135.8974359 , 4133.33333333 , 4132.82051282 , 4133.33333333 , 4140.0 , 4154.87179487 , 4431.28205128 , 4128.71794872 , 4132.30769231 , 2041.0 , 2036.0 , 6.252 , 0.0 , 0.0 , 0.0 , 0.0 , 

88.0 , 4128.71794872 , 4129.74358974 , 4146.15384615 , 4135.38461538 , 4135.8974359 , 4135.8974359 , 4135.8974359 , 4132.82051282 , 4132.30769231 , 4137.43589744 , 4153.33333333 , 4428.71794872 , 4128.71794872 , 4133.84615385 , 2041.0 , 2036.0 , 6.26 , 0.0 , 0.0 , 0.0 , 0.0 , 

89.0 , 4130.25641026 , 4126.66666667 , 4143.58974359 , 4133.33333333 , 4134.35897436 , 4135.8974359 , 4128.71794872 , 4131.28205128 , 4132.82051282 , 4136.41025641 , 4152.30769231 , 4430.76923077 , 4127.69230769 , 4133.84615385 , 2042.0 , 2034.0 , 6.269 , 0.0 , 0.0 , 0.0 , 0.0 , 

90.0 , 4127.69230769 , 4126.15384615 , 4143.58974359 , 4132.82051282 , 4138.46153846 , 4135.8974359 , 4121.02564103 , 4130.25641026 , 4131.79487179 , 4140.0 , 4153.33333333 , 4432.82051282 , 4126.15384615 , 4129.23076923 , 2041.0 , 2033.0 , 6.276 , 0.0 , 0.0 , 0.0 , 0.0 , 

91.0 , 4126.66666667 , 4129.23076923 , 4142.05128205 , 4132.82051282 , 4135.38461538 , 4135.8974359 , 4127.69230769 , 4130.25641026 , 4130.25641026 , 4141.53846154 , 4151.79487179 , 4431.28205128 , 4128.20512821 , 4128.71794872 , 2039.0 , 2032.0 , 6.285 , 0.0 , 0.0 , 0.0 , 0.0 , 

92.0 , 4128.71794872 , 4127.69230769 , 4146.15384615 , 4128.20512821 , 4126.66666667 , 4135.8974359 , 4135.8974359 , 4131.28205128 , 4130.25641026 , 4137.43589744 , 4150.76923077 , 4430.76923077 , 4128.71794872 , 4131.79487179 , 2039.0 , 2032.0 , 6.292 , 0.0 , 0.0 , 0.0 , 0.0 , 

93.0 , 4130.25641026 , 4127.17948718 , 4157.43589744 , 4126.66666667 , 4129.74358974 , 4135.8974359 , 4129.23076923 , 4132.30769231 , 4131.28205128 , 4136.41025641 , 4153.33333333 , 4431.79487179 , 4128.20512821 , 4132.30769231 , 2040.0 , 2033.0 , 6.3 , 0.0 , 0.0 , 0.0 , 0.0 , 

94.0 , 4128.71794872 , 4129.23076923 , 4154.35897436 , 4134.35897436 , 4136.41025641 , 4135.8974359 , 4121.02564103 , 4131.28205128 , 4130.25641026 , 4137.94871795 , 4153.84615385 , 4433.84615385 , 4127.69230769 , 4130.76923077 , 2040.0 , 2033.0 , 6.309 , 0.0 , 0.0 , 0.0 , 0.0 , 

95.0 , 4125.64102564 , 4125.64102564 , 4140.0 , 4136.41025641 , 4132.30769231 , 4135.8974359 , 4122.56410256 , 4130.76923077 , 4130.76923077 , 4137.94871795 , 4151.28205128 , 4434.35897436 , 4125.64102564 , 4130.76923077 , 2039.0 , 2034.0 , 6.315 , 0.0 , 0.0 , 0.0 , 0.0 , 

96.0 , 4126.66666667 , 4123.58974359 , 4144.61538462 , 4124.61538462 , 4130.25641026 , 4135.8974359 , 4121.02564103 , 4131.79487179 , 4131.79487179 , 4137.43589744 , 4152.30769231 , 4430.76923077 , 4126.15384615 , 4131.28205128 , 2040.0 , 2033.0 , 6.323 , 0.0 , 0.0 , 0.0 , 0.0 , 

97.0 , 4128.71794872 , 4126.15384615 , 4150.25641026 , 4122.56410256 , 4135.38461538 , 4135.8974359 , 4122.56410256 , 4132.82051282 , 4131.28205128 , 4137.43589744 , 4154.35897436 , 4427.69230769 , 4128.71794872 , 4130.25641026 , 2039.0 , 2033.0 , 6.335 , 0.0 , 0.0 , 0.0 , 0.0 , 

98.0 , 4126.66666667 , 4128.20512821 , 4144.1025641 , 4131.79487179 , 4134.87179487 , 4135.8974359 , 4132.30769231 , 4131.79487179 , 4131.28205128 , 4138.46153846 , 4153.33333333 , 4431.28205128 , 4127.69230769 , 4129.74358974 , 2041.0 , 2037.0 , 6.339 , 0.0 , 0.0 , 0.0 , 0.0 , 

99.0 , 4126.66666667 , 4126.15384615 , 4144.1025641 , 4136.92307692 , 4132.82051282 , 4135.8974359 , 4134.35897436 , 4128.71794872 , 4129.74358974 , 4139.48717949 , 4150.25641026 , 4434.87179487 , 4127.17948718 , 4129.74358974 , 2042.0 , 2037.0 , 6.347 , 0.0 , 0.0 , 0.0 , 0.0 , 

100.0 , 4128.71794872 , 4124.61538462 , 4151.79487179 , 4129.74358974 , 4133.84615385 , 4135.8974359 , 4127.69230769 , 4129.23076923 , 4129.74358974 , 4139.48717949 , 4147.69230769 , 4434.87179487 , 4128.71794872 , 4128.71794872 , 2041.0 , 2035.0 , 6.355 , 0.0 , 0.0 , 0.0 , 0.0 , 

101.0 , 4127.69230769 , 4123.58974359 , 4147.69230769 , 4125.64102564 , 4133.33333333 , 4135.8974359 , 4125.64102564 , 4131.28205128 , 4131.28205128 , 4137.43589744 , 4150.25641026 , 4434.35897436 , 4127.17948718 , 4128.71794872 , 2041.0 , 2036.0 , 6.363 , 0.0 , 0.0 , 0.0 , 0.0 , 

102.0 , 4126.15384615 , 4125.12820513 , 4145.64102564 , 4132.30769231 , 4134.35897436 , 4135.8974359 , 4126.15384615 , 4130.25641026 , 4130.25641026 , 4136.92307692 , 4154.35897436 , 4434.87179487 , 4126.66666667 , 4129.23076923 , 2043.0 , 2035.0 , 6.371 , 0.0 , 0.0 , 0.0 , 0.0 , 

103.0 , 4128.20512821 , 4127.17948718 , 4142.56410256 , 4133.84615385 , 4134.35897436 , 4135.8974359 , 4124.1025641 , 4128.71794872 , 4129.23076923 , 4137.43589744 , 4151.79487179 , 4433.33333333 , 4126.66666667 , 4129.74358974 , 2044.0 , 2033.0 , 6.378 , 0.0 , 0.0 , 0.0 , 0.0 , 

104.0 , 4128.71794872 , 4127.69230769 , 4138.46153846 , 4129.23076923 , 4133.84615385 , 4135.8974359 , 4124.1025641 , 4131.79487179 , 4131.28205128 , 4138.97435897 , 4148.20512821 , 4434.35897436 , 4126.15384615 , 4131.79487179 , 2044.0 , 2034.0 , 6.386 , 0.0 , 0.0 , 0.0 , 0.0 , 

105.0 , 4127.69230769 , 4125.64102564 , 4137.94871795 , 4129.74358974 , 4134.35897436 , 4135.8974359 , 4123.58974359 , 4130.76923077 , 4132.30769231 , 4138.97435897 , 4150.25641026 , 4434.35897436 , 4127.17948718 , 4131.79487179 , 2045.0 , 2035.0 , 6.395 , 0.0 , 0.0 , 0.0 , 0.0 , 

106.0 , 4127.17948718 , 4124.1025641 , 4142.05128205 , 4133.84615385 , 4134.35897436 , 4135.8974359 , 4122.05128205 , 4129.74358974 , 4132.82051282 , 4136.41025641 , 4152.30769231 , 4432.82051282 , 4128.71794872 , 4130.76923077 , 2046.0 , 2034.0 , 6.402 , 0.0 , 0.0 , 0.0 , 0.0 , 

107.0 , 4128.71794872 , 4126.15384615 , 4138.97435897 , 4133.84615385 , 4133.84615385 , 4135.8974359 , 4123.07692308 , 4132.30769231 , 4133.33333333 , 4135.8974359 , 4150.76923077 , 4434.35897436 , 4127.17948718 , 4129.23076923 , 2044.0 , 2036.0 , 6.411 , 0.0 , 0.0 , 0.0 , 0.0 , 

108.0 , 4128.71794872 , 4125.12820513 , 4133.84615385 , 4131.79487179 , 4133.84615385 , 4135.8974359 , 4129.74358974 , 4133.33333333 , 4133.33333333 , 4137.94871795 , 4149.74358974 , 4437.43589744 , 4125.64102564 , 4128.20512821 , 2044.0 , 2035.0 , 6.418 , 0.0 , 0.0 , 0.0 , 0.0 , 

109.0 , 4127.17948718 , 4123.58974359 , 4135.38461538 , 4133.84615385 , 4133.84615385 , 4135.8974359 , 4138.97435897 , 4131.28205128 , 4131.79487179 , 4136.92307692 , 4152.30769231 , 4436.92307692 , 4128.71794872 , 4129.74358974 , 2045.0 , 2035.0 , 6.426 , 0.0 , 0.0 , 0.0 , 0.0 , 

110.0 , 4129.23076923 , 4127.69230769 , 4144.61538462 , 4134.35897436 , 4133.84615385 , 4135.8974359 , 4135.38461538 , 4131.79487179 , 4132.82051282 , 4133.84615385 , 4154.87179487 , 4435.38461538 , 4130.76923077 , 4133.33333333 , 2043.0 , 2033.0 , 6.437 , 0.0 , 0.0 , 0.0 , 0.0 , 

111.0 , 4133.33333333 , 4129.74358974 , 4149.23076923 , 4128.71794872 , 4133.84615385 , 4135.8974359 , 4121.53846154 , 4132.30769231 , 4133.33333333 , 4135.38461538 , 4152.82051282 , 4435.38461538 , 4128.71794872 , 4132.82051282 , 2042.0 , 2034.0 , 6.442 , 0.0 , 0.0 , 0.0 , 0.0 , 

112.0 , 4129.23076923 , 4124.61538462 , 4148.71794872 , 4127.17948718 , 4133.84615385 , 4135.8974359 , 4122.05128205 , 4131.28205128 , 4133.84615385 , 4138.97435897 , 4151.79487179 , 4435.8974359 , 4128.71794872 , 4130.25641026 , 2041.0 , 2037.0 , 6.449 , 0.0 , 0.0 , 0.0 , 0.0 , 

113.0 , 4127.69230769 , 4123.58974359 , 4153.33333333 , 4135.38461538 , 4133.84615385 , 4135.8974359 , 4128.20512821 , 4130.76923077 , 4132.82051282 , 4139.48717949 , 4153.84615385 , 4434.87179487 , 4130.25641026 , 4129.74358974 , 2039.0 , 2036.0 , 6.457 , 0.0 , 0.0 , 0.0 , 0.0 , 

114.0 , 4130.25641026 , 4126.66666667 , 4149.23076923 , 4137.43589744 , 4133.84615385 , 4135.8974359 , 4124.61538462 , 4131.28205128 , 4130.76923077 , 4136.92307692 , 4155.38461538 , 4434.35897436 , 4130.25641026 , 4131.28205128 , 2040.0 , 2036.0 , 6.465 , 0.0 , 0.0 , 0.0 , 0.0 , 

115.0 , 4129.23076923 , 4127.17948718 , 4132.30769231 , 4132.30769231 , 4133.84615385 , 4135.8974359 , 4128.71794872 , 4131.79487179 , 4131.28205128 , 4135.8974359 , 4153.84615385 , 4437.94871795 , 4129.74358974 , 4129.74358974 , 2039.0 , 2035.0 , 6.474 , 0.0 , 0.0 , 0.0 , 0.0 , 

116.0 , 4127.17948718 , 4127.69230769 , 4115.8974359 , 4132.30769231 , 4133.84615385 , 4135.8974359 , 4137.43589744 , 4131.28205128 , 4132.82051282 , 4135.8974359 , 4153.33333333 , 4436.92307692 , 4126.66666667 , 4127.69230769 , 2039.0 , 2035.0 , 6.481 , 0.0 , 0.0 , 0.0 , 0.0 , 

117.0 , 4129.74358974 , 4127.17948718 , 4107.69230769 , 4134.87179487 , 4133.84615385 , 4135.8974359 , 4132.82051282 , 4130.25641026 , 4132.82051282 , 4134.87179487 , 4153.33333333 , 4431.28205128 , 4123.07692308 , 4129.74358974 , 2038.0 , 2034.0 , 6.489 , 0.0 , 0.0 , 0.0 , 0.0 , 

118.0 , 4129.23076923 , 4125.12820513 , 4097.43589744 , 4132.82051282 , 4133.84615385 , 4135.8974359 , 4122.05128205 , 4130.25641026 , 4131.79487179 , 4136.41025641 , 4152.82051282 , 4432.30769231 , 4126.66666667 , 4130.76923077 , 2038.0 , 2034.0 , 6.497 , 0.0 , 0.0 , 0.0 , 0.0 , 

119.0 , 4127.17948718 , 4126.66666667 , 4099.48717949 , 4131.79487179 , 4133.84615385 , 4135.8974359 , 4119.48717949 , 4130.76923077 , 4130.76923077 , 4138.97435897 , 4151.28205128 , 4437.43589744 , 4130.25641026 , 4129.74358974 , 2039.0 , 2033.0 , 6.505 , 0.0 , 0.0 , 0.0 , 0.0 , 

120.0 , 4127.69230769 , 4126.66666667 , 4105.64102564 , 4133.33333333 , 4133.84615385 , 4135.8974359 , 4125.12820513 , 4129.23076923 , 4129.74358974 , 4135.8974359 , 4151.28205128 , 4435.8974359 , 4126.66666667 , 4129.23076923 , 2039.0 , 2034.0 , 6.512 , 0.0 , 0.0 , 0.0 , 0.0 , 

121.0 , 4125.64102564 , 4124.61538462 , 4111.28205128 , 4130.25641026 , 4133.84615385 , 4135.8974359 , 4127.69230769 , 4130.76923077 , 4129.74358974 , 4133.84615385 , 4152.82051282 , 4433.33333333 , 4124.1025641 , 4128.71794872 , 2040.0 , 2034.0 , 6.52 , 0.0 , 0.0 , 0.0 , 0.0 , 

122.0 , 4127.69230769 , 4127.17948718 , 4114.87179487 , 4125.64102564 , 4133.84615385 , 4135.8974359 , 4122.05128205 , 4132.82051282 , 4130.25641026 , 4136.92307692 , 4153.33333333 , 4435.38461538 , 4127.17948718 , 4128.71794872 , 2039.0 , 2034.0 , 6.528 , 0.0 , 0.0 , 0.0 , 0.0 , 

123.0 , 4131.28205128 , 4128.20512821 , 4114.35897436 , 4130.25641026 , 4133.84615385 , 4136.41025641 , 4127.17948718 , 4132.30769231 , 4130.25641026 , 4136.41025641 , 4153.33333333 , 4434.87179487 , 4127.69230769 , 4131.79487179 , 2039.0 , 2034.0 , 6.541 , 0.0 , 0.0 , 0.0 , 0.0 , 

124.0 , 4130.76923077 , 4126.15384615 , 4104.61538462 , 4134.87179487 , 4133.84615385 , 4136.92307692 , 4141.02564103 , 4131.28205128 , 4129.74358974 , 4134.35897436 , 4152.82051282 , 4432.30769231 , 4124.1025641 , 4130.76923077 , 2039.0 , 2035.0 , 6.545 , 0.0 , 0.0 , 0.0 , 0.0 , 

125.0 , 4129.23076923 , 4127.69230769 , 4101.53846154 , 4132.30769231 , 4133.84615385 , 4135.38461538 , 4134.35897436 , 4132.82051282 , 4131.79487179 , 4138.46153846 , 4151.28205128 , 4432.82051282 , 4123.58974359 , 4130.25641026 , 2041.0 , 2035.0 , 6.553 , 0.0 , 0.0 , 0.0 , 0.0 , 

126.0 , 4127.17948718 , 4128.71794872 , 4100.51282051 , 4133.84615385 , 4133.84615385 , 4135.38461538 , 4121.53846154 , 4133.33333333 , 4132.30769231 , 4140.0 , 4151.28205128 , 4433.33333333 , 4126.15384615 , 4130.25641026 , 2040.0 , 2035.0 , 6.56 , 0.0 , 0.0 , 0.0 , 0.0 , 

127.0 , 4127.69230769 , 4125.12820513 , 4102.05128205 , 4135.8974359 , 4133.84615385 , 4137.94871795 , 4125.12820513 , 4131.79487179 , 4130.25641026 , 4136.92307692 , 4151.79487179 , 4433.84615385 , 4128.20512821 , 4128.20512821 , 2041.0 , 2036.0 , 6.567 , 0.0 , 0.0 , 0.0 , 0.0 , 

128.0 , 4131.28205128 , 4125.12820513 , 4112.82051282 , 4130.25641026 , 4133.84615385 , 4132.30769231 , 4127.69230769 , 4129.23076923 , 4129.23076923 , 4138.46153846 , 4153.33333333 , 4434.87179487 , 4127.17948718 , 4128.20512821 , 2041.0 , 2036.0 , 6.576 , 0.0 , 0.0 , 0.0 , 0.0 , 

0.0 , 4127.17948718 , 4127.17948718 , 4125.64102564 , 4127.69230769 , 4133.84615385 , 4121.02564103 , 4120.51282051 , 4130.25641026 , 4129.74358974 , 4141.53846154 , 4153.84615385 , 4434.35897436 , 4127.69230769 , 4129.74358974 , 2041.0 , 2036.0 , 6.583 , 0.0 , 0.0 , 0.0 , 0.0 , 

1.0 , 4124.1025641 , 4126.66666667 , 4130.76923077 , 4133.33333333 , 4133.84615385 , 4124.1025641 , 4120.51282051 , 4132.30769231 , 4131.28205128 , 4139.48717949 , 4153.33333333 , 4432.82051282 , 4128.71794872 , 4130.25641026 , 2042.0 , 2034.0 , 6.591 , 0.0 , 0.0 , 0.0 , 0.0 , 

2.0 , 4129.74358974 , 4127.69230769 , 4135.8974359 , 4132.82051282 , 4133.84615385 , 4133.84615385 , 4123.07692308 , 4132.82051282 , 4134.35897436 , 4139.48717949 , 4153.84615385 , 4433.33333333 , 4129.74358974 , 4130.25641026 , 2042.0 , 2035.0 , 6.599 , 0.0 , 0.0 , 0.0 , 0.0 , 

3.0 , 4129.74358974 , 4130.25641026 , 4145.64102564 , 4125.64102564 , 4133.84615385 , 4131.79487179 , 4125.12820513 , 4132.30769231 , 4133.84615385 , 4140.0 , 4155.38461538 , 4435.38461538 , 4128.71794872 , 4129.74358974 , 2041.0 , 2034.0 , 6.607 , 0.0 , 0.0 , 0.0 , 0.0 , 

4.0 , 4126.15384615 , 4130.76923077 , 4150.76923077 , 4126.15384615 , 4133.84615385 , 4127.69230769 , 4129.23076923 , 4132.82051282 , 4135.8974359 , 4137.94871795 , 4154.87179487 , 4435.38461538 , 4127.69230769 , 4130.25641026 , 2041.0 , 2032.0 , 6.615 , 0.0 , 0.0 , 0.0 , 0.0 , 

5.0 , 4130.25641026 , 4128.20512821 , 4150.25641026 , 4133.84615385 , 4133.84615385 , 4130.25641026 , 4126.66666667 , 4133.33333333 , 4138.97435897 , 4137.94871795 , 4152.30769231 , 4435.38461538 , 4129.23076923 , 4131.79487179 , 2041.0 , 2032.0 , 6.624 , 0.0 , 0.0 , 0.0 , 0.0 , 

6.0 , 4129.23076923 , 4126.66666667 , 4147.69230769 , 4135.38461538 , 4133.84615385 , 4129.74358974 , 4120.0 , 4132.82051282 , 4135.38461538 , 4139.48717949 , 4153.33333333 , 4434.35897436 , 4129.74358974 , 4131.79487179 , 2043.0 , 2033.0 , 6.631 , 0.0 , 0.0 , 0.0 , 0.0 , 

7.0 , 4125.64102564 , 4126.66666667 , 4150.25641026 , 4134.87179487 , 4133.84615385 , 4128.71794872 , 4121.02564103 , 4131.79487179 , 4129.74358974 , 4141.02564103 , 4154.35897436 , 4431.28205128 , 4129.74358974 , 4128.20512821 , 2042.0 , 2033.0 , 6.643 , 0.0 , 0.0 , 0.0 , 0.0 , 

8.0 , 4128.71794872 , 4125.64102564 , 4146.66666667 , 4134.87179487 , 4133.84615385 , 4130.25641026 , 4124.61538462 , 4129.74358974 , 4129.23076923 , 4140.0 , 4152.82051282 , 4430.76923077 , 4128.20512821 , 4128.71794872 , 2043.0 , 2032.0 , 6.646 , 0.0 , 0.0 , 0.0 , 0.0 , 

9.0 , 4127.69230769 , 4127.17948718 , 4136.92307692 , 4131.79487179 , 4133.84615385 , 4130.25641026 , 4123.58974359 , 4129.74358974 , 4131.28205128 , 4138.46153846 , 4152.30769231 , 4431.28205128 , 4126.15384615 , 4131.79487179 , 2043.0 , 2030.0 , 6.654 , 0.0 , 0.0 , 0.0 , 0.0 , 

10.0 , 4125.64102564 , 4128.71794872 , 4121.53846154 , 4131.79487179 , 4133.84615385 , 4130.25641026 , 4124.1025641 , 4131.79487179 , 4131.28205128 , 4137.94871795 , 4151.79487179 , 4430.25641026 , 4128.20512821 , 4130.76923077 , 2044.0 , 2031.0 , 6.662 , 0.0 , 0.0 , 0.0 , 0.0 , 

11.0 , 4128.71794872 , 4127.17948718 , 4114.87179487 , 4134.35897436 , 4133.84615385 , 4129.74358974 , 4126.66666667 , 4130.76923077 , 4131.79487179 , 4135.8974359 , 4151.79487179 , 4432.30769231 , 4128.71794872 , 4129.23076923 , 2046.0 , 2034.0 , 6.67 , 0.0 , 0.0 , 0.0 , 0.0 , 

12.0 , 4129.74358974 , 4125.64102564 , 4121.02564103 , 4133.33333333 , 4133.84615385 , 4129.23076923 , 4125.12820513 , 4127.69230769 , 4130.25641026 , 4134.35897436 , 4152.82051282 , 4433.84615385 , 4126.66666667 , 4130.76923077 , 2045.0 , 2035.0 , 6.678 , 0.0 , 0.0 , 0.0 , 0.0 , 

13.0 , 4127.69230769 , 4127.17948718 , 4131.28205128 , 4132.30769231 , 4133.84615385 , 4131.79487179 , 4121.02564103 , 4129.23076923 , 4130.76923077 , 4137.94871795 , 4154.87179487 , 4431.28205128 , 4128.71794872 , 4132.30769231 , 2045.0 , 2038.0 , 6.686 , 0.0 , 0.0 , 0.0 , 0.0 , 

14.0 , 4128.71794872 , 4128.20512821 , 4126.66666667 , 4132.82051282 , 4133.84615385 , 4128.71794872 , 4124.1025641 , 4131.28205128 , 4129.74358974 , 4138.97435897 , 4154.87179487 , 4430.76923077 , 4129.74358974 , 4131.28205128 , 2045.0 , 2039.0 , 6.694 , 0.0 , 0.0 , 0.0 , 0.0 , 

15.0 , 4129.23076923 , 4126.66666667 , 4125.12820513 , 4132.30769231 , 4133.84615385 , 4122.56410256 , 4129.74358974 , 4130.25641026 , 4129.74358974 , 4135.8974359 , 4153.33333333 , 4435.8974359 , 4127.69230769 , 4129.74358974 , 2045.0 , 2040.0 , 6.702 , 0.0 , 0.0 , 0.0 , 0.0 , 

16.0 , 4126.66666667 , 4125.64102564 , 4130.76923077 , 4130.25641026 , 4133.84615385 , 4127.69230769 , 4128.71794872 , 4131.28205128 , 4131.28205128 , 4136.92307692 , 4152.30769231 , 4436.41025641 , 4128.71794872 , 4128.20512821 , 2045.0 , 2042.0 , 6.709 , 0.0 , 0.0 , 0.0 , 0.0 , 

17.0 , 4126.66666667 , 4125.64102564 , 4133.33333333 , 4131.79487179 , 4133.84615385 , 4135.38461538 , 4127.17948718 , 4133.84615385 , 4132.82051282 , 4139.48717949 , 4151.28205128 , 4432.30769231 , 4130.25641026 , 4129.74358974 , 2044.0 , 2041.0 , 6.717 , 0.0 , 0.0 , 0.0 , 0.0 , 

18.0 , 4129.23076923 , 4126.66666667 , 4134.87179487 , 4134.35897436 , 4133.84615385 , 4128.20512821 , 4124.61538462 , 4134.35897436 , 4132.82051282 , 4137.94871795 , 4152.30769231 , 4431.28205128 , 4128.71794872 , 4129.74358974 , 2045.0 , 2042.0 , 6.725 , 0.0 , 0.0 , 0.0 , 0.0 , 

19.0 , 4127.69230769 , 4128.71794872 , 4146.15384615 , 4134.87179487 , 4133.84615385 , 4122.56410256 , 4126.15384615 , 4134.35897436 , 4131.28205128 , 4138.46153846 , 4153.84615385 , 4434.87179487 , 4129.74358974 , 4130.25641026 , 2044.0 , 2040.0 , 6.733 , 0.0 , 0.0 , 0.0 , 0.0 , 

20.0 , 4124.61538462 , 4128.71794872 , 4150.76923077 , 4134.87179487 , 4133.84615385 , 4129.74358974 , 4135.8974359 , 4130.76923077 , 4129.74358974 , 4140.0 , 4152.82051282 , 4434.35897436 , 4128.71794872 , 4132.82051282 , 2045.0 , 2039.0 , 6.741 , 0.0 , 0.0 , 0.0 , 0.0 , 

21.0 , 4125.12820513 , 4128.20512821 , 4144.1025641 , 4137.43589744 , 4133.84615385 , 4130.76923077 , 4135.38461538 , 4129.23076923 , 4130.76923077 , 4134.87179487 , 4152.30769231 , 4432.30769231 , 4126.15384615 , 4132.30769231 , 2045.0 , 2037.0 , 6.749 , 0.0 , 0.0 , 0.0 , 0.0 , 

22.0 , 4127.17948718 , 4129.23076923 , 4141.53846154 , 4138.46153846 , 4133.84615385 , 4126.66666667 , 4123.07692308 , 4132.30769231 , 4130.25641026 , 4130.25641026 , 4152.82051282 , 4432.82051282 , 4126.66666667 , 4128.71794872 , 2044.0 , 2036.0 , 6.757 , 0.0 , 0.0 , 0.0 , 0.0 , 

23.0 , 4127.69230769 , 4128.71794872 , 4136.92307692 , 4137.94871795 , 4133.84615385 , 4128.20512821 , 4118.46153846 , 4133.33333333 , 4129.23076923 , 4135.38461538 , 4152.30769231 , 4433.33333333 , 4127.69230769 , 4129.23076923 , 2044.0 , 2038.0 , 6.765 , 0.0 , 0.0 , 0.0 , 0.0 , 

24.0 , 4129.23076923 , 4125.12820513 , 4134.87179487 , 4135.8974359 , 4134.35897436 , 4129.74358974 , 4124.61538462 , 4129.23076923 , 4130.25641026 , 4138.97435897 , 4151.79487179 , 4433.33333333 , 4127.69230769 , 4131.28205128 , 2044.0 , 2036.0 , 6.772 , 0.0 , 0.0 , 0.0 , 0.0 , 

25.0 , 4128.20512821 , 4124.1025641 , 4133.33333333 , 4131.79487179 , 4134.35897436 , 4128.71794872 , 4130.25641026 , 4128.20512821 , 4130.76923077 , 4135.8974359 , 4153.33333333 , 4434.87179487 , 4128.71794872 , 4131.28205128 , 2042.0 , 2036.0 , 6.78 , 0.0 , 0.0 , 0.0 , 0.0 , 

26.0 , 4125.64102564 , 4126.15384615 , 4129.74358974 , 4130.76923077 , 4133.84615385 , 4128.71794872 , 4126.15384615 , 4131.28205128 , 4130.76923077 , 4137.43589744 , 4154.35897436 , 4435.8974359 , 4127.69230769 , 4130.25641026 , 2042.0 , 2036.0 , 6.788 , 0.0 , 0.0 , 0.0 , 0.0 , 

27.0 , 4127.17948718 , 4125.64102564 , 4120.51282051 , 4132.82051282 , 4134.87179487 , 4129.74358974 , 4120.0 , 4132.82051282 , 4131.28205128 , 4138.46153846 , 4152.30769231 , 4434.87179487 , 4125.64102564 , 4130.25641026 , 2040.0 , 2036.0 , 6.796 , 0.0 , 0.0 , 0.0 , 0.0 , 

28.0 , 4128.71794872 , 4125.12820513 , 4121.53846154 , 4131.28205128 , 4134.35897436 , 4129.23076923 , 4127.17948718 , 4132.30769231 , 4131.79487179 , 4133.84615385 , 4151.28205128 , 4434.87179487 , 4129.23076923 , 4131.28205128 , 2039.0 , 2035.0 , 6.805 , 0.0 , 0.0 , 0.0 , 0.0 , 

29.0 , 4129.74358974 , 4125.64102564 , 4127.17948718 , 4131.79487179 , 4131.79487179 , 4129.23076923 , 4134.87179487 , 4131.28205128 , 4131.28205128 , 4133.33333333 , 4152.30769231 , 4433.84615385 , 4129.74358974 , 4130.25641026 , 2040.0 , 2035.0 , 6.813 , 0.0 , 0.0 , 0.0 , 0.0 , 

30.0 , 4129.23076923 , 4126.15384615 , 4131.28205128 , 4132.82051282 , 4132.30769231 , 4129.23076923 , 4129.23076923 , 4133.33333333 , 4130.25641026 , 4136.92307692 , 4152.30769231 , 4433.84615385 , 4126.66666667 , 4129.74358974 , 2039.0 , 2035.0 , 6.82 , 0.0 , 0.0 , 0.0 , 0.0 , 

31.0 , 4127.69230769 , 4126.66666667 , 4128.20512821 , 4132.82051282 , 4134.35897436 , 4129.23076923 , 4128.20512821 , 4132.82051282 , 4128.71794872 , 4135.8974359 , 4152.30769231 , 4431.79487179 , 4127.17948718 , 4131.79487179 , 2038.0 , 2036.0 , 6.828 , 0.0 , 0.0 , 0.0 , 0.0 , 

32.0 , 4126.66666667 , 4126.66666667 , 4131.28205128 , 4132.30769231 , 4134.87179487 , 4128.71794872 , 4129.74358974 , 4128.71794872 , 4128.20512821 , 4136.92307692 , 4153.33333333 , 4433.33333333 , 4130.25641026 , 4132.82051282 , 2040.0 , 2035.0 , 6.835 , 0.0 , 0.0 , 0.0 , 0.0 , 

33.0 , 4127.69230769 , 4126.15384615 , 4136.92307692 , 4132.82051282 , 4134.35897436 , 4129.23076923 , 4124.1025641 , 4129.23076923 , 4129.74358974 , 4143.58974359 , 4152.82051282 , 4436.92307692 , 4129.23076923 , 4130.76923077 , 2039.0 , 2035.0 , 6.847 , 0.0 , 0.0 , 0.0 , 0.0 , 

34.0 , 4128.71794872 , 4124.1025641 , 4142.56410256 , 4134.87179487 , 4134.35897436 , 4131.28205128 , 4122.05128205 , 4131.79487179 , 4136.41025641 , 4144.1025641 , 4153.84615385 , 4435.8974359 , 4128.71794872 , 4130.76923077 , 2041.0 , 2035.0 , 6.852 , 0.0 , 0.0 , 0.0 , 0.0 , 

35.0 , 4129.23076923 , 4125.64102564 , 4146.66666667 , 4132.82051282 , 4133.33333333 , 4130.76923077 , 4123.58974359 , 4130.76923077 , 4137.43589744 , 4140.0 , 4154.35897436 , 4431.28205128 , 4129.74358974 , 4130.76923077 , 2042.0 , 2034.0 , 6.859 , 0.0 , 0.0 , 0.0 , 0.0 , 

36.0 , 4127.17948718 , 4128.71794872 , 4149.23076923 , 4132.82051282 , 4132.82051282 , 4128.71794872 , 4124.61538462 , 4131.28205128 , 4131.28205128 , 4139.48717949 , 4149.23076923 , 4433.84615385 , 4129.23076923 , 4131.28205128 , 2041.0 , 2030.0 , 6.867 , 0.0 , 0.0 , 0.0 , 0.0 , 

37.0 , 4124.1025641 , 4127.69230769 , 4148.20512821 , 4135.38461538 , 4133.33333333 , 4128.71794872 , 4130.76923077 , 4131.28205128 , 4128.20512821 , 4139.48717949 , 4147.69230769 , 4437.43589744 , 4129.23076923 , 4129.74358974 , 2040.0 , 2031.0 , 6.875 , 0.0 , 0.0 , 0.0 , 0.0 , 

38.0 , 4126.15384615 , 4124.1025641 , 4147.17948718 , 4135.8974359 , 4132.82051282 , 4130.25641026 , 4130.76923077 , 4130.76923077 , 4132.82051282 , 4138.46153846 , 4153.84615385 , 4436.41025641 , 4128.71794872 , 4128.20512821 , 2042.0 , 2030.0 , 6.883 , 0.0 , 0.0 , 0.0 , 0.0 , 

39.0 , 4128.20512821 , 4125.12820513 , 4147.69230769 , 4135.8974359 , 4132.82051282 , 4130.25641026 , 4124.1025641 , 4131.28205128 , 4133.84615385 , 4136.92307692 , 4155.38461538 , 4434.87179487 , 4126.15384615 , 4130.25641026 , 2041.0 , 2031.0 , 6.891 , 0.0 , 0.0 , 0.0 , 0.0 , 

40.0 , 4125.64102564 , 4127.69230769 , 4140.51282051 , 4135.38461538 , 4133.33333333 , 4129.74358974 , 4125.64102564 , 4130.25641026 , 4130.76923077 , 4138.46153846 , 4152.30769231 , 4435.38461538 , 4126.66666667 , 4131.28205128 , 2042.0 , 2031.0 , 6.899 , 0.0 , 0.0 , 0.0 , 0.0 , 

41.0 , 4126.66666667 , 4125.12820513 , 4138.46153846 , 4135.8974359 , 4133.33333333 , 4130.25641026 , 4125.12820513 , 4128.71794872 , 4129.74358974 , 4140.51282051 , 4152.82051282 , 4434.87179487 , 4128.20512821 , 4128.71794872 , 2041.0 , 2031.0 , 6.907 , 0.0 , 0.0 , 0.0 , 0.0 , 

42.0 , 4130.25641026 , 4125.64102564 , 4140.51282051 , 4135.38461538 , 4133.33333333 , 4130.25641026 , 4122.56410256 , 4132.30769231 , 4130.76923077 , 4139.48717949 , 4154.35897436 , 4433.84615385 , 4126.66666667 , 4129.74358974 , 2043.0 , 2033.0 , 6.915 , 0.0 , 0.0 , 0.0 , 0.0 , 

43.0 , 4129.23076923 , 4130.25641026 , 4140.0 , 4132.82051282 , 4133.33333333 , 4130.25641026 , 4128.20512821 , 4133.33333333 , 4130.25641026 , 4137.94871795 , 4152.82051282 , 4434.87179487 , 4126.15384615 , 4131.79487179 , 2044.0 , 2035.0 , 6.922 , 0.0 , 0.0 , 0.0 , 0.0 , 

44.0 , 4127.17948718 , 4127.17948718 , 4140.0 , 4131.79487179 , 4133.33333333 , 4130.25641026 , 4132.30769231 , 4129.23076923 , 4130.25641026 , 4138.97435897 , 4151.79487179 , 4436.41025641 , 4127.69230769 , 4130.76923077 , 2043.0 , 2035.0 , 6.93 , 0.0 , 0.0 , 0.0 , 0.0 , 

45.0 , 4129.74358974 , 4124.61538462 , 4154.87179487 , 4133.33333333 , 4133.33333333 , 4130.25641026 , 4133.33333333 , 4130.25641026 , 4132.82051282 , 4141.02564103 , 4152.82051282 , 4435.8974359 , 4128.71794872 , 4130.76923077 , 2044.0 , 2034.0 , 6.938 , 0.0 , 0.0 , 0.0 , 0.0 , 

46.0 , 4130.76923077 , 4127.69230769 , 4164.1025641 , 4134.35897436 , 4133.33333333 , 4130.25641026 , 4134.35897436 , 4132.82051282 , 4133.33333333 , 4138.46153846 , 4154.35897436 , 4435.38461538 , 4128.71794872 , 4131.28205128 , 2043.0 , 2034.0 , 6.949 , 0.0 , 0.0 , 0.0 , 0.0 , 

47.0 , 4128.20512821 , 4125.64102564 , 4159.48717949 , 4132.30769231 , 4133.33333333 , 4130.25641026 , 4134.35897436 , 4131.28205128 , 4132.82051282 , 4137.43589744 , 4153.33333333 , 4439.48717949 , 4130.76923077 , 4132.30769231 , 2043.0 , 2034.0 , 6.954 , 0.0 , 0.0 , 0.0 , 0.0 , 

48.0 , 4128.20512821 , 4124.1025641 , 4157.94871795 , 4130.76923077 , 4133.33333333 , 4130.25641026 , 4135.8974359 , 4129.23076923 , 4132.30769231 , 4138.97435897 , 4151.28205128 , 4440.0 , 4130.76923077 , 4133.84615385 , 2044.0 , 2035.0 , 6.964 , 0.0 , 0.0 , 0.0 , 0.0 , 

49.0 , 4128.20512821 , 4130.76923077 , 4165.12820513 , 4132.30769231 , 4133.33333333 , 4130.25641026 , 4133.33333333 , 4130.25641026 , 4131.28205128 , 4140.0 , 4153.33333333 , 4435.38461538 , 4128.71794872 , 4130.25641026 , 2043.0 , 2035.0 , 6.97 , 0.0 , 0.0 , 0.0 , 0.0 , 

50.0 , 4126.15384615 , 4129.74358974 , 4162.56410256 , 4134.87179487 , 4133.33333333 , 4130.25641026 , 4121.53846154 , 4132.30769231 , 4129.23076923 , 4139.48717949 , 4153.84615385 , 4436.41025641 , 4126.66666667 , 4129.23076923 , 2042.0 , 2035.0 , 6.977 , 0.0 , 0.0 , 0.0 , 0.0 , 

51.0 , 4126.66666667 , 4122.56410256 , 4160.0 , 4135.38461538 , 4133.33333333 , 4130.25641026 , 4123.58974359 , 4131.79487179 , 4131.28205128 , 4138.46153846 , 4150.76923077 , 4440.51282051 , 4125.64102564 , 4135.38461538 , 2042.0 , 2036.0 , 6.985 , 0.0 , 0.0 , 0.0 , 0.0 , 

52.0 , 4128.20512821 , 4126.66666667 , 4161.53846154 , 4134.35897436 , 4133.33333333 , 4130.25641026 , 4136.92307692 , 4129.74358974 , 4132.82051282 , 4137.94871795 , 4150.76923077 , 4440.0 , 4126.66666667 , 4132.82051282 , 2042.0 , 2035.0 , 6.993 , 0.0 , 0.0 , 0.0 , 0.0 , 

53.0 , 4126.15384615 , 4131.28205128 , 4161.53846154 , 4136.41025641 , 4133.33333333 , 4130.25641026 , 4134.87179487 , 4131.28205128 , 4132.30769231 , 4138.46153846 , 4153.33333333 , 4439.48717949 , 4128.20512821 , 4127.69230769 , 2043.0 , 2034.0 , 7.001 , 0.0 , 0.0 , 0.0 , 0.0 , 

54.0 , 4125.64102564 , 4128.20512821 , 4158.46153846 , 4135.8974359 , 4133.33333333 , 4130.25641026 , 4121.53846154 , 4131.28205128 , 4131.28205128 , 4140.51282051 , 4153.33333333 , 4441.02564103 , 4128.71794872 , 4130.76923077 , 2044.0 , 2034.0 , 7.009 , 0.0 , 0.0 , 0.0 , 0.0 , 

55.0 , 4127.69230769 , 4124.1025641 , 4153.33333333 , 4133.84615385 , 4133.33333333 , 4130.25641026 , 4120.51282051 , 4129.23076923 , 4129.74358974 , 4139.48717949 , 4153.84615385 , 4441.53846154 , 4127.17948718 , 4131.79487179 , 2042.0 , 2033.0 , 7.017 , 0.0 , 0.0 , 0.0 , 0.0 , 

56.0 , 4128.71794872 , 4125.12820513 , 4146.15384615 , 4134.87179487 , 4133.33333333 , 4130.25641026 , 4132.30769231 , 4127.69230769 , 4128.20512821 , 4136.41025641 , 4153.84615385 , 4438.97435897 , 4125.64102564 , 4127.69230769 , 2044.0 , 2033.0 , 7.025 , 0.0 , 0.0 , 0.0 , 0.0 , 

57.0 , 4127.69230769 , 4127.69230769 , 4144.61538462 , 4135.38461538 , 4133.33333333 , 4130.25641026 , 4135.38461538 , 4128.20512821 , 4129.23076923 , 4136.92307692 , 4152.82051282 , 4438.97435897 , 4127.17948718 , 4128.71794872 , 2045.0 , 2031.0 , 7.032 , 0.0 , 0.0 , 0.0 , 0.0 , 

58.0 , 4126.15384615 , 4129.23076923 , 4150.25641026 , 4134.87179487 , 4133.33333333 , 4130.25641026 , 4124.61538462 , 4130.25641026 , 4131.79487179 , 4136.92307692 , 4151.79487179 , 4441.02564103 , 4128.20512821 , 4132.30769231 , 2045.0 , 2033.0 , 7.04 , 0.0 , 0.0 , 0.0 , 0.0 , 

59.0 , 4125.64102564 , 4126.15384615 , 4143.58974359 , 4133.84615385 , 4133.33333333 , 4130.25641026 , 4119.48717949 , 4130.25641026 , 4130.76923077 , 4134.87179487 , 4153.33333333 , 4442.05128205 , 4127.69230769 , 4130.76923077 , 2046.0 , 2036.0 , 7.052 , 0.0 , 0.0 , 0.0 , 0.0 , 

60.0 , 4129.74358974 , 4123.07692308 , 4131.28205128 , 4134.87179487 , 4133.33333333 , 4130.25641026 , 4124.61538462 , 4127.69230769 , 4129.74358974 , 4134.87179487 , 4155.38461538 , 4440.0 , 4126.66666667 , 4128.20512821 , 2046.0 , 2036.0 , 7.056 , 0.0 , 0.0 , 0.0 , 0.0 , 

61.0 , 4131.79487179 , 4126.66666667 , 4129.23076923 , 4134.87179487 , 4133.33333333 , 4130.25641026 , 4126.66666667 , 4128.71794872 , 4130.76923077 , 4135.8974359 , 4150.76923077 , 4438.97435897 , 4126.15384615 , 4129.23076923 , 2046.0 , 2033.0 , 7.064 , 0.0 , 0.0 , 0.0 , 0.0 , 

62.0 , 4127.69230769 , 4130.25641026 , 4137.94871795 , 4133.84615385 , 4133.33333333 , 4130.25641026 , 4126.15384615 , 4131.79487179 , 4130.76923077 , 4135.8974359 , 4146.66666667 , 4440.51282051 , 4126.15384615 , 4131.28205128 , 2046.0 , 2030.0 , 7.072 , 0.0 , 0.0 , 0.0 , 0.0 , 

63.0 , 4125.12820513 , 4127.69230769 , 4135.8974359 , 4135.8974359 , 4133.33333333 , 4130.25641026 , 4127.69230769 , 4130.25641026 , 4129.23076923 , 4134.87179487 , 4150.25641026 , 4442.56410256 , 4127.17948718 , 4130.25641026 , 2046.0 , 2031.0 , 7.08 , 0.0 , 0.0 , 0.0 , 0.0 , 

64.0 , 4130.25641026 , 4124.1025641 , 4136.92307692 , 4132.30769231 , 4133.33333333 , 4130.25641026 , 4125.64102564 , 4130.76923077 , 4130.76923077 , 4136.41025641 , 4153.33333333 , 4444.1025641 , 4128.71794872 , 4128.71794872 , 2046.0 , 2033.0 , 7.088 , 0.0 , 0.0 , 0.0 , 0.0 , 

65.0 , 4132.30769231 , 4126.15384615 , 4149.74358974 , 4125.64102564 , 4133.33333333 , 4130.25641026 , 4125.64102564 , 4131.79487179 , 4132.30769231 , 4137.43589744 , 4149.23076923 , 4445.12820513 , 4129.74358974 , 4131.28205128 , 2044.0 , 2036.0 , 7.096 , 0.0 , 0.0 , 0.0 , 0.0 , 

66.0 , 4127.17948718 , 4128.20512821 , 4158.46153846 , 4129.74358974 , 4133.33333333 , 4130.25641026 , 4125.12820513 , 4129.23076923 , 4129.74358974 , 4137.43589744 , 4150.25641026 , 4444.61538462 , 4130.76923077 , 4132.82051282 , 2042.0 , 2038.0 , 7.103 , 0.0 , 0.0 , 0.0 , 0.0 , 

67.0 , 4126.15384615 , 4126.66666667 , 4144.61538462 , 4138.97435897 , 4133.33333333 , 4130.25641026 , 4123.58974359 , 4127.69230769 , 4128.71794872 , 4136.41025641 , 4152.30769231 , 4444.1025641 , 4128.20512821 , 4131.28205128 , 2041.0 , 2038.0 , 7.115 , 0.0 , 0.0 , 0.0 , 0.0 , 

68.0 , 4128.20512821 , 4124.1025641 , 4127.69230769 , 4135.38461538 , 4133.33333333 , 4130.25641026 , 4129.23076923 , 4127.69230769 , 4130.25641026 , 4135.8974359 , 4149.23076923 , 4443.07692308 , 4123.07692308 , 4131.28205128 , 2040.0 , 2038.0 , 7.119 , 0.0 , 0.0 , 0.0 , 0.0 , 

69.0 , 4126.15384615 , 4125.64102564 , 4114.87179487 , 4130.25641026 , 4133.33333333 , 4130.25641026 , 4132.82051282 , 4127.17948718 , 4128.71794872 , 4135.38461538 , 4146.66666667 , 4440.51282051 , 4120.51282051 , 4130.76923077 , 2040.0 , 2039.0 , 7.127 , 0.0 , 0.0 , 0.0 , 0.0 , 

70.0 , 4128.20512821 , 4128.71794872 , 4104.61538462 , 4131.28205128 , 4133.33333333 , 4130.25641026 , 4129.74358974 , 4128.20512821 , 4128.71794872 , 4132.82051282 , 4148.20512821 , 4441.02564103 , 4124.61538462 , 4130.25641026 , 2041.0 , 2039.0 , 7.135 , 0.0 , 0.0 , 0.0 , 0.0 , 

71.0 , 4131.28205128 , 4128.71794872 , 4105.12820513 , 4133.84615385 , 4133.33333333 , 4130.25641026 , 4127.69230769 , 4128.71794872 , 4129.74358974 , 4132.82051282 , 4150.25641026 , 4442.56410256 , 4127.69230769 , 4129.74358974 , 2042.0 , 2037.0 , 7.143 , 0.0 , 0.0 , 0.0 , 0.0 , 

72.0 , 4126.66666667 , 4127.17948718 , 4115.38461538 , 4133.84615385 , 4133.33333333 , 4130.25641026 , 4129.74358974 , 4131.28205128 , 4128.71794872 , 4136.92307692 , 4150.76923077 , 4440.0 , 4127.69230769 , 4129.23076923 , 2043.0 , 2038.0 , 7.154 , 0.0 , 0.0 , 0.0 , 0.0 , 

73.0 , 4126.15384615 , 4127.17948718 , 4122.56410256 , 4126.15384615 , 4133.33333333 , 4130.25641026 , 4130.25641026 , 4134.87179487 , 4129.23076923 , 4138.97435897 , 4151.79487179 , 4438.46153846 , 4127.17948718 , 4129.23076923 , 2041.0 , 2035.0 , 7.159 , 0.0 , 0.0 , 0.0 , 0.0 , 

74.0 , 4130.76923077 , 4125.64102564 , 4125.64102564 , 4125.64102564 , 4133.33333333 , 4130.25641026 , 4129.23076923 , 4133.84615385 , 4134.87179487 , 4138.46153846 , 4154.35897436 , 4442.05128205 , 4127.69230769 , 4132.30769231 , 2042.0 , 2036.0 , 7.166 , 0.0 , 0.0 , 0.0 , 0.0 , 

75.0 , 4127.17948718 , 4124.61538462 , 4127.69230769 , 4133.33333333 , 4133.33333333 , 4130.25641026 , 4126.15384615 , 4130.25641026 , 4134.35897436 , 4137.94871795 , 4152.82051282 , 4443.07692308 , 4127.69230769 , 4132.82051282 , 2041.0 , 2036.0 , 7.174 , 0.0 , 0.0 , 0.0 , 0.0 , 

76.0 , 4124.61538462 , 4126.66666667 , 4125.64102564 , 4134.87179487 , 4133.33333333 , 4130.25641026 , 4124.1025641 , 4133.33333333 , 4129.23076923 , 4138.97435897 , 4151.79487179 , 4440.51282051 , 4128.20512821 , 4129.23076923 , 2040.0 , 2036.0 , 7.182 , 0.0 , 0.0 , 0.0 , 0.0 , 

77.0 , 4129.23076923 , 4127.17948718 , 4119.48717949 , 4132.30769231 , 4133.33333333 , 4130.25641026 , 4129.74358974 , 4133.84615385 , 4128.20512821 , 4138.97435897 , 4152.82051282 , 4440.0 , 4128.20512821 , 4128.20512821 , 2039.0 , 2035.0 , 7.19 , 0.0 , 0.0 , 0.0 , 0.0 , 

78.0 , 4127.17948718 , 4125.12820513 , 4112.30769231 , 4134.87179487 , 4133.33333333 , 4130.25641026 , 4131.28205128 , 4127.69230769 , 4129.74358974 , 4135.8974359 , 4150.76923077 , 4440.51282051 , 4126.15384615 , 4130.76923077 , 2041.0 , 2033.0 , 7.198 , 0.0 , 0.0 , 0.0 , 0.0 , 

79.0 , 4123.58974359 , 4126.66666667 , 4109.74358974 , 4136.92307692 , 4133.33333333 , 4130.25641026 , 4128.71794872 , 4126.66666667 , 4131.79487179 , 4131.79487179 , 4148.20512821 , 4440.51282051 , 4125.64102564 , 4131.28205128 , 2040.0 , 2033.0 , 7.206 , 0.0 , 0.0 , 0.0 , 0.0 , 

80.0 , 4125.12820513 , 4127.17948718 , 4107.69230769 , 4134.35897436 , 4133.33333333 , 4130.25641026 , 4131.28205128 , 4130.25641026 , 4132.82051282 , 4133.84615385 , 4152.82051282 , 4440.0 , 4126.66666667 , 4128.71794872 , 2043.0 , 2034.0 , 7.214 , 0.0 , 0.0 , 0.0 , 0.0 , 

81.0 , 4127.69230769 , 4127.17948718 , 4112.82051282 , 4135.38461538 , 4133.33333333 , 4130.25641026 , 4129.74358974 , 4130.25641026 , 4129.23076923 , 4138.97435897 , 4152.82051282 , 4440.0 , 4126.15384615 , 4128.71794872 , 2043.0 , 2034.0 , 7.222 , 0.0 , 0.0 , 0.0 , 0.0 , 

82.0 , 4129.74358974 , 4126.15384615 , 4117.94871795 , 4135.38461538 , 4133.33333333 , 4130.25641026 , 4124.61538462 , 4128.71794872 , 4126.66666667 , 4137.94871795 , 4150.25641026 , 4440.51282051 , 4125.64102564 , 4129.74358974 , 2042.0 , 2035.0 , 7.23 , 0.0 , 0.0 , 0.0 , 0.0 , 

83.0 , 4128.71794872 , 4124.1025641 , 4129.74358974 , 4134.35897436 , 4133.33333333 , 4130.25641026 , 4129.74358974 , 4130.25641026 , 4130.76923077 , 4138.46153846 , 4153.84615385 , 4441.53846154 , 4127.17948718 , 4129.74358974 , 2043.0 , 2034.0 , 7.237 , 0.0 , 0.0 , 0.0 , 0.0 , 

84.0 , 4127.17948718 , 4127.17948718 , 4143.07692308 , 4132.82051282 , 4133.33333333 , 4130.25641026 , 4135.8974359 , 4132.82051282 , 4134.35897436 , 4142.56410256 , 4155.38461538 , 4442.56410256 , 4127.17948718 , 4131.79487179 , 2044.0 , 2033.0 , 7.245 , 0.0 , 0.0 , 0.0 , 0.0 , 

85.0 , 4128.71794872 , 4130.76923077 , 4150.76923077 , 4131.79487179 , 4133.33333333 , 4130.25641026 , 4126.15384615 , 4134.87179487 , 4131.28205128 , 4143.58974359 , 4152.82051282 , 4445.12820513 , 4126.66666667 , 4135.38461538 , 2045.0 , 2034.0 , 7.257 , 0.0 , 0.0 , 0.0 , 0.0 , 

86.0 , 4128.71794872 , 4128.20512821 , 4145.64102564 , 4132.82051282 , 4133.33333333 , 4130.25641026 , 4120.0 , 4135.38461538 , 4130.76923077 , 4140.51282051 , 4152.82051282 , 4443.58974359 , 4126.15384615 , 4132.30769231 , 2046.0 , 2034.0 , 7.262 , 0.0 , 0.0 , 0.0 , 0.0 , 

87.0 , 4128.20512821 , 4126.15384615 , 4143.07692308 , 4134.35897436 , 4133.33333333 , 4130.25641026 , 4130.76923077 , 4136.41025641 , 4135.38461538 , 4136.41025641 , 4153.84615385 , 4440.0 , 4127.17948718 , 4129.23076923 , 2045.0 , 2036.0 , 7.27 , 0.0 , 0.0 , 0.0 , 0.0 , 

88.0 , 4129.74358974 , 4129.74358974 , 4138.46153846 , 4136.41025641 , 4133.33333333 , 4130.25641026 , 4134.35897436 , 4133.33333333 , 4134.87179487 , 4134.35897436 , 4152.82051282 , 4438.46153846 , 4126.66666667 , 4129.74358974 , 2046.0 , 2036.0 , 7.277 , 0.0 , 0.0 , 0.0 , 0.0 , 

89.0 , 4128.20512821 , 4128.20512821 , 4133.33333333 , 4134.35897436 , 4133.33333333 , 4130.25641026 , 4130.76923077 , 4129.23076923 , 4129.23076923 , 4137.43589744 , 4154.35897436 , 4439.48717949 , 4128.20512821 , 4131.28205128 , 2046.0 , 2033.0 , 7.286 , 0.0 , 0.0 , 0.0 , 0.0 , 

90.0 , 4126.15384615 , 4126.15384615 , 4131.79487179 , 4131.79487179 , 4133.33333333 , 4130.25641026 , 4133.33333333 , 4130.25641026 , 4128.20512821 , 4140.0 , 4154.35897436 , 4440.0 , 4128.20512821 , 4130.76923077 , 2046.0 , 2033.0 , 7.293 , 0.0 , 0.0 , 0.0 , 0.0 , 

91.0 , 4127.69230769 , 4127.17948718 , 4126.66666667 , 4133.84615385 , 4133.33333333 , 4130.25641026 , 4135.8974359 , 4131.79487179 , 4131.28205128 , 4136.92307692 , 4153.84615385 , 4440.51282051 , 4125.64102564 , 4131.28205128 , 2046.0 , 2031.0 , 7.3 , 0.0 , 0.0 , 0.0 , 0.0 , 

92.0 , 4128.71794872 , 4126.66666667 , 4123.58974359 , 4132.30769231 , 4133.33333333 , 4130.25641026 , 4133.84615385 , 4129.23076923 , 4129.74358974 , 4134.35897436 , 4152.82051282 , 4441.02564103 , 4126.15384615 , 4131.79487179 , 2044.0 , 2033.0 , 7.309 , 0.0 , 0.0 , 0.0 , 0.0 , 

93.0 , 4125.64102564 , 4127.69230769 , 4134.87179487 , 4131.28205128 , 4133.33333333 , 4130.25641026 , 4134.35897436 , 4128.20512821 , 4129.23076923 , 4138.46153846 , 4152.82051282 , 4438.46153846 , 4129.74358974 , 4131.79487179 , 2044.0 , 2032.0 , 7.316 , 0.0 , 0.0 , 0.0 , 0.0 , 

94.0 , 4126.66666667 , 4129.74358974 , 4144.61538462 , 4135.8974359 , 4133.33333333 , 4130.25641026 , 4135.8974359 , 4129.23076923 , 4131.79487179 , 4140.0 , 4153.33333333 , 4436.92307692 , 4129.74358974 , 4131.28205128 , 2044.0 , 2031.0 , 7.324 , 0.0 , 0.0 , 0.0 , 0.0 , 

95.0 , 4128.71794872 , 4125.64102564 , 4141.02564103 , 4135.8974359 , 4133.33333333 , 4130.25641026 , 4133.33333333 , 4131.79487179 , 4130.76923077 , 4137.94871795 , 4153.84615385 , 4439.48717949 , 4129.23076923 , 4131.28205128 , 2044.0 , 2030.0 , 7.332 , 0.0 , 0.0 , 0.0 , 0.0 , 

96.0 , 4128.20512821 , 4122.56410256 , 4146.66666667 , 4132.30769231 , 4133.33333333 , 4130.25641026 , 4133.33333333 , 4133.84615385 , 4131.79487179 , 4139.48717949 , 4154.35897436 , 4442.05128205 , 4130.76923077 , 4129.74358974 , 2043.0 , 2029.0 , 7.34 , 0.0 , 0.0 , 0.0 , 0.0 , 

97.0 , 4127.69230769 , 4124.1025641 , 4152.82051282 , 4134.35897436 , 4133.33333333 , 4130.25641026 , 4134.35897436 , 4132.30769231 , 4133.33333333 , 4140.0 , 4155.38461538 , 4442.05128205 , 4127.69230769 , 4129.74358974 , 2044.0 , 2031.0 , 7.348 , 0.0 , 0.0 , 0.0 , 0.0 , 

98.0 , 4129.23076923 , 4125.64102564 , 4150.76923077 , 4131.79487179 , 4133.33333333 , 4130.25641026 , 4127.17948718 , 4130.25641026 , 4132.30769231 , 4136.92307692 , 4156.41025641 , 4441.02564103 , 4126.66666667 , 4131.28205128 , 2044.0 , 2032.0 , 7.359 , 0.0 , 0.0 , 0.0 , 0.0 , 

99.0 , 4128.20512821 , 4124.61538462 , 4141.02564103 , 4126.15384615 , 4133.33333333 , 4130.25641026 , 4118.97435897 , 4129.74358974 , 4130.76923077 , 4135.38461538 , 4153.84615385 , 4445.12820513 , 4128.20512821 , 4130.76923077 , 2045.0 , 2033.0 , 7.364 , 0.0 , 0.0 , 0.0 , 0.0 , 

100.0 , 4127.69230769 , 4124.1025641 , 4134.87179487 , 4132.30769231 , 4133.33333333 , 4130.25641026 , 4127.69230769 , 4130.25641026 , 4131.28205128 , 4135.38461538 , 4153.33333333 , 4444.61538462 , 4127.17948718 , 4129.23076923 , 2045.0 , 2036.0 , 7.371 , 0.0 , 0.0 , 0.0 , 0.0 , 

101.0 , 4127.69230769 , 4125.64102564 , 4134.35897436 , 4138.46153846 , 4132.82051282 , 4130.25641026 , 4136.92307692 , 4131.79487179 , 4131.79487179 , 4135.38461538 , 4153.84615385 , 4440.51282051 , 4126.66666667 , 4130.76923077 , 2044.0 , 2039.0 , 7.379 , 0.0 , 0.0 , 0.0 , 0.0 , 

102.0 , 4126.15384615 , 4128.71794872 , 4138.46153846 , 4135.38461538 , 4132.82051282 , 4130.25641026 , 4131.79487179 , 4131.79487179 , 4132.30769231 , 4136.41025641 , 4153.84615385 , 4440.51282051 , 4130.76923077 , 4132.30769231 , 2045.0 , 2039.0 , 7.387 , 0.0 , 0.0 , 0.0 , 0.0 , 

103.0 , 4127.17948718 , 4128.20512821 , 4132.82051282 , 4133.84615385 , 4133.33333333 , 4130.25641026 , 4127.69230769 , 4129.74358974 , 4131.79487179 , 4137.94871795 , 4153.33333333 , 4442.05128205 , 4129.74358974 , 4130.76923077 , 2045.0 , 2039.0 , 7.395 , 0.0 , 0.0 , 0.0 , 0.0 , 

104.0 , 4127.69230769 , 4124.61538462 , 4122.56410256 , 4135.38461538 , 4132.82051282 , 4130.25641026 , 4126.66666667 , 4129.74358974 , 4130.76923077 , 4138.46153846 , 4153.33333333 , 4441.53846154 , 4126.15384615 , 4130.25641026 , 2045.0 , 2037.0 , 7.403 , 0.0 , 0.0 , 0.0 , 0.0 , 

105.0 , 4125.12820513 , 4124.61538462 , 4121.02564103 , 4134.35897436 , 4132.82051282 , 4130.25641026 , 4126.15384615 , 4129.23076923 , 4129.74358974 , 4137.43589744 , 4152.82051282 , 4441.53846154 , 4126.15384615 , 4131.79487179 , 2046.0 , 2034.0 , 7.411 , 0.0 , 0.0 , 0.0 , 0.0 , 

106.0 , 4127.17948718 , 4126.66666667 , 4130.25641026 , 4134.87179487 , 4133.84615385 , 4130.25641026 , 4126.15384615 , 4128.71794872 , 4128.71794872 , 4137.94871795 , 4152.30769231 , 4442.05128205 , 4127.17948718 , 4132.82051282 , 2045.0 , 2031.0 , 7.419 , 0.0 , 0.0 , 0.0 , 0.0 , 

107.0 , 4129.74358974 , 4127.17948718 , 4130.76923077 , 4134.87179487 , 4135.38461538 , 4130.25641026 , 4122.05128205 , 4129.23076923 , 4129.74358974 , 4137.43589744 , 4152.30769231 , 4442.56410256 , 4127.17948718 , 4131.28205128 , 2046.0 , 2030.0 , 7.427 , 0.0 , 0.0 , 0.0 , 0.0 , 

108.0 , 4123.58974359 , 4128.20512821 , 4129.23076923 , 4134.35897436 , 4135.8974359 , 4130.25641026 , 4124.61538462 , 4131.28205128 , 4131.79487179 , 4132.82051282 , 4152.30769231 , 4444.61538462 , 4128.20512821 , 4130.76923077 , 2045.0 , 2028.0 , 7.434 , 0.0 , 0.0 , 0.0 , 0.0 , 

109.0 , 4123.58974359 , 4126.66666667 , 4131.79487179 , 4135.38461538 , 4132.82051282 , 4130.25641026 , 4136.92307692 , 4130.76923077 , 4131.79487179 , 4131.28205128 , 4153.84615385 , 4443.07692308 , 4127.69230769 , 4129.74358974 , 2045.0 , 2028.0 , 7.442 , 0.0 , 0.0 , 0.0 , 0.0 , 

110.0 , 4129.74358974 , 4124.1025641 , 4140.0 , 4135.38461538 , 4131.79487179 , 4130.25641026 , 4133.33333333 , 4130.76923077 , 4135.38461538 , 4137.94871795 , 4154.87179487 , 4443.58974359 , 4128.71794872 , 4130.25641026 , 2046.0 , 2027.0 , 7.45 , 0.0 , 0.0 , 0.0 , 0.0 , 

111.0 , 4130.25641026 , 4126.66666667 , 4144.61538462 , 4134.87179487 , 4134.35897436 , 4130.25641026 , 4116.41025641 , 4130.25641026 , 4137.94871795 , 4138.97435897 , 4152.82051282 , 4444.61538462 , 4130.76923077 , 4131.28205128 , 2045.0 , 2028.0 , 7.462 , 0.0 , 0.0 , 0.0 , 0.0 , 

112.0 , 4127.69230769 , 4127.17948718 , 4138.97435897 , 4135.38461538 , 4135.38461538 , 4130.25641026 , 4122.56410256 , 4127.17948718 , 4132.82051282 , 4134.87179487 , 4151.28205128 , 4442.05128205 , 4128.71794872 , 4130.25641026 , 2043.0 , 2028.0 , 7.466 , 0.0 , 0.0 , 0.0 , 0.0 , 

113.0 , 4126.66666667 , 4125.64102564 , 4135.8974359 , 4135.38461538 , 4134.35897436 , 4130.25641026 , 4136.92307692 , 4129.23076923 , 4129.74358974 , 4137.94871795 , 4153.33333333 , 4441.02564103 , 4126.66666667 , 4129.74358974 , 2042.0 , 2029.0 , 7.474 , 0.0 , 0.0 , 0.0 , 0.0 , 

114.0 , 4126.66666667 , 4124.61538462 , 4141.53846154 , 4135.38461538 , 4134.87179487 , 4130.25641026 , 4133.84615385 , 4132.82051282 , 4131.28205128 , 4140.0 , 4153.84615385 , 4444.1025641 , 4128.71794872 , 4131.79487179 , 2042.0 , 2029.0 , 7.482 , 0.0 , 0.0 , 0.0 , 0.0 , 

115.0 , 4128.20512821 , 4124.61538462 , 4145.12820513 , 4135.38461538 , 4135.38461538 , 4130.25641026 , 4128.20512821 , 4131.79487179 , 4131.28205128 , 4137.94871795 , 4152.82051282 , 4444.1025641 , 4128.20512821 , 4131.28205128 , 2041.0 , 2032.0 , 7.49 , 0.0 , 0.0 , 0.0 , 0.0 , 

116.0 , 4126.66666667 , 4125.64102564 , 4133.33333333 , 4135.38461538 , 4133.84615385 , 4130.25641026 , 4129.74358974 , 4129.23076923 , 4131.79487179 , 4138.46153846 , 4151.79487179 , 4440.51282051 , 4124.61538462 , 4129.23076923 , 2040.0 , 2032.0 , 7.497 , 0.0 , 0.0 , 0.0 , 0.0 , 

117.0 , 4126.15384615 , 4126.66666667 , 4132.30769231 , 4135.38461538 , 4134.35897436 , 4130.25641026 , 4131.79487179 , 4131.79487179 , 4132.82051282 , 4138.97435897 , 4151.28205128 , 4442.05128205 , 4127.17948718 , 4130.25641026 , 2039.0 , 2030.0 , 7.505 , 0.0 , 0.0 , 0.0 , 0.0 , 

118.0 , 4129.74358974 , 4126.66666667 , 4139.48717949 , 4135.38461538 , 4134.87179487 , 4130.25641026 , 4131.79487179 , 4133.33333333 , 4129.74358974 , 4138.97435897 , 4150.25641026 , 4443.58974359 , 4129.23076923 , 4129.74358974 , 2041.0 , 2029.0 , 7.513 , 0.0 , 0.0 , 0.0 , 0.0 , 

119.0 , 4129.23076923 , 4129.23076923 , 4146.15384615 , 4135.38461538 , 4133.84615385 , 4130.25641026 , 4126.15384615 , 4130.76923077 , 4131.28205128 , 4140.51282051 , 4150.76923077 , 4442.56410256 , 4126.66666667 , 4129.23076923 , 2040.0 , 2029.0 , 7.521 , 0.0 , 0.0 , 0.0 , 0.0 , 

120.0 , 4126.66666667 , 4131.79487179 , 4152.82051282 , 4135.38461538 , 4134.87179487 , 4130.25641026 , 4122.05128205 , 4129.74358974 , 4133.84615385 , 4139.48717949 , 4151.79487179 , 4444.1025641 , 4127.69230769 , 4129.74358974 , 2041.0 , 2028.0 , 7.529 , 0.0 , 0.0 , 0.0 , 0.0 , 

121.0 , 4128.71794872 , 4127.17948718 , 4158.46153846 , 4135.38461538 , 4134.35897436 , 4130.25641026 , 4131.28205128 , 4130.25641026 , 4132.82051282 , 4137.94871795 , 4153.84615385 , 4448.20512821 , 4131.79487179 , 4131.28205128 , 2041.0 , 2028.0 , 7.538 , 0.0 , 0.0 , 0.0 , 0.0 , 

122.0 , 4129.23076923 , 4124.1025641 , 4160.0 , 4135.38461538 , 4130.76923077 , 4130.25641026 , 4138.46153846 , 4130.25641026 , 4132.82051282 , 4143.07692308 , 4154.35897436 , 4445.12820513 , 4129.74358974 , 4132.82051282 , 2042.0 , 2030.0 , 7.545 , 0.0 , 0.0 , 0.0 , 0.0 , 

123.0 , 4125.12820513 , 4126.15384615 , 4170.76923077 , 4135.38461538 , 4129.23076923 , 4130.25641026 , 4135.38461538 , 4130.76923077 , 4133.33333333 , 4144.1025641 , 4153.84615385 , 4445.64102564 , 4128.71794872 , 4131.79487179 , 2042.0 , 2030.0 , 7.554 , 0.0 , 0.0 , 0.0 , 0.0 , 

124.0 , 4124.61538462 , 4127.17948718 , 4174.87179487 , 4135.38461538 , 4131.28205128 , 4130.25641026 , 4136.41025641 , 4130.76923077 , 4132.30769231 , 4137.43589744 , 4152.82051282 , 4450.76923077 , 4130.25641026 , 4129.74358974 , 2041.0 , 2030.0 , 7.565 , 0.0 , 0.0 , 0.0 , 0.0 , 

125.0 , 4126.66666667 , 4123.58974359 , 4166.66666667 , 4135.38461538 , 4131.79487179 , 4130.25641026 , 4136.41025641 , 4130.76923077 , 4132.30769231 , 4135.8974359 , 4152.82051282 , 4450.25641026 , 4128.71794872 , 4132.82051282 , 2042.0 , 2032.0 , 7.568 , 0.0 , 0.0 , 0.0 , 0.0 , 

126.0 , 4129.23076923 , 4125.12820513 , 4155.38461538 , 4135.38461538 , 4129.74358974 , 4130.25641026 , 4129.23076923 , 4129.74358974 , 4131.79487179 , 4137.94871795 , 4153.33333333 , 4448.20512821 , 4125.64102564 , 4133.33333333 , 2042.0 , 2034.0 , 7.576 , 0.0 , 0.0 , 0.0 , 0.0 , 

127.0 , 4128.71794872 , 4130.25641026 , 4151.28205128 , 4135.38461538 , 4130.76923077 , 4130.25641026 , 4127.17948718 , 4129.23076923 , 4129.74358974 , 4137.43589744 , 4151.28205128 , 4449.74358974 , 4126.15384615 , 4131.28205128 , 2042.0 , 2036.0 , 7.584 , 0.0 , 0.0 , 0.0 , 0.0 , 

128.0 , 4126.66666667 , 4129.74358974 , 4153.33333333 , 4135.8974359 , 4131.28205128 , 4130.25641026 , 4132.30769231 , 4130.76923077 , 4129.74358974 , 4135.8974359 , 4149.23076923 , 4446.15384615 , 4128.71794872 , 4131.79487179 , 2042.0 , 2036.0 , 7.592 , 0.0 , 0.0 , 0.0 , 0.0 , 

0.0 , 4128.71794872 , 4125.12820513 , 4152.82051282 , 4134.87179487 , 4130.76923077 , 4130.25641026 , 4128.71794872 , 4131.79487179 , 4130.76923077 , 4136.92307692 , 4151.79487179 , 4444.1025641 , 4130.76923077 , 4132.30769231 , 2043.0 , 2038.0 , 7.6 , 0.0 , 0.0 , 0.0 , 0.0 , 

1.0 , 4129.74358974 , 4124.1025641 , 4152.82051282 , 4135.8974359 , 4130.76923077 , 4130.25641026 , 4121.02564103 , 4132.82051282 , 4130.76923077 , 4138.46153846 , 4153.33333333 , 4450.25641026 , 4130.25641026 , 4130.25641026 , 2042.0 , 2039.0 , 7.608 , 0.0 , 0.0 , 0.0 , 0.0 , 

2.0 , 4130.25641026 , 4128.20512821 , 4160.0 , 4135.38461538 , 4130.76923077 , 4130.25641026 , 4124.1025641 , 4133.33333333 , 4133.84615385 , 4140.0 , 4152.30769231 , 4451.28205128 , 4129.74358974 , 4129.74358974 , 2043.0 , 2039.0 , 7.616 , 0.0 , 0.0 , 0.0 , 0.0 , 

3.0 , 4131.28205128 , 4130.25641026 , 4166.15384615 , 4132.30769231 , 4130.76923077 , 4130.25641026 , 4130.76923077 , 4130.76923077 , 4135.38461538 , 4138.46153846 , 4152.82051282 , 4447.69230769 , 4131.28205128 , 4130.25641026 , 2043.0 , 2040.0 , 7.624 , 0.0 , 0.0 , 0.0 , 0.0 , 

4.0 , 4127.17948718 , 4126.66666667 , 4159.48717949 , 4131.28205128 , 4130.76923077 , 4130.25641026 , 4127.69230769 , 4128.71794872 , 4132.30769231 , 4135.8974359 , 4153.84615385 , 4449.23076923 , 4129.23076923 , 4131.28205128 , 2043.0 , 2037.0 , 7.631 , 0.0 , 0.0 , 0.0 , 0.0 , 

5.0 , 4124.61538462 , 4124.61538462 , 4157.43589744 , 4125.12820513 , 4130.76923077 , 4130.25641026 , 4122.05128205 , 4131.28205128 , 4129.23076923 , 4138.97435897 , 4153.33333333 , 4450.25641026 , 4127.17948718 , 4131.28205128 , 2044.0 , 2038.0 , 7.639 , 0.0 , 0.0 , 0.0 , 0.0 , 

6.0 , 4126.15384615 , 4126.66666667 , 4160.0 , 4122.05128205 , 4130.76923077 , 4130.25641026 , 4125.12820513 , 4130.25641026 , 4132.82051282 , 4141.02564103 , 4153.84615385 , 4448.71794872 , 4128.20512821 , 4129.74358974 , 2042.0 , 2037.0 , 7.647 , 0.0 , 0.0 , 0.0 , 0.0 , 

7.0 , 4126.15384615 , 4124.61538462 , 4166.15384615 , 4131.79487179 , 4130.76923077 , 4130.25641026 , 4124.61538462 , 4128.71794872 , 4137.43589744 , 4137.43589744 , 4153.84615385 , 4451.79487179 , 4130.25641026 , 4129.74358974 , 2041.0 , 2036.0 , 7.655 , 0.0 , 0.0 , 0.0 , 0.0 , 

8.0 , 4126.66666667 , 4123.58974359 , 4173.33333333 , 4134.87179487 , 4130.76923077 , 4130.25641026 , 4123.07692308 , 4132.82051282 , 4134.35897436 , 4134.35897436 , 4153.33333333 , 4454.87179487 , 4129.74358974 , 4130.76923077 , 2041.0 , 2037.0 , 7.667 , 0.0 , 0.0 , 0.0 , 0.0 , 

9.0 , 4128.71794872 , 4128.71794872 , 4171.79487179 , 4128.20512821 , 4130.76923077 , 4130.25641026 , 4131.28205128 , 4133.84615385 , 4130.76923077 , 4135.38461538 , 4153.84615385 , 4453.84615385 , 4129.23076923 , 4130.76923077 , 2041.0 , 2036.0 , 7.671 , 0.0 , 0.0 , 0.0 , 0.0 , 

10.0 , 4127.69230769 , 4129.23076923 , 4160.51282051 , 4129.23076923 , 4130.76923077 , 4130.25641026 , 4133.33333333 , 4128.20512821 , 4129.23076923 , 4136.92307692 , 4154.87179487 , 4452.82051282 , 4128.71794872 , 4130.76923077 , 2041.0 , 2035.0 , 7.679 , 0.0 , 0.0 , 0.0 , 0.0 , 

11.0 , 4127.69230769 , 4126.66666667 , 4161.02564103 , 4131.28205128 , 4130.76923077 , 4130.25641026 , 4128.71794872 , 4127.69230769 , 4130.76923077 , 4138.46153846 , 4154.35897436 , 4452.82051282 , 4126.66666667 , 4131.28205128 , 2042.0 , 2035.0 , 7.687 , 0.0 , 0.0 , 0.0 , 0.0 , 

12.0 , 4131.28205128 , 4129.23076923 , 4160.51282051 , 4129.23076923 , 4130.76923077 , 4130.25641026 , 4131.28205128 , 4131.28205128 , 4132.30769231 , 4139.48717949 , 4152.30769231 , 4452.30769231 , 4124.1025641 , 4131.79487179 , 2043.0 , 2033.0 , 7.695 , 0.0 , 0.0 , 0.0 , 0.0 , 

13.0 , 4129.23076923 , 4128.20512821 , 4151.79487179 , 4133.84615385 , 4130.76923077 , 4130.25641026 , 4135.8974359 , 4130.76923077 , 4133.33333333 , 4140.0 , 4154.87179487 , 4453.33333333 , 4124.61538462 , 4133.33333333 , 2043.0 , 2033.0 , 7.702 , 0.0 , 0.0 , 0.0 , 0.0 , 

14.0 , 4126.15384615 , 4125.12820513 , 4140.51282051 , 4137.94871795 , 4130.76923077 , 4130.25641026 , 4132.30769231 , 4126.66666667 , 4130.25641026 , 4137.94871795 , 4152.82051282 , 4453.33333333 , 4126.66666667 , 4131.28205128 , 2043.0 , 2033.0 , 7.71 , 0.0 , 0.0 , 0.0 , 0.0 , 

15.0 , 4127.17948718 , 4128.71794872 , 4136.92307692 , 4134.87179487 , 4130.76923077 , 4130.25641026 , 4126.15384615 , 4127.69230769 , 4128.71794872 , 4132.82051282 , 4147.69230769 , 4451.28205128 , 4127.69230769 , 4130.76923077 , 2044.0 , 2034.0 , 7.719 , 0.0 , 0.0 , 0.0 , 0.0 , 

16.0 , 4130.25641026 , 4130.76923077 , 4138.46153846 , 4134.35897436 , 4130.76923077 , 4130.25641026 , 4125.64102564 , 4129.74358974 , 4129.23076923 , 4132.30769231 , 4149.74358974 , 4451.28205128 , 4126.66666667 , 4132.82051282 , 2043.0 , 2034.0 , 7.726 , 0.0 , 0.0 , 0.0 , 0.0 , 

17.0 , 4128.71794872 , 4123.58974359 , 4138.97435897 , 4134.87179487 , 4130.76923077 , 4130.25641026 , 4129.23076923 , 4129.23076923 , 4129.74358974 , 4136.92307692 , 4152.30769231 , 4455.8974359 , 4128.20512821 , 4132.30769231 , 2044.0 , 2033.0 , 7.734 , 0.0 , 0.0 , 0.0 , 0.0 , 

18.0 , 4127.17948718 , 4123.07692308 , 4129.74358974 , 4135.8974359 , 4130.76923077 , 4130.25641026 , 4130.76923077 , 4127.17948718 , 4129.74358974 , 4136.92307692 , 4148.71794872 , 4456.41025641 , 4128.71794872 , 4129.23076923 , 2045.0 , 2030.0 , 7.743 , 0.0 , 0.0 , 0.0 , 0.0 , 

19.0 , 4127.69230769 , 4129.74358974 , 4126.66666667 , 4133.33333333 , 4130.76923077 , 4130.25641026 , 4124.61538462 , 4128.20512821 , 4129.74358974 , 4133.33333333 , 4150.76923077 , 4453.84615385 , 4126.15384615 , 4132.30769231 , 2045.0 , 2029.0 , 7.75 , 0.0 , 0.0 , 0.0 , 0.0 , 

20.0 , 4128.71794872 , 4129.23076923 , 4141.02564103 , 4133.33333333 , 4130.76923077 , 4130.25641026 , 4121.02564103 , 4130.25641026 , 4131.79487179 , 4135.38461538 , 4156.41025641 , 4453.33333333 , 4126.66666667 , 4133.33333333 , 2045.0 , 2026.0 , 7.758 , 0.0 , 0.0 , 0.0 , 0.0 , 

21.0 , 4128.71794872 , 4124.1025641 , 4147.17948718 , 4138.46153846 , 4130.76923077 , 4130.25641026 , 4125.12820513 , 4131.28205128 , 4133.33333333 , 4138.46153846 , 4154.35897436 , 4455.38461538 , 4128.71794872 , 4130.76923077 , 2042.0 , 2028.0 , 7.77 , 0.0 , 0.0 , 0.0 , 0.0 , 

22.0 , 4128.71794872 , 4126.66666667 , 4148.71794872 , 4132.30769231 , 4130.76923077 , 4130.25641026 , 4123.58974359 , 4131.28205128 , 4131.28205128 , 4140.0 , 4152.82051282 , 4453.33333333 , 4127.17948718 , 4131.28205128 , 2043.0 , 2029.0 , 7.773 , 0.0 , 0.0 , 0.0 , 0.0 , 

23.0 , 4128.20512821 , 4126.66666667 , 4162.05128205 , 4123.07692308 , 4130.76923077 , 4130.25641026 , 4124.1025641 , 4130.76923077 , 4131.28205128 , 4138.97435897 , 4153.84615385 , 4454.35897436 , 4125.64102564 , 4133.33333333 , 2041.0 , 2030.0 , 7.781 , 0.0 , 0.0 , 0.0 , 0.0 , 

24.0 , 4128.20512821 , 4123.07692308 , 4169.23076923 , 4130.76923077 , 4130.76923077 , 4130.25641026 , 4125.64102564 , 4130.76923077 , 4132.82051282 , 4135.38461538 , 4153.84615385 , 4457.43589744 , 4127.69230769 , 4132.30769231 , 2040.0 , 2033.0 , 7.789 , 0.0 , 0.0 , 0.0 , 0.0 , 

25.0 , 4128.71794872 , 4124.61538462 , 4150.25641026 , 4138.46153846 , 4130.76923077 , 4130.25641026 , 4122.56410256 , 4130.25641026 , 4133.33333333 , 4134.35897436 , 4152.82051282 , 4457.43589744 , 4127.69230769 , 4129.23076923 , 2038.0 , 2034.0 , 7.797 , 0.0 , 0.0 , 0.0 , 0.0 , 

26.0 , 4126.66666667 , 4128.20512821 , 4132.82051282 , 4133.84615385 , 4130.76923077 , 4130.25641026 , 4129.23076923 , 4131.28205128 , 4133.33333333 , 4137.94871795 , 4150.76923077 , 4454.87179487 , 4126.15384615 , 4129.23076923 , 2038.0 , 2033.0 , 7.805 , 0.0 , 0.0 , 0.0 , 0.0 , 

27.0 , 4124.61538462 , 4127.17948718 , 4123.07692308 , 4135.8974359 , 4130.76923077 , 4130.25641026 , 4135.8974359 , 4129.74358974 , 4131.28205128 , 4138.46153846 , 4150.76923077 , 4453.33333333 , 4125.64102564 , 4128.71794872 , 2037.0 , 2033.0 , 7.813 , 0.0 , 0.0 , 0.0 , 0.0 , 

28.0 , 4126.15384615 , 4127.17948718 , 4123.07692308 , 4134.35897436 , 4130.76923077 , 4130.25641026 , 4127.69230769 , 4126.66666667 , 4129.23076923 , 4134.35897436 , 4153.33333333 , 4453.84615385 , 4127.69230769 , 4129.74358974 , 2039.0 , 2032.0 , 7.821 , 0.0 , 0.0 , 0.0 , 0.0 , 

29.0 , 4126.15384615 , 4128.71794872 , 4130.76923077 , 4123.58974359 , 4130.76923077 , 4130.25641026 , 4121.02564103 , 4129.23076923 , 4130.25641026 , 4134.35897436 , 4154.35897436 , 4456.92307692 , 4128.20512821 , 4129.74358974 , 2039.0 , 2032.0 , 7.828 , 0.0 , 0.0 , 0.0 , 0.0 , 

30.0 , 4123.58974359 , 4128.20512821 , 4142.56410256 , 4127.69230769 , 4130.76923077 , 4130.25641026 , 4125.12820513 , 4133.84615385 , 4131.79487179 , 4137.43589744 , 4153.33333333 , 4458.46153846 , 4127.17948718 , 4130.76923077 , 2039.0 , 2032.0 , 7.836 , 0.0 , 0.0 , 0.0 , 0.0 , 

31.0 , 4124.1025641 , 4127.17948718 , 4142.05128205 , 4137.43589744 , 4130.76923077 , 4130.25641026 , 4128.20512821 , 4133.33333333 , 4132.30769231 , 4135.8974359 , 4153.33333333 , 4456.92307692 , 4126.66666667 , 4130.76923077 , 2040.0 , 2031.0 , 7.844 , 0.0 , 0.0 , 0.0 , 0.0 , 

32.0 , 4127.17948718 , 4126.15384615 , 4142.05128205 , 4135.38461538 , 4130.76923077 , 4130.25641026 , 4126.15384615 , 4131.28205128 , 4134.87179487 , 4136.92307692 , 4153.84615385 , 4457.43589744 , 4127.69230769 , 4129.74358974 , 2041.0 , 2030.0 , 7.852 , 0.0 , 0.0 , 0.0 , 0.0 , 

33.0 , 4127.69230769 , 4126.15384615 , 4141.02564103 , 4133.84615385 , 4130.76923077 , 4129.74358974 , 4121.53846154 , 4130.25641026 , 4133.84615385 , 4138.97435897 , 4153.84615385 , 4457.94871795 , 4127.69230769 , 4130.25641026 , 2040.0 , 2030.0 , 7.86 , 0.0 , 0.0 , 0.0 , 0.0 , 

34.0 , 4127.17948718 , 4128.20512821 , 4133.33333333 , 4132.82051282 , 4130.76923077 , 4129.23076923 , 4123.58974359 , 4130.25641026 , 4131.28205128 , 4137.94871795 , 4153.84615385 , 4457.94871795 , 4128.71794872 , 4131.79487179 , 2040.0 , 2030.0 , 7.871 , 0.0 , 0.0 , 0.0 , 0.0 , 

35.0 , 4126.15384615 , 4127.69230769 , 4123.07692308 , 4131.28205128 , 4130.76923077 , 4131.79487179 , 4134.87179487 , 4129.23076923 , 4130.25641026 , 4135.8974359 , 4153.33333333 , 4457.43589744 , 4127.69230769 , 4130.76923077 , 2040.0 , 2031.0 , 7.876 , 0.0 , 0.0 , 0.0 , 0.0 , 

36.0 , 4123.58974359 , 4126.66666667 , 4121.02564103 , 4133.33333333 , 4130.76923077 , 4127.69230769 , 4132.30769231 , 4128.71794872 , 4129.74358974 , 4138.46153846 , 4154.35897436 , 4455.8974359 , 4125.12820513 , 4129.74358974 , 2041.0 , 2031.0 , 7.883 , 0.0 , 0.0 , 0.0 , 0.0 , 

37.0 , 4125.64102564 , 4128.71794872 , 4125.64102564 , 4134.35897436 , 4130.76923077 , 4123.58974359 , 4122.05128205 , 4129.23076923 , 4129.74358974 , 4140.0 , 4154.35897436 , 4456.41025641 , 4125.64102564 , 4129.74358974 , 2041.0 , 2032.0 , 7.891 , 0.0 , 0.0 , 0.0 , 0.0 , 

38.0 , 4128.20512821 , 4128.71794872 , 4123.58974359 , 4132.30769231 , 4130.76923077 , 4130.25641026 , 4123.07692308 , 4130.25641026 , 4131.28205128 , 4140.0 , 4153.33333333 , 4457.43589744 , 4128.71794872 , 4129.23076923 , 2042.0 , 2032.0 , 7.899 , 0.0 , 0.0 , 0.0 , 0.0 , 

39.0 , 4126.15384615 , 4128.20512821 , 4124.61538462 , 4132.82051282 , 4130.76923077 , 4134.87179487 , 4124.61538462 , 4130.76923077 , 4131.79487179 , 4141.02564103 , 4152.30769231 , 4454.35897436 , 4129.23076923 , 4129.23076923 , 2042.0 , 2032.0 , 7.907 , 0.0 , 0.0 , 0.0 , 0.0 , 

40.0 , 4126.66666667 , 4129.74358974 , 4141.02564103 , 4134.35897436 , 4130.76923077 , 4131.79487179 , 4122.56410256 , 4132.30769231 , 4131.28205128 , 4140.0 , 4152.82051282 , 4457.43589744 , 4128.71794872 , 4131.79487179 , 2042.0 , 2030.0 , 7.915 , 0.0 , 0.0 , 0.0 , 0.0 , 

41.0 , 4129.74358974 , 4129.74358974 , 4155.8974359 , 4133.33333333 , 4130.76923077 , 4132.82051282 , 4126.66666667 , 4132.82051282 , 4132.30769231 , 4138.97435897 , 4154.35897436 , 4461.02564103 , 4127.69230769 , 4131.79487179 , 2042.0 , 2030.0 , 7.923 , 0.0 , 0.0 , 0.0 , 0.0 , 

42.0 , 4126.66666667 , 4128.20512821 , 4156.92307692 , 4131.79487179 , 4130.76923077 , 4135.8974359 , 4127.17948718 , 4133.84615385 , 4132.82051282 , 4140.51282051 , 4154.35897436 , 4458.97435897 , 4129.74358974 , 4130.76923077 , 2041.0 , 2030.0 , 7.932 , 0.0 , 0.0 , 0.0 , 0.0 , 

43.0 , 4123.58974359 , 4128.71794872 , 4163.58974359 , 4132.30769231 , 4130.76923077 , 4133.84615385 , 4123.58974359 , 4135.8974359 , 4132.30769231 , 4140.0 , 4153.33333333 , 4458.97435897 , 4132.82051282 , 4131.79487179 , 2040.0 , 2030.0 , 7.939 , 0.0 , 0.0 , 0.0 , 0.0 , 

44.0 , 4128.20512821 , 4125.64102564 , 4166.15384615 , 4134.35897436 , 4130.76923077 , 4133.33333333 , 4123.58974359 , 4133.84615385 , 4130.76923077 , 4135.8974359 , 4153.84615385 , 4460.51282051 , 4130.76923077 , 4131.79487179 , 2040.0 , 2032.0 , 7.948 , 0.0 , 0.0 , 0.0 , 0.0 , 

45.0 , 4128.71794872 , 4125.12820513 , 4161.02564103 , 4135.8974359 , 4130.76923077 , 4133.84615385 , 4124.61538462 , 4130.76923077 , 4131.28205128 , 4137.94871795 , 4154.35897436 , 4456.92307692 , 4128.20512821 , 4130.25641026 , 2040.0 , 2034.0 , 7.956 , 0.0 , 0.0 , 0.0 , 0.0 , 

46.0 , 4127.17948718 , 4127.17948718 , 4162.56410256 , 4135.38461538 , 4130.76923077 , 4133.33333333 , 4123.07692308 , 4131.79487179 , 4133.84615385 , 4141.53846154 , 4152.82051282 , 4455.8974359 , 4129.23076923 , 4130.25641026 , 2041.0 , 2033.0 , 7.962 , 0.0 , 0.0 , 0.0 , 0.0 , 

47.0 , 4128.71794872 , 4125.64102564 , 4165.64102564 , 4135.38461538 , 4131.28205128 , 4134.35897436 , 4124.61538462 , 4131.79487179 , 4135.38461538 , 4137.43589744 , 4152.82051282 , 4457.94871795 , 4129.74358974 , 4131.79487179 , 2039.0 , 2034.0 , 7.974 , 0.0 , 0.0 , 0.0 , 0.0 , 

48.0 , 4129.23076923 , 4124.61538462 , 4141.02564103 , 4134.87179487 , 4129.74358974 , 4133.84615385 , 4125.12820513 , 4129.74358974 , 4131.28205128 , 4133.84615385 , 4153.33333333 , 4457.43589744 , 4127.17948718 , 4128.71794872 , 2042.0 , 2036.0 , 7.978 , 0.0 , 0.0 , 0.0 , 0.0 , 

49.0 , 4128.20512821 , 4128.71794872 , 4123.58974359 , 4135.8974359 , 4130.76923077 , 4133.84615385 , 4122.56410256 , 4129.74358974 , 4128.20512821 , 4138.46153846 , 4152.30769231 , 4460.51282051 , 4127.17948718 , 4127.17948718 , 2041.0 , 2037.0 , 7.986 , 0.0 , 0.0 , 0.0 , 0.0 , 

50.0 , 4127.69230769 , 4129.23076923 , 4133.84615385 , 4136.41025641 , 4132.30769231 , 4134.35897436 , 4123.58974359 , 4129.23076923 , 4131.79487179 , 4139.48717949 , 4152.30769231 , 4464.1025641 , 4126.66666667 , 4129.74358974 , 2042.0 , 2038.0 , 7.994 , 0.0 , 0.0 , 0.0 , 0.0 , 

51.0 , 4125.12820513 , 4128.20512821 , 4144.1025641 , 4135.8974359 , 4126.15384615 , 4133.84615385 , 4130.76923077 , 4127.69230769 , 4132.82051282 , 4136.41025641 , 4153.33333333 , 4461.02564103 , 4126.15384615 , 4130.76923077 , 2041.0 , 2038.0 , 8.002 , 0.0 , 0.0 , 0.0 , 0.0 , 

52.0 , 4124.61538462 , 4130.25641026 , 4133.84615385 , 4135.8974359 , 4122.56410256 , 4133.84615385 , 4134.35897436 , 4127.69230769 , 4129.23076923 , 4137.43589744 , 4153.33333333 , 4457.43589744 , 4127.69230769 , 4127.69230769 , 2042.0 , 2037.0 , 8.01 , 0.0 , 0.0 , 0.0 , 0.0 , 

53.0 , 4127.69230769 , 4127.17948718 , 4129.74358974 , 4135.8974359 , 4131.28205128 , 4133.84615385 , 4131.79487179 , 4129.74358974 , 4130.25641026 , 4138.46153846 , 4152.30769231 , 4461.02564103 , 4127.17948718 , 4128.20512821 , 2043.0 , 2036.0 , 8.018 , 0.0 , 0.0 , 0.0 , 0.0 , 

54.0 , 4128.71794872 , 4123.58974359 , 4136.92307692 , 4135.8974359 , 4138.46153846 , 4133.84615385 , 4131.79487179 , 4129.74358974 , 4131.79487179 , 4134.87179487 , 4153.33333333 , 4462.56410256 , 4124.61538462 , 4129.23076923 , 2042.0 , 2035.0 , 8.025 , 0.0 , 0.0 , 0.0 , 0.0 , 

55.0 , 4127.17948718 , 4124.61538462 , 4135.8974359 , 4135.8974359 , 4135.38461538 , 4133.84615385 , 4130.25641026 , 4130.25641026 , 4130.76923077 , 4136.92307692 , 4154.87179487 , 4461.02564103 , 4125.64102564 , 4130.25641026 , 2042.0 , 2034.0 , 8.037 , 0.0 , 0.0 , 0.0 , 0.0 , 

56.0 , 4126.66666667 , 4125.12820513 , 4135.38461538 , 4135.8974359 , 4134.87179487 , 4133.84615385 , 4124.61538462 , 4130.76923077 , 4131.28205128 , 4138.97435897 , 4154.87179487 , 4460.0 , 4127.69230769 , 4129.74358974 , 2043.0 , 2035.0 , 8.041 , 0.0 , 0.0 , 0.0 , 0.0 , 

57.0 , 4125.12820513 , 4124.1025641 , 4137.43589744 , 4135.8974359 , 4136.41025641 , 4133.84615385 , 4125.64102564 , 4129.74358974 , 4132.82051282 , 4136.92307692 , 4154.35897436 , 4461.53846154 , 4125.12820513 , 4128.20512821 , 2042.0 , 2033.0 , 8.05 , 0.0 , 0.0 , 0.0 , 0.0 , 

58.0 , 4127.17948718 , 4125.12820513 , 4138.97435897 , 4135.8974359 , 4135.38461538 , 4133.84615385 , 4135.38461538 , 4128.71794872 , 4132.30769231 , 4136.92307692 , 4154.35897436 , 4463.58974359 , 4125.64102564 , 4131.28205128 , 2041.0 , 2032.0 , 8.058 , 0.0 , 0.0 , 0.0 , 0.0 , 

59.0 , 4131.79487179 , 4127.17948718 , 4143.58974359 , 4136.41025641 , 4135.38461538 , 4133.84615385 , 4136.92307692 , 4131.28205128 , 4131.28205128 , 4137.94871795 , 4155.38461538 , 4463.07692308 , 4130.25641026 , 4134.35897436 , 2042.0 , 2037.0 , 8.065 , 0.0 , 0.0 , 0.0 , 0.0 , 

60.0 , 4131.28205128 , 4126.15384615 , 4151.28205128 , 4136.92307692 , 4136.41025641 , 4133.84615385 , 4134.35897436 , 4134.87179487 , 4132.30769231 , 4137.94871795 , 4153.84615385 , 4464.1025641 , 4131.28205128 , 4130.76923077 , 2041.0 , 2036.0 , 8.077 , 0.0 , 0.0 , 0.0 , 0.0 , 

61.0 , 4128.20512821 , 4123.58974359 , 4146.15384615 , 4135.38461538 , 4135.8974359 , 4133.84615385 , 4138.46153846 , 4134.35897436 , 4132.82051282 , 4134.87179487 , 4151.79487179 , 4465.64102564 , 4129.23076923 , 4128.20512821 , 2040.0 , 2036.0 , 8.081 , 0.0 , 0.0 , 0.0 , 0.0 , 

62.0 , 4128.20512821 , 4124.61538462 , 4140.51282051 , 4135.38461538 , 4135.8974359 , 4133.84615385 , 4132.30769231 , 4131.28205128 , 4131.79487179 , 4132.82051282 , 4152.82051282 , 4466.66666667 , 4128.71794872 , 4130.25641026 , 2042.0 , 2035.0 , 8.088 , 0.0 , 0.0 , 0.0 , 0.0 , 

63.0 , 4129.23076923 , 4125.64102564 , 4138.46153846 , 4138.46153846 , 4135.8974359 , 4133.84615385 , 4121.53846154 , 4129.74358974 , 4131.28205128 , 4133.84615385 , 4153.33333333 , 4463.58974359 , 4128.20512821 , 4131.28205128 , 2041.0 , 2035.0 , 8.096 , 0.0 , 0.0 , 0.0 , 0.0 , 

64.0 , 4127.17948718 , 4124.61538462 , 4141.02564103 , 4131.28205128 , 4135.8974359 , 4133.84615385 , 4129.74358974 , 4130.76923077 , 4131.28205128 , 4136.92307692 , 4152.82051282 , 4463.58974359 , 4128.71794872 , 4131.28205128 , 2041.0 , 2036.0 , 8.104 , 0.0 , 0.0 , 0.0 , 0.0 , 

65.0 , 4125.64102564 , 4125.12820513 , 4141.53846154 , 4123.07692308 , 4135.8974359 , 4133.84615385 , 4136.41025641 , 4129.23076923 , 4131.79487179 , 4137.43589744 , 4152.82051282 , 4465.12820513 , 4128.71794872 , 4129.74358974 , 2042.0 , 2035.0 , 8.112 , 0.0 , 0.0 , 0.0 , 0.0 , 

66.0 , 4128.71794872 , 4126.15384615 , 4138.46153846 , 4130.25641026 , 4135.8974359 , 4133.84615385 , 4128.71794872 , 4128.71794872 , 4132.30769231 , 4137.94871795 , 4154.87179487 , 4464.1025641 , 4127.17948718 , 4128.20512821 , 2043.0 , 2033.0 , 8.12 , 0.0 , 0.0 , 0.0 , 0.0 , 

67.0 , 4132.30769231 , 4126.66666667 , 4133.33333333 , 4138.46153846 , 4135.8974359 , 4133.84615385 , 4129.23076923 , 4130.76923077 , 4132.82051282 , 4138.46153846 , 4155.8974359 , 4463.58974359 , 4126.66666667 , 4130.25641026 , 2043.0 , 2033.0 , 8.128 , 0.0 , 0.0 , 0.0 , 0.0 , 

68.0 , 4130.25641026 , 4127.17948718 , 4140.51282051 , 4135.38461538 , 4135.8974359 , 4133.84615385 , 4131.79487179 , 4131.79487179 , 4131.79487179 , 4138.46153846 , 4154.87179487 , 4465.12820513 , 4128.20512821 , 4131.79487179 , 2044.0 , 2033.0 , 8.136 , 0.0 , 0.0 , 0.0 , 0.0 , 

69.0 , 4129.74358974 , 4128.71794872 , 4147.17948718 , 4133.84615385 , 4135.8974359 , 4133.84615385 , 4122.05128205 , 4131.28205128 , 4130.25641026 , 4138.97435897 , 4154.87179487 , 4465.12820513 , 4130.25641026 , 4130.25641026 , 2042.0 , 2032.0 , 8.144 , 0.0 , 0.0 , 0.0 , 0.0 , 

70.0 , 4130.25641026 , 4128.20512821 , 4141.53846154 , 4136.92307692 , 4135.8974359 , 4133.84615385 , 4122.56410256 , 4130.25641026 , 4130.25641026 , 4134.35897436 , 4155.38461538 , 4465.12820513 , 4130.25641026 , 4131.28205128 , 2043.0 , 2030.0 , 8.152 , 0.0 , 0.0 , 0.0 , 0.0 , 

71.0 , 4128.20512821 , 4129.23076923 , 4136.92307692 , 4135.38461538 , 4135.8974359 , 4134.35897436 , 4135.8974359 , 4130.25641026 , 4131.79487179 , 4129.74358974 , 4154.35897436 , 4464.61538462 , 4128.20512821 , 4132.82051282 , 2041.0 , 2027.0 , 8.159 , 0.0 , 0.0 , 0.0 , 0.0 , 

72.0 , 4127.17948718 , 4128.71794872 , 4144.61538462 , 4134.35897436 , 4135.8974359 , 4134.87179487 , 4134.35897436 , 4132.30769231 , 4133.84615385 , 4136.92307692 , 4153.84615385 , 4465.64102564 , 4128.71794872 , 4130.76923077 , 2041.0 , 2027.0 , 8.167 , 0.0 , 0.0 , 0.0 , 0.0 , 

73.0 , 4128.71794872 , 4127.17948718 , 4147.69230769 , 4134.87179487 , 4135.8974359 , 4134.35897436 , 4120.0 , 4130.76923077 , 4131.79487179 , 4141.02564103 , 4153.84615385 , 4466.66666667 , 4130.25641026 , 4129.74358974 , 2041.0 , 2027.0 , 8.179 , 0.0 , 0.0 , 0.0 , 0.0 , 

74.0 , 4127.69230769 , 4127.17948718 , 4140.0 , 4135.38461538 , 4135.8974359 , 4133.33333333 , 4120.51282051 , 4128.71794872 , 4129.23076923 , 4137.94871795 , 4153.33333333 , 4466.15384615 , 4130.25641026 , 4132.30769231 , 2041.0 , 2028.0 , 8.183 , 0.0 , 0.0 , 0.0 , 0.0 , 

75.0 , 4128.20512821 , 4128.71794872 , 4143.58974359 , 4135.38461538 , 4135.8974359 , 4135.38461538 , 4136.92307692 , 4130.76923077 , 4131.79487179 , 4138.46153846 , 4153.33333333 , 4465.64102564 , 4129.23076923 , 4131.28205128 , 2041.0 , 2026.0 , 8.191 , 0.0 , 0.0 , 0.0 , 0.0 , 

76.0 , 4129.23076923 , 4125.64102564 , 4156.92307692 , 4134.87179487 , 4135.8974359 , 4133.84615385 , 4137.43589744 , 4132.30769231 , 4133.84615385 , 4140.51282051 , 4154.87179487 , 4466.66666667 , 4128.20512821 , 4129.23076923 , 2042.0 , 2030.0 , 8.199 , 0.0 , 0.0 , 0.0 , 0.0 , 

77.0 , 4127.17948718 , 4123.58974359 , 4160.0 , 4135.38461538 , 4135.8974359 , 4123.58974359 , 4121.53846154 , 4132.30769231 , 4130.76923077 , 4138.97435897 , 4155.38461538 , 4468.20512821 , 4128.71794872 , 4129.74358974 , 2041.0 , 2031.0 , 8.208 , 0.0 , 0.0 , 0.0 , 0.0 , 

78.0 , 4127.17948718 , 4126.66666667 , 4157.43589744 , 4135.38461538 , 4135.8974359 , 4122.05128205 , 4123.07692308 , 4133.84615385 , 4133.84615385 , 4136.92307692 , 4155.38461538 , 4467.69230769 , 4128.71794872 , 4130.76923077 , 2040.0 , 2032.0 , 8.215 , 0.0 , 0.0 , 0.0 , 0.0 , 

79.0 , 4127.69230769 , 4129.74358974 , 4161.53846154 , 4135.38461538 , 4135.8974359 , 4125.64102564 , 4137.43589744 , 4132.82051282 , 4140.0 , 4136.92307692 , 4155.38461538 , 4466.66666667 , 4127.17948718 , 4129.74358974 , 2040.0 , 2031.0 , 8.222 , 0.0 , 0.0 , 0.0 , 0.0 , 

80.0 , 4126.66666667 , 4127.17948718 , 4160.0 , 4135.38461538 , 4135.8974359 , 4124.1025641 , 4133.33333333 , 4131.28205128 , 4136.41025641 , 4137.94871795 , 4154.87179487 , 4466.66666667 , 4128.20512821 , 4129.23076923 , 2041.0 , 2032.0 , 8.234 , 0.0 , 0.0 , 0.0 , 0.0 , 

81.0 , 4126.66666667 , 4125.12820513 , 4161.02564103 , 4135.38461538 , 4135.8974359 , 4127.69230769 , 4125.64102564 , 4133.33333333 , 4130.25641026 , 4138.97435897 , 4153.84615385 , 4469.74358974 , 4131.28205128 , 4130.25641026 , 2040.0 , 2033.0 , 8.239 , 0.0 , 0.0 , 0.0 , 0.0 , 

82.0 , 4127.69230769 , 4126.15384615 , 4161.53846154 , 4135.38461538 , 4135.8974359 , 4134.35897436 , 4131.28205128 , 4130.76923077 , 4132.30769231 , 4139.48717949 , 4152.82051282 , 4469.74358974 , 4129.23076923 , 4130.76923077 , 2040.0 , 2033.0 , 8.246 , 0.0 , 0.0 , 0.0 , 0.0 , 

83.0 , 4129.74358974 , 4127.69230769 , 4162.56410256 , 4135.38461538 , 4135.8974359 , 4130.76923077 , 4127.69230769 , 4129.23076923 , 4133.33333333 , 4140.0 , 4153.84615385 , 4466.15384615 , 4127.17948718 , 4130.76923077 , 2040.0 , 2034.0 , 8.254 , 0.0 , 0.0 , 0.0 , 0.0 , 

84.0 , 4128.20512821 , 4127.17948718 , 4164.1025641 , 4135.38461538 , 4135.8974359 , 4128.20512821 , 4121.53846154 , 4131.79487179 , 4131.28205128 , 4138.46153846 , 4154.87179487 , 4468.20512821 , 4129.74358974 , 4130.25641026 , 2041.0 , 2033.0 , 8.262 , 0.0 , 0.0 , 0.0 , 0.0 , 

85.0 , 4125.64102564 , 4125.12820513 , 4171.79487179 , 4135.38461538 , 4135.8974359 , 4130.25641026 , 4125.12820513 , 4133.33333333 , 4135.8974359 , 4138.97435897 , 4154.87179487 , 4471.79487179 , 4130.25641026 , 4132.30769231 , 2041.0 , 2033.0 , 8.271 , 0.0 , 0.0 , 0.0 , 0.0 , 

86.0 , 4126.66666667 , 4125.64102564 , 4168.71794872 , 4135.38461538 , 4135.8974359 , 4127.69230769 , 4124.1025641 , 4131.28205128 , 4135.8974359 , 4140.51282051 , 4154.35897436 , 4471.28205128 , 4127.69230769 , 4133.33333333 , 2041.0 , 2033.0 , 8.281 , 0.0 , 0.0 , 0.0 , 0.0 , 

87.0 , 4129.23076923 , 4127.17948718 , 4160.51282051 , 4135.38461538 , 4135.8974359 , 4125.64102564 , 4126.15384615 , 4130.25641026 , 4129.23076923 , 4138.46153846 , 4153.84615385 , 4469.74358974 , 4126.15384615 , 4131.79487179 , 2041.0 , 2033.0 , 8.286 , 0.0 , 0.0 , 0.0 , 0.0 , 

88.0 , 4128.20512821 , 4127.17948718 , 4158.46153846 , 4135.38461538 , 4135.8974359 , 4127.17948718 , 4133.33333333 , 4130.25641026 , 4128.20512821 , 4136.92307692 , 4154.35897436 , 4470.25641026 , 4126.15384615 , 4128.20512821 , 2042.0 , 2035.0 , 8.293 , 0.0 , 0.0 , 0.0 , 0.0 , 

89.0 , 4127.69230769 , 4128.20512821 , 4157.94871795 , 4135.38461538 , 4135.8974359 , 4126.66666667 , 4133.84615385 , 4128.20512821 , 4131.79487179 , 4138.46153846 , 4154.35897436 , 4472.30769231 , 4128.20512821 , 4127.17948718 , 2043.0 , 2036.0 , 8.301 , 0.0 , 0.0 , 0.0 , 0.0 , 

90.0 , 4129.74358974 , 4128.20512821 , 4150.76923077 , 4135.38461538 , 4135.8974359 , 4126.66666667 , 4134.35897436 , 4128.20512821 , 4132.30769231 , 4138.46153846 , 4153.84615385 , 4471.79487179 , 4127.69230769 , 4129.23076923 , 2044.0 , 2037.0 , 8.31 , 0.0 , 0.0 , 0.0 , 0.0 , 

91.0 , 4128.71794872 , 4124.1025641 , 4149.23076923 , 4135.38461538 , 4135.8974359 , 4126.66666667 , 4133.33333333 , 4130.25641026 , 4133.84615385 , 4136.92307692 , 4154.35897436 , 4470.76923077 , 4127.17948718 , 4131.28205128 , 2044.0 , 2036.0 , 8.318 , 0.0 , 0.0 , 0.0 , 0.0 , 

92.0 , 4127.69230769 , 4124.61538462 , 4156.92307692 , 4135.38461538 , 4135.8974359 , 4126.66666667 , 4125.64102564 , 4130.25641026 , 4134.87179487 , 4136.41025641 , 4154.87179487 , 4472.30769231 , 4126.66666667 , 4130.76923077 , 2043.0 , 2039.0 , 8.326 , 0.0 , 0.0 , 0.0 , 0.0 , 

93.0 , 4127.17948718 , 4129.23076923 , 4154.35897436 , 4135.38461538 , 4135.8974359 , 4126.66666667 , 4125.64102564 , 4129.23076923 , 4130.25641026 , 4137.43589744 , 4153.84615385 , 4471.28205128 , 4126.66666667 , 4130.76923077 , 2043.0 , 2038.0 , 8.333 , 0.0 , 0.0 , 0.0 , 0.0 , 

94.0 , 4126.15384615 , 4129.74358974 , 4145.12820513 , 4135.38461538 , 4135.8974359 , 4126.66666667 , 4133.84615385 , 4128.20512821 , 4127.69230769 , 4136.92307692 , 4152.82051282 , 4467.69230769 , 4126.66666667 , 4132.82051282 , 2043.0 , 2037.0 , 8.342 , 0.0 , 0.0 , 0.0 , 0.0 , 

95.0 , 4127.17948718 , 4127.17948718 , 4146.66666667 , 4135.38461538 , 4135.8974359 , 4126.66666667 , 4133.84615385 , 4127.17948718 , 4130.25641026 , 4136.92307692 , 4152.30769231 , 4473.33333333 , 4128.20512821 , 4131.79487179 , 2043.0 , 2039.0 , 8.348 , 0.0 , 0.0 , 0.0 , 0.0 , 

96.0 , 4128.71794872 , 4126.15384615 , 4152.30769231 , 4135.38461538 , 4135.8974359 , 4126.66666667 , 4127.69230769 , 4126.66666667 , 4131.79487179 , 4136.92307692 , 4152.30769231 , 4477.94871795 , 4128.71794872 , 4130.25641026 , 2043.0 , 2039.0 , 8.356 , 0.0 , 0.0 , 0.0 , 0.0 , 

97.0 , 4128.20512821 , 4125.64102564 , 4149.23076923 , 4135.38461538 , 4135.8974359 , 4126.66666667 , 4125.12820513 , 4129.74358974 , 4129.74358974 , 4137.43589744 , 4153.84615385 , 4473.84615385 , 4128.20512821 , 4131.79487179 , 2042.0 , 2039.0 , 8.364 , 0.0 , 0.0 , 0.0 , 0.0 , 

98.0 , 4129.74358974 , 4123.58974359 , 4149.74358974 , 4135.8974359 , 4135.8974359 , 4126.66666667 , 4124.1025641 , 4132.30769231 , 4130.25641026 , 4138.97435897 , 4154.35897436 , 4474.35897436 , 4128.71794872 , 4133.84615385 , 2043.0 , 2038.0 , 8.372 , 0.0 , 0.0 , 0.0 , 0.0 , 

99.0 , 4130.25641026 , 4125.64102564 , 4145.12820513 , 4134.87179487 , 4135.8974359 , 4126.66666667 , 4123.07692308 , 4129.74358974 , 4131.79487179 , 4139.48717949 , 4153.33333333 , 4478.46153846 , 4128.20512821 , 4130.76923077 , 2043.0 , 2037.0 , 8.384 , 0.0 , 0.0 , 0.0 , 0.0 , 

100.0 , 4127.17948718 , 4128.20512821 , 4142.05128205 , 4134.35897436 , 4135.8974359 , 4126.66666667 , 4128.20512821 , 4128.71794872 , 4132.30769231 , 4139.48717949 , 4154.35897436 , 4474.87179487 , 4126.66666667 , 4127.17948718 , 2043.0 , 2036.0 , 8.388 , 0.0 , 0.0 , 0.0 , 0.0 , 

101.0 , 4127.17948718 , 4129.23076923 , 4140.0 , 4137.43589744 , 4135.8974359 , 4126.66666667 , 4137.94871795 , 4129.23076923 , 4132.30769231 , 4137.43589744 , 4154.87179487 , 4472.30769231 , 4123.07692308 , 4130.76923077 , 2043.0 , 2034.0 , 8.396 , 0.0 , 0.0 , 0.0 , 0.0 , 

102.0 , 4129.74358974 , 4126.66666667 , 4140.0 , 4133.33333333 , 4135.8974359 , 4126.66666667 , 4131.79487179 , 4129.74358974 , 4130.76923077 , 4137.94871795 , 4154.35897436 , 4476.41025641 , 4124.61538462 , 4132.82051282 , 2042.0 , 2034.0 , 8.404 , 0.0 , 0.0 , 0.0 , 0.0 , 

103.0 , 4128.20512821 , 4126.15384615 , 4142.56410256 , 4126.66666667 , 4135.8974359 , 4126.66666667 , 4118.46153846 , 4128.71794872 , 4130.76923077 , 4140.0 , 4153.84615385 , 4478.46153846 , 4128.20512821 , 4128.71794872 , 2042.0 , 2033.0 , 8.412 , 0.0 , 0.0 , 0.0 , 0.0 , 

104.0 , 4126.15384615 , 4128.20512821 , 4150.76923077 , 4131.28205128 , 4135.8974359 , 4126.66666667 , 4126.15384615 , 4129.74358974 , 4136.92307692 , 4138.46153846 , 4154.35897436 , 4478.46153846 , 4128.20512821 , 4129.74358974 , 2044.0 , 2034.0 , 8.419 , 0.0 , 0.0 , 0.0 , 0.0 , 

105.0 , 4128.20512821 , 4129.23076923 , 4144.61538462 , 4139.48717949 , 4135.8974359 , 4126.66666667 , 4138.97435897 , 4130.76923077 , 4137.43589744 , 4134.87179487 , 4153.84615385 , 4475.8974359 , 4126.66666667 , 4132.30769231 , 2045.0 , 2034.0 , 8.427 , 0.0 , 0.0 , 0.0 , 0.0 , 

106.0 , 4128.71794872 , 4127.17948718 , 4132.82051282 , 4133.33333333 , 4135.8974359 , 4126.66666667 , 4129.23076923 , 4130.25641026 , 4130.25641026 , 4136.92307692 , 4154.35897436 , 4475.38461538 , 4128.71794872 , 4130.76923077 , 2043.0 , 2033.0 , 8.435 , 0.0 , 0.0 , 0.0 , 0.0 , 

107.0 , 4127.17948718 , 4128.20512821 , 4131.79487179 , 4128.71794872 , 4135.8974359 , 4126.66666667 , 4122.05128205 , 4128.71794872 , 4128.20512821 , 4138.46153846 , 4156.41025641 , 4477.43589744 , 4128.20512821 , 4130.25641026 , 2044.0 , 2032.0 , 8.443 , 0.0 , 0.0 , 0.0 , 0.0 , 

108.0 , 4124.61538462 , 4130.25641026 , 4133.33333333 , 4134.35897436 , 4135.8974359 , 4126.66666667 , 4130.76923077 , 4127.69230769 , 4131.28205128 , 4133.33333333 , 4156.92307692 , 4478.97435897 , 4126.66666667 , 4130.76923077 , 2044.0 , 2032.0 , 8.451 , 0.0 , 0.0 , 0.0 , 0.0 , 

109.0 , 4126.15384615 , 4129.74358974 , 4130.25641026 , 4135.38461538 , 4135.8974359 , 4127.17948718 , 4127.17948718 , 4129.74358974 , 4132.82051282 , 4132.30769231 , 4153.84615385 , 4478.97435897 , 4127.69230769 , 4128.71794872 , 2043.0 , 2031.0 , 8.459 , 0.0 , 0.0 , 0.0 , 0.0 , 

110.0 , 4128.20512821 , 4128.20512821 , 4137.94871795 , 4132.30769231 , 4135.8974359 , 4127.17948718 , 4119.48717949 , 4130.25641026 , 4131.79487179 , 4138.46153846 , 4152.82051282 , 4476.41025641 , 4128.20512821 , 4130.25641026 , 2044.0 , 2031.0 , 8.468 , 0.0 , 0.0 , 0.0 , 0.0 , 

111.0 , 4126.66666667 , 4131.28205128 , 4151.79487179 , 4133.84615385 , 4135.8974359 , 4126.15384615 , 4131.79487179 , 4128.71794872 , 4129.74358974 , 4138.97435897 , 4155.38461538 , 4473.84615385 , 4129.23076923 , 4131.79487179 , 2043.0 , 2033.0 , 8.475 , 0.0 , 0.0 , 0.0 , 0.0 , 

112.0 , 4127.17948718 , 4132.30769231 , 4151.79487179 , 4136.92307692 , 4135.8974359 , 4127.69230769 , 4134.87179487 , 4127.69230769 , 4130.76923077 , 4135.38461538 , 4156.41025641 , 4473.33333333 , 4130.76923077 , 4130.76923077 , 2043.0 , 2034.0 , 8.486 , 0.0 , 0.0 , 0.0 , 0.0 , 

113.0 , 4129.74358974 , 4127.69230769 , 4135.8974359 , 4136.41025641 , 4135.8974359 , 4127.17948718 , 4121.02564103 , 4128.20512821 , 4132.82051282 , 4135.8974359 , 4155.8974359 , 4475.38461538 , 4128.71794872 , 4128.71794872 , 2042.0 , 2035.0 , 8.49 , 0.0 , 0.0 , 0.0 , 0.0 , 

114.0 , 4129.23076923 , 4126.66666667 , 4118.46153846 , 4134.87179487 , 4135.8974359 , 4123.58974359 , 4122.56410256 , 4129.23076923 , 4131.28205128 , 4137.94871795 , 4152.30769231 , 4476.41025641 , 4124.1025641 , 4129.23076923 , 2042.0 , 2035.0 , 8.498 , 0.0 , 0.0 , 0.0 , 0.0 , 

115.0 , 4126.66666667 , 4128.71794872 , 4111.79487179 , 4135.8974359 , 4135.8974359 , 4127.17948718 , 4134.87179487 , 4127.69230769 , 4129.74358974 , 4137.94871795 , 4151.79487179 , 4475.38461538 , 4124.1025641 , 4130.76923077 , 2041.0 , 2035.0 , 8.506 , 0.0 , 0.0 , 0.0 , 0.0 , 

116.0 , 4127.17948718 , 4127.17948718 , 4112.30769231 , 4134.35897436 , 4135.8974359 , 4133.33333333 , 4132.82051282 , 4128.20512821 , 4130.76923077 , 4137.43589744 , 4153.84615385 , 4475.8974359 , 4127.17948718 , 4130.25641026 , 2042.0 , 2035.0 , 8.514 , 0.0 , 0.0 , 0.0 , 0.0 , 

117.0 , 4128.71794872 , 4124.61538462 , 4123.58974359 , 4132.30769231 , 4135.8974359 , 4130.76923077 , 4123.07692308 , 4130.76923077 , 4131.28205128 , 4137.94871795 , 4154.35897436 , 4478.46153846 , 4127.69230769 , 4129.23076923 , 2043.0 , 2034.0 , 8.522 , 0.0 , 0.0 , 0.0 , 0.0 , 

118.0 , 4127.17948718 , 4126.66666667 , 4133.33333333 , 4132.30769231 , 4135.8974359 , 4127.69230769 , 4120.51282051 , 4130.76923077 , 4132.30769231 , 4138.97435897 , 4153.33333333 , 4479.48717949 , 4126.15384615 , 4130.76923077 , 2042.0 , 2035.0 , 8.53 , 0.0 , 0.0 , 0.0 , 0.0 , 

119.0 , 4125.12820513 , 4129.23076923 , 4141.02564103 , 4133.33333333 , 4135.8974359 , 4130.25641026 , 4128.71794872 , 4130.25641026 , 4133.33333333 , 4138.97435897 , 4154.87179487 , 4477.43589744 , 4127.69230769 , 4132.30769231 , 2041.0 , 2034.0 , 8.539 , 0.0 , 0.0 , 0.0 , 0.0 , 

120.0 , 4125.12820513 , 4129.23076923 , 4143.58974359 , 4131.79487179 , 4135.8974359 , 4130.76923077 , 4135.8974359 , 4133.33333333 , 4132.30769231 , 4137.43589744 , 4156.41025641 , 4476.41025641 , 4129.23076923 , 4130.76923077 , 2040.0 , 2033.0 , 8.546 , 0.0 , 0.0 , 0.0 , 0.0 , 

121.0 , 4128.20512821 , 4127.69230769 , 4141.02564103 , 4126.15384615 , 4135.8974359 , 4128.20512821 , 4135.8974359 , 4135.38461538 , 4134.35897436 , 4138.46153846 , 4155.38461538 , 4477.43589744 , 4126.15384615 , 4130.76923077 , 2040.0 , 2031.0 , 8.554 , 0.0 , 0.0 , 0.0 , 0.0 , 

122.0 , 4130.25641026 , 4127.69230769 , 4129.23076923 , 4123.58974359 , 4135.8974359 , 4128.71794872 , 4133.33333333 , 4130.76923077 , 4135.8974359 , 4137.43589744 , 4152.82051282 , 4478.46153846 , 4124.61538462 , 4130.25641026 , 2041.0 , 2032.0 , 8.561 , 0.0 , 0.0 , 0.0 , 0.0 , 

123.0 , 4128.71794872 , 4129.74358974 , 4123.07692308 , 4129.74358974 , 4135.8974359 , 4129.74358974 , 4133.33333333 , 4128.20512821 , 4133.84615385 , 4136.41025641 , 4152.30769231 , 4480.0 , 4126.66666667 , 4129.74358974 , 2040.0 , 2033.0 , 8.57 , 0.0 , 0.0 , 0.0 , 0.0 , 

124.0 , 4126.15384615 , 4130.76923077 , 4127.17948718 , 4134.87179487 , 4135.8974359 , 4130.25641026 , 4135.38461538 , 4129.23076923 , 4130.76923077 , 4141.02564103 , 4154.35897436 , 4477.43589744 , 4126.66666667 , 4130.25641026 , 2039.0 , 2032.0 , 8.578 , 0.0 , 0.0 , 0.0 , 0.0 , 

125.0 , 4125.64102564 , 4128.20512821 , 4129.23076923 , 4133.33333333 , 4135.8974359 , 4129.74358974 , 4133.33333333 , 4128.71794872 , 4129.74358974 , 4142.56410256 , 4155.8974359 , 4476.92307692 , 4125.12820513 , 4130.76923077 , 2041.0 , 2033.0 , 8.589 , 0.0 , 0.0 , 0.0 , 0.0 , 

126.0 , 4128.20512821 , 4127.17948718 , 4121.53846154 , 4132.30769231 , 4135.8974359 , 4129.74358974 , 4122.56410256 , 4127.69230769 , 4130.76923077 , 4138.97435897 , 4154.35897436 , 4478.97435897 , 4124.61538462 , 4129.74358974 , 2042.0 , 2035.0 , 8.593 , 0.0 , 0.0 , 0.0 , 0.0 , 

127.0 , 4129.23076923 , 4129.23076923 , 4124.61538462 , 4130.25641026 , 4135.8974359 , 4130.25641026 , 4122.05128205 , 4129.23076923 , 4132.30769231 , 4135.8974359 , 4152.82051282 , 4477.94871795 , 4126.66666667 , 4131.28205128 , 2042.0 , 2038.0 , 8.601 , 0.0 , 0.0 , 0.0 , 0.0 , 

128.0 , 4129.23076923 , 4129.74358974 , 4143.58974359 , 4124.61538462 , 4135.8974359 , 4130.25641026 , 4133.33333333 , 4129.74358974 , 4131.79487179 , 4137.43589744 , 4156.41025641 , 4475.8974359 , 4128.20512821 , 4131.28205128 , 2041.0 , 2036.0 , 8.609 , 0.0 , 0.0 , 0.0 , 0.0 , 

0.0 , 4126.66666667 , 4128.20512821 , 4153.84615385 , 4129.23076923 , 4135.8974359 , 4130.25641026 , 4130.76923077 , 4130.25641026 , 4132.82051282 , 4139.48717949 , 4159.48717949 , 4477.94871795 , 4127.69230769 , 4131.28205128 , 2042.0 , 2036.0 , 8.616 , 0.0 , 0.0 , 0.0 , 0.0 , 

1.0 , 4125.64102564 , 4127.17948718 , 4153.33333333 , 4134.87179487 , 4135.8974359 , 4130.25641026 , 4126.66666667 , 4131.79487179 , 4134.35897436 , 4138.97435897 , 4156.92307692 , 4480.0 , 4126.66666667 , 4131.79487179 , 2040.0 , 2037.0 , 8.624 , 0.0 , 0.0 , 0.0 , 0.0 , 

2.0 , 4128.71794872 , 4128.20512821 , 4153.33333333 , 4132.30769231 , 4135.8974359 , 4130.25641026 , 4134.35897436 , 4131.79487179 , 4133.33333333 , 4137.94871795 , 4154.87179487 , 4478.97435897 , 4128.71794872 , 4132.30769231 , 2040.0 , 2035.0 , 8.632 , 0.0 , 0.0 , 0.0 , 0.0 , 

3.0 , 4129.23076923 , 4129.23076923 , 4152.30769231 , 4133.84615385 , 4135.8974359 , 4130.25641026 , 4129.23076923 , 4130.76923077 , 4132.82051282 , 4138.46153846 , 4155.8974359 , 4478.46153846 , 4130.25641026 , 4131.79487179 , 2042.0 , 2036.0 , 8.64 , 0.0 , 0.0 , 0.0 , 0.0 , 

4.0 , 4126.66666667 , 4127.17948718 , 4147.17948718 , 4135.38461538 , 4135.8974359 , 4130.25641026 , 4118.46153846 , 4130.25641026 , 4134.35897436 , 4140.51282051 , 4154.35897436 , 4480.0 , 4128.20512821 , 4130.25641026 , 2042.0 , 2034.0 , 8.648 , 0.0 , 0.0 , 0.0 , 0.0 , 

5.0 , 4126.15384615 , 4127.17948718 , 4143.58974359 , 4132.30769231 , 4135.8974359 , 4130.25641026 , 4128.71794872 , 4130.25641026 , 4133.33333333 , 4138.97435897 , 4153.33333333 , 4481.53846154 , 4125.64102564 , 4129.74358974 , 2042.0 , 2036.0 , 8.656 , 0.0 , 0.0 , 0.0 , 0.0 , 

6.0 , 4125.64102564 , 4127.69230769 , 4133.84615385 , 4131.79487179 , 4135.8974359 , 4130.25641026 , 4140.0 , 4130.25641026 , 4132.30769231 , 4137.94871795 , 4156.41025641 , 4478.46153846 , 4125.12820513 , 4131.79487179 , 2042.0 , 2036.0 , 8.665 , 0.0 , 0.0 , 0.0 , 0.0 , 

7.0 , 4125.64102564 , 4127.17948718 , 4127.69230769 , 4133.84615385 , 4135.8974359 , 4130.25641026 , 4128.71794872 , 4130.76923077 , 4133.84615385 , 4139.48717949 , 4154.87179487 , 4475.8974359 , 4126.15384615 , 4131.28205128 , 2044.0 , 2035.0 , 8.672 , 0.0 , 0.0 , 0.0 , 0.0 , 

8.0 , 4125.12820513 , 4129.74358974 , 4127.69230769 , 4134.87179487 , 4135.8974359 , 4130.25641026 , 4120.0 , 4128.71794872 , 4134.35897436 , 4141.02564103 , 4151.28205128 , 4477.94871795 , 4125.64102564 , 4128.20512821 , 2044.0 , 2035.0 , 8.679 , 0.0 , 0.0 , 0.0 , 0.0 , 

9.0 , 4125.12820513 , 4132.82051282 , 4131.28205128 , 4132.30769231 , 4135.8974359 , 4130.25641026 , 4130.76923077 , 4127.69230769 , 4135.38461538 , 4139.48717949 , 4154.87179487 , 4480.0 , 4125.64102564 , 4129.23076923 , 2045.0 , 2035.0 , 8.691 , 0.0 , 0.0 , 0.0 , 0.0 , 

10.0 , 4125.12820513 , 4130.76923077 , 4133.84615385 , 4126.66666667 , 4135.8974359 , 4130.25641026 , 4140.0 , 4130.25641026 , 4133.33333333 , 4136.41025641 , 4157.43589744 , 4477.43589744 , 4126.15384615 , 4132.30769231 , 2043.0 , 2036.0 , 8.695 , 0.0 , 0.0 , 0.0 , 0.0 , 

11.0 , 4125.64102564 , 4126.66666667 , 4138.46153846 , 4123.58974359 , 4135.8974359 , 4130.25641026 , 4129.23076923 , 4130.25641026 , 4130.76923077 , 4138.46153846 , 4152.82051282 , 4477.43589744 , 4128.71794872 , 4131.79487179 , 2042.0 , 2035.0 , 8.703 , 0.0 , 0.0 , 0.0 , 0.0 , 

12.0 , 4129.23076923 , 4128.20512821 , 4130.25641026 , 4127.17948718 , 4135.8974359 , 4130.25641026 , 4121.02564103 , 4127.69230769 , 4128.71794872 , 4137.43589744 , 4151.79487179 , 4480.0 , 4129.23076923 , 4129.74358974 , 2042.0 , 2033.0 , 8.711 , 0.0 , 0.0 , 0.0 , 0.0 , 

13.0 , 4132.30769231 , 4132.30769231 , 4120.51282051 , 4128.71794872 , 4135.8974359 , 4130.25641026 , 4124.61538462 , 4129.74358974 , 4130.25641026 , 4134.35897436 , 4154.87179487 , 4479.48717949 , 4125.64102564 , 4130.25641026 , 2042.0 , 2034.0 , 8.719 , 0.0 , 0.0 , 0.0 , 0.0 , 

14.0 , 4129.74358974 , 4131.28205128 , 4124.1025641 , 4124.61538462 , 4135.8974359 , 4130.25641026 , 4125.12820513 , 4130.76923077 , 4131.79487179 , 4136.41025641 , 4152.82051282 , 4479.48717949 , 4125.12820513 , 4130.25641026 , 2042.0 , 2036.0 , 8.727 , 0.0 , 0.0 , 0.0 , 0.0 , 

15.0 , 4126.66666667 , 4127.69230769 , 4132.82051282 , 4129.23076923 , 4135.8974359 , 4130.25641026 , 4126.66666667 , 4128.71794872 , 4130.76923077 , 4140.51282051 , 4151.28205128 , 4480.51282051 , 4126.66666667 , 4130.25641026 , 2042.0 , 2035.0 , 8.735 , 0.0 , 0.0 , 0.0 , 0.0 , 

16.0 , 4127.69230769 , 4127.17948718 , 4126.66666667 , 4138.46153846 , 4135.8974359 , 4130.25641026 , 4132.30769231 , 4128.71794872 , 4128.71794872 , 4138.97435897 , 4153.84615385 , 4477.94871795 , 4125.64102564 , 4129.23076923 , 2041.0 , 2036.0 , 8.743 , 0.0 , 0.0 , 0.0 , 0.0 , 

17.0 , 4126.66666667 , 4129.23076923 , 4123.07692308 , 4135.38461538 , 4135.8974359 , 4130.25641026 , 4130.76923077 , 4129.74358974 , 4129.74358974 , 4138.46153846 , 4155.38461538 , 4477.94871795 , 4124.61538462 , 4129.74358974 , 2041.0 , 2037.0 , 8.75 , 0.0 , 0.0 , 0.0 , 0.0 , 

18.0 , 4126.15384615 , 4127.69230769 , 4135.8974359 , 4130.25641026 , 4135.8974359 , 4130.25641026 , 4125.12820513 , 4129.23076923 , 4134.35897436 , 4141.53846154 , 4153.33333333 , 4481.53846154 , 4127.69230769 , 4130.76923077 , 2042.0 , 2038.0 , 8.758 , 0.0 , 0.0 , 0.0 , 0.0 , 

19.0 , 4129.23076923 , 4127.69230769 , 4138.97435897 , 4134.87179487 , 4135.8974359 , 4130.25641026 , 4127.17948718 , 4127.69230769 , 4133.84615385 , 4138.97435897 , 4152.30769231 , 4481.02564103 , 4129.74358974 , 4132.82051282 , 2042.0 , 2037.0 , 8.766 , 0.0 , 0.0 , 0.0 , 0.0 , 

20.0 , 4130.76923077 , 4129.74358974 , 4130.76923077 , 4131.79487179 , 4135.8974359 , 4130.25641026 , 4125.12820513 , 4126.66666667 , 4130.25641026 , 4138.46153846 , 4152.30769231 , 4479.48717949 , 4129.23076923 , 4130.76923077 , 2042.0 , 2037.0 , 8.774 , 0.0 , 0.0 , 0.0 , 0.0 , 

21.0 , 4129.74358974 , 4126.15384615 , 4134.35897436 , 4125.12820513 , 4135.8974359 , 4130.25641026 , 4124.1025641 , 4129.74358974 , 4130.76923077 , 4143.07692308 , 4153.33333333 , 4481.02564103 , 4128.20512821 , 4129.23076923 , 2041.0 , 2038.0 , 8.782 , 0.0 , 0.0 , 0.0 , 0.0 , 

22.0 , 4128.71794872 , 4123.58974359 , 4140.0 , 4131.28205128 , 4135.8974359 , 4130.25641026 , 4132.82051282 , 4131.28205128 , 4132.82051282 , 4142.56410256 , 4154.35897436 , 4482.05128205 , 4128.71794872 , 4131.28205128 , 2042.0 , 2038.0 , 8.793 , 0.0 , 0.0 , 0.0 , 0.0 , 

23.0 , 4128.20512821 , 4130.76923077 , 4129.23076923 , 4135.8974359 , 4135.8974359 , 4130.25641026 , 4132.82051282 , 4129.23076923 , 4132.82051282 , 4138.97435897 , 4154.35897436 , 4480.0 , 4129.23076923 , 4131.79487179 , 2039.0 , 2038.0 , 8.798 , 0.0 , 0.0 , 0.0 , 0.0 , 

24.0 , 4127.69230769 , 4134.87179487 , 4122.56410256 , 4131.79487179 , 4135.8974359 , 4130.25641026 , 4132.30769231 , 4130.25641026 , 4131.79487179 , 4138.97435897 , 4153.33333333 , 4481.02564103 , 4128.20512821 , 4130.76923077 , 2039.0 , 2038.0 , 8.807 , 0.0 , 0.0 , 0.0 , 0.0 , 

25.0 , 4127.17948718 , 4129.23076923 , 4118.97435897 , 4129.74358974 , 4135.8974359 , 4130.25641026 , 4135.38461538 , 4131.79487179 , 4131.28205128 , 4137.43589744 , 4153.33333333 , 4480.51282051 , 4126.15384615 , 4131.79487179 , 2040.0 , 2037.0 , 8.813 , 0.0 , 0.0 , 0.0 , 0.0 , 

26.0 , 4126.66666667 , 4127.17948718 , 4118.46153846 , 4133.84615385 , 4135.8974359 , 4130.25641026 , 4129.74358974 , 4129.23076923 , 4131.79487179 , 4134.35897436 , 4154.87179487 , 4477.94871795 , 4128.20512821 , 4131.79487179 , 2040.0 , 2036.0 , 8.821 , 0.0 , 0.0 , 0.0 , 0.0 , 

27.0 , 4127.17948718 , 4129.23076923 , 4117.43589744 , 4135.38461538 , 4135.8974359 , 4130.25641026 , 4125.12820513 , 4128.20512821 , 4131.79487179 , 4136.41025641 , 4153.33333333 , 4479.48717949 , 4129.74358974 , 4130.25641026 , 2042.0 , 2036.0 , 8.829 , 0.0 , 0.0 , 0.0 , 0.0 , 

28.0 , 4128.71794872 , 4127.69230769 , 4117.43589744 , 4135.38461538 , 4135.8974359 , 4130.25641026 , 4129.23076923 , 4129.74358974 , 4131.28205128 , 4138.46153846 , 4152.30769231 , 4479.48717949 , 4128.20512821 , 4131.79487179 , 2041.0 , 2035.0 , 8.837 , 0.0 , 0.0 , 0.0 , 0.0 , 

29.0 , 4128.71794872 , 4128.20512821 , 4115.38461538 , 4134.35897436 , 4135.8974359 , 4130.25641026 , 4126.15384615 , 4129.23076923 , 4130.76923077 , 4137.43589744 , 4153.84615385 , 4475.8974359 , 4125.64102564 , 4131.28205128 , 2041.0 , 2035.0 , 8.845 , 0.0 , 0.0 , 0.0 , 0.0 , 

30.0 , 4128.20512821 , 4130.25641026 , 4125.12820513 , 4134.35897436 , 4135.8974359 , 4130.25641026 , 4125.64102564 , 4128.71794872 , 4130.76923077 , 4138.97435897 , 4154.87179487 , 4476.41025641 , 4127.17948718 , 4129.23076923 , 2043.0 , 2034.0 , 8.853 , 0.0 , 0.0 , 0.0 , 0.0 , 

31.0 , 4128.71794872 , 4129.74358974 , 4130.25641026 , 4135.38461538 , 4135.8974359 , 4130.25641026 , 4134.87179487 , 4129.74358974 , 4130.25641026 , 4140.51282051 , 4154.35897436 , 4476.92307692 , 4129.74358974 , 4130.25641026 , 2043.0 , 2034.0 , 8.861 , 0.0 , 0.0 , 0.0 , 0.0 , 

32.0 , 4127.69230769 , 4128.20512821 , 4124.1025641 , 4134.35897436 , 4135.8974359 , 4130.25641026 , 4128.20512821 , 4129.23076923 , 4131.28205128 , 4137.94871795 , 4155.38461538 , 4475.8974359 , 4129.74358974 , 4130.25641026 , 2043.0 , 2036.0 , 8.869 , 0.0 , 0.0 , 0.0 , 0.0 , 

33.0 , 4125.64102564 , 4128.20512821 , 4122.05128205 , 4133.33333333 , 4135.8974359 , 4130.25641026 , 4117.43589744 , 4129.23076923 , 4131.79487179 , 4135.38461538 , 4154.87179487 , 4478.46153846 , 4128.71794872 , 4128.20512821 , 2043.0 , 2035.0 , 8.877 , 0.0 , 0.0 , 0.0 , 0.0 , 

34.0 , 4128.20512821 , 4129.23076923 , 4129.23076923 , 4132.30769231 , 4135.8974359 , 4130.25641026 , 4127.17948718 , 4131.28205128 , 4131.79487179 , 4136.92307692 , 4152.82051282 , 4481.53846154 , 4128.71794872 , 4130.25641026 , 2043.0 , 2034.0 , 8.884 , 0.0 , 0.0 , 0.0 , 0.0 , 

35.0 , 4130.25641026 , 4132.82051282 , 4132.82051282 , 4133.33333333 , 4135.8974359 , 4130.25641026 , 4135.38461538 , 4131.79487179 , 4132.30769231 , 4137.43589744 , 4154.87179487 , 4476.92307692 , 4126.66666667 , 4132.30769231 , 2042.0 , 2033.0 , 8.897 , 0.0 , 0.0 , 0.0 , 0.0 , 

36.0 , 4125.64102564 , 4131.28205128 , 4127.69230769 , 4132.82051282 , 4135.8974359 , 4130.25641026 , 4130.76923077 , 4130.25641026 , 4131.28205128 , 4135.38461538 , 4155.8974359 , 4476.41025641 , 4127.17948718 , 4131.79487179 , 2043.0 , 2031.0 , 8.901 , 0.0 , 0.0 , 0.0 , 0.0 , 

37.0 , 4124.61538462 , 4127.69230769 , 4122.56410256 , 4131.79487179 , 4135.8974359 , 4130.25641026 , 4128.20512821 , 4129.23076923 , 4131.79487179 , 4136.41025641 , 4152.82051282 , 4479.48717949 , 4128.20512821 , 4130.76923077 , 2041.0 , 2034.0 , 8.908 , 0.0 , 0.0 , 0.0 , 0.0 , 

38.0 , 4129.23076923 , 4128.20512821 , 4121.02564103 , 4133.84615385 , 4135.8974359 , 4130.25641026 , 4129.74358974 , 4130.25641026 , 4131.79487179 , 4139.48717949 , 4153.84615385 , 4479.48717949 , 4127.69230769 , 4129.74358974 , 2040.0 , 2034.0 , 8.916 , 0.0 , 0.0 , 0.0 , 0.0 , 

39.0 , 4128.71794872 , 4129.23076923 , 4127.69230769 , 4134.87179487 , 4135.8974359 , 4130.25641026 , 4131.28205128 , 4129.23076923 , 4129.74358974 , 4138.97435897 , 4156.92307692 , 4477.94871795 , 4128.71794872 , 4130.76923077 , 2040.0 , 2034.0 , 8.924 , 0.0 , 0.0 , 0.0 , 0.0 , 

40.0 , 4128.20512821 , 4128.71794872 , 4130.76923077 , 4133.33333333 , 4135.8974359 , 4130.25641026 , 4128.20512821 , 4129.23076923 , 4131.28205128 , 4136.92307692 , 4154.35897436 , 4477.43589744 , 4129.74358974 , 4132.82051282 , 2040.0 , 2033.0 , 8.932 , 0.0 , 0.0 , 0.0 , 0.0 , 

41.0 , 4132.82051282 , 4128.71794872 , 4131.28205128 , 4133.33333333 , 4135.8974359 , 4130.25641026 , 4124.61538462 , 4130.76923077 , 4132.82051282 , 4137.94871795 , 4154.35897436 , 4478.46153846 , 4126.66666667 , 4131.28205128 , 2041.0 , 2032.0 , 8.94 , 0.0 , 0.0 , 0.0 , 0.0 , 

42.0 , 4128.20512821 , 4128.71794872 , 4140.0 , 4133.33333333 , 4135.8974359 , 4130.25641026 , 4126.15384615 , 4130.25641026 , 4129.74358974 , 4140.0 , 4157.94871795 , 4478.97435897 , 4127.17948718 , 4131.28205128 , 2041.0 , 2033.0 , 8.947 , 0.0 , 0.0 , 0.0 , 0.0 , 

43.0 , 4123.58974359 , 4128.71794872 , 4155.38461538 , 4128.20512821 , 4135.8974359 , 4130.25641026 , 4125.64102564 , 4130.76923077 , 4128.71794872 , 4138.97435897 , 4157.43589744 , 4477.43589744 , 4128.71794872 , 4134.87179487 , 2039.0 , 2033.0 , 8.955 , 0.0 , 0.0 , 0.0 , 0.0 , 

44.0 , 4129.23076923 , 4129.74358974 , 4152.82051282 , 4129.23076923 , 4135.8974359 , 4130.25641026 , 4122.56410256 , 4132.82051282 , 4131.79487179 , 4137.43589744 , 4155.38461538 , 4478.46153846 , 4128.71794872 , 4133.33333333 , 2040.0 , 2035.0 , 8.963 , 0.0 , 0.0 , 0.0 , 0.0 , 

45.0 , 4129.23076923 , 4128.71794872 , 4149.23076923 , 4131.79487179 , 4135.8974359 , 4130.25641026 , 4131.28205128 , 4133.33333333 , 4132.30769231 , 4138.97435897 , 4155.8974359 , 4481.53846154 , 4131.28205128 , 4129.74358974 , 2040.0 , 2037.0 , 8.971 , 0.0 , 0.0 , 0.0 , 0.0 , 

46.0 , 4125.12820513 , 4127.17948718 , 4149.23076923 , 4129.74358974 , 4135.8974359 , 4130.25641026 , 4140.51282051 , 4131.79487179 , 4130.25641026 , 4138.46153846 , 4154.35897436 , 4479.48717949 , 4130.76923077 , 4129.74358974 , 2042.0 , 2037.0 , 8.979 , 0.0 , 0.0 , 0.0 , 0.0 , 

47.0 , 4128.20512821 , 4129.23076923 , 4148.20512821 , 4130.76923077 , 4135.8974359 , 4130.25641026 , 4129.74358974 , 4132.30769231 , 4130.25641026 , 4137.94871795 , 4154.87179487 , 4478.46153846 , 4127.69230769 , 4132.30769231 , 2041.0 , 2037.0 , 8.987 , 0.0 , 0.0 , 0.0 , 0.0 , 

48.0 , 4130.76923077 , 4128.71794872 , 4140.51282051 , 4135.38461538 , 4135.8974359 , 4130.25641026 , 4121.53846154 , 4131.79487179 , 4132.30769231 , 4137.43589744 , 4155.38461538 , 4482.56410256 , 4128.71794872 , 4129.74358974 , 2041.0 , 2037.0 , 8.998 , 0.0 , 0.0 , 0.0 , 0.0 , 

49.0 , 4128.71794872 , 4124.61538462 , 4132.82051282 , 4134.87179487 , 4135.8974359 , 4130.25641026 , 4124.61538462 , 4130.25641026 , 4136.92307692 , 4135.8974359 , 4152.30769231 , 4481.53846154 , 4128.20512821 , 4127.17948718 , 2042.0 , 2037.0 , 9.003 , 0.0 , 0.0 , 0.0 , 0.0 , 

50.0 , 4130.25641026 , 4126.66666667 , 4120.0 , 4132.30769231 , 4135.8974359 , 4130.25641026 , 4123.58974359 , 4130.25641026 , 4134.87179487 , 4134.87179487 , 4151.79487179 , 4478.46153846 , 4122.05128205 , 4128.71794872 , 2043.0 , 2037.0 , 9.01 , 0.0 , 0.0 , 0.0 , 0.0 , 

51.0 , 4129.74358974 , 4129.74358974 , 4116.92307692 , 4133.84615385 , 4135.8974359 , 4130.25641026 , 4126.66666667 , 4129.74358974 , 4128.71794872 , 4135.8974359 , 4153.33333333 , 4480.51282051 , 4122.56410256 , 4131.79487179 , 2043.0 , 2037.0 , 9.018 , 0.0 , 0.0 , 0.0 , 0.0 , 

52.0 , 4127.17948718 , 4128.20512821 , 4126.15384615 , 4136.41025641 , 4135.8974359 , 4130.25641026 , 4132.82051282 , 4128.71794872 , 4129.23076923 , 4136.92307692 , 4153.84615385 , 4477.43589744 , 4127.69230769 , 4130.76923077 , 2041.0 , 2037.0 , 9.026 , 0.0 , 0.0 , 0.0 , 0.0 , 

53.0 , 4125.12820513 , 4126.66666667 , 4132.30769231 , 4136.41025641 , 4135.8974359 , 4130.25641026 , 4133.84615385 , 4129.74358974 , 4132.82051282 , 4137.43589744 , 4152.82051282 , 4475.38461538 , 4129.74358974 , 4130.25641026 , 2042.0 , 2037.0 , 9.034 , 0.0 , 0.0 , 0.0 , 0.0 , 

54.0 , 4124.61538462 , 4128.20512821 , 4133.33333333 , 4133.33333333 , 4135.8974359 , 4130.25641026 , 4133.33333333 , 4130.76923077 , 4131.28205128 , 4137.94871795 , 4152.82051282 , 4481.53846154 , 4130.25641026 , 4131.28205128 , 2043.0 , 2036.0 , 9.042 , 0.0 , 0.0 , 0.0 , 0.0 , 

55.0 , 4127.69230769 , 4128.20512821 , 4138.97435897 , 4132.30769231 , 4135.8974359 , 4130.25641026 , 4127.17948718 , 4130.25641026 , 4129.74358974 , 4140.0 , 4153.33333333 , 4483.58974359 , 4130.25641026 , 4131.79487179 , 2044.0 , 2036.0 , 9.05 , 0.0 , 0.0 , 0.0 , 0.0 , 

56.0 , 4128.71794872 , 4127.17948718 , 4142.56410256 , 4133.84615385 , 4135.8974359 , 4130.25641026 , 4123.07692308 , 4130.25641026 , 4132.82051282 , 4139.48717949 , 4153.84615385 , 4479.48717949 , 4129.23076923 , 4130.76923077 , 2042.0 , 2037.0 , 9.058 , 0.0 , 0.0 , 0.0 , 0.0 , 

57.0 , 4126.66666667 , 4125.64102564 , 4138.46153846 , 4132.82051282 , 4135.8974359 , 4130.25641026 , 4129.74358974 , 4132.30769231 , 4132.82051282 , 4136.92307692 , 4154.87179487 , 4480.0 , 4128.71794872 , 4131.28205128 , 2043.0 , 2037.0 , 9.066 , 0.0 , 0.0 , 0.0 , 0.0 , 

58.0 , 4127.69230769 , 4125.64102564 , 4134.35897436 , 4132.30769231 , 4135.8974359 , 4130.25641026 , 4129.23076923 , 4130.76923077 , 4129.23076923 , 4136.41025641 , 4153.84615385 , 4482.56410256 , 4128.71794872 , 4132.82051282 , 2041.0 , 2038.0 , 9.073 , 0.0 , 0.0 , 0.0 , 0.0 , 

59.0 , 4131.28205128 , 4127.17948718 , 4131.28205128 , 4133.33333333 , 4135.8974359 , 4130.25641026 , 4122.56410256 , 4127.69230769 , 4130.76923077 , 4140.0 , 4152.30769231 , 4481.53846154 , 4127.17948718 , 4132.30769231 , 2042.0 , 2038.0 , 9.081 , 0.0 , 0.0 , 0.0 , 0.0 , 

60.0 , 4130.76923077 , 4126.66666667 , 4140.0 , 4133.33333333 , 4135.8974359 , 4130.25641026 , 4130.76923077 , 4129.74358974 , 4133.84615385 , 4140.51282051 , 4157.43589744 , 4483.07692308 , 4128.20512821 , 4130.76923077 , 2042.0 , 2038.0 , 9.089 , 0.0 , 0.0 , 0.0 , 0.0 , 

61.0 , 4127.17948718 , 4126.66666667 , 4146.66666667 , 4132.82051282 , 4135.8974359 , 4130.25641026 , 4135.8974359 , 4130.25641026 , 4132.82051282 , 4137.94871795 , 4160.0 , 4483.07692308 , 4130.25641026 , 4132.30769231 , 2042.0 , 2038.0 , 9.098 , 0.0 , 0.0 , 0.0 , 0.0 , 

62.0 , 4124.1025641 , 4128.71794872 , 4136.92307692 , 4134.35897436 , 4135.8974359 , 4130.25641026 , 4123.58974359 , 4127.69230769 , 4130.25641026 , 4137.43589744 , 4153.33333333 , 4478.97435897 , 4128.20512821 , 4131.79487179 , 2042.0 , 2037.0 , 9.105 , 0.0 , 0.0 , 0.0 , 0.0 , 

63.0 , 4125.12820513 , 4126.15384615 , 4120.51282051 , 4135.8974359 , 4135.8974359 , 4130.25641026 , 4116.92307692 , 4127.69230769 , 4130.76923077 , 4138.97435897 , 4151.28205128 , 4476.92307692 , 4123.58974359 , 4128.71794872 , 2041.0 , 2036.0 , 9.113 , 0.0 , 0.0 , 0.0 , 0.0 , 

64.0 , 4128.20512821 , 4124.61538462 , 4124.61538462 , 4135.8974359 , 4135.8974359 , 4130.25641026 , 4129.74358974 , 4131.28205128 , 4131.28205128 , 4139.48717949 , 4156.92307692 , 4478.97435897 , 4124.1025641 , 4130.25641026 , 2041.0 , 2033.0 , 9.121 , 0.0 , 0.0 , 0.0 , 0.0 , 

65.0 , 4126.66666667 , 4125.12820513 , 4124.1025641 , 4135.8974359 , 4135.8974359 , 4130.25641026 , 4138.97435897 , 4132.30769231 , 4129.74358974 , 4136.92307692 , 4155.8974359 , 4478.46153846 , 4127.17948718 , 4130.76923077 , 2042.0 , 2029.0 , 9.129 , 0.0 , 0.0 , 0.0 , 0.0 , 

66.0 , 4124.61538462 , 4124.1025641 , 4111.79487179 , 4136.92307692 , 4135.8974359 , 4130.25641026 , 4128.20512821 , 4130.76923077 , 4130.25641026 , 4137.43589744 , 4151.79487179 , 4477.94871795 , 4127.17948718 , 4128.20512821 , 2042.0 , 2029.0 , 9.137 , 0.0 , 0.0 , 0.0 , 0.0 , 

67.0 , 4128.20512821 , 4125.12820513 , 4112.30769231 , 4132.82051282 , 4135.8974359 , 4130.25641026 , 4119.48717949 , 4129.74358974 , 4131.79487179 , 4139.48717949 , 4153.84615385 , 4477.43589744 , 4126.66666667 , 4129.74358974 , 2042.0 , 2032.0 , 9.144 , 0.0 , 0.0 , 0.0 , 0.0 , 

68.0 , 4132.82051282 , 4126.66666667 , 4138.46153846 , 4127.17948718 , 4135.8974359 , 4130.25641026 , 4125.64102564 , 4130.76923077 , 4132.82051282 , 4139.48717949 , 4155.8974359 , 4479.48717949 , 4129.23076923 , 4133.33333333 , 2041.0 , 2033.0 , 9.152 , 0.0 , 0.0 , 0.0 , 0.0 , 

69.0 , 4131.28205128 , 4125.12820513 , 4154.87179487 , 4129.23076923 , 4135.8974359 , 4130.25641026 , 4124.1025641 , 4130.76923077 , 4132.30769231 , 4138.46153846 , 4156.92307692 , 4483.58974359 , 4129.23076923 , 4132.30769231 , 2042.0 , 2036.0 , 9.16 , 0.0 , 0.0 , 0.0 , 0.0 , 

70.0 , 4126.66666667 , 4127.17948718 , 4142.05128205 , 4135.38461538 , 4135.8974359 , 4130.25641026 , 4121.53846154 , 4129.74358974 , 4131.79487179 , 4135.8974359 , 4155.8974359 , 4484.61538462 , 4126.66666667 , 4131.79487179 , 2043.0 , 2038.0 , 9.168 , 0.0 , 0.0 , 0.0 , 0.0 , 

71.0 , 4125.64102564 , 4129.74358974 , 4120.51282051 , 4134.87179487 , 4135.8974359 , 4130.25641026 , 4133.33333333 , 4129.23076923 , 4131.28205128 , 4135.38461538 , 4153.84615385 , 4480.0 , 4126.15384615 , 4132.30769231 , 2042.0 , 2038.0 , 9.176 , 0.0 , 0.0 , 0.0 , 0.0 , 

72.0 , 4126.15384615 , 4125.64102564 , 4111.79487179 , 4131.28205128 , 4135.8974359 , 4129.23076923 , 4136.92307692 , 4129.74358974 , 4131.28205128 , 4134.87179487 , 4153.84615385 , 4478.97435897 , 4126.15384615 , 4130.25641026 , 2043.0 , 2038.0 , 9.184 , 0.0 , 0.0 , 0.0 , 0.0 , 

73.0 , 4126.66666667 , 4124.61538462 , 4110.25641026 , 4135.38461538 , 4135.8974359 , 4130.76923077 , 4134.87179487 , 4128.71794872 , 4131.79487179 , 4135.8974359 , 4153.84615385 , 4479.48717949 , 4125.12820513 , 4128.20512821 , 2043.0 , 2035.0 , 9.192 , 0.0 , 0.0 , 0.0 , 0.0 , 

74.0 , 4125.64102564 , 4128.71794872 , 4105.64102564 , 4137.94871795 , 4135.8974359 , 4130.25641026 , 4136.41025641 , 4127.69230769 , 4131.28205128 , 4136.41025641 , 4153.84615385 , 4477.43589744 , 4128.71794872 , 4130.25641026 , 2044.0 , 2035.0 , 9.201 , 0.0 , 0.0 , 0.0 , 0.0 , 

75.0 , 4124.1025641 , 4130.25641026 , 4101.02564103 , 4132.30769231 , 4135.8974359 , 4124.1025641 , 4129.23076923 , 4127.69230769 , 4129.74358974 , 4135.38461538 , 4153.84615385 , 4478.46153846 , 4129.74358974 , 4130.25641026 , 2043.0 , 2034.0 , 9.207 , 0.0 , 0.0 , 0.0 , 0.0 , 

76.0 , 4127.69230769 , 4128.71794872 , 4100.0 , 4130.25641026 , 4135.8974359 , 4125.64102564 , 4124.1025641 , 4127.69230769 , 4131.28205128 , 4135.38461538 , 4154.35897436 , 4480.0 , 4127.17948718 , 4129.74358974 , 2044.0 , 2033.0 , 9.215 , 0.0 , 0.0 , 0.0 , 0.0 , 

77.0 , 4131.79487179 , 4126.66666667 , 4109.74358974 , 4131.79487179 , 4135.8974359 , 4133.84615385 , 4126.66666667 , 4128.71794872 , 4133.33333333 , 4137.43589744 , 4154.35897436 , 4475.38461538 , 4128.20512821 , 4129.74358974 , 2047.0 , 2034.0 , 9.223 , 0.0 , 0.0 , 0.0 , 0.0 , 

78.0 , 4127.17948718 , 4127.69230769 , 4116.92307692 , 4132.30769231 , 4135.8974359 , 4132.30769231 , 4126.15384615 , 4130.76923077 , 4132.30769231 , 4139.48717949 , 4154.35897436 , 4474.87179487 , 4130.76923077 , 4130.25641026 , 2046.0 , 2033.0 , 9.231 , 0.0 , 0.0 , 0.0 , 0.0 , 

79.0 , 4123.58974359 , 4128.71794872 , 4109.74358974 , 4130.25641026 , 4135.8974359 , 4127.69230769 , 4127.17948718 , 4132.82051282 , 4129.74358974 , 4138.97435897 , 4155.38461538 , 4477.43589744 , 4127.69230769 , 4130.76923077 , 2045.0 , 2036.0 , 9.239 , 0.0 , 0.0 , 0.0 , 0.0 , 

80.0 , 4125.64102564 , 4125.64102564 , 4097.43589744 , 4128.20512821 , 4135.8974359 , 4129.74358974 , 4130.76923077 , 4132.30769231 , 4130.25641026 , 4136.92307692 , 4155.38461538 , 4475.8974359 , 4124.61538462 , 4129.74358974 , 2045.0 , 2034.0 , 9.247 , 0.0 , 0.0 , 0.0 , 0.0 , 

81.0 , 4126.66666667 , 4122.56410256 , 4109.23076923 , 4130.76923077 , 4135.8974359 , 4130.25641026 , 4129.74358974 , 4132.82051282 , 4132.30769231 , 4137.94871795 , 4155.8974359 , 4476.41025641 , 4128.71794872 , 4128.71794872 , 2043.0 , 2033.0 , 9.255 , 0.0 , 0.0 , 0.0 , 0.0 , 

82.0 , 4125.12820513 , 4124.61538462 , 4127.17948718 , 4136.41025641 , 4135.8974359 , 4128.20512821 , 4129.23076923 , 4131.79487179 , 4133.84615385 , 4142.05128205 , 4154.87179487 , 4479.48717949 , 4131.28205128 , 4129.23076923 , 2042.0 , 2033.0 , 9.263 , 0.0 , 0.0 , 0.0 , 0.0 , 

83.0 , 4125.64102564 , 4125.64102564 , 4128.71794872 , 4134.35897436 , 4135.8974359 , 4129.74358974 , 4130.25641026 , 4131.28205128 , 4132.82051282 , 4143.58974359 , 4154.87179487 , 4478.46153846 , 4129.74358974 , 4130.76923077 , 2042.0 , 2035.0 , 9.271 , 0.0 , 0.0 , 0.0 , 0.0 , 

84.0 , 4125.64102564 , 4126.66666667 , 4124.61538462 , 4131.79487179 , 4135.8974359 , 4130.25641026 , 4127.69230769 , 4132.30769231 , 4133.84615385 , 4139.48717949 , 4156.41025641 , 4475.8974359 , 4127.17948718 , 4129.74358974 , 2041.0 , 2035.0 , 9.278 , 0.0 , 0.0 , 0.0 , 0.0 , 

85.0 , 4126.15384615 , 4126.66666667 , 4136.41025641 , 4133.33333333 , 4135.8974359 , 4129.74358974 , 4132.30769231 , 4133.33333333 , 4136.92307692 , 4139.48717949 , 4156.92307692 , 4478.46153846 , 4127.69230769 , 4129.74358974 , 2041.0 , 2035.0 , 9.287 , 0.0 , 0.0 , 0.0 , 0.0 , 

86.0 , 4128.20512821 , 4125.64102564 , 4147.17948718 , 4130.76923077 , 4135.8974359 , 4130.25641026 , 4135.8974359 , 4132.82051282 , 4135.8974359 , 4142.56410256 , 4154.87179487 , 4479.48717949 , 4128.71794872 , 4131.79487179 , 2040.0 , 2033.0 , 9.294 , 0.0 , 0.0 , 0.0 , 0.0 , 

87.0 , 4126.66666667 , 4126.15384615 , 4151.79487179 , 4130.76923077 , 4135.8974359 , 4130.25641026 , 4133.33333333 , 4134.87179487 , 4135.8974359 , 4143.07692308 , 4154.87179487 , 4478.46153846 , 4130.25641026 , 4132.82051282 , 2039.0 , 2033.0 , 9.304 , 0.0 , 0.0 , 0.0 , 0.0 , 

88.0 , 4125.64102564 , 4128.71794872 , 4153.84615385 , 4135.38461538 , 4135.8974359 , 4130.25641026 , 4136.92307692 , 4133.33333333 , 4136.41025641 , 4140.51282051 , 4157.43589744 , 4478.46153846 , 4131.28205128 , 4131.28205128 , 2041.0 , 2034.0 , 9.31 , 0.0 , 0.0 , 0.0 , 0.0 , 

89.0 , 4126.66666667 , 4128.20512821 , 4151.28205128 , 4135.38461538 , 4135.8974359 , 4130.25641026 , 4132.30769231 , 4131.28205128 , 4132.30769231 , 4137.43589744 , 4157.43589744 , 4478.46153846 , 4131.28205128 , 4129.74358974 , 2040.0 , 2034.0 , 9.319 , 0.0 , 0.0 , 0.0 , 0.0 , 

90.0 , 4126.15384615 , 4128.20512821 , 4144.1025641 , 4133.84615385 , 4135.8974359 , 4130.25641026 , 4122.05128205 , 4132.30769231 , 4128.20512821 , 4135.8974359 , 4155.38461538 , 4478.97435897 , 4128.20512821 , 4131.28205128 , 2041.0 , 2038.0 , 9.327 , 0.0 , 0.0 , 0.0 , 0.0 , 

91.0 , 4125.12820513 , 4127.69230769 , 4137.94871795 , 4135.38461538 , 4135.8974359 , 4130.25641026 , 4126.66666667 , 4131.79487179 , 4128.71794872 , 4136.92307692 , 4154.35897436 , 4478.46153846 , 4127.17948718 , 4133.84615385 , 2041.0 , 2037.0 , 9.335 , 0.0 , 0.0 , 0.0 , 0.0 , 

92.0 , 4126.66666667 , 4127.17948718 , 4132.82051282 , 4135.8974359 , 4135.8974359 , 4130.25641026 , 4131.28205128 , 4128.20512821 , 4129.74358974 , 4141.02564103 , 4153.33333333 , 4474.87179487 , 4129.23076923 , 4131.79487179 , 2042.0 , 2037.0 , 9.341 , 0.0 , 0.0 , 0.0 , 0.0 , 

93.0 , 4129.74358974 , 4128.20512821 , 4126.15384615 , 4134.35897436 , 4135.8974359 , 4130.25641026 , 4121.02564103 , 4127.69230769 , 4129.23076923 , 4143.58974359 , 4154.35897436 , 4474.87179487 , 4130.76923077 , 4131.79487179 , 2043.0 , 2036.0 , 9.349 , 0.0 , 0.0 , 0.0 , 0.0 , 

94.0 , 4130.25641026 , 4127.17948718 , 4121.02564103 , 4135.8974359 , 4135.8974359 , 4130.25641026 , 4120.51282051 , 4130.25641026 , 4130.76923077 , 4138.46153846 , 4155.38461538 , 4476.41025641 , 4126.15384615 , 4132.30769231 , 2042.0 , 2035.0 , 9.357 , 0.0 , 0.0 , 0.0 , 0.0 , 

95.0 , 4129.23076923 , 4128.71794872 , 4111.79487179 , 4136.41025641 , 4135.8974359 , 4129.74358974 , 4133.33333333 , 4131.28205128 , 4129.74358974 , 4136.92307692 , 4153.84615385 , 4477.43589744 , 4122.56410256 , 4129.74358974 , 2044.0 , 2036.0 , 9.365 , 0.0 , 0.0 , 0.0 , 0.0 , 

96.0 , 4129.74358974 , 4132.30769231 , 4113.33333333 , 4133.33333333 , 4135.8974359 , 4129.74358974 , 4126.66666667 , 4130.25641026 , 4131.28205128 , 4140.51282051 , 4153.33333333 , 4475.38461538 , 4124.61538462 , 4128.71794872 , 2045.0 , 2035.0 , 9.373 , 0.0 , 0.0 , 0.0 , 0.0 , 

97.0 , 4127.17948718 , 4127.17948718 , 4124.1025641 , 4132.82051282 , 4135.8974359 , 4131.79487179 , 4118.97435897 , 4128.71794872 , 4132.82051282 , 4141.53846154 , 4154.35897436 , 4474.35897436 , 4128.71794872 , 4131.28205128 , 2045.0 , 2037.0 , 9.381 , 0.0 , 0.0 , 0.0 , 0.0 , 

