['COUNTER', 'AF3', 'F7', 'F3', 'FC5', 'T7', 'P7', 'O1', 'O2', 'P8', 'T8', 'FC6', 'F4', 'F8', 'AF4', 'GYROX', 'GYROY', 'TIMESTAMP', 'FUNC_ID', 'FUNC_VALUE', 'MARKER', 'SYNC_SIGNAL']
4.0 , 4122.05128205 , 4120.51282051 , 4120.0 , 4136.92307692 , 4125.64102564 , 4130.25641026 , 4127.69230769 , 4137.43589744 , 4136.92307692 , 4137.94871795 , 4187.69230769 , 4913.33333333 , 4133.84615385 , 4142.05128205 , 2162.0 , 2017.0 , 28.753 , 0.0 , 0.0 , 0.0 , 0.0 , 

5.0 , 4122.05128205 , 4120.0 , 4116.41025641 , 4134.35897436 , 4125.64102564 , 4127.69230769 , 4137.94871795 , 4135.8974359 , 4137.94871795 , 4137.43589744 , 4191.79487179 , 4915.38461538 , 4135.38461538 , 4145.64102564 , 2158.0 , 2017.0 , 28.76 , 0.0 , 0.0 , 0.0 , 0.0 , 

6.0 , 4121.02564103 , 4121.53846154 , 4115.8974359 , 4133.33333333 , 4130.76923077 , 4121.53846154 , 4131.79487179 , 4134.35897436 , 4137.43589744 , 4137.94871795 , 4191.79487179 , 4917.94871795 , 4134.87179487 , 4147.17948718 , 2152.0 , 2020.0 , 28.768 , 0.0 , 0.0 , 0.0 , 0.0 , 

7.0 , 4121.02564103 , 4121.53846154 , 4118.97435897 , 4133.33333333 , 4129.23076923 , 4131.28205128 , 4119.48717949 , 4136.41025641 , 4137.43589744 , 4137.94871795 , 4189.23076923 , 4918.97435897 , 4135.38461538 , 4144.61538462 , 2147.0 , 2022.0 , 28.775 , 0.0 , 0.0 , 0.0 , 0.0 , 

8.0 , 4117.94871795 , 4120.0 , 4118.97435897 , 4135.38461538 , 4125.64102564 , 4139.48717949 , 4121.02564103 , 4137.94871795 , 4137.94871795 , 4137.43589744 , 4191.28205128 , 4917.94871795 , 4138.97435897 , 4147.69230769 , 2136.0 , 2022.0 , 28.784 , 0.0 , 0.0 , 0.0 , 0.0 , 

9.0 , 4117.43589744 , 4121.53846154 , 4117.43589744 , 4135.8974359 , 4128.20512821 , 4129.74358974 , 4121.02564103 , 4136.92307692 , 4137.94871795 , 4137.94871795 , 4195.8974359 , 4918.97435897 , 4137.94871795 , 4154.35897436 , 2131.0 , 2022.0 , 28.79 , 0.0 , 0.0 , 0.0 , 0.0 , 

10.0 , 4121.53846154 , 4124.61538462 , 4118.97435897 , 4135.38461538 , 4128.71794872 , 4121.02564103 , 4122.56410256 , 4136.41025641 , 4138.46153846 , 4137.94871795 , 4194.35897436 , 4919.48717949 , 4137.94871795 , 4154.87179487 , 2124.0 , 2019.0 , 28.798 , 0.0 , 0.0 , 0.0 , 0.0 , 

11.0 , 4123.07692308 , 4121.53846154 , 4118.97435897 , 4135.8974359 , 4124.61538462 , 4122.05128205 , 4132.30769231 , 4137.43589744 , 4138.46153846 , 4136.92307692 , 4191.28205128 , 4918.97435897 , 4137.94871795 , 4151.79487179 , 2123.0 , 2017.0 , 28.806 , 0.0 , 0.0 , 0.0 , 0.0 , 

12.0 , 4119.48717949 , 4117.43589744 , 4120.51282051 , 4133.84615385 , 4125.64102564 , 4122.05128205 , 4132.30769231 , 4137.43589744 , 4136.41025641 , 4136.92307692 , 4195.38461538 , 4919.48717949 , 4137.43589744 , 4154.87179487 , 2122.0 , 2015.0 , 28.815 , 0.0 , 0.0 , 0.0 , 0.0 , 

13.0 , 4122.56410256 , 4118.97435897 , 4129.74358974 , 4133.84615385 , 4125.64102564 , 4118.97435897 , 4120.51282051 , 4135.8974359 , 4136.41025641 , 4137.43589744 , 4200.0 , 4924.1025641 , 4139.48717949 , 4155.38461538 , 2126.0 , 2008.0 , 28.823 , 0.0 , 0.0 , 0.0 , 0.0 , 

14.0 , 4127.69230769 , 4120.0 , 4141.02564103 , 4135.38461538 , 4123.58974359 , 4118.46153846 , 4118.46153846 , 4136.41025641 , 4138.46153846 , 4137.43589744 , 4198.46153846 , 4926.66666667 , 4138.97435897 , 4153.84615385 , 2128.0 , 2005.0 , 28.831 , 0.0 , 0.0 , 0.0 , 0.0 , 

15.0 , 4128.20512821 , 4120.0 , 4143.07692308 , 4135.38461538 , 4127.69230769 , 4119.48717949 , 4121.02564103 , 4137.94871795 , 4138.97435897 , 4138.97435897 , 4197.43589744 , 4925.64102564 , 4141.53846154 , 4153.33333333 , 2131.0 , 2003.0 , 28.839 , 0.0 , 0.0 , 0.0 , 0.0 , 

16.0 , 4128.20512821 , 4123.07692308 , 4137.43589744 , 4134.35897436 , 4128.20512821 , 4121.53846154 , 4118.46153846 , 4137.94871795 , 4137.43589744 , 4141.02564103 , 4199.48717949 , 4925.12820513 , 4145.64102564 , 4153.33333333 , 2132.0 , 2004.0 , 28.846 , 0.0 , 0.0 , 0.0 , 0.0 , 

17.0 , 4126.66666667 , 4124.61538462 , 4128.71794872 , 4135.8974359 , 4121.02564103 , 4121.53846154 , 4115.8974359 , 4137.43589744 , 4139.48717949 , 4139.48717949 , 4200.0 , 4925.12820513 , 4145.12820513 , 4153.84615385 , 2130.0 , 2006.0 , 28.855 , 0.0 , 0.0 , 0.0 , 0.0 , 

18.0 , 4122.56410256 , 4125.12820513 , 4113.84615385 , 4137.43589744 , 4122.56410256 , 4122.56410256 , 4117.94871795 , 4139.48717949 , 4141.02564103 , 4136.92307692 , 4198.46153846 , 4922.05128205 , 4143.58974359 , 4152.82051282 , 2127.0 , 2007.0 , 28.861 , 0.0 , 0.0 , 0.0 , 0.0 , 

19.0 , 4122.05128205 , 4125.64102564 , 4102.05128205 , 4137.94871795 , 4124.61538462 , 4129.23076923 , 4127.69230769 , 4140.51282051 , 4138.97435897 , 4137.94871795 , 4200.51282051 , 4918.46153846 , 4144.1025641 , 4151.79487179 , 2121.0 , 2007.0 , 28.87 , 0.0 , 0.0 , 0.0 , 0.0 , 

20.0 , 4125.12820513 , 4127.69230769 , 4103.07692308 , 4138.46153846 , 4121.02564103 , 4129.23076923 , 4135.38461538 , 4138.97435897 , 4138.46153846 , 4138.97435897 , 4200.0 , 4917.43589744 , 4142.56410256 , 4151.79487179 , 2113.0 , 2008.0 , 28.877 , 0.0 , 0.0 , 0.0 , 0.0 , 

21.0 , 4125.64102564 , 4126.15384615 , 4105.12820513 , 4138.46153846 , 4125.12820513 , 4121.53846154 , 4131.79487179 , 4137.94871795 , 4140.51282051 , 4136.92307692 , 4198.97435897 , 4917.94871795 , 4139.48717949 , 4152.82051282 , 2108.0 , 2009.0 , 28.886 , 0.0 , 0.0 , 0.0 , 0.0 , 

22.0 , 4125.64102564 , 4124.1025641 , 4101.53846154 , 4135.8974359 , 4130.76923077 , 4119.48717949 , 4128.20512821 , 4136.92307692 , 4138.46153846 , 4135.8974359 , 4198.97435897 , 4919.48717949 , 4137.94871795 , 4153.33333333 , 2102.0 , 2011.0 , 28.893 , 0.0 , 0.0 , 0.0 , 0.0 , 

23.0 , 4125.64102564 , 4124.1025641 , 4106.66666667 , 4133.84615385 , 4125.64102564 , 4127.17948718 , 4127.69230769 , 4135.8974359 , 4136.41025641 , 4136.92307692 , 4196.41025641 , 4920.51282051 , 4137.94871795 , 4154.35897436 , 2097.0 , 2010.0 , 28.902 , 0.0 , 0.0 , 0.0 , 0.0 , 

24.0 , 4125.12820513 , 4127.17948718 , 4120.51282051 , 4134.87179487 , 4122.56410256 , 4131.28205128 , 4122.56410256 , 4135.8974359 , 4137.43589744 , 4136.92307692 , 4194.87179487 , 4918.97435897 , 4138.97435897 , 4154.87179487 , 2088.0 , 2012.0 , 28.909 , 0.0 , 0.0 , 0.0 , 0.0 , 

25.0 , 4124.1025641 , 4126.66666667 , 4126.66666667 , 4135.38461538 , 4123.58974359 , 4128.71794872 , 4119.48717949 , 4136.41025641 , 4137.94871795 , 4136.92307692 , 4193.84615385 , 4918.46153846 , 4140.0 , 4151.79487179 , 2084.0 , 2011.0 , 28.917 , 0.0 , 0.0 , 0.0 , 0.0 , 

26.0 , 4123.58974359 , 4126.15384615 , 4124.61538462 , 4134.87179487 , 4123.07692308 , 4132.30769231 , 4121.53846154 , 4135.8974359 , 4136.41025641 , 4136.92307692 , 4194.35897436 , 4918.97435897 , 4138.46153846 , 4150.25641026 , 2076.0 , 2011.0 , 28.925 , 0.0 , 0.0 , 0.0 , 0.0 , 

27.0 , 4129.23076923 , 4128.71794872 , 4122.05128205 , 4136.41025641 , 4125.12820513 , 4135.8974359 , 4122.56410256 , 4135.38461538 , 4136.41025641 , 4136.92307692 , 4194.87179487 , 4918.46153846 , 4141.02564103 , 4148.71794872 , 2060.0 , 2010.0 , 28.932 , 0.0 , 0.0 , 0.0 , 0.0 , 

28.0 , 4133.33333333 , 4128.71794872 , 4119.48717949 , 4136.41025641 , 4127.69230769 , 4126.66666667 , 4122.56410256 , 4135.8974359 , 4137.43589744 , 4136.92307692 , 4196.41025641 , 4918.46153846 , 4141.02564103 , 4147.17948718 , 2050.0 , 2011.0 , 28.94 , 0.0 , 0.0 , 0.0 , 0.0 , 

29.0 , 4134.87179487 , 4129.23076923 , 4121.02564103 , 4135.8974359 , 4125.64102564 , 4120.0 , 4122.56410256 , 4136.92307692 , 4137.94871795 , 4136.92307692 , 4195.8974359 , 4917.94871795 , 4137.43589744 , 4148.71794872 , 2029.0 , 2011.0 , 28.948 , 0.0 , 0.0 , 0.0 , 0.0 , 

30.0 , 4135.38461538 , 4131.28205128 , 4123.58974359 , 4136.41025641 , 4122.05128205 , 4126.15384615 , 4124.1025641 , 4137.43589744 , 4136.92307692 , 4136.92307692 , 4194.87179487 , 4917.94871795 , 4138.97435897 , 4153.33333333 , 2016.0 , 2009.0 , 28.956 , 0.0 , 0.0 , 0.0 , 0.0 , 

31.0 , 4136.41025641 , 4133.33333333 , 4123.07692308 , 4134.35897436 , 4124.61538462 , 4123.58974359 , 4123.58974359 , 4133.33333333 , 4135.38461538 , 4136.92307692 , 4191.28205128 , 4917.43589744 , 4137.43589744 , 4151.28205128 , 1994.0 , 2010.0 , 28.964 , 0.0 , 0.0 , 0.0 , 0.0 , 

32.0 , 4135.8974359 , 4134.35897436 , 4128.71794872 , 4133.84615385 , 4130.25641026 , 4123.07692308 , 4123.58974359 , 4134.35897436 , 4135.8974359 , 4136.92307692 , 4188.71794872 , 4917.43589744 , 4133.33333333 , 4148.71794872 , 1985.0 , 2013.0 , 28.972 , 0.0 , 0.0 , 0.0 , 0.0 , 

33.0 , 4136.41025641 , 4134.87179487 , 4136.92307692 , 4135.8974359 , 4131.28205128 , 4134.35897436 , 4129.23076923 , 4132.82051282 , 4136.92307692 , 4136.92307692 , 4192.82051282 , 4914.87179487 , 4135.38461538 , 4148.71794872 , 1966.0 , 2019.0 , 28.98 , 0.0 , 0.0 , 0.0 , 0.0 , 

34.0 , 4138.46153846 , 4135.8974359 , 4135.8974359 , 4135.38461538 , 4127.17948718 , 4131.28205128 , 4127.17948718 , 4127.69230769 , 4135.38461538 , 4136.92307692 , 4194.87179487 , 4913.33333333 , 4139.48717949 , 4148.71794872 , 1959.0 , 2023.0 , 28.987 , 0.0 , 0.0 , 0.0 , 0.0 , 

35.0 , 4138.97435897 , 4135.8974359 , 4135.38461538 , 4133.84615385 , 4124.61538462 , 4121.53846154 , 4121.02564103 , 4129.23076923 , 4133.33333333 , 4136.92307692 , 4190.76923077 , 4913.84615385 , 4136.41025641 , 4148.20512821 , 1952.0 , 2024.0 , 28.995 , 0.0 , 0.0 , 0.0 , 0.0 , 

36.0 , 4140.51282051 , 4137.43589744 , 4137.43589744 , 4134.35897436 , 4125.64102564 , 4122.56410256 , 4122.56410256 , 4134.87179487 , 4134.87179487 , 4136.92307692 , 4190.25641026 , 4914.87179487 , 4135.38461538 , 4147.17948718 , 1941.0 , 2027.0 , 29.003 , 0.0 , 0.0 , 0.0 , 0.0 , 

37.0 , 4146.15384615 , 4137.94871795 , 4136.92307692 , 4134.35897436 , 4124.61538462 , 4124.1025641 , 4123.58974359 , 4133.33333333 , 4136.41025641 , 4136.92307692 , 4191.79487179 , 4914.87179487 , 4138.97435897 , 4145.64102564 , 1935.0 , 2028.0 , 29.011 , 0.0 , 0.0 , 0.0 , 0.0 , 

38.0 , 4151.79487179 , 4139.48717949 , 4142.56410256 , 4134.35897436 , 4122.05128205 , 4122.05128205 , 4123.07692308 , 4127.69230769 , 4136.41025641 , 4136.92307692 , 4191.28205128 , 4913.84615385 , 4138.46153846 , 4146.15384615 , 1928.0 , 2029.0 , 29.019 , 0.0 , 0.0 , 0.0 , 0.0 , 

39.0 , 4151.28205128 , 4140.51282051 , 4152.82051282 , 4134.35897436 , 4122.56410256 , 4123.07692308 , 4128.20512821 , 4127.17948718 , 4136.92307692 , 4136.92307692 , 4190.25641026 , 4914.87179487 , 4137.43589744 , 4147.17948718 , 1926.0 , 2029.0 , 29.027 , 0.0 , 0.0 , 0.0 , 0.0 , 

40.0 , 4149.74358974 , 4139.48717949 , 4151.79487179 , 4134.35897436 , 4123.58974359 , 4122.05128205 , 4131.28205128 , 4133.33333333 , 4137.43589744 , 4136.92307692 , 4192.82051282 , 4915.38461538 , 4138.97435897 , 4146.66666667 , 1922.0 , 2028.0 , 29.036 , 0.0 , 0.0 , 0.0 , 0.0 , 

41.0 , 4151.79487179 , 4141.02564103 , 4149.74358974 , 4134.35897436 , 4122.05128205 , 4120.51282051 , 4128.71794872 , 4137.43589744 , 4136.41025641 , 4137.43589744 , 4194.87179487 , 4916.92307692 , 4138.46153846 , 4148.20512821 , 1921.0 , 2027.0 , 29.043 , 0.0 , 0.0 , 0.0 , 0.0 , 

42.0 , 4151.79487179 , 4143.58974359 , 4152.82051282 , 4133.84615385 , 4120.51282051 , 4124.1025641 , 4132.30769231 , 4136.92307692 , 4137.43589744 , 4137.94871795 , 4192.82051282 , 4916.92307692 , 4137.94871795 , 4148.71794872 , 1922.0 , 2028.0 , 29.05 , 0.0 , 0.0 , 0.0 , 0.0 , 

43.0 , 4149.74358974 , 4141.02564103 , 4153.33333333 , 4134.87179487 , 4123.58974359 , 4125.64102564 , 4135.8974359 , 4133.33333333 , 4138.46153846 , 4136.92307692 , 4192.82051282 , 4914.35897436 , 4138.46153846 , 4145.64102564 , 1920.0 , 2031.0 , 29.059 , 0.0 , 0.0 , 0.0 , 0.0 , 

44.0 , 4151.79487179 , 4138.46153846 , 4151.28205128 , 4135.38461538 , 4126.15384615 , 4127.17948718 , 4134.35897436 , 4136.92307692 , 4133.84615385 , 4136.41025641 , 4195.38461538 , 4912.82051282 , 4136.92307692 , 4143.58974359 , 1921.0 , 2032.0 , 29.067 , 0.0 , 0.0 , 0.0 , 0.0 , 

45.0 , 4152.82051282 , 4141.02564103 , 4151.79487179 , 4137.43589744 , 4123.58974359 , 4125.12820513 , 4132.82051282 , 4137.94871795 , 4130.76923077 , 4136.92307692 , 4189.23076923 , 4910.76923077 , 4137.94871795 , 4142.05128205 , 1915.0 , 2033.0 , 29.075 , 0.0 , 0.0 , 0.0 , 0.0 , 

46.0 , 4151.28205128 , 4142.05128205 , 4151.79487179 , 4139.48717949 , 4123.58974359 , 4122.05128205 , 4132.82051282 , 4129.23076923 , 4131.79487179 , 4136.41025641 , 4185.12820513 , 4906.66666667 , 4133.84615385 , 4140.51282051 , 1910.0 , 2032.0 , 29.083 , 0.0 , 0.0 , 0.0 , 0.0 , 

47.0 , 4151.79487179 , 4141.53846154 , 4150.25641026 , 4137.94871795 , 4131.79487179 , 4130.25641026 , 4133.33333333 , 4122.05128205 , 4133.84615385 , 4137.43589744 , 4186.66666667 , 4902.56410256 , 4129.23076923 , 4137.94871795 , 1898.0 , 2027.0 , 29.091 , 0.0 , 0.0 , 0.0 , 0.0 , 

48.0 , 4152.82051282 , 4142.05128205 , 4150.76923077 , 4138.46153846 , 4135.8974359 , 4134.87179487 , 4132.82051282 , 4125.12820513 , 4132.30769231 , 4139.48717949 , 4186.15384615 , 4904.1025641 , 4130.25641026 , 4136.41025641 , 1894.0 , 2025.0 , 29.098 , 0.0 , 0.0 , 0.0 , 0.0 , 

49.0 , 4152.30769231 , 4144.61538462 , 4152.82051282 , 4140.0 , 4130.76923077 , 4128.71794872 , 4132.82051282 , 4126.15384615 , 4129.23076923 , 4137.94871795 , 4183.58974359 , 4907.69230769 , 4129.74358974 , 4136.41025641 , 1891.0 , 2024.0 , 29.107 , 0.0 , 0.0 , 0.0 , 0.0 , 

50.0 , 4151.28205128 , 4145.12820513 , 4151.28205128 , 4136.41025641 , 4128.20512821 , 4129.74358974 , 4134.35897436 , 4120.0 , 4128.71794872 , 4136.92307692 , 4186.15384615 , 4905.64102564 , 4122.56410256 , 4138.46153846 , 1887.0 , 2025.0 , 29.114 , 0.0 , 0.0 , 0.0 , 0.0 , 

51.0 , 4153.33333333 , 4142.56410256 , 4157.43589744 , 4133.84615385 , 4130.76923077 , 4136.92307692 , 4135.38461538 , 4120.0 , 4132.30769231 , 4138.97435897 , 4185.64102564 , 4901.53846154 , 4120.51282051 , 4139.48717949 , 1882.0 , 2025.0 , 29.121 , 0.0 , 0.0 , 0.0 , 0.0 , 

52.0 , 4152.82051282 , 4140.0 , 4170.76923077 , 4137.43589744 , 4130.25641026 , 4135.38461538 , 4134.87179487 , 4123.07692308 , 4129.23076923 , 4139.48717949 , 4183.58974359 , 4902.05128205 , 4123.07692308 , 4135.8974359 , 1876.0 , 2027.0 , 29.129 , 0.0 , 0.0 , 0.0 , 0.0 , 

53.0 , 4152.82051282 , 4144.1025641 , 4164.1025641 , 4138.97435897 , 4127.69230769 , 4132.82051282 , 4134.35897436 , 4122.05128205 , 4124.1025641 , 4136.41025641 , 4186.15384615 , 4906.15384615 , 4123.58974359 , 4135.38461538 , 1873.0 , 2029.0 , 29.137 , 0.0 , 0.0 , 0.0 , 0.0 , 

54.0 , 4155.38461538 , 4144.61538462 , 4152.30769231 , 4136.92307692 , 4128.71794872 , 4134.87179487 , 4135.38461538 , 4123.07692308 , 4128.20512821 , 4134.87179487 , 4185.12820513 , 4903.58974359 , 4125.64102564 , 4135.38461538 , 1871.0 , 2032.0 , 29.145 , 0.0 , 0.0 , 0.0 , 0.0 , 

55.0 , 4155.8974359 , 4140.51282051 , 4160.51282051 , 4137.94871795 , 4132.30769231 , 4132.82051282 , 4135.38461538 , 4123.58974359 , 4131.28205128 , 4134.87179487 , 4184.61538462 , 4900.51282051 , 4127.69230769 , 4131.28205128 , 1869.0 , 2033.0 , 29.154 , 0.0 , 0.0 , 0.0 , 0.0 , 

56.0 , 4152.30769231 , 4144.1025641 , 4161.02564103 , 4137.94871795 , 4135.8974359 , 4132.82051282 , 4134.87179487 , 4123.07692308 , 4126.66666667 , 4135.8974359 , 4183.07692308 , 4900.0 , 4123.58974359 , 4130.25641026 , 1869.0 , 2034.0 , 29.161 , 0.0 , 0.0 , 0.0 , 0.0 , 

57.0 , 4152.30769231 , 4147.17948718 , 4152.82051282 , 4137.94871795 , 4134.35897436 , 4133.33333333 , 4135.38461538 , 4122.56410256 , 4123.58974359 , 4136.92307692 , 4179.48717949 , 4898.46153846 , 4124.1025641 , 4131.28205128 , 1870.0 , 2040.0 , 29.171 , 0.0 , 0.0 , 0.0 , 0.0 , 

58.0 , 4154.87179487 , 4143.07692308 , 4162.56410256 , 4137.94871795 , 4134.87179487 , 4132.82051282 , 4135.38461538 , 4121.02564103 , 4126.15384615 , 4136.92307692 , 4180.51282051 , 4894.87179487 , 4124.61538462 , 4129.74358974 , 1872.0 , 2043.0 , 29.177 , 0.0 , 0.0 , 0.0 , 0.0 , 

59.0 , 4154.87179487 , 4139.48717949 , 4171.79487179 , 4137.94871795 , 4137.43589744 , 4132.82051282 , 4135.38461538 , 4120.51282051 , 4126.66666667 , 4135.8974359 , 4181.02564103 , 4892.82051282 , 4121.53846154 , 4127.69230769 , 1875.0 , 2047.0 , 29.185 , 0.0 , 0.0 , 0.0 , 0.0 , 

60.0 , 4153.33333333 , 4140.0 , 4166.15384615 , 4136.92307692 , 4136.92307692 , 4133.33333333 , 4135.38461538 , 4119.48717949 , 4123.58974359 , 4135.8974359 , 4177.94871795 , 4893.33333333 , 4120.51282051 , 4125.64102564 , 1879.0 , 2051.0 , 29.192 , 0.0 , 0.0 , 0.0 , 0.0 , 

61.0 , 4153.33333333 , 4141.02564103 , 4166.66666667 , 4136.41025641 , 4135.38461538 , 4133.33333333 , 4135.38461538 , 4118.97435897 , 4122.56410256 , 4136.41025641 , 4175.38461538 , 4894.35897436 , 4120.51282051 , 4121.53846154 , 1889.0 , 2054.0 , 29.201 , 0.0 , 0.0 , 0.0 , 0.0 , 

62.0 , 4154.87179487 , 4141.53846154 , 4169.23076923 , 4137.43589744 , 4135.8974359 , 4132.30769231 , 4135.38461538 , 4119.48717949 , 4124.1025641 , 4135.8974359 , 4179.48717949 , 4892.82051282 , 4116.41025641 , 4121.02564103 , 1895.0 , 2056.0 , 29.208 , 0.0 , 0.0 , 0.0 , 0.0 , 

63.0 , 4154.87179487 , 4143.07692308 , 4165.12820513 , 4136.41025641 , 4136.41025641 , 4133.84615385 , 4134.87179487 , 4120.51282051 , 4128.20512821 , 4135.8974359 , 4177.94871795 , 4890.25641026 , 4117.43589744 , 4121.53846154 , 1900.0 , 2054.0 , 29.216 , 0.0 , 0.0 , 0.0 , 0.0 , 

64.0 , 4153.33333333 , 4141.02564103 , 4166.66666667 , 4134.87179487 , 4134.87179487 , 4136.92307692 , 4135.38461538 , 4121.02564103 , 4126.15384615 , 4135.8974359 , 4174.87179487 , 4888.71794872 , 4124.1025641 , 4118.97435897 , 1913.0 , 2053.0 , 29.225 , 0.0 , 0.0 , 0.0 , 0.0 , 

65.0 , 4154.35897436 , 4140.0 , 4167.69230769 , 4135.8974359 , 4136.92307692 , 4136.41025641 , 4135.8974359 , 4121.53846154 , 4123.07692308 , 4135.8974359 , 4174.35897436 , 4890.25641026 , 4119.48717949 , 4120.0 , 1919.0 , 2052.0 , 29.233 , 0.0 , 0.0 , 0.0 , 0.0 , 

66.0 , 4152.82051282 , 4138.46153846 , 4167.17948718 , 4136.41025641 , 4140.0 , 4134.87179487 , 4135.8974359 , 4122.05128205 , 4123.07692308 , 4135.8974359 , 4177.43589744 , 4891.79487179 , 4110.76923077 , 4121.02564103 , 1931.0 , 2051.0 , 29.239 , 0.0 , 0.0 , 0.0 , 0.0 , 

67.0 , 4152.82051282 , 4137.43589744 , 4168.20512821 , 4135.38461538 , 4138.97435897 , 4136.92307692 , 4135.8974359 , 4120.51282051 , 4123.58974359 , 4135.8974359 , 4179.48717949 , 4891.28205128 , 4114.87179487 , 4116.41025641 , 1940.0 , 2052.0 , 29.248 , 0.0 , 0.0 , 0.0 , 0.0 , 

68.0 , 4153.84615385 , 4137.94871795 , 4162.56410256 , 4135.38461538 , 4137.43589744 , 4138.97435897 , 4135.8974359 , 4120.51282051 , 4123.58974359 , 4135.8974359 , 4175.8974359 , 4890.25641026 , 4120.51282051 , 4114.87179487 , 1955.0 , 2055.0 , 29.255 , 0.0 , 0.0 , 0.0 , 0.0 , 

69.0 , 4150.76923077 , 4137.43589744 , 4153.33333333 , 4136.41025641 , 4138.97435897 , 4138.46153846 , 4135.8974359 , 4121.53846154 , 4121.53846154 , 4135.8974359 , 4173.84615385 , 4889.23076923 , 4116.41025641 , 4115.38461538 , 1961.0 , 2057.0 , 29.263 , 0.0 , 0.0 , 0.0 , 0.0 , 

70.0 , 4150.25641026 , 4138.46153846 , 4153.84615385 , 4136.92307692 , 4137.94871795 , 4137.94871795 , 4135.8974359 , 4121.53846154 , 4120.51282051 , 4135.8974359 , 4175.38461538 , 4890.25641026 , 4116.41025641 , 4114.35897436 , 1976.0 , 2060.0 , 29.272 , 0.0 , 0.0 , 0.0 , 0.0 , 

71.0 , 4150.25641026 , 4136.41025641 , 4156.41025641 , 4135.38461538 , 4136.41025641 , 4138.46153846 , 4135.8974359 , 4120.0 , 4122.56410256 , 4135.8974359 , 4175.8974359 , 4891.28205128 , 4118.46153846 , 4112.82051282 , 1983.0 , 2059.0 , 29.28 , 0.0 , 0.0 , 0.0 , 0.0 , 

72.0 , 4142.56410256 , 4135.38461538 , 4152.30769231 , 4134.87179487 , 4137.94871795 , 4138.46153846 , 4135.8974359 , 4117.43589744 , 4123.07692308 , 4135.8974359 , 4173.33333333 , 4889.23076923 , 4112.82051282 , 4114.35897436 , 1988.0 , 2061.0 , 29.288 , 0.0 , 0.0 , 0.0 , 0.0 , 

73.0 , 4137.43589744 , 4134.87179487 , 4150.76923077 , 4136.92307692 , 4138.46153846 , 4138.46153846 , 4135.8974359 , 4118.46153846 , 4119.48717949 , 4135.8974359 , 4171.28205128 , 4887.69230769 , 4109.23076923 , 4114.87179487 , 1997.0 , 2057.0 , 29.295 , 0.0 , 0.0 , 0.0 , 0.0 , 

74.0 , 4139.48717949 , 4130.25641026 , 4151.79487179 , 4134.87179487 , 4138.46153846 , 4138.46153846 , 4135.8974359 , 4118.97435897 , 4120.51282051 , 4135.8974359 , 4173.84615385 , 4889.74358974 , 4113.33333333 , 4114.35897436 , 2003.0 , 2054.0 , 29.304 , 0.0 , 0.0 , 0.0 , 0.0 , 

75.0 , 4138.46153846 , 4125.64102564 , 4151.79487179 , 4131.79487179 , 4140.0 , 4138.46153846 , 4135.8974359 , 4118.97435897 , 4123.07692308 , 4135.8974359 , 4172.82051282 , 4889.74358974 , 4110.76923077 , 4115.8974359 , 2011.0 , 2059.0 , 29.311 , 0.0 , 0.0 , 0.0 , 0.0 , 

76.0 , 4135.8974359 , 4126.15384615 , 4152.82051282 , 4133.84615385 , 4140.0 , 4138.46153846 , 4135.8974359 , 4120.0 , 4120.51282051 , 4135.8974359 , 4171.28205128 , 4888.20512821 , 4107.69230769 , 4114.87179487 , 2019.0 , 2063.0 , 29.319 , 0.0 , 0.0 , 0.0 , 0.0 , 

77.0 , 4136.41025641 , 4127.17948718 , 4152.30769231 , 4135.8974359 , 4140.0 , 4138.46153846 , 4135.8974359 , 4122.56410256 , 4121.02564103 , 4135.8974359 , 4174.87179487 , 4889.74358974 , 4112.82051282 , 4113.33333333 , 2031.0 , 2068.0 , 29.326 , 0.0 , 0.0 , 0.0 , 0.0 , 

78.0 , 4136.41025641 , 4123.07692308 , 4150.25641026 , 4135.38461538 , 4138.97435897 , 4138.46153846 , 4136.41025641 , 4122.05128205 , 4125.12820513 , 4135.8974359 , 4176.92307692 , 4890.76923077 , 4113.84615385 , 4114.35897436 , 2036.0 , 2071.0 , 29.334 , 0.0 , 0.0 , 0.0 , 0.0 , 

79.0 , 4137.43589744 , 4122.05128205 , 4152.82051282 , 4133.84615385 , 4136.41025641 , 4137.94871795 , 4135.38461538 , 4121.02564103 , 4123.58974359 , 4134.87179487 , 4171.28205128 , 4890.25641026 , 4110.25641026 , 4114.87179487 , 2042.0 , 2074.0 , 29.343 , 0.0 , 0.0 , 0.0 , 0.0 , 

80.0 , 4136.41025641 , 4124.1025641 , 4152.82051282 , 4133.33333333 , 4137.43589744 , 4138.46153846 , 4134.87179487 , 4121.53846154 , 4121.02564103 , 4134.87179487 , 4169.23076923 , 4889.74358974 , 4112.30769231 , 4116.41025641 , 2050.0 , 2083.0 , 29.35 , 0.0 , 0.0 , 0.0 , 0.0 , 

81.0 , 4132.30769231 , 4122.56410256 , 4142.05128205 , 4136.92307692 , 4141.02564103 , 4137.94871795 , 4135.38461538 , 4122.56410256 , 4121.53846154 , 4135.38461538 , 4172.82051282 , 4888.71794872 , 4114.35897436 , 4119.48717949 , 2054.0 , 2084.0 , 29.359 , 0.0 , 0.0 , 0.0 , 0.0 , 

82.0 , 4134.87179487 , 4122.05128205 , 4134.87179487 , 4132.82051282 , 4140.0 , 4135.38461538 , 4135.8974359 , 4124.1025641 , 4123.07692308 , 4136.41025641 , 4173.33333333 , 4887.69230769 , 4112.30769231 , 4118.97435897 , 2059.0 , 2078.0 , 29.366 , 0.0 , 0.0 , 0.0 , 0.0 , 

83.0 , 4136.41025641 , 4121.53846154 , 4145.64102564 , 4124.1025641 , 4137.94871795 , 4134.35897436 , 4134.87179487 , 4121.53846154 , 4124.1025641 , 4137.43589744 , 4173.33333333 , 4890.25641026 , 4114.87179487 , 4113.33333333 , 2059.0 , 2077.0 , 29.374 , 0.0 , 0.0 , 0.0 , 0.0 , 

84.0 , 4133.84615385 , 4121.53846154 , 4153.33333333 , 4125.12820513 , 4137.94871795 , 4135.38461538 , 4134.87179487 , 4118.46153846 , 4122.56410256 , 4136.41025641 , 4172.30769231 , 4891.28205128 , 4115.38461538 , 4115.38461538 , 2063.0 , 2068.0 , 29.382 , 0.0 , 0.0 , 0.0 , 0.0 , 

85.0 , 4136.92307692 , 4120.0 , 4143.58974359 , 4128.71794872 , 4137.94871795 , 4135.38461538 , 4135.38461538 , 4122.05128205 , 4123.07692308 , 4134.87179487 , 4173.84615385 , 4890.76923077 , 4113.33333333 , 4120.0 , 2064.0 , 2060.0 , 29.39 , 0.0 , 0.0 , 0.0 , 0.0 , 

86.0 , 4133.33333333 , 4120.0 , 4133.84615385 , 4130.25641026 , 4136.92307692 , 4134.87179487 , 4134.87179487 , 4125.64102564 , 4123.58974359 , 4135.38461538 , 4177.43589744 , 4890.76923077 , 4114.87179487 , 4120.51282051 , 2063.0 , 2051.0 , 29.397 , 0.0 , 0.0 , 0.0 , 0.0 , 

87.0 , 4126.15384615 , 4121.02564103 , 4134.87179487 , 4134.87179487 , 4135.8974359 , 4134.87179487 , 4134.87179487 , 4127.17948718 , 4123.58974359 , 4137.43589744 , 4176.92307692 , 4892.30769231 , 4115.8974359 , 4120.0 , 2063.0 , 2046.0 , 29.405 , 0.0 , 0.0 , 0.0 , 0.0 , 

88.0 , 4128.71794872 , 4120.0 , 4136.41025641 , 4135.8974359 , 4137.94871795 , 4135.38461538 , 4134.87179487 , 4130.25641026 , 4125.64102564 , 4136.92307692 , 4176.41025641 , 4896.92307692 , 4116.92307692 , 4121.02564103 , 2063.0 , 2044.0 , 29.412 , 0.0 , 0.0 , 0.0 , 0.0 , 

89.0 , 4129.23076923 , 4120.0 , 4135.38461538 , 4134.87179487 , 4139.48717949 , 4134.87179487 , 4134.87179487 , 4134.87179487 , 4131.79487179 , 4136.41025641 , 4175.38461538 , 4901.02564103 , 4119.48717949 , 4122.56410256 , 2060.0 , 2041.0 , 29.421 , 0.0 , 0.0 , 0.0 , 0.0 , 

90.0 , 4123.58974359 , 4121.02564103 , 4136.41025641 , 4135.38461538 , 4137.43589744 , 4134.87179487 , 4134.87179487 , 4133.33333333 , 4132.82051282 , 4137.43589744 , 4175.38461538 , 4900.0 , 4121.02564103 , 4123.07692308 , 2059.0 , 2042.0 , 29.429 , 0.0 , 0.0 , 0.0 , 0.0 , 

91.0 , 4125.12820513 , 4121.02564103 , 4138.97435897 , 4129.23076923 , 4135.8974359 , 4134.87179487 , 4134.87179487 , 4130.25641026 , 4127.17948718 , 4137.43589744 , 4182.56410256 , 4900.0 , 4122.56410256 , 4125.64102564 , 2055.0 , 2045.0 , 29.437 , 0.0 , 0.0 , 0.0 , 0.0 , 

92.0 , 4127.69230769 , 4120.0 , 4138.97435897 , 4125.12820513 , 4137.43589744 , 4135.38461538 , 4134.87179487 , 4132.82051282 , 4126.15384615 , 4136.41025641 , 4185.64102564 , 4900.51282051 , 4123.58974359 , 4126.66666667 , 2053.0 , 2047.0 , 29.445 , 0.0 , 0.0 , 0.0 , 0.0 , 

93.0 , 4124.1025641 , 4121.02564103 , 4136.92307692 , 4134.35897436 , 4136.92307692 , 4134.87179487 , 4134.87179487 , 4133.33333333 , 4129.74358974 , 4135.8974359 , 4178.97435897 , 4898.46153846 , 4122.56410256 , 4128.71794872 , 2052.0 , 2050.0 , 29.453 , 0.0 , 0.0 , 0.0 , 0.0 , 

94.0 , 4125.12820513 , 4121.53846154 , 4136.92307692 , 4137.43589744 , 4135.8974359 , 4134.87179487 , 4134.87179487 , 4132.30769231 , 4130.25641026 , 4135.8974359 , 4180.0 , 4897.43589744 , 4120.51282051 , 4127.69230769 , 2050.0 , 2051.0 , 29.461 , 0.0 , 0.0 , 0.0 , 0.0 , 

95.0 , 4125.64102564 , 4119.48717949 , 4138.46153846 , 4131.79487179 , 4136.41025641 , 4135.8974359 , 4134.87179487 , 4133.33333333 , 4126.66666667 , 4136.41025641 , 4187.17948718 , 4898.46153846 , 4122.56410256 , 4125.64102564 , 2050.0 , 2053.0 , 29.469 , 0.0 , 0.0 , 0.0 , 0.0 , 

96.0 , 4126.66666667 , 4120.0 , 4137.94871795 , 4131.28205128 , 4136.41025641 , 4133.84615385 , 4134.87179487 , 4132.30769231 , 4128.20512821 , 4135.8974359 , 4183.58974359 , 4899.48717949 , 4123.58974359 , 4129.23076923 , 2047.0 , 2053.0 , 29.476 , 0.0 , 0.0 , 0.0 , 0.0 , 

97.0 , 4133.33333333 , 4123.07692308 , 4136.41025641 , 4135.38461538 , 4135.8974359 , 4131.28205128 , 4134.87179487 , 4132.82051282 , 4131.28205128 , 4135.38461538 , 4183.07692308 , 4902.05128205 , 4123.58974359 , 4129.74358974 , 2047.0 , 2052.0 , 29.485 , 0.0 , 0.0 , 0.0 , 0.0 , 

98.0 , 4134.87179487 , 4123.58974359 , 4135.8974359 , 4135.38461538 , 4135.8974359 , 4133.33333333 , 4134.87179487 , 4134.35897436 , 4131.28205128 , 4136.92307692 , 4184.61538462 , 4905.12820513 , 4125.64102564 , 4129.23076923 , 2046.0 , 2046.0 , 29.492 , 0.0 , 0.0 , 0.0 , 0.0 , 

99.0 , 4132.82051282 , 4121.02564103 , 4135.8974359 , 4134.35897436 , 4135.38461538 , 4134.87179487 , 4134.87179487 , 4134.35897436 , 4130.25641026 , 4138.46153846 , 4183.07692308 , 4907.17948718 , 4127.17948718 , 4132.30769231 , 2047.0 , 2045.0 , 29.501 , 0.0 , 0.0 , 0.0 , 0.0 , 

100.0 , 4131.79487179 , 4121.02564103 , 4135.8974359 , 4136.41025641 , 4135.38461538 , 4133.84615385 , 4134.87179487 , 4134.87179487 , 4126.15384615 , 4137.94871795 , 4182.56410256 , 4905.12820513 , 4126.15384615 , 4135.8974359 , 2046.0 , 2039.0 , 29.508 , 0.0 , 0.0 , 0.0 , 0.0 , 

101.0 , 4132.30769231 , 4121.53846154 , 4136.41025641 , 4137.94871795 , 4135.8974359 , 4134.87179487 , 4135.38461538 , 4133.84615385 , 4130.25641026 , 4136.92307692 , 4184.1025641 , 4905.12820513 , 4123.07692308 , 4137.94871795 , 2046.0 , 2040.0 , 29.515 , 0.0 , 0.0 , 0.0 , 0.0 , 

102.0 , 4132.30769231 , 4123.07692308 , 4135.8974359 , 4135.8974359 , 4134.87179487 , 4136.92307692 , 4134.87179487 , 4130.25641026 , 4136.92307692 , 4136.41025641 , 4184.1025641 , 4906.66666667 , 4125.64102564 , 4136.92307692 , 2046.0 , 2040.0 , 29.523 , 0.0 , 0.0 , 0.0 , 0.0 , 

103.0 , 4134.87179487 , 4125.12820513 , 4134.35897436 , 4135.38461538 , 4134.87179487 , 4134.87179487 , 4134.87179487 , 4133.33333333 , 4135.38461538 , 4135.38461538 , 4184.1025641 , 4907.17948718 , 4127.69230769 , 4136.41025641 , 2047.0 , 2045.0 , 29.531 , 0.0 , 0.0 , 0.0 , 0.0 , 

104.0 , 4135.38461538 , 4123.58974359 , 4135.38461538 , 4137.94871795 , 4135.38461538 , 4134.35897436 , 4135.8974359 , 4138.97435897 , 4130.76923077 , 4134.35897436 , 4186.15384615 , 4906.66666667 , 4129.74358974 , 4137.43589744 , 2048.0 , 2049.0 , 29.54 , 0.0 , 0.0 , 0.0 , 0.0 , 

105.0 , 4135.38461538 , 4119.48717949 , 4137.43589744 , 4139.48717949 , 4134.87179487 , 4138.46153846 , 4134.35897436 , 4137.43589744 , 4133.84615385 , 4134.87179487 , 4185.64102564 , 4906.66666667 , 4130.76923077 , 4139.48717949 , 2048.0 , 2062.0 , 29.547 , 0.0 , 0.0 , 0.0 , 0.0 , 

106.0 , 4135.8974359 , 4121.53846154 , 4136.41025641 , 4138.97435897 , 4133.33333333 , 4131.28205128 , 4131.28205128 , 4135.38461538 , 4137.94871795 , 4134.87179487 , 4186.66666667 , 4908.20512821 , 4131.28205128 , 4140.51282051 , 2049.0 , 2067.0 , 29.555 , 0.0 , 0.0 , 0.0 , 0.0 , 

107.0 , 4134.35897436 , 4124.61538462 , 4136.92307692 , 4139.48717949 , 4135.38461538 , 4121.53846154 , 4132.30769231 , 4134.35897436 , 4136.41025641 , 4134.35897436 , 4187.17948718 , 4911.79487179 , 4133.84615385 , 4138.97435897 , 2058.0 , 2067.0 , 29.564 , 0.0 , 0.0 , 0.0 , 0.0 , 

108.0 , 4136.41025641 , 4123.58974359 , 4136.41025641 , 4138.46153846 , 4136.41025641 , 4128.71794872 , 4134.87179487 , 4134.35897436 , 4135.8974359 , 4134.87179487 , 4187.17948718 , 4913.84615385 , 4133.84615385 , 4142.05128205 , 2062.0 , 2062.0 , 29.572 , 0.0 , 0.0 , 0.0 , 0.0 , 

109.0 , 4137.94871795 , 4122.56410256 , 4136.41025641 , 4136.41025641 , 4133.33333333 , 4139.48717949 , 4134.35897436 , 4135.8974359 , 4135.38461538 , 4137.94871795 , 4189.23076923 , 4910.76923077 , 4132.82051282 , 4144.1025641 , 2066.0 , 2055.0 , 29.578 , 0.0 , 0.0 , 0.0 , 0.0 , 

110.0 , 4134.35897436 , 4124.61538462 , 4141.53846154 , 4135.8974359 , 4131.79487179 , 4133.33333333 , 4134.35897436 , 4136.92307692 , 4135.38461538 , 4138.97435897 , 4190.25641026 , 4909.23076923 , 4136.41025641 , 4144.1025641 , 2072.0 , 2041.0 , 29.589 , 0.0 , 0.0 , 0.0 , 0.0 , 

111.0 , 4132.30769231 , 4123.58974359 , 4142.05128205 , 4135.38461538 , 4133.33333333 , 4128.20512821 , 4135.8974359 , 4135.8974359 , 4135.8974359 , 4137.94871795 , 4192.30769231 , 4913.84615385 , 4137.94871795 , 4142.05128205 , 2072.0 , 2033.0 , 29.594 , 0.0 , 0.0 , 0.0 , 0.0 , 

112.0 , 4130.25641026 , 4111.79487179 , 4134.87179487 , 4133.84615385 , 4132.30769231 , 4130.25641026 , 4135.38461538 , 4135.38461538 , 4136.92307692 , 4138.97435897 , 4194.87179487 , 4918.97435897 , 4134.87179487 , 4142.05128205 , 2073.0 , 2023.0 , 29.603 , 0.0 , 0.0 , 0.0 , 0.0 , 

113.0 , 4127.69230769 , 4104.1025641 , 4133.84615385 , 4134.87179487 , 4125.64102564 , 4125.64102564 , 4135.38461538 , 4138.97435897 , 4137.94871795 , 4139.48717949 , 4194.87179487 , 4920.0 , 4135.38461538 , 4146.15384615 , 2071.0 , 2020.0 , 29.61 , 0.0 , 0.0 , 0.0 , 0.0 , 

114.0 , 4133.33333333 , 4113.33333333 , 4134.87179487 , 4136.41025641 , 4126.15384615 , 4123.58974359 , 4136.41025641 , 4141.53846154 , 4137.43589744 , 4137.94871795 , 4196.92307692 , 4919.48717949 , 4140.0 , 4146.66666667 , 2065.0 , 2019.0 , 29.618 , 0.0 , 0.0 , 0.0 , 0.0 , 

115.0 , 4137.94871795 , 4121.53846154 , 4129.23076923 , 4135.8974359 , 4129.74358974 , 4123.07692308 , 4135.38461538 , 4139.48717949 , 4135.8974359 , 4136.92307692 , 4201.53846154 , 4921.02564103 , 4137.94871795 , 4145.64102564 , 2062.0 , 2020.0 , 29.626 , 0.0 , 0.0 , 0.0 , 0.0 , 

116.0 , 4133.84615385 , 4118.97435897 , 4127.69230769 , 4134.87179487 , 4127.17948718 , 4123.07692308 , 4135.38461538 , 4136.92307692 , 4135.8974359 , 4137.94871795 , 4195.8974359 , 4921.02564103 , 4136.41025641 , 4150.25641026 , 2059.0 , 2019.0 , 29.635 , 0.0 , 0.0 , 0.0 , 0.0 , 

117.0 , 4133.33333333 , 4119.48717949 , 4133.84615385 , 4135.38461538 , 4130.76923077 , 4130.76923077 , 4137.43589744 , 4136.41025641 , 4136.41025641 , 4137.43589744 , 4189.74358974 , 4922.05128205 , 4137.94871795 , 4153.84615385 , 2054.0 , 2021.0 , 29.642 , 0.0 , 0.0 , 0.0 , 0.0 , 

118.0 , 4131.28205128 , 4123.58974359 , 4136.41025641 , 4135.38461538 , 4138.97435897 , 4135.38461538 , 4131.28205128 , 4134.87179487 , 4137.43589744 , 4136.92307692 , 4197.94871795 , 4925.64102564 , 4136.92307692 , 4152.30769231 , 2051.0 , 2023.0 , 29.649 , 0.0 , 0.0 , 0.0 , 0.0 , 

119.0 , 4127.69230769 , 4122.56410256 , 4135.38461538 , 4134.87179487 , 4131.79487179 , 4127.69230769 , 4122.05128205 , 4134.35897436 , 4137.94871795 , 4136.41025641 , 4201.53846154 , 4925.12820513 , 4139.48717949 , 4150.25641026 , 2050.0 , 2025.0 , 29.658 , 0.0 , 0.0 , 0.0 , 0.0 , 

120.0 , 4129.23076923 , 4122.05128205 , 4133.84615385 , 4134.87179487 , 4121.02564103 , 4123.07692308 , 4120.51282051 , 4136.92307692 , 4136.92307692 , 4135.8974359 , 4197.94871795 , 4922.05128205 , 4144.1025641 , 4151.79487179 , 2049.0 , 2023.0 , 29.667 , 0.0 , 0.0 , 0.0 , 0.0 , 

121.0 , 4130.25641026 , 4124.1025641 , 4133.84615385 , 4135.38461538 , 4124.1025641 , 4123.58974359 , 4123.58974359 , 4137.43589744 , 4137.43589744 , 4135.8974359 , 4198.97435897 , 4922.05128205 , 4145.12820513 , 4152.30769231 , 2053.0 , 2020.0 , 29.674 , 0.0 , 0.0 , 0.0 , 0.0 , 

122.0 , 4130.76923077 , 4123.58974359 , 4135.38461538 , 4136.41025641 , 4124.61538462 , 4122.05128205 , 4123.07692308 , 4135.8974359 , 4137.94871795 , 4135.8974359 , 4202.05128205 , 4921.02564103 , 4143.07692308 , 4152.82051282 , 2056.0 , 2017.0 , 29.681 , 0.0 , 0.0 , 0.0 , 0.0 , 

123.0 , 4135.38461538 , 4122.56410256 , 4130.25641026 , 4136.92307692 , 4121.53846154 , 4122.05128205 , 4122.56410256 , 4137.94871795 , 4138.46153846 , 4135.8974359 , 4200.0 , 4921.02564103 , 4146.66666667 , 4155.8974359 , 2058.0 , 2013.0 , 29.69 , 0.0 , 0.0 , 0.0 , 0.0 , 

124.0 , 4131.79487179 , 4128.20512821 , 4120.0 , 4136.41025641 , 4122.56410256 , 4125.12820513 , 4122.05128205 , 4138.46153846 , 4137.43589744 , 4137.43589744 , 4197.94871795 , 4923.07692308 , 4149.74358974 , 4157.43589744 , 2062.0 , 2013.0 , 29.697 , 0.0 , 0.0 , 0.0 , 0.0 , 

125.0 , 4123.58974359 , 4137.43589744 , 4118.46153846 , 4135.8974359 , 4120.51282051 , 4127.69230769 , 4121.02564103 , 4136.92307692 , 4137.94871795 , 4138.97435897 , 4202.05128205 , 4926.66666667 , 4146.15384615 , 4158.97435897 , 2062.0 , 2013.0 , 29.707 , 0.0 , 0.0 , 0.0 , 0.0 , 

126.0 , 4125.12820513 , 4138.46153846 , 4122.05128205 , 4135.8974359 , 4118.46153846 , 4125.12820513 , 4121.53846154 , 4139.48717949 , 4143.07692308 , 4137.43589744 , 4201.53846154 , 4928.20512821 , 4146.66666667 , 4158.46153846 , 2058.0 , 2017.0 , 29.712 , 0.0 , 0.0 , 0.0 , 0.0 , 

127.0 , 4126.15384615 , 4135.38461538 , 4120.0 , 4135.8974359 , 4121.53846154 , 4120.0 , 4121.02564103 , 4141.53846154 , 4144.61538462 , 4136.41025641 , 4202.56410256 , 4926.66666667 , 4152.82051282 , 4157.43589744 , 2056.0 , 2021.0 , 29.721 , 0.0 , 0.0 , 0.0 , 0.0 , 

128.0 , 4122.56410256 , 4130.25641026 , 4120.0 , 4137.43589744 , 4122.56410256 , 4120.51282051 , 4121.02564103 , 4140.51282051 , 4140.51282051 , 4136.41025641 , 4207.69230769 , 4927.17948718 , 4154.87179487 , 4161.02564103 , 2052.0 , 2023.0 , 29.728 , 0.0 , 0.0 , 0.0 , 0.0 , 

0.0 , 4122.05128205 , 4126.66666667 , 4123.07692308 , 4138.46153846 , 4119.48717949 , 4122.56410256 , 4121.02564103 , 4141.02564103 , 4138.46153846 , 4136.92307692 , 4208.71794872 , 4931.79487179 , 4152.30769231 , 4169.23076923 , 2049.0 , 2024.0 , 29.737 , 0.0 , 0.0 , 0.0 , 0.0 , 

1.0 , 4123.07692308 , 4130.25641026 , 4120.0 , 4136.41025641 , 4118.97435897 , 4120.51282051 , 4121.02564103 , 4139.48717949 , 4145.64102564 , 4137.43589744 , 4206.66666667 , 4935.38461538 , 4152.30769231 , 4172.30769231 , 2044.0 , 2033.0 , 29.744 , 0.0 , 0.0 , 0.0 , 0.0 , 

2.0 , 4122.05128205 , 4130.76923077 , 4122.05128205 , 4134.35897436 , 4118.46153846 , 4120.0 , 4121.02564103 , 4137.43589744 , 4145.64102564 , 4138.46153846 , 4205.12820513 , 4937.94871795 , 4156.41025641 , 4171.79487179 , 2040.0 , 2039.0 , 29.753 , 0.0 , 0.0 , 0.0 , 0.0 , 

3.0 , 4120.51282051 , 4126.66666667 , 4126.66666667 , 4135.38461538 , 4118.46153846 , 4120.51282051 , 4122.05128205 , 4144.1025641 , 4142.56410256 , 4141.02564103 , 4208.20512821 , 4940.51282051 , 4156.41025641 , 4176.41025641 , 2040.0 , 2041.0 , 29.76 , 0.0 , 0.0 , 0.0 , 0.0 , 

4.0 , 4120.51282051 , 4127.17948718 , 4118.46153846 , 4136.41025641 , 4118.46153846 , 4119.48717949 , 4122.56410256 , 4145.64102564 , 4149.23076923 , 4142.05128205 , 4212.30769231 , 4941.02564103 , 4154.87179487 , 4176.92307692 , 2039.0 , 2037.0 , 29.769 , 0.0 , 0.0 , 0.0 , 0.0 , 

5.0 , 4121.02564103 , 4131.79487179 , 4109.74358974 , 4136.41025641 , 4116.92307692 , 4119.48717949 , 4122.56410256 , 4141.02564103 , 4152.82051282 , 4136.41025641 , 4214.35897436 , 4942.56410256 , 4158.97435897 , 4175.38461538 , 2038.0 , 2032.0 , 29.776 , 0.0 , 0.0 , 0.0 , 0.0 , 

6.0 , 4121.53846154 , 4132.30769231 , 4114.87179487 , 4136.41025641 , 4115.38461538 , 4118.97435897 , 4122.56410256 , 4148.20512821 , 4150.76923077 , 4135.38461538 , 4215.38461538 , 4943.07692308 , 4162.05128205 , 4180.0 , 2038.0 , 2016.0 , 29.784 , 0.0 , 0.0 , 0.0 , 0.0 , 

7.0 , 4117.94871795 , 4131.79487179 , 4113.84615385 , 4138.46153846 , 4114.35897436 , 4119.48717949 , 4120.0 , 4154.87179487 , 4151.79487179 , 4141.02564103 , 4216.92307692 , 4940.0 , 4162.05128205 , 4183.58974359 , 2039.0 , 2009.0 , 29.792 , 0.0 , 0.0 , 0.0 , 0.0 , 

8.0 , 4117.43589744 , 4134.35897436 , 4105.12820513 , 4140.0 , 4115.38461538 , 4119.48717949 , 4118.46153846 , 4151.79487179 , 4149.74358974 , 4141.02564103 , 4216.41025641 , 4941.53846154 , 4163.58974359 , 4182.05128205 , 2038.0 , 1994.0 , 29.8 , 0.0 , 0.0 , 0.0 , 0.0 , 

9.0 , 4120.0 , 4135.38461538 , 4110.76923077 , 4137.43589744 , 4116.92307692 , 4117.94871795 , 4124.61538462 , 4151.79487179 , 4145.12820513 , 4137.43589744 , 4212.82051282 , 4945.12820513 , 4158.97435897 , 4177.43589744 , 2036.0 , 1985.0 , 29.808 , 0.0 , 0.0 , 0.0 , 0.0 , 

10.0 , 4120.51282051 , 4135.8974359 , 4124.61538462 , 4134.87179487 , 4119.48717949 , 4120.0 , 4134.35897436 , 4150.76923077 , 4147.69230769 , 4138.46153846 , 4214.35897436 , 4940.0 , 4152.82051282 , 4169.23076923 , 2036.0 , 1976.0 , 29.815 , 0.0 , 0.0 , 0.0 , 0.0 , 

11.0 , 4121.53846154 , 4135.38461538 , 4126.15384615 , 4135.8974359 , 4119.48717949 , 4121.53846154 , 4138.46153846 , 4138.97435897 , 4144.61538462 , 4137.94871795 , 4208.71794872 , 4926.66666667 , 4154.35897436 , 4164.1025641 , 2037.0 , 1955.0 , 29.823 , 0.0 , 0.0 , 0.0 , 0.0 , 

12.0 , 4122.05128205 , 4136.92307692 , 4121.53846154 , 4136.92307692 , 4121.02564103 , 4118.46153846 , 4126.66666667 , 4131.79487179 , 4135.8974359 , 4136.92307692 , 4199.48717949 , 4919.48717949 , 4149.74358974 , 4165.64102564 , 2038.0 , 1944.0 , 29.831 , 0.0 , 0.0 , 0.0 , 0.0 , 

13.0 , 4122.56410256 , 4136.92307692 , 4130.25641026 , 4136.92307692 , 4124.61538462 , 4124.61538462 , 4117.94871795 , 4134.87179487 , 4136.92307692 , 4136.92307692 , 4200.51282051 , 4921.53846154 , 4138.97435897 , 4157.43589744 , 2040.0 , 1934.0 , 29.838 , 0.0 , 0.0 , 0.0 , 0.0 , 

14.0 , 4122.56410256 , 4134.87179487 , 4141.53846154 , 4136.41025641 , 4125.64102564 , 4134.87179487 , 4128.20512821 , 4135.8974359 , 4136.41025641 , 4135.8974359 , 4200.51282051 , 4919.48717949 , 4134.35897436 , 4141.53846154 , 2039.0 , 1934.0 , 29.846 , 0.0 , 0.0 , 0.0 , 0.0 , 

15.0 , 4122.56410256 , 4134.87179487 , 4132.30769231 , 4137.94871795 , 4126.66666667 , 4133.33333333 , 4137.94871795 , 4135.8974359 , 4133.84615385 , 4135.8974359 , 4190.25641026 , 4911.28205128 , 4130.25641026 , 4135.8974359 , 2038.0 , 1938.0 , 29.855 , 0.0 , 0.0 , 0.0 , 0.0 , 

16.0 , 4128.20512821 , 4134.87179487 , 4116.92307692 , 4140.51282051 , 4125.12820513 , 4130.76923077 , 4133.84615385 , 4136.41025641 , 4135.8974359 , 4137.43589744 , 4183.58974359 , 4904.61538462 , 4125.12820513 , 4137.43589744 , 2034.0 , 1940.0 , 29.862 , 0.0 , 0.0 , 0.0 , 0.0 , 

17.0 , 4137.94871795 , 4134.87179487 , 4122.56410256 , 4141.02564103 , 4125.64102564 , 4135.38461538 , 4131.79487179 , 4135.8974359 , 4133.84615385 , 4136.92307692 , 4187.69230769 , 4898.46153846 , 4126.66666667 , 4133.84615385 , 2032.0 , 1944.0 , 29.871 , 0.0 , 0.0 , 0.0 , 0.0 , 

18.0 , 4138.97435897 , 4135.8974359 , 4135.8974359 , 4136.92307692 , 4132.82051282 , 4136.92307692 , 4135.38461538 , 4132.82051282 , 4130.76923077 , 4135.38461538 , 4186.66666667 , 4893.84615385 , 4128.20512821 , 4129.74358974 , 2029.0 , 1952.0 , 29.879 , 0.0 , 0.0 , 0.0 , 0.0 , 

19.0 , 4133.33333333 , 4134.35897436 , 4135.8974359 , 4136.92307692 , 4136.41025641 , 4135.8974359 , 4134.35897436 , 4127.69230769 , 4132.30769231 , 4136.41025641 , 4183.58974359 , 4897.43589744 , 4126.66666667 , 4134.35897436 , 2025.0 , 1953.0 , 29.887 , 0.0 , 0.0 , 0.0 , 0.0 , 

20.0 , 4132.82051282 , 4132.82051282 , 4132.82051282 , 4139.48717949 , 4134.35897436 , 4134.35897436 , 4132.82051282 , 4124.1025641 , 4132.30769231 , 4136.41025641 , 4187.17948718 , 4902.56410256 , 4126.15384615 , 4141.53846154 , 2022.0 , 1956.0 , 29.895 , 0.0 , 0.0 , 0.0 , 0.0 , 

21.0 , 4129.23076923 , 4134.35897436 , 4133.33333333 , 4131.79487179 , 4134.35897436 , 4131.28205128 , 4133.33333333 , 4122.56410256 , 4131.79487179 , 4135.8974359 , 4189.74358974 , 4905.64102564 , 4125.12820513 , 4142.56410256 , 2022.0 , 1957.0 , 29.903 , 0.0 , 0.0 , 0.0 , 0.0 , 

22.0 , 4125.12820513 , 4135.8974359 , 4140.0 , 4125.12820513 , 4133.84615385 , 4132.82051282 , 4132.82051282 , 4123.58974359 , 4134.35897436 , 4135.8974359 , 4186.15384615 , 4908.20512821 , 4127.17948718 , 4138.97435897 , 2022.0 , 1959.0 , 29.909 , 0.0 , 0.0 , 0.0 , 0.0 , 

23.0 , 4130.76923077 , 4135.38461538 , 4145.12820513 , 4128.71794872 , 4131.28205128 , 4135.38461538 , 4133.33333333 , 4124.1025641 , 4133.84615385 , 4135.8974359 , 4185.64102564 , 4906.15384615 , 4129.74358974 , 4136.41025641 , 2023.0 , 1958.0 , 29.918 , 0.0 , 0.0 , 0.0 , 0.0 , 

24.0 , 4135.38461538 , 4136.41025641 , 4141.53846154 , 4132.30769231 , 4134.87179487 , 4133.84615385 , 4133.33333333 , 4122.56410256 , 4131.79487179 , 4135.8974359 , 4186.66666667 , 4898.97435897 , 4126.66666667 , 4136.41025641 , 2023.0 , 1955.0 , 29.926 , 0.0 , 0.0 , 0.0 , 0.0 , 

25.0 , 4131.79487179 , 4135.38461538 , 4135.8974359 , 4133.84615385 , 4135.38461538 , 4133.84615385 , 4133.33333333 , 4122.05128205 , 4130.25641026 , 4135.8974359 , 4185.64102564 , 4897.43589744 , 4124.1025641 , 4132.30769231 , 2024.0 , 1956.0 , 29.934 , 0.0 , 0.0 , 0.0 , 0.0 , 

26.0 , 4132.30769231 , 4132.30769231 , 4134.35897436 , 4136.92307692 , 4132.82051282 , 4135.38461538 , 4133.33333333 , 4123.07692308 , 4128.20512821 , 4135.8974359 , 4184.61538462 , 4901.02564103 , 4124.1025641 , 4129.74358974 , 2024.0 , 1959.0 , 29.942 , 0.0 , 0.0 , 0.0 , 0.0 , 

27.0 , 4129.74358974 , 4134.87179487 , 4132.30769231 , 4136.41025641 , 4135.38461538 , 4134.87179487 , 4133.33333333 , 4123.58974359 , 4130.76923077 , 4135.8974359 , 4184.1025641 , 4897.94871795 , 4125.12820513 , 4129.74358974 , 2022.0 , 1967.0 , 29.949 , 0.0 , 0.0 , 0.0 , 0.0 , 

28.0 , 4124.61538462 , 4136.41025641 , 4131.79487179 , 4135.8974359 , 4137.43589744 , 4134.87179487 , 4133.33333333 , 4123.07692308 , 4136.41025641 , 4135.8974359 , 4184.61538462 , 4894.87179487 , 4125.64102564 , 4130.76923077 , 2020.0 , 1973.0 , 29.958 , 0.0 , 0.0 , 0.0 , 0.0 , 

29.0 , 4129.23076923 , 4134.87179487 , 4134.35897436 , 4138.46153846 , 4132.82051282 , 4134.87179487 , 4133.33333333 , 4122.56410256 , 4135.8974359 , 4135.8974359 , 4185.64102564 , 4900.0 , 4126.15384615 , 4129.23076923 , 2020.0 , 1987.0 , 29.965 , 0.0 , 0.0 , 0.0 , 0.0 , 

30.0 , 4135.38461538 , 4135.8974359 , 4134.35897436 , 4133.33333333 , 4130.25641026 , 4134.87179487 , 4133.33333333 , 4122.05128205 , 4132.30769231 , 4135.8974359 , 4186.15384615 , 4905.12820513 , 4127.17948718 , 4127.69230769 , 2019.0 , 1992.0 , 29.973 , 0.0 , 0.0 , 0.0 , 0.0 , 

31.0 , 4133.84615385 , 4134.35897436 , 4133.33333333 , 4130.25641026 , 4135.8974359 , 4135.38461538 , 4133.33333333 , 4124.1025641 , 4134.35897436 , 4135.8974359 , 4185.64102564 , 4903.07692308 , 4126.66666667 , 4131.28205128 , 2017.0 , 1998.0 , 29.98 , 0.0 , 0.0 , 0.0 , 0.0 , 

32.0 , 4129.74358974 , 4132.30769231 , 4134.35897436 , 4136.92307692 , 4139.48717949 , 4135.8974359 , 4133.33333333 , 4125.12820513 , 4137.43589744 , 4135.8974359 , 4185.64102564 , 4898.46153846 , 4128.20512821 , 4138.46153846 , 2012.0 , 2016.0 , 29.988 , 0.0 , 0.0 , 0.0 , 0.0 , 

33.0 , 4131.79487179 , 4133.33333333 , 4132.82051282 , 4138.46153846 , 4134.87179487 , 4132.30769231 , 4133.84615385 , 4122.05128205 , 4135.38461538 , 4136.41025641 , 4185.12820513 , 4898.46153846 , 4130.25641026 , 4139.48717949 , 2008.0 , 2032.0 , 29.996 , 0.0 , 0.0 , 0.0 , 0.0 , 

34.0 , 4135.8974359 , 4133.33333333 , 4132.30769231 , 4135.38461538 , 4132.30769231 , 4130.25641026 , 4133.84615385 , 4123.07692308 , 4136.92307692 , 4137.94871795 , 4185.64102564 , 4904.61538462 , 4130.25641026 , 4135.8974359 , 2003.0 , 2059.0 , 30.006 , 0.0 , 0.0 , 0.0 , 0.0 , 

35.0 , 4134.87179487 , 4132.30769231 , 4134.35897436 , 4135.38461538 , 4135.38461538 , 4134.35897436 , 4132.30769231 , 4124.61538462 , 4137.43589744 , 4137.94871795 , 4186.15384615 , 4908.71794872 , 4126.15384615 , 4135.38461538 , 2002.0 , 2064.0 , 30.012 , 0.0 , 0.0 , 0.0 , 0.0 , 

36.0 , 4133.84615385 , 4135.8974359 , 4135.38461538 , 4136.92307692 , 4135.8974359 , 4135.38461538 , 4133.33333333 , 4121.02564103 , 4129.74358974 , 4135.38461538 , 4184.61538462 , 4901.02564103 , 4124.1025641 , 4136.41025641 , 2001.0 , 2062.0 , 30.021 , 0.0 , 0.0 , 0.0 , 0.0 , 

37.0 , 4133.33333333 , 4132.82051282 , 4136.41025641 , 4135.38461538 , 4135.8974359 , 4132.82051282 , 4134.35897436 , 4126.15384615 , 4124.61538462 , 4134.35897436 , 4185.12820513 , 4893.84615385 , 4125.12820513 , 4137.43589744 , 2002.0 , 2055.0 , 30.028 , 0.0 , 0.0 , 0.0 , 0.0 , 

38.0 , 4134.35897436 , 4121.02564103 , 4136.92307692 , 4134.87179487 , 4135.38461538 , 4132.30769231 , 4125.64102564 , 4131.79487179 , 4126.66666667 , 4136.41025641 , 4186.66666667 , 4896.41025641 , 4124.61538462 , 4137.43589744 , 2000.0 , 2040.0 , 30.037 , 0.0 , 0.0 , 0.0 , 0.0 , 

39.0 , 4134.35897436 , 4122.05128205 , 4136.41025641 , 4133.33333333 , 4134.87179487 , 4133.84615385 , 4122.56410256 , 4122.05128205 , 4126.66666667 , 4138.46153846 , 4185.12820513 , 4901.53846154 , 4125.12820513 , 4131.28205128 , 1997.0 , 2031.0 , 30.043 , 0.0 , 0.0 , 0.0 , 0.0 , 

40.0 , 4136.41025641 , 4135.38461538 , 4135.8974359 , 4127.17948718 , 4135.38461538 , 4134.35897436 , 4133.84615385 , 4116.41025641 , 4122.56410256 , 4136.92307692 , 4183.58974359 , 4903.58974359 , 4126.66666667 , 4124.1025641 , 1997.0 , 2025.0 , 30.051 , 0.0 , 0.0 , 0.0 , 0.0 , 

41.0 , 4134.35897436 , 4138.46153846 , 4137.94871795 , 4122.56410256 , 4135.38461538 , 4135.38461538 , 4138.97435897 , 4122.56410256 , 4126.15384615 , 4134.87179487 , 4184.1025641 , 4898.46153846 , 4123.58974359 , 4121.02564103 , 1999.0 , 2012.0 , 30.061 , 0.0 , 0.0 , 0.0 , 0.0 , 

42.0 , 4134.87179487 , 4132.30769231 , 4139.48717949 , 4121.02564103 , 4134.87179487 , 4136.41025641 , 4133.33333333 , 4124.61538462 , 4128.71794872 , 4135.8974359 , 4182.05128205 , 4891.28205128 , 4121.53846154 , 4121.02564103 , 2001.0 , 2012.0 , 30.068 , 0.0 , 0.0 , 0.0 , 0.0 , 

43.0 , 4137.43589744 , 4131.79487179 , 4138.46153846 , 4123.58974359 , 4135.8974359 , 4137.43589744 , 4134.35897436 , 4123.07692308 , 4126.15384615 , 4137.43589744 , 4180.51282051 , 4891.28205128 , 4122.05128205 , 4124.1025641 , 2006.0 , 2007.0 , 30.076 , 0.0 , 0.0 , 0.0 , 0.0 , 

44.0 , 4128.71794872 , 4130.25641026 , 4137.43589744 , 4131.79487179 , 4136.41025641 , 4137.43589744 , 4135.8974359 , 4123.07692308 , 4125.64102564 , 4136.92307692 , 4178.46153846 , 4894.87179487 , 4120.51282051 , 4124.1025641 , 2011.0 , 2008.0 , 30.083 , 0.0 , 0.0 , 0.0 , 0.0 , 

45.0 , 4124.1025641 , 4124.61538462 , 4136.41025641 , 4137.94871795 , 4135.8974359 , 4136.92307692 , 4130.76923077 , 4124.1025641 , 4124.1025641 , 4135.38461538 , 4177.94871795 , 4894.35897436 , 4116.41025641 , 4120.51282051 , 2020.0 , 2014.0 , 30.092 , 0.0 , 0.0 , 0.0 , 0.0 , 

46.0 , 4132.82051282 , 4124.1025641 , 4135.8974359 , 4136.92307692 , 4136.92307692 , 4136.92307692 , 4131.28205128 , 4126.66666667 , 4123.07692308 , 4135.8974359 , 4176.92307692 , 4893.33333333 , 4116.92307692 , 4118.46153846 , 2023.0 , 2019.0 , 30.1 , 0.0 , 0.0 , 0.0 , 0.0 , 

47.0 , 4134.35897436 , 4129.23076923 , 4134.87179487 , 4135.8974359 , 4137.94871795 , 4136.92307692 , 4134.87179487 , 4126.66666667 , 4122.56410256 , 4136.41025641 , 4176.92307692 , 4891.79487179 , 4121.02564103 , 4117.94871795 , 2026.0 , 2023.0 , 30.107 , 0.0 , 0.0 , 0.0 , 0.0 , 

48.0 , 4129.74358974 , 4129.74358974 , 4130.76923077 , 4139.48717949 , 4137.94871795 , 4136.92307692 , 4133.84615385 , 4123.07692308 , 4121.53846154 , 4135.8974359 , 4175.38461538 , 4886.66666667 , 4120.51282051 , 4118.46153846 , 2034.0 , 2032.0 , 30.114 , 0.0 , 0.0 , 0.0 , 0.0 , 

49.0 , 4137.94871795 , 4126.15384615 , 4127.17948718 , 4137.94871795 , 4137.43589744 , 4136.92307692 , 4133.33333333 , 4123.58974359 , 4121.53846154 , 4135.8974359 , 4177.43589744 , 4886.15384615 , 4119.48717949 , 4121.02564103 , 2036.0 , 2034.0 , 30.123 , 0.0 , 0.0 , 0.0 , 0.0 , 

50.0 , 4136.41025641 , 4126.15384615 , 4131.28205128 , 4132.82051282 , 4137.43589744 , 4136.92307692 , 4134.35897436 , 4125.64102564 , 4123.07692308 , 4135.8974359 , 4179.48717949 , 4887.69230769 , 4121.53846154 , 4117.43589744 , 2038.0 , 2032.0 , 30.131 , 0.0 , 0.0 , 0.0 , 0.0 , 

51.0 , 4126.15384615 , 4125.64102564 , 4137.43589744 , 4133.84615385 , 4137.94871795 , 4136.92307692 , 4134.35897436 , 4124.1025641 , 4124.1025641 , 4135.8974359 , 4175.8974359 , 4888.71794872 , 4121.53846154 , 4109.74358974 , 2039.0 , 2027.0 , 30.138 , 0.0 , 0.0 , 0.0 , 0.0 , 

52.0 , 4127.69230769 , 4121.53846154 , 4138.46153846 , 4133.33333333 , 4137.43589744 , 4136.92307692 , 4133.84615385 , 4123.07692308 , 4124.61538462 , 4135.8974359 , 4176.41025641 , 4889.74358974 , 4117.43589744 , 4113.33333333 , 2042.0 , 2022.0 , 30.146 , 0.0 , 0.0 , 0.0 , 0.0 , 

53.0 , 4128.20512821 , 4122.05128205 , 4137.43589744 , 4127.69230769 , 4135.8974359 , 4136.92307692 , 4134.35897436 , 4122.56410256 , 4126.15384615 , 4135.8974359 , 4179.48717949 , 4893.33333333 , 4115.8974359 , 4124.1025641 , 2043.0 , 2019.0 , 30.154 , 0.0 , 0.0 , 0.0 , 0.0 , 

54.0 , 4123.58974359 , 4126.15384615 , 4137.94871795 , 4125.64102564 , 4134.87179487 , 4136.92307692 , 4135.38461538 , 4121.02564103 , 4125.12820513 , 4135.8974359 , 4179.48717949 , 4895.8974359 , 4117.94871795 , 4124.1025641 , 2044.0 , 2022.0 , 30.161 , 0.0 , 0.0 , 0.0 , 0.0 , 

55.0 , 4125.12820513 , 4124.61538462 , 4138.46153846 , 4125.64102564 , 4135.38461538 , 4136.92307692 , 4136.92307692 , 4120.0 , 4125.12820513 , 4135.8974359 , 4182.05128205 , 4894.35897436 , 4118.46153846 , 4122.05128205 , 2047.0 , 2032.0 , 30.169 , 0.0 , 0.0 , 0.0 , 0.0 , 

56.0 , 4127.69230769 , 4126.15384615 , 4137.43589744 , 4126.15384615 , 4134.87179487 , 4136.92307692 , 4134.87179487 , 4120.51282051 , 4128.71794872 , 4135.8974359 , 4185.12820513 , 4893.33333333 , 4116.92307692 , 4124.61538462 , 2046.0 , 2040.0 , 30.177 , 0.0 , 0.0 , 0.0 , 0.0 , 

57.0 , 4124.1025641 , 4130.25641026 , 4134.35897436 , 4131.79487179 , 4135.38461538 , 4136.92307692 , 4134.87179487 , 4123.58974359 , 4129.23076923 , 4135.8974359 , 4184.1025641 , 4895.8974359 , 4119.48717949 , 4125.12820513 , 2050.0 , 2051.0 , 30.185 , 0.0 , 0.0 , 0.0 , 0.0 , 

58.0 , 4122.05128205 , 4122.05128205 , 4134.35897436 , 4137.43589744 , 4135.8974359 , 4136.92307692 , 4135.38461538 , 4124.1025641 , 4126.15384615 , 4135.8974359 , 4182.05128205 , 4898.46153846 , 4123.07692308 , 4121.53846154 , 2054.0 , 2058.0 , 30.193 , 0.0 , 0.0 , 0.0 , 0.0 , 

59.0 , 4124.1025641 , 4116.92307692 , 4134.87179487 , 4136.41025641 , 4136.41025641 , 4135.8974359 , 4131.28205128 , 4123.07692308 , 4122.56410256 , 4135.8974359 , 4183.58974359 , 4895.8974359 , 4124.1025641 , 4120.51282051 , 2064.0 , 2069.0 , 30.202 , 0.0 , 0.0 , 0.0 , 0.0 , 

60.0 , 4126.66666667 , 4121.53846154 , 4129.74358974 , 4135.8974359 , 4136.92307692 , 4135.8974359 , 4128.71794872 , 4124.61538462 , 4125.64102564 , 4135.8974359 , 4181.53846154 , 4892.30769231 , 4122.56410256 , 4126.15384615 , 2068.0 , 2075.0 , 30.21 , 0.0 , 0.0 , 0.0 , 0.0 , 

61.0 , 4125.64102564 , 4124.1025641 , 4122.56410256 , 4136.41025641 , 4136.92307692 , 4136.41025641 , 4130.25641026 , 4130.25641026 , 4127.69230769 , 4135.8974359 , 4182.56410256 , 4895.38461538 , 4123.07692308 , 4128.71794872 , 2068.0 , 2080.0 , 30.217 , 0.0 , 0.0 , 0.0 , 0.0 , 

62.0 , 4122.05128205 , 4125.64102564 , 4117.94871795 , 4134.35897436 , 4135.8974359 , 4135.38461538 , 4128.71794872 , 4131.79487179 , 4125.12820513 , 4135.8974359 , 4184.1025641 , 4904.1025641 , 4126.15384615 , 4127.17948718 , 2064.0 , 2084.0 , 30.225 , 0.0 , 0.0 , 0.0 , 0.0 , 

63.0 , 4123.07692308 , 4128.71794872 , 4121.53846154 , 4134.35897436 , 4135.38461538 , 4134.35897436 , 4126.15384615 , 4124.61538462 , 4130.25641026 , 4135.8974359 , 4184.1025641 , 4903.58974359 , 4125.12820513 , 4128.20512821 , 2055.0 , 2079.0 , 30.233 , 0.0 , 0.0 , 0.0 , 0.0 , 

64.0 , 4125.64102564 , 4128.71794872 , 4129.74358974 , 4135.8974359 , 4135.8974359 , 4134.87179487 , 4126.66666667 , 4128.20512821 , 4136.41025641 , 4135.8974359 , 4183.58974359 , 4896.41025641 , 4125.64102564 , 4130.76923077 , 2036.0 , 2063.0 , 30.24 , 0.0 , 0.0 , 0.0 , 0.0 , 

65.0 , 4124.1025641 , 4126.66666667 , 4134.35897436 , 4135.8974359 , 4135.8974359 , 4135.38461538 , 4125.64102564 , 4134.87179487 , 4129.23076923 , 4135.8974359 , 4184.1025641 , 4898.97435897 , 4128.20512821 , 4133.84615385 , 2028.0 , 2051.0 , 30.249 , 0.0 , 0.0 , 0.0 , 0.0 , 

66.0 , 4122.05128205 , 4125.12820513 , 4129.74358974 , 4132.30769231 , 4134.87179487 , 4134.87179487 , 4128.20512821 , 4129.74358974 , 4121.02564103 , 4135.8974359 , 4185.12820513 , 4908.71794872 , 4127.17948718 , 4138.46153846 , 2017.0 , 2034.0 , 30.26 , 0.0 , 0.0 , 0.0 , 0.0 , 

67.0 , 4128.71794872 , 4123.58974359 , 4120.0 , 4131.28205128 , 4135.38461538 , 4134.35897436 , 4136.41025641 , 4129.23076923 , 4129.23076923 , 4135.8974359 , 4183.58974359 , 4912.30769231 , 4121.53846154 , 4141.02564103 , 2017.0 , 2026.0 , 30.264 , 0.0 , 0.0 , 0.0 , 0.0 , 

68.0 , 4138.46153846 , 4123.07692308 , 4122.56410256 , 4133.33333333 , 4135.8974359 , 4132.82051282 , 4139.48717949 , 4134.87179487 , 4135.8974359 , 4135.8974359 , 4185.12820513 , 4915.38461538 , 4121.02564103 , 4138.97435897 , 2021.0 , 2025.0 , 30.272 , 0.0 , 0.0 , 0.0 , 0.0 , 

69.0 , 4137.43589744 , 4124.61538462 , 4134.35897436 , 4126.15384615 , 4132.30769231 , 4130.76923077 , 4136.92307692 , 4134.35897436 , 4134.35897436 , 4136.92307692 , 4186.15384615 , 4918.97435897 , 4127.17948718 , 4138.46153846 , 2031.0 , 2037.0 , 30.28 , 0.0 , 0.0 , 0.0 , 0.0 , 

70.0 , 4126.66666667 , 4133.84615385 , 4140.0 , 4115.8974359 , 4128.71794872 , 4129.74358974 , 4134.87179487 , 4133.33333333 , 4134.87179487 , 4137.94871795 , 4187.69230769 , 4916.41025641 , 4136.92307692 , 4137.94871795 , 2039.0 , 2044.0 , 30.289 , 0.0 , 0.0 , 0.0 , 0.0 , 

71.0 , 4124.1025641 , 4137.43589744 , 4136.41025641 , 4124.1025641 , 4129.23076923 , 4130.25641026 , 4128.71794872 , 4138.97435897 , 4135.8974359 , 4137.94871795 , 4190.76923077 , 4908.20512821 , 4141.02564103 , 4137.43589744 , 2056.0 , 2060.0 , 30.303 , 0.0 , 0.0 , 0.0 , 0.0 , 

72.0 , 4135.8974359 , 4126.66666667 , 4135.38461538 , 4137.43589744 , 4128.71794872 , 4129.74358974 , 4119.48717949 , 4138.97435897 , 4135.38461538 , 4137.43589744 , 4192.82051282 , 4905.12820513 , 4140.0 , 4137.94871795 , 2060.0 , 2065.0 , 30.307 , 0.0 , 0.0 , 0.0 , 0.0 , 

73.0 , 4136.92307692 , 4123.07692308 , 4138.46153846 , 4138.97435897 , 4126.66666667 , 4129.74358974 , 4118.97435897 , 4136.41025641 , 4135.38461538 , 4136.41025641 , 4191.79487179 , 4909.74358974 , 4143.07692308 , 4134.35897436 , 2064.0 , 2066.0 , 30.312 , 0.0 , 0.0 , 0.0 , 0.0 , 

74.0 , 4127.17948718 , 4134.35897436 , 4133.84615385 , 4137.94871795 , 4130.76923077 , 4130.76923077 , 4120.0 , 4137.43589744 , 4136.92307692 , 4136.92307692 , 4189.74358974 , 4909.23076923 , 4144.1025641 , 4134.35897436 , 2063.0 , 2063.0 , 30.32 , 0.0 , 0.0 , 0.0 , 0.0 , 

75.0 , 4127.17948718 , 4135.8974359 , 4122.05128205 , 4140.51282051 , 4136.41025641 , 4126.15384615 , 4120.51282051 , 4135.8974359 , 4135.38461538 , 4136.92307692 , 4195.38461538 , 4906.15384615 , 4140.0 , 4142.56410256 , 2061.0 , 2056.0 , 30.327 , 0.0 , 0.0 , 0.0 , 0.0 , 

76.0 , 4127.69230769 , 4129.23076923 , 4120.51282051 , 4141.53846154 , 4134.35897436 , 4121.53846154 , 4127.17948718 , 4136.41025641 , 4135.8974359 , 4135.8974359 , 4195.8974359 , 4915.38461538 , 4141.53846154 , 4149.23076923 , 2055.0 , 2056.0 , 30.336 , 0.0 , 0.0 , 0.0 , 0.0 , 

77.0 , 4123.58974359 , 4129.74358974 , 4132.82051282 , 4137.43589744 , 4133.33333333 , 4122.56410256 , 4134.87179487 , 4135.38461538 , 4136.41025641 , 4138.97435897 , 4191.79487179 , 4926.15384615 , 4141.02564103 , 4148.71794872 , 2049.0 , 2056.0 , 30.343 , 0.0 , 0.0 , 0.0 , 0.0 , 

78.0 , 4132.30769231 , 4130.76923077 , 4136.92307692 , 4126.15384615 , 4135.38461538 , 4123.07692308 , 4136.92307692 , 4134.87179487 , 4136.41025641 , 4140.51282051 , 4193.33333333 , 4925.64102564 , 4135.8974359 , 4149.74358974 , 2040.0 , 2062.0 , 30.351 , 0.0 , 0.0 , 0.0 , 0.0 , 

79.0 , 4136.92307692 , 4125.12820513 , 4132.30769231 , 4117.43589744 , 4126.66666667 , 4120.51282051 , 4133.33333333 , 4136.92307692 , 4136.41025641 , 4136.92307692 , 4196.92307692 , 4924.1025641 , 4137.94871795 , 4155.8974359 , 2035.0 , 2065.0 , 30.359 , 0.0 , 0.0 , 0.0 , 0.0 , 

80.0 , 4129.23076923 , 4128.71794872 , 4133.84615385 , 4128.20512821 , 4120.51282051 , 4120.0 , 4131.79487179 , 4138.46153846 , 4137.94871795 , 4136.41025641 , 4199.48717949 , 4928.20512821 , 4144.1025641 , 4157.94871795 , 2022.0 , 2071.0 , 30.367 , 0.0 , 0.0 , 0.0 , 0.0 , 

81.0 , 4127.69230769 , 4140.0 , 4134.87179487 , 4138.97435897 , 4126.15384615 , 4128.20512821 , 4130.25641026 , 4138.46153846 , 4137.43589744 , 4138.97435897 , 4201.53846154 , 4928.71794872 , 4143.58974359 , 4156.41025641 , 2020.0 , 2071.0 , 30.374 , 0.0 , 0.0 , 0.0 , 0.0 , 

82.0 , 4130.76923077 , 4134.87179487 , 4134.35897436 , 4134.87179487 , 4126.66666667 , 4133.84615385 , 4125.12820513 , 4137.94871795 , 4134.87179487 , 4137.94871795 , 4198.97435897 , 4923.07692308 , 4141.02564103 , 4152.30769231 , 2023.0 , 2063.0 , 30.382 , 0.0 , 0.0 , 0.0 , 0.0 , 

83.0 , 4131.28205128 , 4125.64102564 , 4135.8974359 , 4135.38461538 , 4125.64102564 , 4131.28205128 , 4120.0 , 4134.87179487 , 4137.94871795 , 4135.8974359 , 4191.28205128 , 4916.92307692 , 4138.97435897 , 4148.71794872 , 2028.0 , 2055.0 , 30.39 , 0.0 , 0.0 , 0.0 , 0.0 , 

84.0 , 4128.20512821 , 4133.33333333 , 4133.84615385 , 4139.48717949 , 4137.43589744 , 4128.20512821 , 4122.56410256 , 4133.33333333 , 4140.0 , 4136.41025641 , 4187.69230769 , 4915.38461538 , 4136.92307692 , 4147.17948718 , 2035.0 , 2045.0 , 30.398 , 0.0 , 0.0 , 0.0 , 0.0 , 

85.0 , 4124.61538462 , 4135.8974359 , 4134.87179487 , 4133.84615385 , 4134.87179487 , 4130.25641026 , 4124.1025641 , 4134.87179487 , 4137.43589744 , 4136.92307692 , 4190.25641026 , 4915.38461538 , 4137.94871795 , 4145.64102564 , 2053.0 , 2036.0 , 30.406 , 0.0 , 0.0 , 0.0 , 0.0 , 

86.0 , 4127.69230769 , 4131.28205128 , 4138.46153846 , 4131.79487179 , 4117.94871795 , 4129.74358974 , 4122.05128205 , 4135.8974359 , 4136.41025641 , 4137.43589744 , 4193.33333333 , 4911.79487179 , 4140.51282051 , 4140.51282051 , 2060.0 , 2033.0 , 30.414 , 0.0 , 0.0 , 0.0 , 0.0 , 

87.0 , 4129.74358974 , 4134.87179487 , 4127.69230769 , 4137.94871795 , 4123.58974359 , 4128.71794872 , 4129.74358974 , 4137.94871795 , 4137.43589744 , 4137.94871795 , 4192.30769231 , 4907.17948718 , 4140.51282051 , 4139.48717949 , 2068.0 , 2042.0 , 30.423 , 0.0 , 0.0 , 0.0 , 0.0 , 

88.0 , 4130.76923077 , 4140.0 , 4118.97435897 , 4138.97435897 , 4136.41025641 , 4130.25641026 , 4137.43589744 , 4140.0 , 4134.87179487 , 4137.94871795 , 4188.20512821 , 4906.66666667 , 4138.97435897 , 4137.43589744 , 2068.0 , 2050.0 , 30.43 , 0.0 , 0.0 , 0.0 , 0.0 , 

89.0 , 4136.41025641 , 4137.94871795 , 4130.25641026 , 4137.43589744 , 4132.30769231 , 4130.25641026 , 4133.84615385 , 4138.97435897 , 4135.38461538 , 4136.92307692 , 4187.17948718 , 4907.17948718 , 4138.46153846 , 4127.69230769 , 2062.0 , 2069.0 , 30.438 , 0.0 , 0.0 , 0.0 , 0.0 , 

90.0 , 4136.92307692 , 4134.35897436 , 4140.0 , 4136.41025641 , 4130.76923077 , 4129.74358974 , 4133.33333333 , 4135.38461538 , 4137.94871795 , 4136.41025641 , 4187.17948718 , 4905.12820513 , 4136.41025641 , 4124.61538462 , 2056.0 , 2072.0 , 30.445 , 0.0 , 0.0 , 0.0 , 0.0 , 

91.0 , 4134.35897436 , 4136.41025641 , 4133.84615385 , 4137.43589744 , 4137.43589744 , 4130.25641026 , 4136.41025641 , 4129.23076923 , 4130.25641026 , 4136.92307692 , 4185.64102564 , 4905.12820513 , 4135.8974359 , 4135.8974359 , 2046.0 , 2076.0 , 30.454 , 0.0 , 0.0 , 0.0 , 0.0 , 

92.0 , 4137.43589744 , 4135.38461538 , 4131.79487179 , 4136.41025641 , 4135.8974359 , 4130.25641026 , 4135.38461538 , 4126.15384615 , 4126.15384615 , 4136.92307692 , 4187.69230769 , 4906.66666667 , 4133.84615385 , 4141.53846154 , 2027.0 , 2073.0 , 30.461 , 0.0 , 0.0 , 0.0 , 0.0 , 

93.0 , 4134.87179487 , 4125.12820513 , 4137.94871795 , 4129.23076923 , 4129.74358974 , 4130.25641026 , 4134.35897436 , 4125.64102564 , 4134.87179487 , 4136.92307692 , 4188.71794872 , 4911.79487179 , 4127.69230769 , 4137.43589744 , 2019.0 , 2071.0 , 30.47 , 0.0 , 0.0 , 0.0 , 0.0 , 

94.0 , 4130.76923077 , 4122.05128205 , 4139.48717949 , 4126.66666667 , 4133.84615385 , 4130.25641026 , 4134.35897436 , 4125.12820513 , 4137.94871795 , 4136.92307692 , 4186.66666667 , 4920.0 , 4126.66666667 , 4140.0 , 2007.0 , 2074.0 , 30.477 , 0.0 , 0.0 , 0.0 , 0.0 , 

95.0 , 4136.41025641 , 4133.84615385 , 4135.8974359 , 4128.20512821 , 4137.43589744 , 4130.25641026 , 4134.35897436 , 4126.15384615 , 4134.35897436 , 4136.92307692 , 4186.15384615 , 4922.05128205 , 4129.23076923 , 4144.61538462 , 2004.0 , 2074.0 , 30.486 , 0.0 , 0.0 , 0.0 , 0.0 , 

96.0 , 4138.97435897 , 4139.48717949 , 4134.35897436 , 4127.17948718 , 4129.74358974 , 4130.25641026 , 4136.41025641 , 4131.28205128 , 4134.87179487 , 4136.92307692 , 4188.20512821 , 4915.38461538 , 4128.71794872 , 4142.05128205 , 2004.0 , 2083.0 , 30.493 , 0.0 , 0.0 , 0.0 , 0.0 , 

97.0 , 4136.92307692 , 4134.35897436 , 4134.87179487 , 4127.69230769 , 4123.58974359 , 4130.25641026 , 4131.28205128 , 4132.82051282 , 4136.92307692 , 4136.92307692 , 4192.82051282 , 4910.25641026 , 4132.82051282 , 4140.0 , 2011.0 , 2094.0 , 30.502 , 0.0 , 0.0 , 0.0 , 0.0 , 

98.0 , 4135.8974359 , 4136.92307692 , 4135.38461538 , 4132.30769231 , 4123.58974359 , 4130.25641026 , 4124.1025641 , 4132.30769231 , 4135.38461538 , 4136.92307692 , 4191.28205128 , 4912.30769231 , 4140.51282051 , 4139.48717949 , 2021.0 , 2107.0 , 30.509 , 0.0 , 0.0 , 0.0 , 0.0 , 

99.0 , 4135.8974359 , 4142.05128205 , 4135.38461538 , 4135.38461538 , 4126.66666667 , 4130.25641026 , 4123.58974359 , 4134.35897436 , 4135.38461538 , 4136.92307692 , 4185.12820513 , 4912.82051282 , 4138.46153846 , 4140.51282051 , 2037.0 , 2129.0 , 30.516 , 0.0 , 0.0 , 0.0 , 0.0 , 

100.0 , 4136.92307692 , 4140.0 , 4136.41025641 , 4136.92307692 , 4126.15384615 , 4130.76923077 , 4123.07692308 , 4135.8974359 , 4135.38461538 , 4136.92307692 , 4187.69230769 , 4910.76923077 , 4138.46153846 , 4140.0 , 2044.0 , 2132.0 , 30.524 , 0.0 , 0.0 , 0.0 , 0.0 , 

101.0 , 4136.92307692 , 4137.43589744 , 4135.38461538 , 4138.46153846 , 4123.07692308 , 4129.74358974 , 4118.97435897 , 4135.8974359 , 4135.38461538 , 4136.92307692 , 4193.84615385 , 4908.71794872 , 4146.66666667 , 4133.84615385 , 2053.0 , 2125.0 , 30.533 , 0.0 , 0.0 , 0.0 , 0.0 , 

102.0 , 4136.41025641 , 4137.94871795 , 4134.35897436 , 4136.41025641 , 4126.66666667 , 4128.71794872 , 4117.94871795 , 4135.8974359 , 4135.8974359 , 4136.92307692 , 4190.25641026 , 4903.58974359 , 4144.61538462 , 4131.79487179 , 2056.0 , 2113.0 , 30.541 , 0.0 , 0.0 , 0.0 , 0.0 , 

103.0 , 4136.41025641 , 4136.92307692 , 4135.8974359 , 4137.94871795 , 4139.48717949 , 4131.79487179 , 4121.02564103 , 4133.84615385 , 4134.87179487 , 4136.92307692 , 4184.1025641 , 4905.64102564 , 4135.8974359 , 4136.41025641 , 2055.0 , 2082.0 , 30.549 , 0.0 , 0.0 , 0.0 , 0.0 , 

104.0 , 4134.87179487 , 4132.30769231 , 4133.84615385 , 4138.97435897 , 4138.97435897 , 4128.20512821 , 4129.23076923 , 4136.41025641 , 4134.87179487 , 4136.92307692 , 4187.17948718 , 4921.02564103 , 4135.8974359 , 4141.02564103 , 2052.0 , 2069.0 , 30.557 , 0.0 , 0.0 , 0.0 , 0.0 , 

105.0 , 4128.71794872 , 4127.69230769 , 4134.87179487 , 4130.76923077 , 4122.05128205 , 4118.46153846 , 4136.41025641 , 4144.1025641 , 4136.41025641 , 4137.43589744 , 4193.84615385 , 4931.28205128 , 4136.41025641 , 4141.53846154 , 2048.0 , 2049.0 , 30.563 , 0.0 , 0.0 , 0.0 , 0.0 , 

106.0 , 4126.66666667 , 4125.12820513 , 4142.05128205 , 4122.05128205 , 4122.05128205 , 4124.61538462 , 4136.41025641 , 4142.05128205 , 4136.92307692 , 4137.94871795 , 4191.79487179 , 4924.61538462 , 4130.25641026 , 4143.58974359 , 2043.0 , 2048.0 , 30.571 , 0.0 , 0.0 , 0.0 , 0.0 , 

107.0 , 4131.79487179 , 4124.61538462 , 4142.56410256 , 4119.48717949 , 4136.41025641 , 4136.41025641 , 4134.87179487 , 4130.25641026 , 4134.35897436 , 4138.46153846 , 4186.66666667 , 4922.56410256 , 4124.61538462 , 4145.64102564 , 2042.0 , 2048.0 , 30.579 , 0.0 , 0.0 , 0.0 , 0.0 , 

108.0 , 4136.92307692 , 4126.15384615 , 4135.8974359 , 4118.46153846 , 4137.94871795 , 4131.79487179 , 4135.38461538 , 4131.28205128 , 4133.84615385 , 4138.97435897 , 4187.17948718 , 4924.1025641 , 4124.61538462 , 4144.1025641 , 2046.0 , 2054.0 , 30.587 , 0.0 , 0.0 , 0.0 , 0.0 , 

109.0 , 4137.43589744 , 4124.61538462 , 4134.35897436 , 4120.51282051 , 4133.33333333 , 4126.15384615 , 4131.28205128 , 4136.92307692 , 4132.82051282 , 4136.92307692 , 4186.66666667 , 4913.33333333 , 4124.61538462 , 4137.94871795 , 2050.0 , 2062.0 , 30.595 , 0.0 , 0.0 , 0.0 , 0.0 , 

110.0 , 4129.74358974 , 4121.53846154 , 4136.41025641 , 4131.28205128 , 4134.87179487 , 4132.30769231 , 4125.64102564 , 4127.69230769 , 4126.15384615 , 4134.87179487 , 4184.1025641 , 4905.64102564 , 4123.07692308 , 4136.92307692 , 2057.0 , 2077.0 , 30.604 , 0.0 , 0.0 , 0.0 , 0.0 , 

111.0 , 4126.66666667 , 4125.12820513 , 4136.92307692 , 4138.97435897 , 4137.43589744 , 4136.41025641 , 4120.0 , 4121.02564103 , 4124.1025641 , 4135.38461538 , 4183.07692308 , 4910.25641026 , 4124.1025641 , 4136.41025641 , 2058.0 , 2085.0 , 30.611 , 0.0 , 0.0 , 0.0 , 0.0 , 

112.0 , 4133.84615385 , 4128.71794872 , 4136.92307692 , 4136.92307692 , 4134.87179487 , 4134.87179487 , 4117.94871795 , 4125.12820513 , 4127.17948718 , 4136.92307692 , 4185.12820513 , 4911.28205128 , 4124.61538462 , 4129.74358974 , 2060.0 , 2093.0 , 30.619 , 0.0 , 0.0 , 0.0 , 0.0 , 

113.0 , 4137.43589744 , 4128.20512821 , 4135.38461538 , 4134.35897436 , 4134.35897436 , 4134.87179487 , 4120.51282051 , 4125.12820513 , 4128.20512821 , 4136.41025641 , 4185.64102564 , 4905.12820513 , 4126.15384615 , 4127.69230769 , 2060.0 , 2091.0 , 30.628 , 0.0 , 0.0 , 0.0 , 0.0 , 

114.0 , 4134.87179487 , 4124.61538462 , 4134.87179487 , 4136.92307692 , 4134.87179487 , 4134.35897436 , 4120.51282051 , 4121.53846154 , 4126.66666667 , 4135.8974359 , 4185.64102564 , 4903.07692308 , 4127.69230769 , 4130.25641026 , 2062.0 , 2090.0 , 30.634 , 0.0 , 0.0 , 0.0 , 0.0 , 

115.0 , 4134.87179487 , 4122.05128205 , 4138.46153846 , 4138.46153846 , 4135.38461538 , 4134.35897436 , 4122.05128205 , 4122.05128205 , 4129.23076923 , 4136.92307692 , 4184.1025641 , 4906.66666667 , 4123.58974359 , 4129.74358974 , 2066.0 , 2093.0 , 30.643 , 0.0 , 0.0 , 0.0 , 0.0 , 

116.0 , 4136.41025641 , 4124.1025641 , 4137.94871795 , 4130.76923077 , 4135.38461538 , 4134.87179487 , 4132.82051282 , 4124.1025641 , 4127.69230769 , 4137.43589744 , 4183.07692308 , 4908.71794872 , 4119.48717949 , 4128.71794872 , 2068.0 , 2094.0 , 30.65 , 0.0 , 0.0 , 0.0 , 0.0 , 

117.0 , 4135.8974359 , 4123.07692308 , 4136.92307692 , 4122.56410256 , 4134.87179487 , 4133.84615385 , 4140.0 , 4122.05128205 , 4123.58974359 , 4136.92307692 , 4183.07692308 , 4910.76923077 , 4122.56410256 , 4131.28205128 , 2066.0 , 2096.0 , 30.658 , 0.0 , 0.0 , 0.0 , 0.0 , 

118.0 , 4136.41025641 , 4120.0 , 4138.97435897 , 4124.61538462 , 4135.38461538 , 4134.87179487 , 4132.82051282 , 4121.53846154 , 4124.1025641 , 4136.92307692 , 4184.61538462 , 4908.71794872 , 4126.15384615 , 4131.79487179 , 2061.0 , 2096.0 , 30.667 , 0.0 , 0.0 , 0.0 , 0.0 , 

119.0 , 4133.33333333 , 4120.51282051 , 4138.97435897 , 4126.66666667 , 4135.38461538 , 4133.84615385 , 4123.58974359 , 4123.58974359 , 4127.17948718 , 4136.92307692 , 4185.12820513 , 4907.69230769 , 4123.58974359 , 4130.25641026 , 2047.0 , 2098.0 , 30.674 , 0.0 , 0.0 , 0.0 , 0.0 , 

120.0 , 4124.61538462 , 4123.58974359 , 4137.94871795 , 4122.56410256 , 4135.38461538 , 4130.76923077 , 4126.15384615 , 4123.58974359 , 4128.20512821 , 4136.92307692 , 4184.61538462 , 4907.17948718 , 4122.05128205 , 4133.33333333 , 2039.0 , 2099.0 , 30.682 , 0.0 , 0.0 , 0.0 , 0.0 , 

121.0 , 4127.17948718 , 4121.53846154 , 4137.43589744 , 4121.02564103 , 4135.38461538 , 4129.23076923 , 4131.28205128 , 4120.0 , 4125.12820513 , 4136.92307692 , 4184.1025641 , 4908.71794872 , 4124.61538462 , 4138.97435897 , 2033.0 , 2099.0 , 30.689 , 0.0 , 0.0 , 0.0 , 0.0 , 

122.0 , 4131.28205128 , 4120.0 , 4135.8974359 , 4125.12820513 , 4135.8974359 , 4129.23076923 , 4130.76923077 , 4125.12820513 , 4128.20512821 , 4136.92307692 , 4184.61538462 , 4914.35897436 , 4125.12820513 , 4138.97435897 , 2027.0 , 2100.0 , 30.697 , 0.0 , 0.0 , 0.0 , 0.0 , 

123.0 , 4126.66666667 , 4121.02564103 , 4134.87179487 , 4135.38461538 , 4134.35897436 , 4128.20512821 , 4127.69230769 , 4133.84615385 , 4134.87179487 , 4136.92307692 , 4186.15384615 , 4918.97435897 , 4123.58974359 , 4137.43589744 , 2029.0 , 2103.0 , 30.705 , 0.0 , 0.0 , 0.0 , 0.0 , 

124.0 , 4127.69230769 , 4120.0 , 4134.87179487 , 4137.94871795 , 4136.41025641 , 4130.76923077 , 4129.23076923 , 4134.35897436 , 4134.87179487 , 4137.94871795 , 4185.12820513 , 4918.46153846 , 4122.05128205 , 4141.53846154 , 2038.0 , 2113.0 , 30.714 , 0.0 , 0.0 , 0.0 , 0.0 , 

125.0 , 4135.38461538 , 4120.51282051 , 4134.35897436 , 4125.12820513 , 4135.8974359 , 4129.74358974 , 4131.28205128 , 4135.8974359 , 4131.79487179 , 4137.43589744 , 4185.64102564 , 4919.48717949 , 4126.66666667 , 4143.07692308 , 2043.0 , 2120.0 , 30.722 , 0.0 , 0.0 , 0.0 , 0.0 , 

126.0 , 4134.35897436 , 4122.05128205 , 4134.87179487 , 4124.1025641 , 4129.23076923 , 4122.05128205 , 4126.66666667 , 4137.94871795 , 4131.28205128 , 4136.41025641 , 4190.25641026 , 4922.05128205 , 4134.87179487 , 4138.97435897 , 2052.0 , 2128.0 , 30.729 , 0.0 , 0.0 , 0.0 , 0.0 , 

127.0 , 4133.33333333 , 4122.05128205 , 4135.38461538 , 4138.46153846 , 4124.61538462 , 4120.0 , 4119.48717949 , 4136.92307692 , 4135.38461538 , 4136.92307692 , 4193.84615385 , 4921.02564103 , 4140.0 , 4134.87179487 , 2055.0 , 2126.0 , 30.738 , 0.0 , 0.0 , 0.0 , 0.0 , 

128.0 , 4137.43589744 , 4123.07692308 , 4134.87179487 , 4138.97435897 , 4124.61538462 , 4123.07692308 , 4119.48717949 , 4138.46153846 , 4137.94871795 , 4137.94871795 , 4190.76923077 , 4920.0 , 4138.97435897 , 4134.35897436 , 2056.0 , 2120.0 , 30.745 , 0.0 , 0.0 , 0.0 , 0.0 , 

0.0 , 4134.87179487 , 4124.1025641 , 4135.38461538 , 4133.84615385 , 4123.58974359 , 4121.02564103 , 4121.02564103 , 4141.02564103 , 4136.92307692 , 4137.94871795 , 4187.69230769 , 4921.02564103 , 4138.97435897 , 4138.97435897 , 2053.0 , 2101.0 , 30.754 , 0.0 , 0.0 , 0.0 , 0.0 , 

1.0 , 4128.20512821 , 4122.05128205 , 4136.41025641 , 4135.8974359 , 4122.05128205 , 4126.15384615 , 4122.05128205 , 4138.46153846 , 4134.35897436 , 4137.43589744 , 4190.25641026 , 4920.0 , 4138.46153846 , 4140.0 , 2049.0 , 2093.0 , 30.761 , 0.0 , 0.0 , 0.0 , 0.0 , 

2.0 , 4125.64102564 , 4119.48717949 , 4135.8974359 , 4130.76923077 , 4127.69230769 , 4135.8974359 , 4131.28205128 , 4137.94871795 , 4136.41025641 , 4137.94871795 , 4190.25641026 , 4922.05128205 , 4134.35897436 , 4138.46153846 , 2045.0 , 2085.0 , 30.769 , 0.0 , 0.0 , 0.0 , 0.0 , 

3.0 , 4125.12820513 , 4120.0 , 4135.8974359 , 4123.07692308 , 4126.15384615 , 4128.20512821 , 4138.46153846 , 4136.92307692 , 4137.43589744 , 4137.94871795 , 4190.25641026 , 4925.64102564 , 4128.71794872 , 4145.12820513 , 2045.0 , 2088.0 , 30.776 , 0.0 , 0.0 , 0.0 , 0.0 , 

4.0 , 4124.61538462 , 4120.0 , 4136.92307692 , 4121.53846154 , 4121.02564103 , 4121.53846154 , 4134.87179487 , 4133.84615385 , 4137.94871795 , 4138.46153846 , 4191.28205128 , 4926.15384615 , 4124.1025641 , 4150.25641026 , 2049.0 , 2105.0 , 30.784 , 0.0 , 0.0 , 0.0 , 0.0 , 

5.0 , 4125.12820513 , 4120.0 , 4136.41025641 , 4119.48717949 , 4128.20512821 , 4129.74358974 , 4134.35897436 , 4135.38461538 , 4134.87179487 , 4139.48717949 , 4187.69230769 , 4924.61538462 , 4124.1025641 , 4143.58974359 , 2051.0 , 2117.0 , 30.792 , 0.0 , 0.0 , 0.0 , 0.0 , 

6.0 , 4130.76923077 , 4121.02564103 , 4136.41025641 , 4126.15384615 , 4135.38461538 , 4133.33333333 , 4135.8974359 , 4135.38461538 , 4133.33333333 , 4138.46153846 , 4185.12820513 , 4920.0 , 4128.20512821 , 4138.46153846 , 2059.0 , 2134.0 , 30.801 , 0.0 , 0.0 , 0.0 , 0.0 , 

7.0 , 4135.8974359 , 4122.56410256 , 4134.87179487 , 4137.94871795 , 4133.84615385 , 4126.15384615 , 4129.74358974 , 4131.79487179 , 4137.94871795 , 4136.41025641 , 4187.17948718 , 4913.84615385 , 4131.28205128 , 4139.48717949 , 2059.0 , 2140.0 , 30.808 , 0.0 , 0.0 , 0.0 , 0.0 , 

8.0 , 4132.30769231 , 4124.61538462 , 4131.79487179 , 4139.48717949 , 4132.30769231 , 4119.48717949 , 4118.97435897 , 4134.35897436 , 4132.82051282 , 4136.41025641 , 4187.69230769 , 4910.76923077 , 4133.33333333 , 4138.97435897 , 2057.0 , 2143.0 , 30.82 , 0.0 , 0.0 , 0.0 , 0.0 , 

9.0 , 4128.20512821 , 4124.1025641 , 4131.79487179 , 4134.35897436 , 4135.38461538 , 4125.12820513 , 4117.43589744 , 4137.94871795 , 4123.07692308 , 4136.92307692 , 4184.61538462 , 4913.33333333 , 4136.92307692 , 4136.41025641 , 2051.0 , 2158.0 , 30.824 , 0.0 , 0.0 , 0.0 , 0.0 , 

10.0 , 4124.1025641 , 4121.02564103 , 4133.33333333 , 4136.92307692 , 4134.35897436 , 4133.84615385 , 4127.17948718 , 4136.41025641 , 4128.20512821 , 4136.92307692 , 4185.12820513 , 4916.41025641 , 4134.35897436 , 4136.41025641 , 2044.0 , 2177.0 , 30.831 , 0.0 , 0.0 , 0.0 , 0.0 , 

11.0 , 4121.02564103 , 4121.02564103 , 4137.43589744 , 4138.46153846 , 4133.33333333 , 4132.30769231 , 4135.38461538 , 4135.8974359 , 4139.48717949 , 4136.92307692 , 4186.66666667 , 4918.46153846 , 4128.71794872 , 4134.87179487 , 2048.0 , 2228.0 , 30.839 , 0.0 , 0.0 , 0.0 , 0.0 , 

12.0 , 4129.23076923 , 4122.05128205 , 4140.51282051 , 4130.25641026 , 4134.87179487 , 4129.74358974 , 4136.41025641 , 4135.8974359 , 4134.35897436 , 4136.92307692 , 4185.12820513 , 4912.82051282 , 4127.17948718 , 4134.35897436 , 2061.0 , 2246.0 , 30.847 , 0.0 , 0.0 , 0.0 , 0.0 , 

13.0 , 4131.79487179 , 4122.56410256 , 4131.28205128 , 4122.56410256 , 4134.87179487 , 4134.35897436 , 4135.8974359 , 4135.8974359 , 4126.66666667 , 4136.92307692 , 4184.1025641 , 4907.17948718 , 4120.51282051 , 4144.1025641 , 2069.0 , 2230.0 , 30.856 , 0.0 , 0.0 , 0.0 , 0.0 , 

14.0 , 4135.38461538 , 4122.05128205 , 4137.43589744 , 4118.97435897 , 4136.92307692 , 4127.69230769 , 4129.74358974 , 4133.84615385 , 4125.64102564 , 4136.41025641 , 4184.1025641 , 4913.84615385 , 4134.35897436 , 4136.41025641 , 2075.0 , 2198.0 , 30.863 , 0.0 , 0.0 , 0.0 , 0.0 , 

15.0 , 4152.30769231 , 4121.02564103 , 4167.69230769 , 4119.48717949 , 4134.87179487 , 4114.35897436 , 4117.43589744 , 4125.64102564 , 4125.12820513 , 4134.87179487 , 4184.1025641 , 4908.20512821 , 4171.79487179 , 4117.43589744 , 2083.0 , 2162.0 , 30.871 , 0.0 , 0.0 , 0.0 , 0.0 , 

16.0 , 4147.69230769 , 4124.1025641 , 4157.43589744 , 4125.64102564 , 4134.87179487 , 4124.1025641 , 4109.23076923 , 4115.38461538 , 4124.1025641 , 4134.87179487 , 4182.05128205 , 4878.97435897 , 4173.84615385 , 4124.61538462 , 2089.0 , 2085.0 , 30.879 , 0.0 , 0.0 , 0.0 , 0.0 , 

17.0 , 4117.94871795 , 4125.64102564 , 4102.05128205 , 4137.43589744 , 4137.43589744 , 4138.97435897 , 4115.38461538 , 4107.17948718 , 4124.61538462 , 4135.38461538 , 4183.07692308 , 4888.20512821 , 4141.53846154 , 4135.38461538 , 2095.0 , 2060.0 , 30.888 , 0.0 , 0.0 , 0.0 , 0.0 , 

18.0 , 4114.35897436 , 4116.41025641 , 4094.35897436 , 4139.48717949 , 4130.76923077 , 4132.30769231 , 4130.76923077 , 4111.79487179 , 4127.17948718 , 4137.94871795 , 4184.61538462 , 4945.12820513 , 4125.64102564 , 4119.48717949 , 2101.0 , 2041.0 , 30.894 , 0.0 , 0.0 , 0.0 , 0.0 , 

19.0 , 4136.41025641 , 4109.74358974 , 4144.61538462 , 4120.51282051 , 4119.48717949 , 4117.43589744 , 4138.46153846 , 4131.28205128 , 4126.66666667 , 4149.23076923 , 4184.1025641 , 4966.66666667 , 4125.64102564 , 4112.82051282 , 2095.0 , 2047.0 , 30.903 , 0.0 , 0.0 , 0.0 , 0.0 , 

20.0 , 4138.46153846 , 4114.87179487 , 4179.48717949 , 4103.07692308 , 4116.92307692 , 4117.94871795 , 4138.97435897 , 4144.61538462 , 4128.20512821 , 4154.87179487 , 4185.12820513 , 4930.25641026 , 4123.58974359 , 4130.25641026 , 2072.0 , 2077.0 , 30.911 , 0.0 , 0.0 , 0.0 , 0.0 , 

21.0 , 4135.38461538 , 4120.51282051 , 4173.33333333 , 4104.61538462 , 4125.64102564 , 4128.71794872 , 4136.92307692 , 4134.87179487 , 4128.71794872 , 4142.56410256 , 4186.15384615 , 4900.51282051 , 4133.33333333 , 4136.92307692 , 2057.0 , 2096.0 , 30.919 , 0.0 , 0.0 , 0.0 , 0.0 , 

22.0 , 4140.51282051 , 4121.53846154 , 4145.64102564 , 4120.0 , 4135.38461538 , 4125.64102564 , 4123.58974359 , 4122.05128205 , 4128.71794872 , 4132.82051282 , 4185.12820513 , 4899.48717949 , 4141.53846154 , 4138.46153846 , 2042.0 , 2113.0 , 30.926 , 0.0 , 0.0 , 0.0 , 0.0 , 

23.0 , 4137.43589744 , 4119.48717949 , 4128.71794872 , 4133.84615385 , 4138.46153846 , 4123.07692308 , 4110.76923077 , 4117.94871795 , 4129.23076923 , 4135.38461538 , 4185.64102564 , 4910.76923077 , 4132.82051282 , 4150.76923077 , 2020.0 , 2127.0 , 30.934 , 0.0 , 0.0 , 0.0 , 0.0 , 

24.0 , 4131.79487179 , 4116.41025641 , 4134.87179487 , 4139.48717949 , 4136.41025641 , 4132.82051282 , 4115.8974359 , 4114.35897436 , 4126.15384615 , 4136.41025641 , 4186.15384615 , 4921.02564103 , 4126.15384615 , 4156.41025641 , 2016.0 , 2125.0 , 30.943 , 0.0 , 0.0 , 0.0 , 0.0 , 

25.0 , 4133.84615385 , 4117.94871795 , 4136.41025641 , 4140.51282051 , 4136.41025641 , 4138.97435897 , 4120.0 , 4115.38461538 , 4130.76923077 , 4133.84615385 , 4184.1025641 , 4917.43589744 , 4125.12820513 , 4155.8974359 , 2013.0 , 2108.0 , 30.951 , 0.0 , 0.0 , 0.0 , 0.0 , 

26.0 , 4134.35897436 , 4123.58974359 , 4124.1025641 , 4139.48717949 , 4138.97435897 , 4136.41025641 , 4118.46153846 , 4118.97435897 , 4136.41025641 , 4135.38461538 , 4184.61538462 , 4913.33333333 , 4127.17948718 , 4155.38461538 , 2015.0 , 2094.0 , 30.958 , 0.0 , 0.0 , 0.0 , 0.0 , 

27.0 , 4124.1025641 , 4123.07692308 , 4115.38461538 , 4129.23076923 , 4135.8974359 , 4135.38461538 , 4129.23076923 , 4120.0 , 4136.41025641 , 4137.43589744 , 4186.15384615 , 4918.46153846 , 4134.87179487 , 4149.74358974 , 2022.0 , 2073.0 , 30.967 , 0.0 , 0.0 , 0.0 , 0.0 , 

28.0 , 4122.05128205 , 4121.02564103 , 4115.8974359 , 4120.0 , 4126.15384615 , 4136.41025641 , 4136.92307692 , 4122.56410256 , 4134.87179487 , 4137.94871795 , 4184.1025641 , 4919.48717949 , 4140.0 , 4138.46153846 , 2024.0 , 2066.0 , 30.974 , 0.0 , 0.0 , 0.0 , 0.0 , 

29.0 , 4132.82051282 , 4127.17948718 , 4123.07692308 , 4127.69230769 , 4122.05128205 , 4132.30769231 , 4133.84615385 , 4122.56410256 , 4136.41025641 , 4137.43589744 , 4183.07692308 , 4911.79487179 , 4138.97435897 , 4131.79487179 , 2026.0 , 2059.0 , 30.981 , 0.0 , 0.0 , 0.0 , 0.0 , 

30.0 , 4139.48717949 , 4134.35897436 , 4135.8974359 , 4138.46153846 , 4129.23076923 , 4132.30769231 , 4133.84615385 , 4123.58974359 , 4136.41025641 , 4137.94871795 , 4186.66666667 , 4908.20512821 , 4138.97435897 , 4129.23076923 , 2027.0 , 2056.0 , 30.99 , 0.0 , 0.0 , 0.0 , 0.0 , 

31.0 , 4139.48717949 , 4133.84615385 , 4141.02564103 , 4134.87179487 , 4135.8974359 , 4133.33333333 , 4134.87179487 , 4126.66666667 , 4134.87179487 , 4137.94871795 , 4186.15384615 , 4908.71794872 , 4139.48717949 , 4129.74358974 , 2025.0 , 2056.0 , 30.997 , 0.0 , 0.0 , 0.0 , 0.0 , 

32.0 , 4140.0 , 4132.82051282 , 4136.41025641 , 4132.30769231 , 4132.30769231 , 4132.82051282 , 4133.33333333 , 4124.1025641 , 4133.33333333 , 4135.8974359 , 4185.64102564 , 4909.23076923 , 4136.41025641 , 4136.92307692 , 2026.0 , 2057.0 , 31.006 , 0.0 , 0.0 , 0.0 , 0.0 , 

33.0 , 4141.53846154 , 4133.84615385 , 4135.38461538 , 4135.8974359 , 4133.33333333 , 4133.33333333 , 4133.84615385 , 4125.64102564 , 4131.79487179 , 4136.41025641 , 4190.76923077 , 4912.82051282 , 4133.84615385 , 4139.48717949 , 2026.0 , 2055.0 , 31.013 , 0.0 , 0.0 , 0.0 , 0.0 , 

34.0 , 4138.46153846 , 4133.84615385 , 4138.46153846 , 4138.97435897 , 4135.38461538 , 4131.79487179 , 4134.35897436 , 4137.43589744 , 4134.87179487 , 4138.46153846 , 4192.30769231 , 4915.8974359 , 4135.8974359 , 4137.94871795 , 2024.0 , 2049.0 , 31.021 , 0.0 , 0.0 , 0.0 , 0.0 , 

35.0 , 4134.87179487 , 4130.76923077 , 4137.94871795 , 4139.48717949 , 4128.71794872 , 4134.35897436 , 4134.35897436 , 4138.97435897 , 4135.8974359 , 4137.94871795 , 4186.15384615 , 4913.84615385 , 4137.94871795 , 4140.0 , 2022.0 , 2049.0 , 31.028 , 0.0 , 0.0 , 0.0 , 0.0 , 

36.0 , 4135.8974359 , 4127.69230769 , 4134.87179487 , 4136.92307692 , 4127.17948718 , 4132.82051282 , 4133.84615385 , 4133.84615385 , 4134.35897436 , 4136.41025641 , 4186.15384615 , 4912.82051282 , 4138.97435897 , 4141.53846154 , 2019.0 , 2049.0 , 31.037 , 0.0 , 0.0 , 0.0 , 0.0 , 

37.0 , 4136.41025641 , 4127.69230769 , 4134.35897436 , 4134.87179487 , 4128.20512821 , 4123.58974359 , 4134.35897436 , 4140.51282051 , 4135.38461538 , 4137.43589744 , 4193.84615385 , 4912.30769231 , 4138.46153846 , 4142.56410256 , 2013.0 , 2049.0 , 31.045 , 0.0 , 0.0 , 0.0 , 0.0 , 

38.0 , 4135.8974359 , 4129.23076923 , 4135.8974359 , 4133.84615385 , 4125.12820513 , 4120.51282051 , 4135.38461538 , 4144.61538462 , 4136.41025641 , 4136.92307692 , 4194.35897436 , 4911.28205128 , 4137.94871795 , 4145.12820513 , 2008.0 , 2050.0 , 31.054 , 0.0 , 0.0 , 0.0 , 0.0 , 

39.0 , 4137.43589744 , 4129.23076923 , 4136.41025641 , 4132.82051282 , 4131.79487179 , 4122.56410256 , 4135.8974359 , 4137.94871795 , 4137.43589744 , 4136.41025641 , 4191.79487179 , 4911.28205128 , 4137.94871795 , 4145.12820513 , 1996.0 , 2041.0 , 31.061 , 0.0 , 0.0 , 0.0 , 0.0 , 

40.0 , 4140.51282051 , 4126.15384615 , 4135.8974359 , 4133.33333333 , 4140.51282051 , 4123.07692308 , 4134.87179487 , 4135.38461538 , 4137.94871795 , 4138.46153846 , 4191.28205128 , 4913.84615385 , 4140.0 , 4144.1025641 , 1995.0 , 2033.0 , 31.069 , 0.0 , 0.0 , 0.0 , 0.0 , 

41.0 , 4139.48717949 , 4126.66666667 , 4135.8974359 , 4132.30769231 , 4132.30769231 , 4129.74358974 , 4133.84615385 , 4137.43589744 , 4136.92307692 , 4138.46153846 , 4193.84615385 , 4914.87179487 , 4139.48717949 , 4147.17948718 , 1994.0 , 2015.0 , 31.076 , 0.0 , 0.0 , 0.0 , 0.0 , 

42.0 , 4137.43589744 , 4133.33333333 , 4135.8974359 , 4128.71794872 , 4123.07692308 , 4136.41025641 , 4134.35897436 , 4137.43589744 , 4136.41025641 , 4136.92307692 , 4193.84615385 , 4913.33333333 , 4138.46153846 , 4146.66666667 , 2000.0 , 2008.0 , 31.085 , 0.0 , 0.0 , 0.0 , 0.0 , 

43.0 , 4136.92307692 , 4137.43589744 , 4136.41025641 , 4130.25641026 , 4131.79487179 , 4134.87179487 , 4135.38461538 , 4137.94871795 , 4136.41025641 , 4136.41025641 , 4187.69230769 , 4911.28205128 , 4138.97435897 , 4144.61538462 , 2003.0 , 2001.0 , 31.093 , 0.0 , 0.0 , 0.0 , 0.0 , 

44.0 , 4135.8974359 , 4134.35897436 , 4135.8974359 , 4135.38461538 , 4140.0 , 4136.41025641 , 4135.8974359 , 4139.48717949 , 4136.41025641 , 4136.92307692 , 4183.58974359 , 4912.82051282 , 4137.43589744 , 4144.61538462 , 2007.0 , 1999.0 , 31.1 , 0.0 , 0.0 , 0.0 , 0.0 , 

45.0 , 4136.92307692 , 4129.23076923 , 4136.41025641 , 4135.38461538 , 4131.79487179 , 4134.35897436 , 4135.8974359 , 4141.02564103 , 4136.41025641 , 4136.41025641 , 4188.71794872 , 4912.82051282 , 4135.8974359 , 4142.56410256 , 2010.0 , 2005.0 , 31.108 , 0.0 , 0.0 , 0.0 , 0.0 , 

46.0 , 4138.46153846 , 4132.30769231 , 4137.94871795 , 4135.38461538 , 4122.56410256 , 4124.1025641 , 4133.84615385 , 4142.05128205 , 4135.8974359 , 4136.41025641 , 4193.84615385 , 4909.74358974 , 4137.94871795 , 4137.94871795 , 2012.0 , 2014.0 , 31.115 , 0.0 , 0.0 , 0.0 , 0.0 , 

47.0 , 4137.43589744 , 4137.43589744 , 4137.43589744 , 4136.41025641 , 4128.20512821 , 4125.64102564 , 4131.28205128 , 4140.51282051 , 4135.8974359 , 4136.41025641 , 4191.28205128 , 4907.69230769 , 4140.0 , 4138.97435897 , 2012.0 , 2017.0 , 31.124 , 0.0 , 0.0 , 0.0 , 0.0 , 

48.0 , 4139.48717949 , 4135.38461538 , 4135.8974359 , 4136.92307692 , 4132.30769231 , 4132.30769231 , 4129.74358974 , 4140.51282051 , 4135.8974359 , 4136.41025641 , 4192.82051282 , 4905.64102564 , 4138.46153846 , 4143.07692308 , 2012.0 , 2018.0 , 31.135 , 0.0 , 0.0 , 0.0 , 0.0 , 

49.0 , 4140.51282051 , 4132.30769231 , 4135.8974359 , 4137.94871795 , 4130.25641026 , 4128.20512821 , 4130.25641026 , 4138.97435897 , 4134.35897436 , 4136.41025641 , 4194.35897436 , 4905.12820513 , 4135.38461538 , 4143.58974359 , 2010.0 , 2017.0 , 31.139 , 0.0 , 0.0 , 0.0 , 0.0 , 

50.0 , 4137.94871795 , 4131.28205128 , 4136.41025641 , 4135.8974359 , 4132.82051282 , 4126.66666667 , 4130.25641026 , 4135.8974359 , 4133.33333333 , 4136.41025641 , 4188.20512821 , 4908.71794872 , 4133.84615385 , 4142.56410256 , 2007.0 , 2009.0 , 31.147 , 0.0 , 0.0 , 0.0 , 0.0 , 

51.0 , 4135.38461538 , 4131.28205128 , 4135.38461538 , 4135.38461538 , 4135.8974359 , 4132.82051282 , 4129.23076923 , 4135.38461538 , 4133.84615385 , 4136.41025641 , 4186.15384615 , 4912.30769231 , 4135.38461538 , 4142.56410256 , 1996.0 , 2004.0 , 31.155 , 0.0 , 0.0 , 0.0 , 0.0 , 

52.0 , 4135.8974359 , 4130.76923077 , 4135.38461538 , 4134.87179487 , 4134.35897436 , 4134.87179487 , 4129.23076923 , 4136.41025641 , 4133.33333333 , 4136.41025641 , 4190.76923077 , 4911.28205128 , 4130.76923077 , 4143.07692308 , 1992.0 , 1999.0 , 31.162 , 0.0 , 0.0 , 0.0 , 0.0 , 

53.0 , 4138.97435897 , 4129.23076923 , 4136.92307692 , 4125.64102564 , 4133.84615385 , 4133.84615385 , 4133.33333333 , 4135.38461538 , 4134.35897436 , 4136.92307692 , 4191.28205128 , 4909.74358974 , 4125.64102564 , 4144.1025641 , 1987.0 , 1992.0 , 31.17 , 0.0 , 0.0 , 0.0 , 0.0 , 

54.0 , 4138.97435897 , 4125.12820513 , 4136.92307692 , 4121.02564103 , 4134.87179487 , 4133.84615385 , 4137.43589744 , 4135.8974359 , 4135.38461538 , 4136.41025641 , 4186.66666667 , 4906.15384615 , 4128.71794872 , 4144.1025641 , 1985.0 , 1989.0 , 31.178 , 0.0 , 0.0 , 0.0 , 0.0 , 

55.0 , 4136.41025641 , 4121.53846154 , 4135.8974359 , 4131.28205128 , 4133.84615385 , 4132.82051282 , 4137.94871795 , 4137.94871795 , 4135.38461538 , 4136.41025641 , 4185.12820513 , 4906.15384615 , 4129.74358974 , 4145.12820513 , 1983.0 , 1987.0 , 31.187 , 0.0 , 0.0 , 0.0 , 0.0 , 

56.0 , 4136.92307692 , 4127.69230769 , 4135.8974359 , 4138.46153846 , 4135.8974359 , 4133.84615385 , 4136.92307692 , 4137.43589744 , 4135.38461538 , 4137.43589744 , 4189.74358974 , 4910.76923077 , 4128.20512821 , 4147.17948718 , 1983.0 , 1987.0 , 31.194 , 0.0 , 0.0 , 0.0 , 0.0 , 

57.0 , 4139.48717949 , 4133.84615385 , 4136.41025641 , 4135.38461538 , 4134.87179487 , 4134.35897436 , 4137.43589744 , 4136.92307692 , 4136.41025641 , 4138.46153846 , 4195.8974359 , 4911.79487179 , 4134.87179487 , 4145.64102564 , 1978.0 , 1991.0 , 31.203 , 0.0 , 0.0 , 0.0 , 0.0 , 

58.0 , 4137.43589744 , 4134.35897436 , 4135.8974359 , 4136.41025641 , 4132.30769231 , 4125.64102564 , 4137.43589744 , 4136.41025641 , 4134.87179487 , 4137.43589744 , 4189.23076923 , 4908.71794872 , 4138.97435897 , 4143.07692308 , 1972.0 , 1991.0 , 31.21 , 0.0 , 0.0 , 0.0 , 0.0 , 

59.0 , 4134.87179487 , 4134.87179487 , 4135.8974359 , 4140.0 , 4132.30769231 , 4122.56410256 , 4137.43589744 , 4136.41025641 , 4134.87179487 , 4136.41025641 , 4183.07692308 , 4907.17948718 , 4135.38461538 , 4142.56410256 , 1966.0 , 1996.0 , 31.219 , 0.0 , 0.0 , 0.0 , 0.0 , 

60.0 , 4137.43589744 , 4135.8974359 , 4135.8974359 , 4137.94871795 , 4133.84615385 , 4131.79487179 , 4137.43589744 , 4138.46153846 , 4136.41025641 , 4136.92307692 , 4192.82051282 , 4907.69230769 , 4135.8974359 , 4144.1025641 , 1962.0 , 2007.0 , 31.226 , 0.0 , 0.0 , 0.0 , 0.0 , 

61.0 , 4138.46153846 , 4136.92307692 , 4135.8974359 , 4137.43589744 , 4134.35897436 , 4132.30769231 , 4137.43589744 , 4137.94871795 , 4135.8974359 , 4137.43589744 , 4196.41025641 , 4909.23076923 , 4136.92307692 , 4145.12820513 , 1962.0 , 2013.0 , 31.235 , 0.0 , 0.0 , 0.0 , 0.0 , 

62.0 , 4136.92307692 , 4134.87179487 , 4136.41025641 , 4137.94871795 , 4134.35897436 , 4129.23076923 , 4137.43589744 , 4136.92307692 , 4134.35897436 , 4136.92307692 , 4189.74358974 , 4908.20512821 , 4130.25641026 , 4144.61538462 , 1962.0 , 2028.0 , 31.241 , 0.0 , 0.0 , 0.0 , 0.0 , 

63.0 , 4135.8974359 , 4134.35897436 , 4135.8974359 , 4135.38461538 , 4135.38461538 , 4133.84615385 , 4137.43589744 , 4136.41025641 , 4135.8974359 , 4135.8974359 , 4191.79487179 , 4905.64102564 , 4125.64102564 , 4144.61538462 , 1961.0 , 2032.0 , 31.25 , 0.0 , 0.0 , 0.0 , 0.0 , 

64.0 , 4136.92307692 , 4135.8974359 , 4135.8974359 , 4134.87179487 , 4135.8974359 , 4135.38461538 , 4136.92307692 , 4136.92307692 , 4136.92307692 , 4134.87179487 , 4194.35897436 , 4907.69230769 , 4126.66666667 , 4140.0 , 1957.0 , 2033.0 , 31.258 , 0.0 , 0.0 , 0.0 , 0.0 , 

65.0 , 4136.92307692 , 4128.20512821 , 4138.46153846 , 4138.46153846 , 4134.87179487 , 4132.30769231 , 4137.43589744 , 4137.43589744 , 4134.87179487 , 4134.87179487 , 4186.66666667 , 4907.17948718 , 4128.20512821 , 4137.94871795 , 1955.0 , 2030.0 , 31.265 , 0.0 , 0.0 , 0.0 , 0.0 , 

66.0 , 4135.38461538 , 4113.84615385 , 4138.97435897 , 4140.0 , 4134.87179487 , 4133.84615385 , 4137.43589744 , 4136.41025641 , 4135.38461538 , 4136.41025641 , 4185.12820513 , 4900.51282051 , 4129.74358974 , 4137.43589744 , 1954.0 , 2023.0 , 31.273 , 0.0 , 0.0 , 0.0 , 0.0 , 

67.0 , 4134.35897436 , 4116.92307692 , 4136.41025641 , 4138.97435897 , 4135.38461538 , 4134.35897436 , 4135.8974359 , 4133.33333333 , 4135.8974359 , 4137.43589744 , 4192.30769231 , 4899.48717949 , 4128.20512821 , 4135.38461538 , 1955.0 , 2006.0 , 31.281 , 0.0 , 0.0 , 0.0 , 0.0 , 

68.0 , 4136.41025641 , 4134.87179487 , 4134.35897436 , 4137.94871795 , 4135.8974359 , 4132.82051282 , 4134.87179487 , 4133.84615385 , 4134.87179487 , 4136.92307692 , 4190.76923077 , 4906.15384615 , 4124.61538462 , 4136.41025641 , 1957.0 , 1997.0 , 31.289 , 0.0 , 0.0 , 0.0 , 0.0 , 

69.0 , 4135.8974359 , 4137.94871795 , 4135.38461538 , 4136.41025641 , 4132.82051282 , 4133.84615385 , 4134.87179487 , 4130.25641026 , 4132.30769231 , 4136.92307692 , 4184.61538462 , 4911.28205128 , 4122.56410256 , 4134.87179487 , 1957.0 , 1990.0 , 31.296 , 0.0 , 0.0 , 0.0 , 0.0 , 

70.0 , 4137.43589744 , 4132.82051282 , 4135.8974359 , 4134.35897436 , 4131.79487179 , 4135.38461538 , 4134.87179487 , 4122.56410256 , 4132.30769231 , 4137.43589744 , 4184.1025641 , 4905.12820513 , 4122.05128205 , 4129.74358974 , 1960.0 , 1992.0 , 31.305 , 0.0 , 0.0 , 0.0 , 0.0 , 

71.0 , 4146.66666667 , 4137.43589744 , 4135.8974359 , 4134.35897436 , 4135.38461538 , 4136.41025641 , 4133.84615385 , 4126.15384615 , 4132.82051282 , 4137.43589744 , 4185.64102564 , 4893.84615385 , 4122.05128205 , 4128.71794872 , 1963.0 , 1999.0 , 31.312 , 0.0 , 0.0 , 0.0 , 0.0 , 

72.0 , 4150.76923077 , 4140.51282051 , 4135.38461538 , 4135.38461538 , 4137.43589744 , 4135.8974359 , 4134.35897436 , 4131.79487179 , 4127.69230769 , 4137.43589744 , 4184.1025641 , 4890.76923077 , 4122.05128205 , 4131.28205128 , 1968.0 , 2006.0 , 31.321 , 0.0 , 0.0 , 0.0 , 0.0 , 

73.0 , 4149.74358974 , 4136.41025641 , 4133.84615385 , 4137.43589744 , 4135.8974359 , 4135.8974359 , 4134.35897436 , 4126.66666667 , 4125.12820513 , 4137.43589744 , 4182.56410256 , 4892.82051282 , 4122.05128205 , 4125.12820513 , 1972.0 , 2017.0 , 31.328 , 0.0 , 0.0 , 0.0 , 0.0 , 

74.0 , 4145.12820513 , 4136.92307692 , 4141.02564103 , 4137.94871795 , 4135.8974359 , 4136.41025641 , 4132.30769231 , 4122.05128205 , 4126.66666667 , 4137.43589744 , 4185.12820513 , 4891.79487179 , 4122.56410256 , 4121.02564103 , 1979.0 , 2043.0 , 31.337 , 0.0 , 0.0 , 0.0 , 0.0 , 

75.0 , 4140.51282051 , 4136.92307692 , 4148.20512821 , 4137.43589744 , 4136.41025641 , 4135.8974359 , 4129.23076923 , 4124.1025641 , 4127.17948718 , 4137.43589744 , 4183.07692308 , 4891.28205128 , 4121.53846154 , 4127.69230769 , 1981.0 , 2057.0 , 31.344 , 0.0 , 0.0 , 0.0 , 0.0 , 

76.0 , 4137.43589744 , 4129.23076923 , 4140.0 , 4137.43589744 , 4137.43589744 , 4134.87179487 , 4130.25641026 , 4122.56410256 , 4123.07692308 , 4137.43589744 , 4183.07692308 , 4893.84615385 , 4122.05128205 , 4130.76923077 , 1984.0 , 2086.0 , 31.353 , 0.0 , 0.0 , 0.0 , 0.0 , 

77.0 , 4138.46153846 , 4128.71794872 , 4132.82051282 , 4137.94871795 , 4137.43589744 , 4133.84615385 , 4132.30769231 , 4122.56410256 , 4123.58974359 , 4137.43589744 , 4185.12820513 , 4892.82051282 , 4121.53846154 , 4124.1025641 , 1985.0 , 2093.0 , 31.361 , 0.0 , 0.0 , 0.0 , 0.0 , 

78.0 , 4139.48717949 , 4130.25641026 , 4141.02564103 , 4137.43589744 , 4136.92307692 , 4134.35897436 , 4130.76923077 , 4126.15384615 , 4126.66666667 , 4137.43589744 , 4181.53846154 , 4889.23076923 , 4122.05128205 , 4120.0 , 1987.0 , 2093.0 , 31.368 , 0.0 , 0.0 , 0.0 , 0.0 , 

79.0 , 4138.97435897 , 4127.17948718 , 4145.12820513 , 4137.43589744 , 4138.46153846 , 4134.35897436 , 4129.74358974 , 4122.05128205 , 4125.64102564 , 4137.43589744 , 4179.48717949 , 4889.74358974 , 4122.05128205 , 4121.53846154 , 1988.0 , 2081.0 , 31.376 , 0.0 , 0.0 , 0.0 , 0.0 , 

80.0 , 4137.43589744 , 4126.15384615 , 4136.41025641 , 4137.94871795 , 4138.46153846 , 4135.38461538 , 4130.76923077 , 4119.48717949 , 4122.56410256 , 4137.43589744 , 4180.0 , 4891.28205128 , 4121.53846154 , 4122.56410256 , 1985.0 , 2044.0 , 31.383 , 0.0 , 0.0 , 0.0 , 0.0 , 

81.0 , 4136.92307692 , 4129.23076923 , 4135.38461538 , 4134.35897436 , 4137.43589744 , 4136.41025641 , 4131.28205128 , 4120.0 , 4123.07692308 , 4137.43589744 , 4178.46153846 , 4892.82051282 , 4120.51282051 , 4122.05128205 , 1973.0 , 2028.0 , 31.392 , 0.0 , 0.0 , 0.0 , 0.0 , 

82.0 , 4138.97435897 , 4125.12820513 , 4138.97435897 , 4126.66666667 , 4136.41025641 , 4135.8974359 , 4130.25641026 , 4117.94871795 , 4126.66666667 , 4137.43589744 , 4174.35897436 , 4899.48717949 , 4120.51282051 , 4121.53846154 , 1970.0 , 2014.0 , 31.4 , 0.0 , 0.0 , 0.0 , 0.0 , 

83.0 , 4138.46153846 , 4124.61538462 , 4135.8974359 , 4120.51282051 , 4134.87179487 , 4135.8974359 , 4130.76923077 , 4115.38461538 , 4124.61538462 , 4137.43589744 , 4177.94871795 , 4908.20512821 , 4122.56410256 , 4118.46153846 , 1964.0 , 2010.0 , 31.408 , 0.0 , 0.0 , 0.0 , 0.0 , 

84.0 , 4135.38461538 , 4129.23076923 , 4141.02564103 , 4118.46153846 , 4134.35897436 , 4135.8974359 , 4133.84615385 , 4115.38461538 , 4121.53846154 , 4136.92307692 , 4180.0 , 4910.25641026 , 4120.51282051 , 4118.46153846 , 1965.0 , 2022.0 , 31.416 , 0.0 , 0.0 , 0.0 , 0.0 , 

85.0 , 4138.97435897 , 4126.66666667 , 4156.41025641 , 4115.8974359 , 4135.38461538 , 4135.8974359 , 4135.8974359 , 4116.41025641 , 4125.12820513 , 4136.92307692 , 4176.92307692 , 4909.23076923 , 4117.43589744 , 4125.12820513 , 1966.0 , 2059.0 , 31.422 , 0.0 , 0.0 , 0.0 , 0.0 , 

86.0 , 4145.64102564 , 4127.17948718 , 4151.79487179 , 4117.43589744 , 4136.41025641 , 4135.8974359 , 4134.87179487 , 4117.43589744 , 4127.69230769 , 4137.94871795 , 4175.38461538 , 4902.56410256 , 4120.51282051 , 4127.17948718 , 1968.0 , 2076.0 , 31.43 , 0.0 , 0.0 , 0.0 , 0.0 , 

87.0 , 4144.61538462 , 4127.69230769 , 4134.35897436 , 4131.79487179 , 4137.94871795 , 4135.8974359 , 4130.76923077 , 4121.53846154 , 4124.1025641 , 4136.41025641 , 4176.41025641 , 4892.30769231 , 4125.12820513 , 4124.61538462 , 1970.0 , 2089.0 , 31.439 , 0.0 , 0.0 , 0.0 , 0.0 , 

88.0 , 4138.97435897 , 4123.58974359 , 4132.30769231 , 4150.76923077 , 4138.97435897 , 4136.41025641 , 4126.66666667 , 4128.71794872 , 4121.53846154 , 4134.87179487 , 4176.41025641 , 4885.12820513 , 4123.58974359 , 4122.56410256 , 1970.0 , 2086.0 , 31.446 , 0.0 , 0.0 , 0.0 , 0.0 , 

89.0 , 4138.97435897 , 4120.51282051 , 4136.41025641 , 4155.8974359 , 4138.46153846 , 4135.8974359 , 4118.97435897 , 4128.20512821 , 4124.61538462 , 4135.38461538 , 4176.41025641 , 4886.15384615 , 4123.07692308 , 4125.12820513 , 1972.0 , 2074.0 , 31.455 , 0.0 , 0.0 , 0.0 , 0.0 , 

90.0 , 4137.94871795 , 4120.51282051 , 4138.97435897 , 4147.17948718 , 4136.92307692 , 4135.8974359 , 4117.94871795 , 4120.51282051 , 4125.64102564 , 4135.38461538 , 4179.48717949 , 4891.28205128 , 4123.07692308 , 4124.1025641 , 1973.0 , 2040.0 , 31.462 , 0.0 , 0.0 , 0.0 , 0.0 , 

91.0 , 4132.82051282 , 4122.05128205 , 4143.58974359 , 4134.87179487 , 4135.38461538 , 4136.92307692 , 4129.74358974 , 4117.94871795 , 4123.58974359 , 4134.87179487 , 4179.48717949 , 4897.94871795 , 4122.05128205 , 4120.51282051 , 1977.0 , 2022.0 , 31.471 , 0.0 , 0.0 , 0.0 , 0.0 , 

92.0 , 4131.79487179 , 4121.53846154 , 4141.02564103 , 4126.15384615 , 4135.8974359 , 4136.92307692 , 4137.94871795 , 4121.02564103 , 4124.1025641 , 4136.41025641 , 4175.8974359 , 4900.0 , 4121.02564103 , 4118.97435897 , 1987.0 , 1995.0 , 31.485 , 0.0 , 0.0 , 0.0 , 0.0 , 

93.0 , 4136.92307692 , 4123.07692308 , 4134.35897436 , 4120.0 , 4135.38461538 , 4136.41025641 , 4134.87179487 , 4120.0 , 4126.15384615 , 4138.46153846 , 4172.82051282 , 4895.38461538 , 4120.0 , 4116.41025641 , 1993.0 , 1989.0 , 31.487 , 0.0 , 0.0 , 0.0 , 0.0 , 

94.0 , 4138.97435897 , 4128.20512821 , 4134.35897436 , 4118.46153846 , 4134.87179487 , 4137.43589744 , 4132.82051282 , 4118.46153846 , 4124.61538462 , 4137.94871795 , 4172.82051282 , 4891.79487179 , 4118.97435897 , 4110.25641026 , 1996.0 , 2001.0 , 31.494 , 0.0 , 0.0 , 0.0 , 0.0 , 

95.0 , 4138.46153846 , 4132.30769231 , 4137.43589744 , 4128.20512821 , 4135.8974359 , 4137.94871795 , 4135.8974359 , 4121.02564103 , 4122.05128205 , 4137.94871795 , 4176.41025641 , 4892.82051282 , 4121.53846154 , 4107.69230769 , 1991.0 , 2014.0 , 31.501 , 0.0 , 0.0 , 0.0 , 0.0 , 

96.0 , 4136.41025641 , 4131.28205128 , 4138.97435897 , 4136.92307692 , 4136.41025641 , 4137.43589744 , 4134.87179487 , 4120.51282051 , 4121.53846154 , 4137.94871795 , 4174.35897436 , 4894.35897436 , 4127.69230769 , 4109.23076923 , 1985.0 , 2027.0 , 31.51 , 0.0 , 0.0 , 0.0 , 0.0 , 

97.0 , 4134.87179487 , 4129.23076923 , 4132.82051282 , 4138.46153846 , 4136.92307692 , 4136.92307692 , 4126.15384615 , 4120.51282051 , 4122.05128205 , 4136.92307692 , 4171.28205128 , 4893.84615385 , 4130.25641026 , 4109.23076923 , 1981.0 , 2042.0 , 31.518 , 0.0 , 0.0 , 0.0 , 0.0 , 

98.0 , 4137.43589744 , 4122.56410256 , 4140.51282051 , 4134.35897436 , 4139.48717949 , 4137.94871795 , 4121.02564103 , 4120.0 , 4120.0 , 4135.38461538 , 4170.76923077 , 4893.84615385 , 4126.66666667 , 4109.74358974 , 1982.0 , 2044.0 , 31.526 , 0.0 , 0.0 , 0.0 , 0.0 , 

99.0 , 4132.82051282 , 4111.79487179 , 4165.12820513 , 4128.71794872 , 4141.53846154 , 4138.46153846 , 4128.71794872 , 4120.0 , 4119.48717949 , 4134.35897436 , 4170.76923077 , 4889.74358974 , 4116.41025641 , 4114.87179487 , 1986.0 , 2042.0 , 31.534 , 0.0 , 0.0 , 0.0 , 0.0 , 

100.0 , 4122.05128205 , 4113.84615385 , 4161.02564103 , 4129.74358974 , 4138.97435897 , 4136.92307692 , 4138.97435897 , 4120.0 , 4120.51282051 , 4133.84615385 , 4168.71794872 , 4883.07692308 , 4109.74358974 , 4121.53846154 , 1990.0 , 2039.0 , 31.542 , 0.0 , 0.0 , 0.0 , 0.0 , 

101.0 , 4124.61538462 , 4121.53846154 , 4124.1025641 , 4136.41025641 , 4144.61538462 , 4141.53846154 , 4137.94871795 , 4120.0 , 4120.51282051 , 4135.8974359 , 4169.23076923 , 4881.53846154 , 4110.25641026 , 4119.48717949 , 2002.0 , 2038.0 , 31.55 , 0.0 , 0.0 , 0.0 , 0.0 , 

102.0 , 4135.8974359 , 4124.1025641 , 4115.8974359 , 4136.92307692 , 4147.17948718 , 4147.17948718 , 4135.8974359 , 4120.0 , 4121.53846154 , 4136.92307692 , 4169.23076923 , 4881.02564103 , 4107.69230769 , 4108.71794872 , 2005.0 , 2038.0 , 31.556 , 0.0 , 0.0 , 0.0 , 0.0 , 

103.0 , 4135.38461538 , 4125.64102564 , 4135.38461538 , 4127.17948718 , 4142.56410256 , 4143.07692308 , 4137.94871795 , 4120.0 , 4121.02564103 , 4134.87179487 , 4167.69230769 , 4876.41025641 , 4104.1025641 , 4102.05128205 , 2007.0 , 2039.0 , 31.564 , 0.0 , 0.0 , 0.0 , 0.0 , 

104.0 , 4132.30769231 , 4125.64102564 , 4140.0 , 4124.1025641 , 4145.12820513 , 4135.8974359 , 4137.94871795 , 4120.0 , 4115.8974359 , 4133.84615385 , 4165.64102564 , 4870.76923077 , 4106.66666667 , 4103.07692308 , 2010.0 , 2046.0 , 31.573 , 0.0 , 0.0 , 0.0 , 0.0 , 

105.0 , 4133.84615385 , 4123.07692308 , 4134.35897436 , 4131.28205128 , 4151.28205128 , 4142.05128205 , 4135.8974359 , 4119.48717949 , 4113.84615385 , 4135.8974359 , 4164.61538462 , 4869.23076923 , 4108.20512821 , 4101.02564103 , 2006.0 , 2048.0 , 31.58 , 0.0 , 0.0 , 0.0 , 0.0 , 

106.0 , 4132.82051282 , 4122.05128205 , 4134.87179487 , 4138.97435897 , 4149.23076923 , 4151.28205128 , 4136.41025641 , 4120.51282051 , 4119.48717949 , 4136.92307692 , 4167.69230769 , 4871.28205128 , 4105.64102564 , 4098.97435897 , 2003.0 , 2045.0 , 31.589 , 0.0 , 0.0 , 0.0 , 0.0 , 

107.0 , 4132.30769231 , 4120.0 , 4136.92307692 , 4135.38461538 , 4147.69230769 , 4152.82051282 , 4136.92307692 , 4119.48717949 , 4120.51282051 , 4135.38461538 , 4167.69230769 , 4876.92307692 , 4107.17948718 , 4104.1025641 , 1998.0 , 2042.0 , 31.596 , 0.0 , 0.0 , 0.0 , 0.0 , 

108.0 , 4132.82051282 , 4118.97435897 , 4137.43589744 , 4126.66666667 , 4150.25641026 , 4150.76923077 , 4137.43589744 , 4118.97435897 , 4119.48717949 , 4134.87179487 , 4167.69230769 , 4884.1025641 , 4111.28205128 , 4110.76923077 , 1994.0 , 2037.0 , 31.604 , 0.0 , 0.0 , 0.0 , 0.0 , 

109.0 , 4130.25641026 , 4119.48717949 , 4136.92307692 , 4128.71794872 , 4143.58974359 , 4143.07692308 , 4136.92307692 , 4122.05128205 , 4119.48717949 , 4135.8974359 , 4171.79487179 , 4889.74358974 , 4112.82051282 , 4115.8974359 , 1992.0 , 2038.0 , 31.612 , 0.0 , 0.0 , 0.0 , 0.0 , 

110.0 , 4133.33333333 , 4120.0 , 4136.41025641 , 4127.69230769 , 4135.8974359 , 4135.8974359 , 4136.92307692 , 4124.1025641 , 4121.02564103 , 4136.92307692 , 4172.82051282 , 4888.71794872 , 4118.46153846 , 4121.53846154 , 1992.0 , 2039.0 , 31.62 , 0.0 , 0.0 , 0.0 , 0.0 , 

111.0 , 4138.46153846 , 4122.56410256 , 4135.8974359 , 4124.1025641 , 4136.92307692 , 4134.35897436 , 4138.46153846 , 4126.66666667 , 4129.74358974 , 4135.38461538 , 4173.84615385 , 4890.76923077 , 4122.05128205 , 4126.66666667 , 2000.0 , 2050.0 , 31.627 , 0.0 , 0.0 , 0.0 , 0.0 , 

112.0 , 4138.46153846 , 4122.56410256 , 4135.8974359 , 4130.25641026 , 4136.41025641 , 4135.8974359 , 4136.92307692 , 4134.35897436 , 4132.30769231 , 4133.84615385 , 4184.1025641 , 4903.58974359 , 4123.07692308 , 4132.30769231 , 2009.0 , 2056.0 , 31.636 , 0.0 , 0.0 , 0.0 , 0.0 , 

113.0 , 4136.92307692 , 4124.1025641 , 4136.41025641 , 4137.94871795 , 4136.41025641 , 4135.38461538 , 4130.25641026 , 4141.53846154 , 4126.66666667 , 4135.8974359 , 4189.74358974 , 4909.74358974 , 4129.74358974 , 4141.53846154 , 2021.0 , 2069.0 , 31.643 , 0.0 , 0.0 , 0.0 , 0.0 , 

114.0 , 4140.0 , 4132.30769231 , 4136.41025641 , 4137.43589744 , 4135.38461538 , 4131.79487179 , 4128.71794872 , 4139.48717949 , 4131.28205128 , 4138.46153846 , 4186.15384615 , 4906.15384615 , 4139.48717949 , 4145.12820513 , 2025.0 , 2075.0 , 31.652 , 0.0 , 0.0 , 0.0 , 0.0 , 

115.0 , 4137.94871795 , 4135.8974359 , 4134.87179487 , 4137.94871795 , 4128.71794872 , 4132.82051282 , 4126.66666667 , 4140.0 , 4140.0 , 4137.43589744 , 4190.76923077 , 4905.64102564 , 4145.64102564 , 4142.05128205 , 2026.0 , 2075.0 , 31.659 , 0.0 , 0.0 , 0.0 , 0.0 , 

116.0 , 4134.87179487 , 4134.35897436 , 4133.84615385 , 4140.51282051 , 4122.05128205 , 4135.38461538 , 4119.48717949 , 4144.1025641 , 4135.38461538 , 4135.8974359 , 4201.53846154 , 4911.79487179 , 4152.30769231 , 4145.64102564 , 2023.0 , 2069.0 , 31.668 , 0.0 , 0.0 , 0.0 , 0.0 , 

117.0 , 4136.41025641 , 4134.87179487 , 4136.92307692 , 4137.43589744 , 4123.58974359 , 4129.23076923 , 4118.46153846 , 4145.12820513 , 4135.8974359 , 4138.97435897 , 4201.53846154 , 4919.48717949 , 4157.43589744 , 4155.38461538 , 2020.0 , 2053.0 , 31.675 , 0.0 , 0.0 , 0.0 , 0.0 , 

118.0 , 4138.46153846 , 4135.38461538 , 4138.97435897 , 4135.38461538 , 4123.07692308 , 4119.48717949 , 4122.56410256 , 4143.58974359 , 4143.07692308 , 4140.51282051 , 4198.46153846 , 4922.56410256 , 4156.92307692 , 4159.48717949 , 2016.0 , 2042.0 , 31.683 , 0.0 , 0.0 , 0.0 , 0.0 , 

119.0 , 4136.92307692 , 4135.8974359 , 4135.8974359 , 4135.38461538 , 4118.97435897 , 4120.0 , 4124.61538462 , 4145.12820513 , 4140.51282051 , 4138.97435897 , 4201.53846154 , 4928.20512821 , 4156.41025641 , 4163.58974359 , 2015.0 , 2032.0 , 31.69 , 0.0 , 0.0 , 0.0 , 0.0 , 

120.0 , 4137.43589744 , 4139.48717949 , 4133.33333333 , 4134.35897436 , 4120.0 , 4122.05128205 , 4131.28205128 , 4146.66666667 , 4142.56410256 , 4137.43589744 , 4202.56410256 , 4937.94871795 , 4154.87179487 , 4172.30769231 , 2019.0 , 2022.0 , 31.698 , 0.0 , 0.0 , 0.0 , 0.0 , 

121.0 , 4139.48717949 , 4138.97435897 , 4135.38461538 , 4133.84615385 , 4120.0 , 4119.48717949 , 4137.94871795 , 4146.15384615 , 4151.28205128 , 4138.46153846 , 4203.07692308 , 4946.15384615 , 4152.82051282 , 4178.97435897 , 2020.0 , 2021.0 , 31.707 , 0.0 , 0.0 , 0.0 , 0.0 , 

122.0 , 4137.43589744 , 4133.84615385 , 4135.38461538 , 4134.35897436 , 4116.92307692 , 4118.97435897 , 4131.79487179 , 4148.20512821 , 4154.87179487 , 4137.94871795 , 4212.30769231 , 4944.61538462 , 4160.0 , 4180.0 , 2022.0 , 2020.0 , 31.714 , 0.0 , 0.0 , 0.0 , 0.0 , 

123.0 , 4136.41025641 , 4139.48717949 , 4132.30769231 , 4137.94871795 , 4117.94871795 , 4118.46153846 , 4121.53846154 , 4151.28205128 , 4152.30769231 , 4137.43589744 , 4218.97435897 , 4941.53846154 , 4169.74358974 , 4181.53846154 , 2022.0 , 2022.0 , 31.723 , 0.0 , 0.0 , 0.0 , 0.0 , 

124.0 , 4139.48717949 , 4147.17948718 , 4131.28205128 , 4138.97435897 , 4118.46153846 , 4118.97435897 , 4118.46153846 , 4152.82051282 , 4151.28205128 , 4142.05128205 , 4217.43589744 , 4944.1025641 , 4171.79487179 , 4181.02564103 , 2024.0 , 2025.0 , 31.73 , 0.0 , 0.0 , 0.0 , 0.0 , 

125.0 , 4138.46153846 , 4145.64102564 , 4126.15384615 , 4137.94871795 , 4117.43589744 , 4119.48717949 , 4119.48717949 , 4152.30769231 , 4152.30769231 , 4143.58974359 , 4216.92307692 , 4945.64102564 , 4170.76923077 , 4182.56410256 , 2021.0 , 2027.0 , 31.739 , 0.0 , 0.0 , 0.0 , 0.0 , 

126.0 , 4134.87179487 , 4144.1025641 , 4123.58974359 , 4141.53846154 , 4118.46153846 , 4118.46153846 , 4118.97435897 , 4151.28205128 , 4152.82051282 , 4136.92307692 , 4217.94871795 , 4946.15384615 , 4173.33333333 , 4186.66666667 , 2021.0 , 2026.0 , 31.746 , 0.0 , 0.0 , 0.0 , 0.0 , 

127.0 , 4136.41025641 , 4145.64102564 , 4132.30769231 , 4143.07692308 , 4112.82051282 , 4117.94871795 , 4117.43589744 , 4151.79487179 , 4152.82051282 , 4134.87179487 , 4218.46153846 , 4954.87179487 , 4173.84615385 , 4190.25641026 , 2022.0 , 2029.0 , 31.754 , 0.0 , 0.0 , 0.0 , 0.0 , 

128.0 , 4138.97435897 , 4143.07692308 , 4136.92307692 , 4136.41025641 , 4104.61538462 , 4119.48717949 , 4117.43589744 , 4151.79487179 , 4151.28205128 , 4141.02564103 , 4217.43589744 , 4960.51282051 , 4170.76923077 , 4189.74358974 , 2026.0 , 2031.0 , 31.761 , 0.0 , 0.0 , 0.0 , 0.0 , 

0.0 , 4137.94871795 , 4136.92307692 , 4134.87179487 , 4132.82051282 , 4108.71794872 , 4116.92307692 , 4118.46153846 , 4149.23076923 , 4152.82051282 , 4138.97435897 , 4217.94871795 , 4952.30769231 , 4170.76923077 , 4190.76923077 , 2037.0 , 2034.0 , 31.77 , 0.0 , 0.0 , 0.0 , 0.0 , 

1.0 , 4137.43589744 , 4143.07692308 , 4133.84615385 , 4136.41025641 , 4113.84615385 , 4113.33333333 , 4117.94871795 , 4146.66666667 , 4153.84615385 , 4136.41025641 , 4218.97435897 , 4948.20512821 , 4168.71794872 , 4193.84615385 , 2037.0 , 2036.0 , 31.778 , 0.0 , 0.0 , 0.0 , 0.0 , 

2.0 , 4137.43589744 , 4150.76923077 , 4130.25641026 , 4136.92307692 , 4110.76923077 , 4113.33333333 , 4117.94871795 , 4149.23076923 , 4153.33333333 , 4146.66666667 , 4217.94871795 , 4956.41025641 , 4167.17948718 , 4192.30769231 , 2037.0 , 2040.0 , 31.786 , 0.0 , 0.0 , 0.0 , 0.0 , 

3.0 , 4136.41025641 , 4148.71794872 , 4127.17948718 , 4137.94871795 , 4108.20512821 , 4114.87179487 , 4118.46153846 , 4152.82051282 , 4154.35897436 , 4153.84615385 , 4222.05128205 , 4955.38461538 , 4167.69230769 , 4189.23076923 , 2038.0 , 2046.0 , 31.795 , 0.0 , 0.0 , 0.0 , 0.0 , 

4.0 , 4133.84615385 , 4148.20512821 , 4134.35897436 , 4141.02564103 , 4109.74358974 , 4113.84615385 , 4118.46153846 , 4153.33333333 , 4153.84615385 , 4150.76923077 , 4226.15384615 , 4951.28205128 , 4166.15384615 , 4192.30769231 , 2038.0 , 2048.0 , 31.802 , 0.0 , 0.0 , 0.0 , 0.0 , 

5.0 , 4134.35897436 , 4151.28205128 , 4137.43589744 , 4139.48717949 , 4108.71794872 , 4114.35897436 , 4117.43589744 , 4152.82051282 , 4153.84615385 , 4148.71794872 , 4224.1025641 , 4952.30769231 , 4164.61538462 , 4195.38461538 , 2038.0 , 2040.0 , 31.81 , 0.0 , 0.0 , 0.0 , 0.0 , 

6.0 , 4132.82051282 , 4153.33333333 , 4132.30769231 , 4137.94871795 , 4106.15384615 , 4115.38461538 , 4119.48717949 , 4151.79487179 , 4153.33333333 , 4149.74358974 , 4223.07692308 , 4952.82051282 , 4161.53846154 , 4198.46153846 , 2038.0 , 2030.0 , 31.818 , 0.0 , 0.0 , 0.0 , 0.0 , 

7.0 , 4126.15384615 , 4149.74358974 , 4133.33333333 , 4138.46153846 , 4106.15384615 , 4110.76923077 , 4120.51282051 , 4152.30769231 , 4154.35897436 , 4149.23076923 , 4229.23076923 , 4954.35897436 , 4159.48717949 , 4203.58974359 , 2035.0 , 2006.0 , 31.825 , 0.0 , 0.0 , 0.0 , 0.0 , 

8.0 , 4122.56410256 , 4141.02564103 , 4133.33333333 , 4136.41025641 , 4106.15384615 , 4103.58974359 , 4114.87179487 , 4152.30769231 , 4156.41025641 , 4150.25641026 , 4232.82051282 , 4962.56410256 , 4173.84615385 , 4200.51282051 , 2034.0 , 1997.0 , 31.833 , 0.0 , 0.0 , 0.0 , 0.0 , 

9.0 , 4120.51282051 , 4136.92307692 , 4126.15384615 , 4137.94871795 , 4107.17948718 , 4102.56410256 , 4111.79487179 , 4149.74358974 , 4157.43589744 , 4150.25641026 , 4231.28205128 , 4966.66666667 , 4193.84615385 , 4192.82051282 , 2030.0 , 1993.0 , 31.841 , 0.0 , 0.0 , 0.0 , 0.0 , 

10.0 , 4113.84615385 , 4142.56410256 , 4115.38461538 , 4143.07692308 , 4105.12820513 , 4105.12820513 , 4116.92307692 , 4150.25641026 , 4154.35897436 , 4149.23076923 , 4231.28205128 , 4966.66666667 , 4189.23076923 , 4200.0 , 2026.0 , 1997.0 , 31.848 , 0.0 , 0.0 , 0.0 , 0.0 , 

11.0 , 4120.0 , 4147.17948718 , 4117.94871795 , 4138.97435897 , 4103.07692308 , 4104.61538462 , 4121.02564103 , 4154.35897436 , 4155.38461538 , 4149.74358974 , 4232.30769231 , 4972.82051282 , 4175.38461538 , 4205.12820513 , 2024.0 , 2006.0 , 31.857 , 0.0 , 0.0 , 0.0 , 0.0 , 

12.0 , 4134.35897436 , 4141.53846154 , 4132.30769231 , 4130.76923077 , 4104.1025641 , 4103.07692308 , 4120.0 , 4155.8974359 , 4162.05128205 , 4148.71794872 , 4233.84615385 , 4972.82051282 , 4180.51282051 , 4197.43589744 , 2022.0 , 2023.0 , 31.865 , 0.0 , 0.0 , 0.0 , 0.0 , 

13.0 , 4130.76923077 , 4141.02564103 , 4130.25641026 , 4132.82051282 , 4104.1025641 , 4103.07692308 , 4118.97435897 , 4155.8974359 , 4162.56410256 , 4150.25641026 , 4234.87179487 , 4964.1025641 , 4192.30769231 , 4204.1025641 , 2023.0 , 2026.0 , 31.873 , 0.0 , 0.0 , 0.0 , 0.0 , 

14.0 , 4120.51282051 , 4149.23076923 , 4114.35897436 , 4142.56410256 , 4104.1025641 , 4102.56410256 , 4118.46153846 , 4155.38461538 , 4157.43589744 , 4149.74358974 , 4235.8974359 , 4958.97435897 , 4190.76923077 , 4215.8974359 , 2028.0 , 2022.0 , 31.879 , 0.0 , 0.0 , 0.0 , 0.0 , 

15.0 , 4121.02564103 , 4147.17948718 , 4109.74358974 , 4152.30769231 , 4106.66666667 , 4106.66666667 , 4117.94871795 , 4147.17948718 , 4156.92307692 , 4141.02564103 , 4229.74358974 , 4958.97435897 , 4184.1025641 , 4205.64102564 , 2028.0 , 2017.0 , 31.887 , 0.0 , 0.0 , 0.0 , 0.0 , 

16.0 , 4122.05128205 , 4136.41025641 , 4118.46153846 , 4153.84615385 , 4114.35897436 , 4116.92307692 , 4117.43589744 , 4138.97435897 , 4154.35897436 , 4135.8974359 , 4217.94871795 , 4953.84615385 , 4177.43589744 , 4185.64102564 , 2028.0 , 2008.0 , 31.895 , 0.0 , 0.0 , 0.0 , 0.0 , 

17.0 , 4117.43589744 , 4133.84615385 , 4127.69230769 , 4144.61538462 , 4118.97435897 , 4122.05128205 , 4120.51282051 , 4137.43589744 , 4144.1025641 , 4137.94871795 , 4215.38461538 , 4939.48717949 , 4166.66666667 , 4170.25641026 , 2026.0 , 2007.0 , 31.904 , 0.0 , 0.0 , 0.0 , 0.0 , 

18.0 , 4114.35897436 , 4136.92307692 , 4135.8974359 , 4136.92307692 , 4120.0 , 4120.0 , 4121.02564103 , 4135.8974359 , 4138.97435897 , 4138.97435897 , 4216.41025641 , 4925.12820513 , 4153.33333333 , 4153.33333333 , 2025.0 , 2009.0 , 31.912 , 0.0 , 0.0 , 0.0 , 0.0 , 

19.0 , 4119.48717949 , 4134.87179487 , 4137.43589744 , 4135.8974359 , 4121.53846154 , 4120.0 , 4122.05128205 , 4134.87179487 , 4141.02564103 , 4136.41025641 , 4210.25641026 , 4921.53846154 , 4142.56410256 , 4148.20512821 , 2022.0 , 2016.0 , 31.919 , 0.0 , 0.0 , 0.0 , 0.0 , 

20.0 , 4126.15384615 , 4131.79487179 , 4133.84615385 , 4132.30769231 , 4121.53846154 , 4121.53846154 , 4129.23076923 , 4135.8974359 , 4137.94871795 , 4139.48717949 , 4200.0 , 4923.07692308 , 4138.46153846 , 4155.8974359 , 2023.0 , 2020.0 , 31.928 , 0.0 , 0.0 , 0.0 , 0.0 , 

21.0 , 4126.66666667 , 4129.74358974 , 4136.41025641 , 4131.79487179 , 4120.0 , 4120.51282051 , 4130.25641026 , 4135.8974359 , 4136.41025641 , 4142.05128205 , 4197.43589744 , 4920.51282051 , 4140.51282051 , 4155.38461538 , 2023.0 , 2024.0 , 31.935 , 0.0 , 0.0 , 0.0 , 0.0 , 

22.0 , 4120.51282051 , 4127.69230769 , 4135.38461538 , 4136.41025641 , 4120.51282051 , 4118.97435897 , 4120.51282051 , 4134.87179487 , 4141.02564103 , 4137.43589744 , 4206.15384615 , 4921.53846154 , 4146.66666667 , 4152.82051282 , 2024.0 , 2024.0 , 31.943 , 0.0 , 0.0 , 0.0 , 0.0 , 

23.0 , 4120.51282051 , 4130.76923077 , 4126.15384615 , 4137.94871795 , 4121.53846154 , 4120.51282051 , 4117.43589744 , 4135.8974359 , 4140.0 , 4136.92307692 , 4209.23076923 , 4930.76923077 , 4152.82051282 , 4165.12820513 , 2028.0 , 2015.0 , 31.951 , 0.0 , 0.0 , 0.0 , 0.0 , 

24.0 , 4122.56410256 , 4135.38461538 , 4118.97435897 , 4138.46153846 , 4118.46153846 , 4119.48717949 , 4121.53846154 , 4139.48717949 , 4138.97435897 , 4143.07692308 , 4206.66666667 , 4937.43589744 , 4158.46153846 , 4172.30769231 , 2030.0 , 2009.0 , 31.958 , 0.0 , 0.0 , 0.0 , 0.0 , 

25.0 , 4121.02564103 , 4131.79487179 , 4120.51282051 , 4141.02564103 , 4115.8974359 , 4115.8974359 , 4121.02564103 , 4142.05128205 , 4147.69230769 , 4142.56410256 , 4211.28205128 , 4939.48717949 , 4160.0 , 4168.20512821 , 2032.0 , 2003.0 , 31.966 , 0.0 , 0.0 , 0.0 , 0.0 , 

26.0 , 4120.51282051 , 4126.15384615 , 4123.58974359 , 4138.97435897 , 4118.46153846 , 4115.8974359 , 4119.48717949 , 4145.64102564 , 4155.38461538 , 4137.94871795 , 4216.92307692 , 4940.0 , 4160.51282051 , 4167.69230769 , 2034.0 , 2001.0 , 31.974 , 0.0 , 0.0 , 0.0 , 0.0 , 

27.0 , 4122.56410256 , 4128.20512821 , 4122.05128205 , 4135.8974359 , 4121.02564103 , 4118.46153846 , 4121.53846154 , 4147.17948718 , 4151.28205128 , 4137.94871795 , 4215.8974359 , 4940.51282051 , 4161.53846154 , 4169.23076923 , 2031.0 , 2004.0 , 31.982 , 0.0 , 0.0 , 0.0 , 0.0 , 

28.0 , 4123.07692308 , 4133.84615385 , 4120.0 , 4136.41025641 , 4118.97435897 , 4118.46153846 , 4121.53846154 , 4144.61538462 , 4143.07692308 , 4138.46153846 , 4215.8974359 , 4938.97435897 , 4159.48717949 , 4167.17948718 , 2024.0 , 2014.0 , 31.991 , 0.0 , 0.0 , 0.0 , 0.0 , 

29.0 , 4122.05128205 , 4133.33333333 , 4125.64102564 , 4136.92307692 , 4120.0 , 4118.46153846 , 4122.05128205 , 4141.02564103 , 4140.51282051 , 4139.48717949 , 4212.82051282 , 4932.30769231 , 4155.38461538 , 4161.02564103 , 2025.0 , 2019.0 , 31.997 , 0.0 , 0.0 , 0.0 , 0.0 , 

30.0 , 4121.02564103 , 4125.12820513 , 4136.92307692 , 4136.41025641 , 4121.53846154 , 4120.51282051 , 4122.05128205 , 4137.43589744 , 4140.0 , 4140.0 , 4204.1025641 , 4924.61538462 , 4155.8974359 , 4157.94871795 , 2025.0 , 2020.0 , 32.006 , 0.0 , 0.0 , 0.0 , 0.0 , 

31.0 , 4121.53846154 , 4120.0 , 4136.92307692 , 4136.41025641 , 4120.51282051 , 4120.0 , 4122.05128205 , 4135.8974359 , 4137.94871795 , 4136.41025641 , 4201.02564103 , 4921.53846154 , 4151.28205128 , 4158.46153846 , 2026.0 , 2018.0 , 32.013 , 0.0 , 0.0 , 0.0 , 0.0 , 

32.0 , 4121.53846154 , 4117.94871795 , 4124.1025641 , 4136.92307692 , 4120.0 , 4120.0 , 4121.53846154 , 4135.38461538 , 4137.43589744 , 4135.8974359 , 4202.05128205 , 4922.56410256 , 4141.02564103 , 4160.0 , 2031.0 , 2016.0 , 32.022 , 0.0 , 0.0 , 0.0 , 0.0 , 

33.0 , 4119.48717949 , 4122.56410256 , 4118.97435897 , 4137.94871795 , 4121.02564103 , 4121.02564103 , 4120.0 , 4135.8974359 , 4138.97435897 , 4138.46153846 , 4200.51282051 , 4921.53846154 , 4136.92307692 , 4157.43589744 , 2030.0 , 2013.0 , 32.029 , 0.0 , 0.0 , 0.0 , 0.0 , 

34.0 , 4121.53846154 , 4133.33333333 , 4124.1025641 , 4137.43589744 , 4121.53846154 , 4121.53846154 , 4120.51282051 , 4136.92307692 , 4140.0 , 4136.92307692 , 4201.02564103 , 4920.0 , 4131.79487179 , 4154.87179487 , 2029.0 , 2012.0 , 32.038 , 0.0 , 0.0 , 0.0 , 0.0 , 

35.0 , 4126.66666667 , 4137.43589744 , 4120.51282051 , 4134.87179487 , 4121.53846154 , 4120.51282051 , 4119.48717949 , 4139.48717949 , 4139.48717949 , 4136.92307692 , 4202.05128205 , 4922.05128205 , 4127.69230769 , 4159.48717949 , 2032.0 , 2014.0 , 32.046 , 0.0 , 0.0 , 0.0 , 0.0 , 

36.0 , 4127.17948718 , 4135.38461538 , 4121.02564103 , 4134.87179487 , 4120.0 , 4121.02564103 , 4119.48717949 , 4141.02564103 , 4137.94871795 , 4138.97435897 , 4201.02564103 , 4924.61538462 , 4133.33333333 , 4161.53846154 , 2033.0 , 2016.0 , 32.054 , 0.0 , 0.0 , 0.0 , 0.0 , 

37.0 , 4125.12820513 , 4136.41025641 , 4133.84615385 , 4135.38461538 , 4120.0 , 4123.07692308 , 4121.53846154 , 4137.94871795 , 4138.46153846 , 4139.48717949 , 4200.51282051 , 4921.02564103 , 4135.38461538 , 4160.0 , 2033.0 , 2022.0 , 32.06 , 0.0 , 0.0 , 0.0 , 0.0 , 

38.0 , 4125.12820513 , 4138.97435897 , 4131.28205128 , 4134.87179487 , 4121.53846154 , 4122.05128205 , 4122.05128205 , 4137.43589744 , 4141.53846154 , 4138.97435897 , 4201.53846154 , 4918.46153846 , 4133.33333333 , 4159.48717949 , 2034.0 , 2024.0 , 32.07 , 0.0 , 0.0 , 0.0 , 0.0 , 

39.0 , 4123.58974359 , 4135.38461538 , 4121.53846154 , 4135.38461538 , 4121.02564103 , 4120.0 , 4120.0 , 4137.94871795 , 4139.48717949 , 4136.41025641 , 4200.0 , 4922.56410256 , 4135.8974359 , 4157.43589744 , 2035.0 , 2026.0 , 32.077 , 0.0 , 0.0 , 0.0 , 0.0 , 

40.0 , 4121.02564103 , 4132.82051282 , 4123.07692308 , 4135.8974359 , 4121.02564103 , 4122.56410256 , 4121.02564103 , 4137.43589744 , 4136.41025641 , 4135.8974359 , 4199.48717949 , 4920.51282051 , 4138.97435897 , 4156.41025641 , 2036.0 , 2026.0 , 32.085 , 0.0 , 0.0 , 0.0 , 0.0 , 

41.0 , 4122.05128205 , 4134.87179487 , 4126.66666667 , 4135.8974359 , 4122.05128205 , 4123.07692308 , 4122.56410256 , 4136.41025641 , 4138.97435897 , 4137.94871795 , 4200.51282051 , 4915.38461538 , 4135.8974359 , 4154.87179487 , 2038.0 , 2028.0 , 32.092 , 0.0 , 0.0 , 0.0 , 0.0 , 

42.0 , 4123.07692308 , 4129.74358974 , 4122.56410256 , 4136.41025641 , 4122.05128205 , 4123.07692308 , 4121.53846154 , 4135.8974359 , 4140.51282051 , 4136.41025641 , 4200.51282051 , 4915.38461538 , 4136.92307692 , 4153.33333333 , 2038.0 , 2031.0 , 32.1 , 0.0 , 0.0 , 0.0 , 0.0 , 

43.0 , 4123.07692308 , 4125.64102564 , 4121.53846154 , 4135.8974359 , 4122.56410256 , 4125.64102564 , 4124.1025641 , 4136.92307692 , 4136.92307692 , 4137.43589744 , 4198.97435897 , 4916.41025641 , 4137.94871795 , 4152.30769231 , 2041.0 , 2031.0 , 32.108 , 0.0 , 0.0 , 0.0 , 0.0 , 

