COUNTER, AF3, F7, F3, FC5, T7, P7, O1, O2, P8, T8, FC6, F4, F8, AF4, GYROX, GYROY, TIMESTAMP, FUNC_ID, FUNC_VALUE, MARKER, SYNC_SIGNAL
70.0 , 4132.82051282 , 4137.43589744 , 4132.30769231 , 4138.46153846 , 4136.41025641 , 4130.76923077 , 4137.43589744 , 4135.38461538 , 4138.46153846 , 4141.53846154 , 4084.1025641 , 3399.48717949 , 4137.43589744 , 4134.35897436 , 2047.0 , 2038.0 , 3.028 , 0.0 , 0.0 , 0.0 , 0.0 , 

71.0 , 4135.8974359 , 4137.94871795 , 4137.43589744 , 4134.35897436 , 4135.8974359 , 4129.23076923 , 4130.76923077 , 4136.41025641 , 4139.48717949 , 4144.1025641 , 4083.07692308 , 3406.15384615 , 4135.38461538 , 4134.35897436 , 2047.0 , 2040.0 , 3.028 , 0.0 , 0.0 , 0.0 , 0.0 , 

72.0 , 4133.33333333 , 4134.87179487 , 4135.8974359 , 4137.94871795 , 4136.41025641 , 4135.38461538 , 4136.41025641 , 4137.43589744 , 4142.05128205 , 4143.58974359 , 4081.53846154 , 3405.12820513 , 4134.87179487 , 4131.28205128 , 2045.0 , 2041.0 , 3.044 , 0.0 , 0.0 , 0.0 , 0.0 , 

73.0 , 4132.30769231 , 4134.87179487 , 4131.79487179 , 4137.94871795 , 4135.8974359 , 4133.84615385 , 4137.94871795 , 4135.38461538 , 4138.97435897 , 4142.56410256 , 4082.56410256 , 3406.15384615 , 4136.92307692 , 4136.41025641 , 2045.0 , 2043.0 , 3.044 , 0.0 , 0.0 , 0.0 , 0.0 , 

74.0 , 4132.82051282 , 4134.87179487 , 4132.82051282 , 4134.35897436 , 4136.41025641 , 4129.74358974 , 4143.07692308 , 4136.92307692 , 4137.94871795 , 4142.56410256 , 4084.1025641 , 3405.64102564 , 4136.41025641 , 4134.87179487 , 2042.0 , 2046.0 , 3.06 , 0.0 , 0.0 , 0.0 , 0.0 , 

75.0 , 4137.43589744 , 4132.82051282 , 4135.8974359 , 4134.87179487 , 4135.8974359 , 4130.25641026 , 4138.97435897 , 4135.38461538 , 4140.0 , 4141.02564103 , 4087.17948718 , 3405.64102564 , 4134.87179487 , 4136.41025641 , 2041.0 , 2047.0 , 3.06 , 0.0 , 0.0 , 0.0 , 0.0 , 

76.0 , 4137.43589744 , 4133.33333333 , 4133.33333333 , 4137.43589744 , 4135.38461538 , 4133.33333333 , 4138.97435897 , 4133.84615385 , 4138.97435897 , 4141.02564103 , 4086.15384615 , 3403.58974359 , 4135.8974359 , 4134.35897436 , 2039.0 , 2047.0 , 3.081 , 0.0 , 0.0 , 0.0 , 0.0 , 

77.0 , 4134.87179487 , 4133.84615385 , 4136.92307692 , 4135.8974359 , 4133.84615385 , 4132.30769231 , 4136.92307692 , 4133.33333333 , 4136.92307692 , 4142.05128205 , 4083.58974359 , 3404.61538462 , 4136.41025641 , 4133.84615385 , 2039.0 , 2047.0 , 3.081 , 0.0 , 0.0 , 0.0 , 0.0 , 

78.0 , 4134.87179487 , 4133.84615385 , 4137.94871795 , 4134.87179487 , 4132.82051282 , 4130.25641026 , 4135.38461538 , 4133.33333333 , 4138.46153846 , 4141.53846154 , 4085.12820513 , 3407.17948718 , 4134.87179487 , 4135.8974359 , 2038.0 , 2047.0 , 3.096 , 0.0 , 0.0 , 0.0 , 0.0 , 

79.0 , 4135.38461538 , 4134.87179487 , 4133.84615385 , 4135.38461538 , 4135.8974359 , 4131.79487179 , 4140.0 , 4135.38461538 , 4140.51282051 , 4141.02564103 , 4084.61538462 , 3404.1025641 , 4135.38461538 , 4132.30769231 , 2037.0 , 2047.0 , 3.096 , 0.0 , 0.0 , 0.0 , 0.0 , 

80.0 , 4134.87179487 , 4134.35897436 , 4135.38461538 , 4133.33333333 , 4135.8974359 , 4132.82051282 , 4140.51282051 , 4135.8974359 , 4139.48717949 , 4141.53846154 , 4083.58974359 , 3404.61538462 , 4137.43589744 , 4130.76923077 , 2036.0 , 2046.0 , 3.112 , 0.0 , 0.0 , 0.0 , 0.0 , 

81.0 , 4133.33333333 , 4136.41025641 , 4139.48717949 , 4135.38461538 , 4134.35897436 , 4135.38461538 , 4138.46153846 , 4135.8974359 , 4138.46153846 , 4142.05128205 , 4082.56410256 , 3402.56410256 , 4135.8974359 , 4129.74358974 , 2035.0 , 2047.0 , 3.112 , 0.0 , 0.0 , 0.0 , 0.0 , 

82.0 , 4135.38461538 , 4131.28205128 , 4138.46153846 , 4134.35897436 , 4131.79487179 , 4130.76923077 , 4123.58974359 , 4134.87179487 , 4134.35897436 , 4139.48717949 , 4084.61538462 , 3410.25641026 , 4138.46153846 , 4144.61538462 , 2036.0 , 2063.0 , 3.128 , 0.0 , 0.0 , 0.0 , 0.0 , 

83.0 , 4132.82051282 , 4131.79487179 , 4135.8974359 , 4138.97435897 , 4138.97435897 , 4133.84615385 , 4147.69230769 , 4140.0 , 4138.97435897 , 4141.53846154 , 4081.53846154 , 3400.0 , 4136.41025641 , 4125.12820513 , 2036.0 , 2049.0 , 3.128 , 0.0 , 0.0 , 0.0 , 0.0 , 

84.0 , 4130.76923077 , 4136.41025641 , 4137.94871795 , 4141.53846154 , 4142.56410256 , 4136.41025641 , 4163.58974359 , 4141.53846154 , 4147.17948718 , 4145.12820513 , 4080.51282051 , 3391.28205128 , 4132.82051282 , 4109.74358974 , 2035.0 , 2050.0 , 3.143 , 0.0 , 0.0 , 0.0 , 0.0 , 

85.0 , 4136.92307692 , 4124.61538462 , 4141.02564103 , 4123.58974359 , 4123.07692308 , 4117.94871795 , 4096.92307692 , 4128.20512821 , 4131.79487179 , 4138.46153846 , 4096.41025641 , 3434.87179487 , 4141.53846154 , 4170.25641026 , 2036.0 , 2054.0 , 3.143 , 0.0 , 0.0 , 0.0 , 0.0 , 

86.0 , 4132.82051282 , 4141.53846154 , 4131.79487179 , 4151.28205128 , 4140.51282051 , 4139.48717949 , 4177.94871795 , 4139.48717949 , 4140.0 , 4140.51282051 , 4074.35897436 , 3383.58974359 , 4127.17948718 , 4103.58974359 , 2035.0 , 2056.0 , 3.159 , 0.0 , 0.0 , 0.0 , 0.0 , 

87.0 , 4118.97435897 , 4160.51282051 , 4125.64102564 , 4181.53846154 , 4166.66666667 , 4164.61538462 , 4274.87179487 , 4158.46153846 , 4165.64102564 , 4153.33333333 , 4049.23076923 , 3317.43589744 , 4116.92307692 , 4018.46153846 , 2034.0 , 2058.0 , 3.159 , 0.0 , 0.0 , 0.0 , 0.0 , 

88.0 , 4127.17948718 , 4138.97435897 , 4135.8974359 , 4147.17948718 , 4145.64102564 , 4140.0 , 4180.51282051 , 4143.07692308 , 4151.28205128 , 4151.28205128 , 4072.30769231 , 3374.35897436 , 4135.38461538 , 4101.02564103 , 2033.0 , 2063.0 , 3.176 , 0.0 , 0.0 , 0.0 , 0.0 , 

89.0 , 4139.48717949 , 4120.0 , 4138.46153846 , 4114.87179487 , 4124.1025641 , 4117.43589744 , 4094.35897436 , 4125.64102564 , 4126.66666667 , 4142.05128205 , 4094.35897436 , 3434.87179487 , 4148.20512821 , 4179.48717949 , 2033.0 , 2068.0 , 3.181 , 0.0 , 0.0 , 0.0 , 0.0 , 

90.0 , 4134.87179487 , 4134.87179487 , 4136.41025641 , 4131.28205128 , 4134.87179487 , 4130.25641026 , 4147.17948718 , 4134.35897436 , 4131.28205128 , 4142.56410256 , 4082.56410256 , 3407.69230769 , 4135.8974359 , 4134.35897436 , 2029.0 , 2071.0 , 3.181 , 0.0 , 0.0 , 0.0 , 0.0 , 

91.0 , 4127.69230769 , 4137.43589744 , 4140.51282051 , 4137.94871795 , 4139.48717949 , 4134.35897436 , 4166.15384615 , 4141.02564103 , 4143.07692308 , 4146.66666667 , 4078.46153846 , 3392.30769231 , 4133.33333333 , 4115.8974359 , 2027.0 , 2072.0 , 3.197 , 0.0 , 0.0 , 0.0 , 0.0 , 

92.0 , 4135.8974359 , 4124.61538462 , 4144.1025641 , 4121.53846154 , 4128.71794872 , 4120.0 , 4117.94871795 , 4131.79487179 , 4133.33333333 , 4142.05128205 , 4091.79487179 , 3421.53846154 , 4141.53846154 , 4156.92307692 , 2025.0 , 2076.0 , 3.197 , 0.0 , 0.0 , 0.0 , 0.0 , 

93.0 , 4134.35897436 , 4132.82051282 , 4135.38461538 , 4132.82051282 , 4136.41025641 , 4127.69230769 , 4151.28205128 , 4136.41025641 , 4134.87179487 , 4142.56410256 , 4084.1025641 , 3401.02564103 , 4138.97435897 , 4129.23076923 , 2025.0 , 2078.0 , 3.212 , 0.0 , 0.0 , 0.0 , 0.0 , 

94.0 , 4132.30769231 , 4132.30769231 , 4138.46153846 , 4130.76923077 , 4133.33333333 , 4127.69230769 , 4141.53846154 , 4134.87179487 , 4132.30769231 , 4142.05128205 , 4085.12820513 , 3412.30769231 , 4143.07692308 , 4138.46153846 , 2021.0 , 2080.0 , 3.212 , 0.0 , 0.0 , 0.0 , 0.0 , 

95.0 , 4131.79487179 , 4133.84615385 , 4141.53846154 , 4128.71794872 , 4134.87179487 , 4131.79487179 , 4145.64102564 , 4135.38461538 , 4136.41025641 , 4144.61538462 , 4082.05128205 , 3410.76923077 , 4138.46153846 , 4132.82051282 , 2020.0 , 2085.0 , 3.228 , 0.0 , 0.0 , 0.0 , 0.0 , 

96.0 , 4133.84615385 , 4134.87179487 , 4141.02564103 , 4131.28205128 , 4136.41025641 , 4131.79487179 , 4138.97435897 , 4134.87179487 , 4136.92307692 , 4144.61538462 , 4082.05128205 , 3404.61538462 , 4134.87179487 , 4131.28205128 , 2018.0 , 2087.0 , 3.228 , 0.0 , 0.0 , 0.0 , 0.0 , 

97.0 , 4133.84615385 , 4134.87179487 , 4140.51282051 , 4133.84615385 , 4135.38461538 , 4131.79487179 , 4132.82051282 , 4135.38461538 , 4133.84615385 , 4143.07692308 , 4083.58974359 , 3405.12820513 , 4135.38461538 , 4134.35897436 , 2017.0 , 2093.0 , 3.244 , 0.0 , 0.0 , 0.0 , 0.0 , 

98.0 , 4133.84615385 , 4135.8974359 , 4140.0 , 4132.30769231 , 4135.38461538 , 4133.84615385 , 4142.56410256 , 4137.43589744 , 4135.8974359 , 4143.58974359 , 4081.53846154 , 3403.58974359 , 4135.8974359 , 4128.20512821 , 2015.0 , 2095.0 , 3.244 , 0.0 , 0.0 , 0.0 , 0.0 , 

99.0 , 4135.38461538 , 4134.87179487 , 4138.46153846 , 4128.71794872 , 4131.79487179 , 4130.76923077 , 4142.05128205 , 4136.92307692 , 4135.8974359 , 4144.1025641 , 4083.07692308 , 3405.12820513 , 4135.38461538 , 4132.82051282 , 2013.0 , 2097.0 , 3.259 , 0.0 , 0.0 , 0.0 , 0.0 , 

100.0 , 4133.84615385 , 4134.87179487 , 4138.97435897 , 4133.33333333 , 4134.87179487 , 4130.76923077 , 4141.02564103 , 4135.38461538 , 4136.92307692 , 4145.12820513 , 4081.53846154 , 3402.05128205 , 4134.35897436 , 4133.33333333 , 2012.0 , 2100.0 , 3.259 , 0.0 , 0.0 , 0.0 , 0.0 , 

101.0 , 4135.38461538 , 4133.33333333 , 4141.53846154 , 4134.87179487 , 4135.8974359 , 4134.35897436 , 4132.30769231 , 4133.33333333 , 4137.43589744 , 4143.58974359 , 4078.97435897 , 3404.1025641 , 4135.38461538 , 4132.82051282 , 2011.0 , 2103.0 , 3.278 , 0.0 , 0.0 , 0.0 , 0.0 , 

102.0 , 4134.87179487 , 4132.82051282 , 4139.48717949 , 4134.87179487 , 4134.35897436 , 4137.43589744 , 4131.28205128 , 4134.35897436 , 4139.48717949 , 4141.53846154 , 4081.53846154 , 3404.61538462 , 4133.84615385 , 4131.28205128 , 2010.0 , 2109.0 , 3.281 , 0.0 , 0.0 , 0.0 , 0.0 , 

103.0 , 4134.87179487 , 4134.87179487 , 4137.43589744 , 4135.38461538 , 4136.41025641 , 4136.92307692 , 4129.23076923 , 4133.84615385 , 4137.43589744 , 4141.53846154 , 4087.69230769 , 3405.64102564 , 4132.30769231 , 4134.35897436 , 2011.0 , 2113.0 , 3.281 , 0.0 , 0.0 , 0.0 , 0.0 , 

104.0 , 4133.84615385 , 4135.8974359 , 4135.8974359 , 4133.33333333 , 4138.46153846 , 4137.43589744 , 4133.84615385 , 4136.41025641 , 4136.41025641 , 4143.58974359 , 4085.12820513 , 3402.05128205 , 4130.76923077 , 4129.23076923 , 2009.0 , 2119.0 , 3.297 , 0.0 , 0.0 , 0.0 , 0.0 , 

105.0 , 4135.38461538 , 4133.33333333 , 4135.8974359 , 4132.30769231 , 4134.35897436 , 4133.84615385 , 4133.33333333 , 4138.46153846 , 4136.41025641 , 4142.56410256 , 4081.02564103 , 3402.56410256 , 4129.74358974 , 4131.28205128 , 2011.0 , 2120.0 , 3.297 , 0.0 , 0.0 , 0.0 , 0.0 , 

106.0 , 4133.84615385 , 4131.28205128 , 4133.84615385 , 4135.8974359 , 4136.41025641 , 4129.74358974 , 4137.43589744 , 4138.46153846 , 4137.43589744 , 4140.0 , 4081.02564103 , 3401.02564103 , 4131.28205128 , 4131.79487179 , 2009.0 , 2117.0 , 3.313 , 0.0 , 0.0 , 0.0 , 0.0 , 

107.0 , 4134.87179487 , 4131.79487179 , 4134.87179487 , 4135.38461538 , 4137.94871795 , 4129.74358974 , 4138.97435897 , 4134.35897436 , 4135.38461538 , 4140.51282051 , 4083.58974359 , 3403.58974359 , 4133.33333333 , 4131.28205128 , 2008.0 , 2113.0 , 3.313 , 0.0 , 0.0 , 0.0 , 0.0 , 

108.0 , 4134.87179487 , 4130.76923077 , 4136.41025641 , 4133.84615385 , 4133.84615385 , 4135.38461538 , 4140.51282051 , 4132.82051282 , 4134.87179487 , 4142.05128205 , 4086.66666667 , 3404.61538462 , 4132.30769231 , 4130.25641026 , 2006.0 , 2109.0 , 3.328 , 0.0 , 0.0 , 0.0 , 0.0 , 

109.0 , 4133.84615385 , 4130.25641026 , 4141.53846154 , 4134.35897436 , 4132.82051282 , 4138.97435897 , 4131.28205128 , 4134.35897436 , 4136.41025641 , 4141.02564103 , 4086.66666667 , 3405.64102564 , 4132.30769231 , 4130.25641026 , 2006.0 , 2105.0 , 3.328 , 0.0 , 0.0 , 0.0 , 0.0 , 

110.0 , 4130.25641026 , 4132.30769231 , 4142.05128205 , 4135.38461538 , 4135.38461538 , 4141.53846154 , 4123.07692308 , 4134.87179487 , 4135.8974359 , 4141.53846154 , 4082.56410256 , 3405.64102564 , 4132.82051282 , 4130.25641026 , 2005.0 , 2104.0 , 3.344 , 0.0 , 0.0 , 0.0 , 0.0 , 

111.0 , 4129.23076923 , 4134.35897436 , 4144.61538462 , 4134.87179487 , 4134.87179487 , 4146.15384615 , 4116.41025641 , 4133.84615385 , 4134.35897436 , 4143.58974359 , 4081.02564103 , 3403.07692308 , 4130.76923077 , 4130.76923077 , 2006.0 , 2103.0 , 3.344 , 0.0 , 0.0 , 0.0 , 0.0 , 

112.0 , 4130.76923077 , 4132.30769231 , 4148.20512821 , 4134.87179487 , 4133.33333333 , 4145.64102564 , 4114.35897436 , 4135.8974359 , 4135.38461538 , 4140.0 , 4083.07692308 , 3405.12820513 , 4132.30769231 , 4129.74358974 , 2007.0 , 2103.0 , 3.359 , 0.0 , 0.0 , 0.0 , 0.0 , 

113.0 , 4133.33333333 , 4129.74358974 , 4144.61538462 , 4134.35897436 , 4132.30769231 , 4134.87179487 , 4118.46153846 , 4135.8974359 , 4136.41025641 , 4138.97435897 , 4082.56410256 , 3410.76923077 , 4136.41025641 , 4131.28205128 , 2008.0 , 2105.0 , 3.359 , 0.0 , 0.0 , 0.0 , 0.0 , 

114.0 , 4135.8974359 , 4130.76923077 , 4135.38461538 , 4131.79487179 , 4130.25641026 , 4125.64102564 , 4126.15384615 , 4134.35897436 , 4137.43589744 , 4142.05128205 , 4081.53846154 , 3414.35897436 , 4137.43589744 , 4136.92307692 , 2008.0 , 2108.0 , 3.381 , 0.0 , 0.0 , 0.0 , 0.0 , 

115.0 , 4136.41025641 , 4133.84615385 , 4133.84615385 , 4130.76923077 , 4131.79487179 , 4128.71794872 , 4137.43589744 , 4136.92307692 , 4138.97435897 , 4142.05128205 , 4083.58974359 , 3407.69230769 , 4136.41025641 , 4135.38461538 , 2009.0 , 2111.0 , 3.381 , 0.0 , 0.0 , 0.0 , 0.0 , 

116.0 , 4136.92307692 , 4132.82051282 , 4138.46153846 , 4130.25641026 , 4133.33333333 , 4131.28205128 , 4141.02564103 , 4136.92307692 , 4137.94871795 , 4140.51282051 , 4085.64102564 , 3406.66666667 , 4137.94871795 , 4136.41025641 , 2007.0 , 2113.0 , 3.381 , 0.0 , 0.0 , 0.0 , 0.0 , 

117.0 , 4134.35897436 , 4130.76923077 , 4138.97435897 , 4130.76923077 , 4134.35897436 , 4128.71794872 , 4142.56410256 , 4135.38461538 , 4138.46153846 , 4143.07692308 , 4084.1025641 , 3408.20512821 , 4136.92307692 , 4136.41025641 , 2007.0 , 2113.0 , 3.397 , 0.0 , 0.0 , 0.0 , 0.0 , 

118.0 , 4134.35897436 , 4130.76923077 , 4136.92307692 , 4132.82051282 , 4131.79487179 , 4126.66666667 , 4141.53846154 , 4134.87179487 , 4137.43589744 , 4145.12820513 , 4085.64102564 , 3407.69230769 , 4135.38461538 , 4137.94871795 , 2005.0 , 2111.0 , 3.397 , 0.0 , 0.0 , 0.0 , 0.0 , 

119.0 , 4135.8974359 , 4133.84615385 , 4132.82051282 , 4134.87179487 , 4132.30769231 , 4130.76923077 , 4147.17948718 , 4134.87179487 , 4137.43589744 , 4144.1025641 , 4084.61538462 , 3405.12820513 , 4134.87179487 , 4134.87179487 , 2004.0 , 2110.0 , 3.413 , 0.0 , 0.0 , 0.0 , 0.0 , 

120.0 , 4136.41025641 , 4134.35897436 , 4135.38461538 , 4132.82051282 , 4133.33333333 , 4134.35897436 , 4137.94871795 , 4132.82051282 , 4137.94871795 , 4143.07692308 , 4081.02564103 , 3406.66666667 , 4134.35897436 , 4136.41025641 , 2004.0 , 2109.0 , 3.428 , 0.0 , 0.0 , 0.0 , 0.0 , 

121.0 , 4135.38461538 , 4132.30769231 , 4138.46153846 , 4134.87179487 , 4134.35897436 , 4134.35897436 , 4128.20512821 , 4133.84615385 , 4137.94871795 , 4144.1025641 , 4081.02564103 , 3404.1025641 , 4135.38461538 , 4135.8974359 , 2005.0 , 2107.0 , 3.428 , 0.0 , 0.0 , 0.0 , 0.0 , 

122.0 , 4138.46153846 , 4133.84615385 , 4138.97435897 , 4135.8974359 , 4132.30769231 , 4132.30769231 , 4124.1025641 , 4134.35897436 , 4135.38461538 , 4143.58974359 , 4084.1025641 , 3408.20512821 , 4137.43589744 , 4137.94871795 , 2008.0 , 2106.0 , 3.428 , 0.0 , 0.0 , 0.0 , 0.0 , 

123.0 , 4136.41025641 , 4135.38461538 , 4135.8974359 , 4133.84615385 , 4134.35897436 , 4131.28205128 , 4132.82051282 , 4134.87179487 , 4136.41025641 , 4143.07692308 , 4082.56410256 , 3411.28205128 , 4135.8974359 , 4134.35897436 , 2009.0 , 2103.0 , 3.444 , 0.0 , 0.0 , 0.0 , 0.0 , 

124.0 , 4131.79487179 , 4135.38461538 , 4138.97435897 , 4133.33333333 , 4134.35897436 , 4131.28205128 , 4127.69230769 , 4134.87179487 , 4136.92307692 , 4140.0 , 4084.61538462 , 3408.20512821 , 4133.33333333 , 4135.8974359 , 2010.0 , 2102.0 , 3.46 , 0.0 , 0.0 , 0.0 , 0.0 , 

125.0 , 4130.76923077 , 4135.38461538 , 4140.0 , 4137.94871795 , 4132.30769231 , 4136.41025641 , 4122.05128205 , 4134.87179487 , 4135.8974359 , 4140.0 , 4087.69230769 , 3403.07692308 , 4131.79487179 , 4137.43589744 , 2014.0 , 2100.0 , 3.46 , 0.0 , 0.0 , 0.0 , 0.0 , 

126.0 , 4134.87179487 , 4135.38461538 , 4138.46153846 , 4136.92307692 , 4131.79487179 , 4136.41025641 , 4117.94871795 , 4132.82051282 , 4134.35897436 , 4140.0 , 4084.1025641 , 3405.64102564 , 4131.79487179 , 4136.92307692 , 2016.0 , 2099.0 , 3.475 , 0.0 , 0.0 , 0.0 , 0.0 , 

127.0 , 4133.84615385 , 4133.33333333 , 4136.92307692 , 4134.87179487 , 4131.28205128 , 4132.82051282 , 4122.05128205 , 4133.84615385 , 4137.43589744 , 4140.0 , 4082.05128205 , 3405.64102564 , 4133.84615385 , 4136.41025641 , 2020.0 , 2097.0 , 3.482 , 0.0 , 0.0 , 0.0 , 0.0 , 

128.0 , 4133.33333333 , 4135.38461538 , 4138.46153846 , 4135.8974359 , 4130.76923077 , 4133.84615385 , 4122.56410256 , 4136.41025641 , 4141.02564103 , 4140.0 , 4085.64102564 , 3402.56410256 , 4133.84615385 , 4138.46153846 , 2020.0 , 2095.0 , 3.482 , 0.0 , 0.0 , 0.0 , 0.0 , 

0.0 , 4133.33333333 , 4137.94871795 , 4140.51282051 , 4131.79487179 , 4131.79487179 , 4135.38461538 , 4122.05128205 , 4136.92307692 , 4140.0 , 4137.94871795 , 4087.69230769 , 3403.07692308 , 4132.82051282 , 4137.43589744 , 2023.0 , 2093.0 , 3.498 , 0.0 , 0.0 , 0.0 , 0.0 , 

1.0 , 4132.30769231 , 4135.38461538 , 4146.15384615 , 4129.74358974 , 4132.82051282 , 4131.79487179 , 4125.12820513 , 4137.43589744 , 4140.0 , 4138.46153846 , 4084.1025641 , 3403.07692308 , 4132.82051282 , 4135.8974359 , 2024.0 , 2092.0 , 3.498 , 0.0 , 0.0 , 0.0 , 0.0 , 

2.0 , 4132.30769231 , 4133.33333333 , 4144.61538462 , 4134.87179487 , 4133.33333333 , 4132.82051282 , 4132.82051282 , 4137.43589744 , 4140.51282051 , 4142.56410256 , 4083.07692308 , 3403.58974359 , 4135.8974359 , 4135.38461538 , 2023.0 , 2092.0 , 3.514 , 0.0 , 0.0 , 0.0 , 0.0 , 

3.0 , 4132.82051282 , 4135.38461538 , 4135.38461538 , 4138.46153846 , 4133.84615385 , 4136.92307692 , 4141.02564103 , 4136.92307692 , 4139.48717949 , 4143.07692308 , 4085.12820513 , 3405.64102564 , 4136.92307692 , 4133.84615385 , 2024.0 , 2090.0 , 3.514 , 0.0 , 0.0 , 0.0 , 0.0 , 

4.0 , 4132.82051282 , 4136.92307692 , 4130.76923077 , 4135.8974359 , 4132.82051282 , 4132.30769231 , 4140.0 , 4137.94871795 , 4138.46153846 , 4141.02564103 , 4084.1025641 , 3410.25641026 , 4135.38461538 , 4137.43589744 , 2024.0 , 2089.0 , 3.529 , 0.0 , 0.0 , 0.0 , 0.0 , 

5.0 , 4133.84615385 , 4134.87179487 , 4132.82051282 , 4137.94871795 , 4130.76923077 , 4129.74358974 , 4137.43589744 , 4138.46153846 , 4143.58974359 , 4143.58974359 , 4080.0 , 3408.20512821 , 4134.87179487 , 4134.35897436 , 2025.0 , 2085.0 , 3.529 , 0.0 , 0.0 , 0.0 , 0.0 , 

6.0 , 4136.41025641 , 4130.25641026 , 4130.25641026 , 4140.0 , 4130.76923077 , 4133.84615385 , 4130.76923077 , 4135.38461538 , 4144.1025641 , 4144.1025641 , 4082.56410256 , 3408.20512821 , 4137.94871795 , 4133.33333333 , 2026.0 , 2080.0 , 3.545 , 0.0 , 0.0 , 0.0 , 0.0 , 

7.0 , 4134.35897436 , 4129.23076923 , 4131.28205128 , 4139.48717949 , 4132.82051282 , 4135.8974359 , 4130.76923077 , 4136.92307692 , 4142.05128205 , 4140.51282051 , 4085.64102564 , 3408.71794872 , 4135.38461538 , 4133.33333333 , 2030.0 , 2073.0 , 3.545 , 0.0 , 0.0 , 0.0 , 0.0 , 

8.0 , 4132.82051282 , 4132.82051282 , 4139.48717949 , 4138.46153846 , 4132.82051282 , 4132.82051282 , 4123.58974359 , 4137.43589744 , 4138.97435897 , 4140.51282051 , 4087.69230769 , 3408.71794872 , 4133.33333333 , 4138.46153846 , 2031.0 , 2070.0 , 3.56 , 0.0 , 0.0 , 0.0 , 0.0 , 

9.0 , 4133.33333333 , 4134.87179487 , 4138.46153846 , 4141.02564103 , 4134.35897436 , 4138.46153846 , 4116.41025641 , 4134.87179487 , 4136.92307692 , 4141.53846154 , 4087.17948718 , 3405.64102564 , 4133.84615385 , 4136.41025641 , 2033.0 , 2068.0 , 3.56 , 0.0 , 0.0 , 0.0 , 0.0 , 

10.0 , 4133.84615385 , 4132.30769231 , 4138.46153846 , 4140.0 , 4132.82051282 , 4144.61538462 , 4109.74358974 , 4133.84615385 , 4135.8974359 , 4138.97435897 , 4087.17948718 , 3408.71794872 , 4131.79487179 , 4137.43589744 , 2035.0 , 2066.0 , 3.578 , 0.0 , 0.0 , 0.0 , 0.0 , 

11.0 , 4131.28205128 , 4132.30769231 , 4142.05128205 , 4138.97435897 , 4133.84615385 , 4138.97435897 , 4114.35897436 , 4137.43589744 , 4139.48717949 , 4140.0 , 4086.15384615 , 3406.66666667 , 4133.33333333 , 4135.8974359 , 2035.0 , 2064.0 , 3.582 , 0.0 , 0.0 , 0.0 , 0.0 , 

12.0 , 4135.38461538 , 4133.33333333 , 4143.58974359 , 4136.92307692 , 4134.35897436 , 4131.28205128 , 4113.33333333 , 4134.87179487 , 4142.56410256 , 4142.05128205 , 4087.17948718 , 3406.15384615 , 4137.94871795 , 4137.94871795 , 2037.0 , 2062.0 , 3.582 , 0.0 , 0.0 , 0.0 , 0.0 , 

13.0 , 4134.87179487 , 4133.33333333 , 4139.48717949 , 4137.43589744 , 4132.82051282 , 4135.38461538 , 4125.64102564 , 4135.8974359 , 4143.07692308 , 4144.1025641 , 4086.66666667 , 3406.66666667 , 4138.46153846 , 4137.43589744 , 2038.0 , 2061.0 , 3.598 , 0.0 , 0.0 , 0.0 , 0.0 , 

14.0 , 4130.25641026 , 4133.84615385 , 4134.35897436 , 4137.94871795 , 4131.28205128 , 4137.43589744 , 4140.0 , 4139.48717949 , 4142.05128205 , 4145.64102564 , 4086.66666667 , 3406.15384615 , 4138.97435897 , 4137.94871795 , 2041.0 , 2060.0 , 3.598 , 0.0 , 0.0 , 0.0 , 0.0 , 

15.0 , 4127.69230769 , 4132.82051282 , 4125.12820513 , 4137.43589744 , 4134.87179487 , 4134.35897436 , 4148.20512821 , 4138.97435897 , 4142.56410256 , 4146.15384615 , 4088.20512821 , 3402.05128205 , 4140.51282051 , 4133.33333333 , 2042.0 , 2060.0 , 3.613 , 0.0 , 0.0 , 0.0 , 0.0 , 

16.0 , 4129.74358974 , 4132.30769231 , 4123.07692308 , 4143.07692308 , 4138.46153846 , 4133.84615385 , 4157.94871795 , 4136.92307692 , 4147.17948718 , 4146.66666667 , 4086.66666667 , 3397.94871795 , 4141.53846154 , 4129.74358974 , 2043.0 , 2058.0 , 3.613 , 0.0 , 0.0 , 0.0 , 0.0 , 

17.0 , 4128.20512821 , 4134.35897436 , 4131.79487179 , 4145.12820513 , 4135.8974359 , 4135.8974359 , 4156.92307692 , 4136.92307692 , 4145.12820513 , 4147.69230769 , 4085.64102564 , 3400.0 , 4142.56410256 , 4134.87179487 , 2044.0 , 2059.0 , 3.629 , 0.0 , 0.0 , 0.0 , 0.0 , 

18.0 , 4129.74358974 , 4133.84615385 , 4138.97435897 , 4138.97435897 , 4132.82051282 , 4134.35897436 , 4142.56410256 , 4136.92307692 , 4139.48717949 , 4148.20512821 , 4087.17948718 , 3403.58974359 , 4138.46153846 , 4138.46153846 , 2047.0 , 2059.0 , 3.629 , 0.0 , 0.0 , 0.0 , 0.0 , 

19.0 , 4131.79487179 , 4128.20512821 , 4140.51282051 , 4131.79487179 , 4132.30769231 , 4130.25641026 , 4131.28205128 , 4136.41025641 , 4137.94871795 , 4144.61538462 , 4086.66666667 , 3406.15384615 , 4135.38461538 , 4137.43589744 , 2049.0 , 2059.0 , 3.645 , 0.0 , 0.0 , 0.0 , 0.0 , 

20.0 , 4132.30769231 , 4131.28205128 , 4142.56410256 , 4134.35897436 , 4131.79487179 , 4131.79487179 , 4131.79487179 , 4132.30769231 , 4133.84615385 , 4141.53846154 , 4084.61538462 , 3405.64102564 , 4138.46153846 , 4135.8974359 , 2050.0 , 2059.0 , 3.645 , 0.0 , 0.0 , 0.0 , 0.0 , 

21.0 , 4131.79487179 , 4134.35897436 , 4144.61538462 , 4136.41025641 , 4131.79487179 , 4131.79487179 , 4126.66666667 , 4129.74358974 , 4130.25641026 , 4141.53846154 , 4085.64102564 , 3407.17948718 , 4137.94871795 , 4140.0 , 2051.0 , 2063.0 , 3.66 , 0.0 , 0.0 , 0.0 , 0.0 , 

22.0 , 4131.79487179 , 4131.28205128 , 4144.61538462 , 4134.87179487 , 4132.82051282 , 4129.74358974 , 4122.05128205 , 4132.82051282 , 4134.87179487 , 4142.56410256 , 4086.66666667 , 3407.17948718 , 4133.33333333 , 4138.46153846 , 2051.0 , 2065.0 , 3.66 , 0.0 , 0.0 , 0.0 , 0.0 , 

23.0 , 4131.79487179 , 4133.33333333 , 4143.07692308 , 4134.87179487 , 4132.30769231 , 4130.25641026 , 4127.17948718 , 4135.38461538 , 4139.48717949 , 4141.53846154 , 4086.66666667 , 3407.17948718 , 4136.41025641 , 4137.43589744 , 2050.0 , 2067.0 , 3.681 , 0.0 , 0.0 , 0.0 , 0.0 , 

24.0 , 4131.28205128 , 4136.92307692 , 4140.0 , 4135.8974359 , 4132.30769231 , 4132.30769231 , 4141.02564103 , 4133.33333333 , 4138.97435897 , 4141.02564103 , 4085.64102564 , 3404.61538462 , 4139.48717949 , 4137.43589744 , 2049.0 , 2069.0 , 3.682 , 0.0 , 0.0 , 0.0 , 0.0 , 

25.0 , 4134.35897436 , 4134.35897436 , 4135.38461538 , 4134.35897436 , 4132.30769231 , 4129.23076923 , 4145.64102564 , 4134.35897436 , 4142.05128205 , 4145.64102564 , 4085.64102564 , 3408.71794872 , 4137.94871795 , 4140.0 , 2046.0 , 2069.0 , 3.682 , 0.0 , 0.0 , 0.0 , 0.0 , 

26.0 , 4136.41025641 , 4131.28205128 , 4135.8974359 , 4131.28205128 , 4132.30769231 , 4130.25641026 , 4139.48717949 , 4137.94871795 , 4144.1025641 , 4147.17948718 , 4086.66666667 , 3409.23076923 , 4137.94871795 , 4137.43589744 , 2042.0 , 2069.0 , 3.698 , 0.0 , 0.0 , 0.0 , 0.0 , 

27.0 , 4136.92307692 , 4131.79487179 , 4137.94871795 , 4131.79487179 , 4130.76923077 , 4131.79487179 , 4132.30769231 , 4135.8974359 , 4138.46153846 , 4142.56410256 , 4087.17948718 , 3410.25641026 , 4138.97435897 , 4137.43589744 , 2042.0 , 2068.0 , 3.698 , 0.0 , 0.0 , 0.0 , 0.0 , 

28.0 , 4133.84615385 , 4132.82051282 , 4133.84615385 , 4136.41025641 , 4130.76923077 , 4130.76923077 , 4137.43589744 , 4134.35897436 , 4136.41025641 , 4142.56410256 , 4083.07692308 , 3412.30769231 , 4138.46153846 , 4138.97435897 , 2038.0 , 2064.0 , 3.714 , 0.0 , 0.0 , 0.0 , 0.0 , 

29.0 , 4136.41025641 , 4131.79487179 , 4133.84615385 , 4136.92307692 , 4130.76923077 , 4132.82051282 , 4133.33333333 , 4137.43589744 , 4138.97435897 , 4147.17948718 , 4084.1025641 , 3413.33333333 , 4137.94871795 , 4143.58974359 , 2036.0 , 2063.0 , 3.714 , 0.0 , 0.0 , 0.0 , 0.0 , 

30.0 , 4136.41025641 , 4131.79487179 , 4138.97435897 , 4137.94871795 , 4132.30769231 , 4138.46153846 , 4129.74358974 , 4141.02564103 , 4142.56410256 , 4146.66666667 , 4088.20512821 , 3407.17948718 , 4136.41025641 , 4138.46153846 , 2034.0 , 2061.0 , 3.729 , 0.0 , 0.0 , 0.0 , 0.0 , 

31.0 , 4134.87179487 , 4134.35897436 , 4144.61538462 , 4140.0 , 4132.82051282 , 4137.43589744 , 4122.05128205 , 4133.33333333 , 4139.48717949 , 4140.51282051 , 4086.66666667 , 3409.74358974 , 4137.94871795 , 4137.94871795 , 2031.0 , 2060.0 , 3.729 , 0.0 , 0.0 , 0.0 , 0.0 , 

32.0 , 4133.33333333 , 4134.87179487 , 4139.48717949 , 4140.0 , 4133.33333333 , 4136.92307692 , 4127.69230769 , 4130.25641026 , 4137.43589744 , 4138.46153846 , 4081.53846154 , 3409.74358974 , 4140.51282051 , 4136.92307692 , 2031.0 , 2057.0 , 3.745 , 0.0 , 0.0 , 0.0 , 0.0 , 

33.0 , 4134.87179487 , 4133.84615385 , 4136.92307692 , 4138.97435897 , 4133.33333333 , 4138.97435897 , 4134.87179487 , 4134.87179487 , 4136.41025641 , 4139.48717949 , 4083.07692308 , 3404.61538462 , 4137.94871795 , 4137.43589744 , 2029.0 , 2056.0 , 3.745 , 0.0 , 0.0 , 0.0 , 0.0 , 

34.0 , 4132.30769231 , 4135.38461538 , 4134.87179487 , 4141.02564103 , 4134.35897436 , 4140.51282051 , 4138.97435897 , 4137.94871795 , 4138.97435897 , 4141.53846154 , 4085.12820513 , 3403.58974359 , 4132.30769231 , 4133.33333333 , 2029.0 , 2055.0 , 3.761 , 0.0 , 0.0 , 0.0 , 0.0 , 

35.0 , 4133.33333333 , 4136.92307692 , 4135.8974359 , 4142.56410256 , 4134.87179487 , 4134.87179487 , 4132.30769231 , 4136.92307692 , 4142.05128205 , 4144.1025641 , 4083.07692308 , 3405.64102564 , 4131.28205128 , 4131.28205128 , 2029.0 , 2057.0 , 3.761 , 0.0 , 0.0 , 0.0 , 0.0 , 

36.0 , 4132.82051282 , 4133.33333333 , 4136.92307692 , 4141.53846154 , 4134.35897436 , 4131.79487179 , 4135.38461538 , 4138.46153846 , 4140.51282051 , 4144.1025641 , 4082.05128205 , 3403.58974359 , 4132.82051282 , 4132.82051282 , 2028.0 , 2056.0 , 3.783 , 0.0 , 0.0 , 0.0 , 0.0 , 

37.0 , 4134.87179487 , 4132.82051282 , 4136.92307692 , 4138.46153846 , 4132.82051282 , 4132.30769231 , 4138.97435897 , 4134.87179487 , 4138.46153846 , 4143.07692308 , 4084.1025641 , 3403.07692308 , 4133.33333333 , 4136.92307692 , 2030.0 , 2057.0 , 3.783 , 0.0 , 0.0 , 0.0 , 0.0 , 

38.0 , 4137.43589744 , 4134.87179487 , 4132.82051282 , 4135.38461538 , 4131.28205128 , 4133.33333333 , 4138.97435897 , 4132.82051282 , 4138.97435897 , 4141.53846154 , 4085.64102564 , 3404.61538462 , 4135.8974359 , 4136.92307692 , 2028.0 , 2057.0 , 3.799 , 0.0 , 0.0 , 0.0 , 0.0 , 

39.0 , 4137.43589744 , 4136.41025641 , 4133.33333333 , 4135.8974359 , 4130.76923077 , 4131.28205128 , 4139.48717949 , 4134.87179487 , 4138.97435897 , 4142.56410256 , 4082.05128205 , 3404.1025641 , 4135.8974359 , 4132.30769231 , 2029.0 , 2057.0 , 3.799 , 0.0 , 0.0 , 0.0 , 0.0 , 

40.0 , 4133.84615385 , 4134.35897436 , 4135.8974359 , 4138.97435897 , 4132.82051282 , 4131.28205128 , 4140.51282051 , 4133.33333333 , 4136.41025641 , 4145.64102564 , 4080.51282051 , 3405.64102564 , 4134.87179487 , 4132.30769231 , 2029.0 , 2059.0 , 3.814 , 0.0 , 0.0 , 0.0 , 0.0 , 

41.0 , 4132.82051282 , 4133.33333333 , 4136.92307692 , 4138.97435897 , 4136.41025641 , 4131.79487179 , 4143.58974359 , 4133.33333333 , 4136.92307692 , 4143.58974359 , 4082.05128205 , 3403.07692308 , 4137.43589744 , 4130.76923077 , 2030.0 , 2060.0 , 3.814 , 0.0 , 0.0 , 0.0 , 0.0 , 

42.0 , 4135.38461538 , 4133.84615385 , 4138.46153846 , 4133.84615385 , 4134.87179487 , 4132.30769231 , 4139.48717949 , 4135.38461538 , 4135.38461538 , 4138.97435897 , 4084.61538462 , 3402.05128205 , 4140.51282051 , 4133.84615385 , 2030.0 , 2061.0 , 3.83 , 0.0 , 0.0 , 0.0 , 0.0 , 

43.0 , 4135.38461538 , 4133.33333333 , 4139.48717949 , 4133.84615385 , 4134.87179487 , 4134.87179487 , 4138.46153846 , 4135.8974359 , 4135.8974359 , 4142.56410256 , 4082.05128205 , 3401.53846154 , 4137.43589744 , 4135.38461538 , 2030.0 , 2063.0 , 3.83 , 0.0 , 0.0 , 0.0 , 0.0 , 

44.0 , 4136.41025641 , 4132.30769231 , 4138.46153846 , 4134.87179487 , 4132.82051282 , 4132.30769231 , 4133.84615385 , 4133.33333333 , 4136.92307692 , 4143.58974359 , 4084.1025641 , 3407.69230769 , 4136.41025641 , 4138.97435897 , 2032.0 , 2067.0 , 3.845 , 0.0 , 0.0 , 0.0 , 0.0 , 

45.0 , 4135.38461538 , 4133.84615385 , 4135.38461538 , 4135.8974359 , 4129.74358974 , 4130.25641026 , 4137.43589744 , 4134.87179487 , 4136.92307692 , 4140.51282051 , 4085.64102564 , 3404.61538462 , 4139.48717949 , 4134.35897436 , 2032.0 , 2068.0 , 3.845 , 0.0 , 0.0 , 0.0 , 0.0 , 

46.0 , 4135.38461538 , 4131.79487179 , 4136.92307692 , 4133.84615385 , 4130.25641026 , 4128.20512821 , 4134.87179487 , 4133.33333333 , 4134.35897436 , 4141.02564103 , 4085.12820513 , 3404.61538462 , 4138.46153846 , 4135.8974359 , 2033.0 , 2069.0 , 3.861 , 0.0 , 0.0 , 0.0 , 0.0 , 

47.0 , 4134.87179487 , 4129.74358974 , 4136.41025641 , 4134.87179487 , 4134.35897436 , 4128.71794872 , 4140.0 , 4132.30769231 , 4140.0 , 4143.07692308 , 4086.15384615 , 3406.15384615 , 4134.87179487 , 4135.8974359 , 2033.0 , 2064.0 , 3.861 , 0.0 , 0.0 , 0.0 , 0.0 , 

48.0 , 4136.41025641 , 4132.82051282 , 4137.43589744 , 4134.35897436 , 4131.79487179 , 4130.25641026 , 4137.94871795 , 4133.84615385 , 4141.02564103 , 4139.48717949 , 4086.66666667 , 3409.23076923 , 4133.84615385 , 4136.92307692 , 2033.0 , 2062.0 , 3.877 , 0.0 , 0.0 , 0.0 , 0.0 , 

49.0 , 4134.87179487 , 4133.33333333 , 4136.41025641 , 4136.92307692 , 4132.82051282 , 4132.30769231 , 4140.0 , 4136.41025641 , 4137.43589744 , 4140.51282051 , 4081.53846154 , 3401.02564103 , 4134.87179487 , 4131.79487179 , 2032.0 , 2055.0 , 3.883 , 0.0 , 0.0 , 0.0 , 0.0 , 

50.0 , 4132.82051282 , 4131.28205128 , 4137.94871795 , 4137.43589744 , 4134.35897436 , 4132.30769231 , 4131.79487179 , 4136.92307692 , 4136.92307692 , 4142.05128205 , 4082.56410256 , 3401.53846154 , 4136.41025641 , 4131.79487179 , 2033.0 , 2053.0 , 3.883 , 0.0 , 0.0 , 0.0 , 0.0 , 

51.0 , 4131.28205128 , 4132.30769231 , 4135.8974359 , 4137.43589744 , 4132.30769231 , 4135.8974359 , 4128.20512821 , 4136.92307692 , 4139.48717949 , 4139.48717949 , 4086.66666667 , 3404.61538462 , 4136.41025641 , 4131.28205128 , 2034.0 , 2054.0 , 3.898 , 0.0 , 0.0 , 0.0 , 0.0 , 

52.0 , 4131.28205128 , 4132.82051282 , 4137.43589744 , 4138.46153846 , 4132.82051282 , 4136.92307692 , 4122.05128205 , 4135.38461538 , 4137.94871795 , 4141.02564103 , 4083.07692308 , 3404.61538462 , 4134.87179487 , 4131.79487179 , 2033.0 , 2053.0 , 3.898 , 0.0 , 0.0 , 0.0 , 0.0 , 

53.0 , 4127.17948718 , 4130.76923077 , 4137.43589744 , 4136.41025641 , 4135.38461538 , 4132.30769231 , 4123.58974359 , 4134.87179487 , 4138.97435897 , 4144.61538462 , 4080.51282051 , 3405.12820513 , 4133.84615385 , 4130.76923077 , 2033.0 , 2056.0 , 3.914 , 0.0 , 0.0 , 0.0 , 0.0 , 

54.0 , 4130.25641026 , 4130.25641026 , 4137.43589744 , 4132.82051282 , 4132.30769231 , 4130.76923077 , 4126.66666667 , 4132.82051282 , 4138.97435897 , 4141.53846154 , 4083.58974359 , 3407.17948718 , 4135.8974359 , 4134.35897436 , 2035.0 , 2060.0 , 3.914 , 0.0 , 0.0 , 0.0 , 0.0 , 

55.0 , 4133.84615385 , 4130.76923077 , 4133.84615385 , 4132.30769231 , 4131.79487179 , 4127.69230769 , 4134.87179487 , 4133.33333333 , 4136.92307692 , 4140.51282051 , 4084.1025641 , 3406.15384615 , 4137.43589744 , 4137.94871795 , 2036.0 , 2061.0 , 3.93 , 0.0 , 0.0 , 0.0 , 0.0 , 

56.0 , 4133.84615385 , 4131.79487179 , 4134.35897436 , 4135.8974359 , 4133.33333333 , 4122.56410256 , 4138.46153846 , 4135.8974359 , 4136.41025641 , 4144.1025641 , 4083.58974359 , 3406.15384615 , 4136.41025641 , 4137.43589744 , 2034.0 , 2062.0 , 3.93 , 0.0 , 0.0 , 0.0 , 0.0 , 

57.0 , 4131.28205128 , 4132.30769231 , 4133.84615385 , 4137.94871795 , 4129.74358974 , 4125.64102564 , 4136.92307692 , 4135.8974359 , 4137.43589744 , 4143.58974359 , 4083.58974359 , 3408.71794872 , 4137.43589744 , 4135.8974359 , 2034.0 , 2063.0 , 3.945 , 0.0 , 0.0 , 0.0 , 0.0 , 

58.0 , 4134.35897436 , 4131.79487179 , 4134.87179487 , 4135.38461538 , 4128.20512821 , 4129.74358974 , 4137.43589744 , 4130.76923077 , 4137.94871795 , 4143.07692308 , 4082.05128205 , 3407.17948718 , 4135.8974359 , 4138.46153846 , 2034.0 , 2059.0 , 3.945 , 0.0 , 0.0 , 0.0 , 0.0 , 

59.0 , 4138.46153846 , 4130.25641026 , 4137.94871795 , 4132.82051282 , 4130.76923077 , 4127.17948718 , 4135.8974359 , 4131.79487179 , 4137.43589744 , 4146.66666667 , 4086.15384615 , 3407.17948718 , 4134.35897436 , 4144.1025641 , 2034.0 , 2057.0 , 3.961 , 0.0 , 0.0 , 0.0 , 0.0 , 

60.0 , 4134.35897436 , 4131.28205128 , 4140.51282051 , 4134.35897436 , 4131.79487179 , 4128.71794872 , 4134.35897436 , 4135.38461538 , 4136.92307692 , 4145.12820513 , 4089.23076923 , 3408.71794872 , 4136.92307692 , 4138.46153846 , 2034.0 , 2055.0 , 3.961 , 0.0 , 0.0 , 0.0 , 0.0 , 

61.0 , 4127.69230769 , 4132.82051282 , 4140.51282051 , 4133.84615385 , 4131.28205128 , 4131.79487179 , 4126.66666667 , 4134.35897436 , 4134.87179487 , 4140.0 , 4085.12820513 , 3413.33333333 , 4140.51282051 , 4134.35897436 , 2035.0 , 2053.0 , 3.979 , 0.0 , 0.0 , 0.0 , 0.0 , 

62.0 , 4127.17948718 , 4133.84615385 , 4140.0 , 4134.35897436 , 4134.87179487 , 4133.84615385 , 4126.15384615 , 4134.87179487 , 4137.94871795 , 4141.53846154 , 4081.53846154 , 3408.71794872 , 4136.92307692 , 4131.28205128 , 2033.0 , 2051.0 , 3.983 , 0.0 , 0.0 , 0.0 , 0.0 , 

63.0 , 4132.30769231 , 4132.30769231 , 4141.53846154 , 4134.35897436 , 4134.87179487 , 4133.33333333 , 4123.58974359 , 4134.87179487 , 4139.48717949 , 4143.58974359 , 4082.05128205 , 3407.69230769 , 4136.41025641 , 4133.84615385 , 2034.0 , 2054.0 , 3.983 , 0.0 , 0.0 , 0.0 , 0.0 , 

64.0 , 4130.25641026 , 4131.79487179 , 4138.97435897 , 4133.33333333 , 4131.79487179 , 4131.79487179 , 4130.25641026 , 4136.41025641 , 4137.94871795 , 4141.53846154 , 4081.53846154 , 3409.23076923 , 4138.97435897 , 4130.76923077 , 2032.0 , 2052.0 , 3.999 , 0.0 , 0.0 , 0.0 , 0.0 , 

65.0 , 4132.82051282 , 4131.79487179 , 4137.43589744 , 4130.76923077 , 4130.76923077 , 4128.71794872 , 4131.79487179 , 4135.38461538 , 4135.8974359 , 4142.56410256 , 4084.61538462 , 3411.28205128 , 4137.94871795 , 4132.82051282 , 2032.0 , 2054.0 , 3.999 , 0.0 , 0.0 , 0.0 , 0.0 , 

66.0 , 4136.41025641 , 4130.25641026 , 4134.35897436 , 4132.82051282 , 4131.28205128 , 4130.25641026 , 4135.38461538 , 4137.43589744 , 4139.48717949 , 4146.66666667 , 4085.64102564 , 3410.25641026 , 4135.8974359 , 4135.38461538 , 2032.0 , 2054.0 , 4.014 , 0.0 , 0.0 , 0.0 , 0.0 , 

67.0 , 4137.94871795 , 4130.25641026 , 4134.35897436 , 4133.33333333 , 4129.74358974 , 4128.71794872 , 4134.35897436 , 4136.41025641 , 4138.46153846 , 4142.56410256 , 4084.1025641 , 3411.28205128 , 4136.41025641 , 4141.02564103 , 2033.0 , 2056.0 , 4.014 , 0.0 , 0.0 , 0.0 , 0.0 , 

68.0 , 4134.87179487 , 4130.76923077 , 4133.84615385 , 4134.35897436 , 4130.76923077 , 4127.69230769 , 4137.94871795 , 4134.87179487 , 4136.41025641 , 4140.51282051 , 4087.17948718 , 3405.64102564 , 4135.8974359 , 4137.94871795 , 2034.0 , 2055.0 , 4.03 , 0.0 , 0.0 , 0.0 , 0.0 , 

69.0 , 4135.8974359 , 4132.30769231 , 4135.38461538 , 4134.87179487 , 4132.30769231 , 4129.74358974 , 4133.84615385 , 4135.38461538 , 4136.92307692 , 4145.12820513 , 4090.76923077 , 3404.61538462 , 4136.41025641 , 4136.92307692 , 2033.0 , 2056.0 , 4.03 , 0.0 , 0.0 , 0.0 , 0.0 , 

70.0 , 4134.87179487 , 4134.35897436 , 4133.33333333 , 4135.8974359 , 4132.30769231 , 4134.35897436 , 4133.33333333 , 4137.43589744 , 4138.97435897 , 4144.61538462 , 4084.1025641 , 3405.12820513 , 4136.92307692 , 4134.35897436 , 2032.0 , 2054.0 , 4.045 , 0.0 , 0.0 , 0.0 , 0.0 , 

71.0 , 4135.38461538 , 4133.84615385 , 4134.35897436 , 4136.41025641 , 4133.33333333 , 4134.87179487 , 4130.25641026 , 4135.8974359 , 4137.94871795 , 4139.48717949 , 4078.97435897 , 3404.1025641 , 4136.41025641 , 4133.84615385 , 2034.0 , 2055.0 , 4.045 , 0.0 , 0.0 , 0.0 , 0.0 , 

72.0 , 4133.33333333 , 4129.74358974 , 4134.35897436 , 4136.41025641 , 4134.35897436 , 4134.35897436 , 4132.30769231 , 4134.87179487 , 4140.0 , 4141.53846154 , 4083.58974359 , 3402.56410256 , 4135.38461538 , 4135.8974359 , 2033.0 , 2054.0 , 4.061 , 0.0 , 0.0 , 0.0 , 0.0 , 

73.0 , 4132.30769231 , 4131.79487179 , 4137.94871795 , 4136.41025641 , 4132.82051282 , 4132.82051282 , 4132.30769231 , 4135.38461538 , 4140.0 , 4144.61538462 , 4085.12820513 , 3402.56410256 , 4134.35897436 , 4135.38461538 , 2034.0 , 2054.0 , 4.061 , 0.0 , 0.0 , 0.0 , 0.0 , 

74.0 , 4133.84615385 , 4136.41025641 , 4139.48717949 , 4135.38461538 , 4133.33333333 , 4133.84615385 , 4128.71794872 , 4135.38461538 , 4137.94871795 , 4144.1025641 , 4082.05128205 , 3402.05128205 , 4135.38461538 , 4130.25641026 , 2031.0 , 2053.0 , 4.082 , 0.0 , 0.0 , 0.0 , 0.0 , 

75.0 , 4136.92307692 , 4134.35897436 , 4138.97435897 , 4135.8974359 , 4133.33333333 , 4133.84615385 , 4124.61538462 , 4134.35897436 , 4137.94871795 , 4145.12820513 , 4082.05128205 , 3405.64102564 , 4137.43589744 , 4131.79487179 , 2032.0 , 2052.0 , 4.083 , 0.0 , 0.0 , 0.0 , 0.0 , 

76.0 , 4133.84615385 , 4131.28205128 , 4134.87179487 , 4136.92307692 , 4134.87179487 , 4132.30769231 , 4128.20512821 , 4135.8974359 , 4138.46153846 , 4146.15384615 , 4083.07692308 , 3408.71794872 , 4136.41025641 , 4138.46153846 , 2033.0 , 2052.0 , 4.083 , 0.0 , 0.0 , 0.0 , 0.0 , 

77.0 , 4131.79487179 , 4133.84615385 , 4135.38461538 , 4135.8974359 , 4135.38461538 , 4132.30769231 , 4132.82051282 , 4135.8974359 , 4137.43589744 , 4142.56410256 , 4081.53846154 , 3407.17948718 , 4133.33333333 , 4134.35897436 , 2035.0 , 2052.0 , 4.098 , 0.0 , 0.0 , 0.0 , 0.0 , 

78.0 , 4132.82051282 , 4134.35897436 , 4137.43589744 , 4132.82051282 , 4130.76923077 , 4134.35897436 , 4128.20512821 , 4136.41025641 , 4136.92307692 , 4138.97435897 , 4082.56410256 , 3408.20512821 , 4134.87179487 , 4131.79487179 , 2035.0 , 2052.0 , 4.114 , 0.0 , 0.0 , 0.0 , 0.0 , 

79.0 , 4133.33333333 , 4132.82051282 , 4137.43589744 , 4135.8974359 , 4130.25641026 , 4135.38461538 , 4129.23076923 , 4136.41025641 , 4138.46153846 , 4142.05128205 , 4084.1025641 , 3404.1025641 , 4133.33333333 , 4131.79487179 , 2035.0 , 2052.0 , 4.114 , 0.0 , 0.0 , 0.0 , 0.0 , 

80.0 , 4134.35897436 , 4132.30769231 , 4135.8974359 , 4137.43589744 , 4132.82051282 , 4133.33333333 , 4132.30769231 , 4133.84615385 , 4138.46153846 , 4142.05128205 , 4084.1025641 , 3405.12820513 , 4131.79487179 , 4134.87179487 , 2035.0 , 2052.0 , 4.13 , 0.0 , 0.0 , 0.0 , 0.0 , 

81.0 , 4132.82051282 , 4131.28205128 , 4133.84615385 , 4134.35897436 , 4132.30769231 , 4131.28205128 , 4135.38461538 , 4135.38461538 , 4139.48717949 , 4136.92307692 , 4083.58974359 , 3406.66666667 , 4135.38461538 , 4132.82051282 , 2034.0 , 2050.0 , 4.13 , 0.0 , 0.0 , 0.0 , 0.0 , 

82.0 , 4134.35897436 , 4129.74358974 , 4135.38461538 , 4133.84615385 , 4130.25641026 , 4127.69230769 , 4127.17948718 , 4137.43589744 , 4141.02564103 , 4134.87179487 , 4084.1025641 , 3407.17948718 , 4139.48717949 , 4135.8974359 , 2035.0 , 2050.0 , 4.145 , 0.0 , 0.0 , 0.0 , 0.0 , 

83.0 , 4133.84615385 , 4131.79487179 , 4137.43589744 , 4138.46153846 , 4134.87179487 , 4128.71794872 , 4129.23076923 , 4137.94871795 , 4143.58974359 , 4140.0 , 4082.05128205 , 3404.61538462 , 4138.97435897 , 4136.41025641 , 2034.0 , 2049.0 , 4.145 , 0.0 , 0.0 , 0.0 , 0.0 , 

84.0 , 4134.87179487 , 4133.84615385 , 4139.48717949 , 4136.41025641 , 4134.87179487 , 4130.76923077 , 4129.74358974 , 4135.38461538 , 4141.53846154 , 4143.07692308 , 4082.56410256 , 3408.20512821 , 4136.41025641 , 4136.92307692 , 2033.0 , 2048.0 , 4.145 , 0.0 , 0.0 , 0.0 , 0.0 , 

85.0 , 4133.84615385 , 4133.84615385 , 4137.43589744 , 4135.8974359 , 4133.33333333 , 4132.30769231 , 4134.35897436 , 4137.94871795 , 4140.51282051 , 4143.07692308 , 4083.07692308 , 3406.66666667 , 4134.87179487 , 4132.30769231 , 2032.0 , 2047.0 , 4.161 , 0.0 , 0.0 , 0.0 , 0.0 , 

86.0 , 4136.41025641 , 4133.33333333 , 4137.94871795 , 4138.46153846 , 4136.41025641 , 4132.30769231 , 4132.30769231 , 4136.92307692 , 4137.94871795 , 4140.51282051 , 4080.51282051 , 3406.66666667 , 4134.87179487 , 4134.35897436 , 2034.0 , 2047.0 , 4.177 , 0.0 , 0.0 , 0.0 , 0.0 , 

87.0 , 4134.35897436 , 4132.30769231 , 4132.82051282 , 4137.94871795 , 4136.92307692 , 4132.30769231 , 4136.92307692 , 4136.41025641 , 4137.94871795 , 4140.51282051 , 4080.0 , 3407.69230769 , 4136.92307692 , 4132.82051282 , 2034.0 , 2047.0 , 4.183 , 0.0 , 0.0 , 0.0 , 0.0 , 

88.0 , 4136.41025641 , 4133.84615385 , 4131.79487179 , 4135.8974359 , 4133.33333333 , 4130.76923077 , 4134.35897436 , 4137.43589744 , 4139.48717949 , 4142.05128205 , 4084.61538462 , 3408.71794872 , 4138.46153846 , 4132.30769231 , 2034.0 , 2042.0 , 4.183 , 0.0 , 0.0 , 0.0 , 0.0 , 

89.0 , 4137.94871795 , 4135.38461538 , 4133.33333333 , 4135.8974359 , 4134.87179487 , 4130.76923077 , 4135.38461538 , 4137.94871795 , 4137.43589744 , 4142.56410256 , 4085.12820513 , 3405.12820513 , 4135.8974359 , 4133.33333333 , 2034.0 , 2040.0 , 4.198 , 0.0 , 0.0 , 0.0 , 0.0 , 

90.0 , 4136.41025641 , 4134.87179487 , 4138.46153846 , 4135.38461538 , 4136.92307692 , 4130.76923077 , 4132.82051282 , 4136.41025641 , 4134.35897436 , 4141.53846154 , 4081.53846154 , 3405.64102564 , 4132.30769231 , 4136.41025641 , 2035.0 , 2038.0 , 4.198 , 0.0 , 0.0 , 0.0 , 0.0 , 

91.0 , 4134.35897436 , 4134.35897436 , 4137.43589744 , 4136.41025641 , 4136.92307692 , 4134.35897436 , 4129.74358974 , 4136.41025641 , 4135.8974359 , 4141.53846154 , 4080.51282051 , 3405.12820513 , 4132.82051282 , 4135.8974359 , 2037.0 , 2036.0 , 4.214 , 0.0 , 0.0 , 0.0 , 0.0 , 

92.0 , 4137.94871795 , 4134.35897436 , 4138.97435897 , 4137.43589744 , 4135.8974359 , 4135.8974359 , 4123.07692308 , 4137.43589744 , 4138.97435897 , 4140.51282051 , 4082.05128205 , 3406.15384615 , 4133.33333333 , 4137.94871795 , 2039.0 , 2036.0 , 4.214 , 0.0 , 0.0 , 0.0 , 0.0 , 

93.0 , 4136.92307692 , 4134.35897436 , 4141.53846154 , 4133.84615385 , 4133.84615385 , 4132.30769231 , 4120.51282051 , 4136.41025641 , 4137.43589744 , 4142.05128205 , 4082.05128205 , 3409.23076923 , 4134.35897436 , 4140.0 , 2040.0 , 2034.0 , 4.23 , 0.0 , 0.0 , 0.0 , 0.0 , 

94.0 , 4136.41025641 , 4134.87179487 , 4143.07692308 , 4131.28205128 , 4132.82051282 , 4129.74358974 , 4126.66666667 , 4134.35897436 , 4134.35897436 , 4143.07692308 , 4083.07692308 , 3409.74358974 , 4136.41025641 , 4138.46153846 , 2042.0 , 2035.0 , 4.23 , 0.0 , 0.0 , 0.0 , 0.0 , 

95.0 , 4135.8974359 , 4134.35897436 , 4141.53846154 , 4132.82051282 , 4134.87179487 , 4126.15384615 , 4133.33333333 , 4136.92307692 , 4132.82051282 , 4140.51282051 , 4084.61538462 , 3411.79487179 , 4135.8974359 , 4140.51282051 , 2043.0 , 2033.0 , 4.245 , 0.0 , 0.0 , 0.0 , 0.0 , 

96.0 , 4132.82051282 , 4132.30769231 , 4141.02564103 , 4133.33333333 , 4135.8974359 , 4124.1025641 , 4136.92307692 , 4136.92307692 , 4133.33333333 , 4142.05128205 , 4082.56410256 , 3411.79487179 , 4137.43589744 , 4137.94871795 , 2045.0 , 2034.0 , 4.245 , 0.0 , 0.0 , 0.0 , 0.0 , 

97.0 , 4131.79487179 , 4131.28205128 , 4139.48717949 , 4130.25641026 , 4132.30769231 , 4126.15384615 , 4136.41025641 , 4131.79487179 , 4133.33333333 , 4145.64102564 , 4081.53846154 , 3409.23076923 , 4144.61538462 , 4135.8974359 , 2046.0 , 2032.0 , 4.261 , 0.0 , 0.0 , 0.0 , 0.0 , 

98.0 , 4133.84615385 , 4132.30769231 , 4139.48717949 , 4131.28205128 , 4133.84615385 , 4129.23076923 , 4144.1025641 , 4131.79487179 , 4134.35897436 , 4143.58974359 , 4083.07692308 , 3406.15384615 , 4144.61538462 , 4135.8974359 , 2048.0 , 2033.0 , 4.261 , 0.0 , 0.0 , 0.0 , 0.0 , 

99.0 , 4135.38461538 , 4132.30769231 , 4141.53846154 , 4130.25641026 , 4135.38461538 , 4127.69230769 , 4140.0 , 4135.38461538 , 4132.30769231 , 4142.56410256 , 4085.64102564 , 3412.30769231 , 4142.56410256 , 4140.51282051 , 2047.0 , 2033.0 , 4.279 , 0.0 , 0.0 , 0.0 , 0.0 , 

100.0 , 4133.33333333 , 4131.79487179 , 4138.46153846 , 4130.76923077 , 4136.41025641 , 4130.25641026 , 4136.92307692 , 4135.8974359 , 4131.79487179 , 4146.66666667 , 4082.56410256 , 3409.74358974 , 4142.56410256 , 4136.41025641 , 2048.0 , 2033.0 , 4.283 , 0.0 , 0.0 , 0.0 , 0.0 , 

101.0 , 4134.87179487 , 4131.79487179 , 4136.92307692 , 4131.79487179 , 4133.33333333 , 4131.28205128 , 4135.8974359 , 4135.38461538 , 4132.82051282 , 4147.17948718 , 4080.0 , 3408.71794872 , 4142.56410256 , 4135.8974359 , 2048.0 , 2034.0 , 4.283 , 0.0 , 0.0 , 0.0 , 0.0 , 

102.0 , 4134.87179487 , 4133.33333333 , 4137.94871795 , 4133.33333333 , 4134.87179487 , 4132.30769231 , 4140.0 , 4136.41025641 , 4135.8974359 , 4145.64102564 , 4081.53846154 , 3408.71794872 , 4140.0 , 4135.38461538 , 2048.0 , 2034.0 , 4.298 , 0.0 , 0.0 , 0.0 , 0.0 , 

103.0 , 4135.38461538 , 4132.82051282 , 4140.0 , 4132.30769231 , 4136.41025641 , 4133.33333333 , 4132.82051282 , 4133.84615385 , 4135.38461538 , 4145.12820513 , 4086.15384615 , 3409.74358974 , 4135.8974359 , 4137.43589744 , 2049.0 , 2034.0 , 4.298 , 0.0 , 0.0 , 0.0 , 0.0 , 

104.0 , 4133.33333333 , 4132.30769231 , 4134.87179487 , 4136.41025641 , 4134.87179487 , 4133.33333333 , 4134.35897436 , 4134.35897436 , 4136.92307692 , 4144.1025641 , 4085.12820513 , 3405.64102564 , 4133.84615385 , 4134.87179487 , 2048.0 , 2038.0 , 4.314 , 0.0 , 0.0 , 0.0 , 0.0 , 

105.0 , 4136.92307692 , 4131.79487179 , 4134.87179487 , 4140.51282051 , 4131.28205128 , 4130.76923077 , 4132.82051282 , 4130.76923077 , 4137.43589744 , 4142.05128205 , 4081.02564103 , 3406.15384615 , 4136.92307692 , 4136.41025641 , 2047.0 , 2039.0 , 4.314 , 0.0 , 0.0 , 0.0 , 0.0 , 

106.0 , 4136.92307692 , 4130.76923077 , 4134.35897436 , 4137.94871795 , 4132.82051282 , 4132.30769231 , 4137.94871795 , 4130.76923077 , 4138.46153846 , 4142.56410256 , 4080.0 , 3404.1025641 , 4141.02564103 , 4134.87179487 , 2048.0 , 2041.0 , 4.33 , 0.0 , 0.0 , 0.0 , 0.0 , 

107.0 , 4135.38461538 , 4130.25641026 , 4133.84615385 , 4134.87179487 , 4138.46153846 , 4133.33333333 , 4139.48717949 , 4134.87179487 , 4139.48717949 , 4142.56410256 , 4084.61538462 , 3403.07692308 , 4137.43589744 , 4137.43589744 , 2047.0 , 2039.0 , 4.33 , 0.0 , 0.0 , 0.0 , 0.0 , 

108.0 , 4132.30769231 , 4131.28205128 , 4129.74358974 , 4136.92307692 , 4141.02564103 , 4135.8974359 , 4140.51282051 , 4136.41025641 , 4140.0 , 4143.07692308 , 4086.66666667 , 3406.15384615 , 4132.82051282 , 4133.33333333 , 2047.0 , 2042.0 , 4.345 , 0.0 , 0.0 , 0.0 , 0.0 , 

109.0 , 4134.35897436 , 4132.30769231 , 4130.25641026 , 4140.0 , 4135.8974359 , 4135.8974359 , 4133.84615385 , 4130.76923077 , 4138.97435897 , 4142.05128205 , 4082.05128205 , 3407.69230769 , 4132.82051282 , 4130.76923077 , 2048.0 , 2042.0 , 4.345 , 0.0 , 0.0 , 0.0 , 0.0 , 

110.0 , 4134.35897436 , 4130.76923077 , 4130.76923077 , 4141.53846154 , 4134.35897436 , 4133.33333333 , 4131.79487179 , 4131.79487179 , 4138.46153846 , 4139.48717949 , 4082.56410256 , 3402.05128205 , 4136.92307692 , 4134.35897436 , 2049.0 , 2042.0 , 4.361 , 0.0 , 0.0 , 0.0 , 0.0 , 

111.0 , 4135.8974359 , 4131.79487179 , 4132.82051282 , 4141.53846154 , 4136.92307692 , 4135.38461538 , 4131.28205128 , 4137.43589744 , 4138.97435897 , 4141.02564103 , 4086.15384615 , 3401.02564103 , 4137.43589744 , 4135.8974359 , 2050.0 , 2041.0 , 4.361 , 0.0 , 0.0 , 0.0 , 0.0 , 

112.0 , 4135.38461538 , 4134.35897436 , 4135.38461538 , 4139.48717949 , 4135.8974359 , 4138.97435897 , 4128.71794872 , 4137.94871795 , 4141.02564103 , 4141.53846154 , 4084.61538462 , 3405.64102564 , 4131.28205128 , 4133.33333333 , 2050.0 , 2042.0 , 4.382 , 0.0 , 0.0 , 0.0 , 0.0 , 

113.0 , 4134.87179487 , 4136.41025641 , 4135.8974359 , 4138.46153846 , 4132.30769231 , 4136.41025641 , 4127.69230769 , 4133.33333333 , 4139.48717949 , 4140.0 , 4082.05128205 , 3403.58974359 , 4128.71794872 , 4133.33333333 , 2050.0 , 2040.0 , 4.383 , 0.0 , 0.0 , 0.0 , 0.0 , 

114.0 , 4137.43589744 , 4134.87179487 , 4133.84615385 , 4137.94871795 , 4134.87179487 , 4131.79487179 , 4128.20512821 , 4131.79487179 , 4137.94871795 , 4143.58974359 , 4084.61538462 , 3403.58974359 , 4133.33333333 , 4138.97435897 , 2050.0 , 2041.0 , 4.383 , 0.0 , 0.0 , 0.0 , 0.0 , 

115.0 , 4136.92307692 , 4132.82051282 , 4136.92307692 , 4137.94871795 , 4138.97435897 , 4133.33333333 , 4131.79487179 , 4137.94871795 , 4141.02564103 , 4149.23076923 , 4083.58974359 , 3402.05128205 , 4136.41025641 , 4136.92307692 , 2049.0 , 2041.0 , 4.398 , 0.0 , 0.0 , 0.0 , 0.0 , 

116.0 , 4136.92307692 , 4133.33333333 , 4139.48717949 , 4137.43589744 , 4136.41025641 , 4135.8974359 , 4130.76923077 , 4140.51282051 , 4140.0 , 4143.58974359 , 4082.05128205 , 3402.05128205 , 4137.43589744 , 4134.35897436 , 2049.0 , 2041.0 , 4.398 , 0.0 , 0.0 , 0.0 , 0.0 , 

117.0 , 4137.43589744 , 4134.35897436 , 4135.8974359 , 4138.97435897 , 4134.87179487 , 4136.41025641 , 4135.8974359 , 4133.33333333 , 4137.43589744 , 4138.46153846 , 4082.56410256 , 3400.51282051 , 4135.38461538 , 4129.23076923 , 2049.0 , 2041.0 , 4.414 , 0.0 , 0.0 , 0.0 , 0.0 , 

118.0 , 4138.46153846 , 4135.38461538 , 4132.82051282 , 4138.46153846 , 4134.87179487 , 4134.87179487 , 4133.33333333 , 4131.28205128 , 4136.41025641 , 4143.07692308 , 4084.1025641 , 3407.17948718 , 4133.33333333 , 4133.33333333 , 2050.0 , 2042.0 , 4.414 , 0.0 , 0.0 , 0.0 , 0.0 , 

119.0 , 4135.8974359 , 4136.41025641 , 4130.25641026 , 4138.97435897 , 4135.38461538 , 4135.38461538 , 4134.35897436 , 4137.43589744 , 4140.0 , 4145.12820513 , 4083.58974359 , 3408.20512821 , 4134.87179487 , 4133.33333333 , 2050.0 , 2042.0 , 4.429 , 0.0 , 0.0 , 0.0 , 0.0 , 

120.0 , 4135.38461538 , 4134.87179487 , 4131.28205128 , 4138.46153846 , 4131.79487179 , 4134.35897436 , 4133.84615385 , 4133.84615385 , 4140.0 , 4141.53846154 , 4083.58974359 , 3405.64102564 , 4136.92307692 , 4135.8974359 , 2051.0 , 2043.0 , 4.429 , 0.0 , 0.0 , 0.0 , 0.0 , 

121.0 , 4131.79487179 , 4133.84615385 , 4133.33333333 , 4140.51282051 , 4133.33333333 , 4132.30769231 , 4136.41025641 , 4130.76923077 , 4138.46153846 , 4142.56410256 , 4082.05128205 , 3402.05128205 , 4136.41025641 , 4135.38461538 , 2052.0 , 2042.0 , 4.445 , 0.0 , 0.0 , 0.0 , 0.0 , 

122.0 , 4135.8974359 , 4133.33333333 , 4139.48717949 , 4139.48717949 , 4135.38461538 , 4130.76923077 , 4127.17948718 , 4133.84615385 , 4135.8974359 , 4144.61538462 , 4082.56410256 , 3406.15384615 , 4135.8974359 , 4138.97435897 , 2053.0 , 2044.0 , 4.461 , 0.0 , 0.0 , 0.0 , 0.0 , 

123.0 , 4138.46153846 , 4132.30769231 , 4137.43589744 , 4135.8974359 , 4135.8974359 , 4133.33333333 , 4129.23076923 , 4136.92307692 , 4138.46153846 , 4144.61538462 , 4085.12820513 , 3405.64102564 , 4135.8974359 , 4136.41025641 , 2054.0 , 2042.0 , 4.461 , 0.0 , 0.0 , 0.0 , 0.0 , 

124.0 , 4137.43589744 , 4132.30769231 , 4134.87179487 , 4133.33333333 , 4133.84615385 , 4130.76923077 , 4129.74358974 , 4133.33333333 , 4139.48717949 , 4144.61538462 , 4086.66666667 , 3405.64102564 , 4134.87179487 , 4136.41025641 , 2053.0 , 2044.0 , 4.476 , 0.0 , 0.0 , 0.0 , 0.0 , 

125.0 , 4135.8974359 , 4136.41025641 , 4133.33333333 , 4136.92307692 , 4133.84615385 , 4129.74358974 , 4133.33333333 , 4133.84615385 , 4136.41025641 , 4142.05128205 , 4084.1025641 , 3408.71794872 , 4137.43589744 , 4137.43589744 , 2054.0 , 2043.0 , 4.482 , 0.0 , 0.0 , 0.0 , 0.0 , 

126.0 , 4139.48717949 , 4137.43589744 , 4134.87179487 , 4136.41025641 , 4133.84615385 , 4131.79487179 , 4135.38461538 , 4133.33333333 , 4133.33333333 , 4139.48717949 , 4082.05128205 , 3411.79487179 , 4137.94871795 , 4138.97435897 , 2054.0 , 2045.0 , 4.482 , 0.0 , 0.0 , 0.0 , 0.0 , 

127.0 , 4135.38461538 , 4131.79487179 , 4132.82051282 , 4134.87179487 , 4133.84615385 , 4132.82051282 , 4141.02564103 , 4134.35897436 , 4135.8974359 , 4143.58974359 , 4084.61538462 , 3406.66666667 , 4135.8974359 , 4136.41025641 , 2053.0 , 2044.0 , 4.498 , 0.0 , 0.0 , 0.0 , 0.0 , 

128.0 , 4134.87179487 , 4132.30769231 , 4135.38461538 , 4135.8974359 , 4133.84615385 , 4130.76923077 , 4135.8974359 , 4134.35897436 , 4137.43589744 , 4146.66666667 , 4083.58974359 , 3407.69230769 , 4136.92307692 , 4134.87179487 , 2053.0 , 2045.0 , 4.498 , 0.0 , 0.0 , 0.0 , 0.0 , 

0.0 , 4136.92307692 , 4134.35897436 , 4137.43589744 , 4135.38461538 , 4132.82051282 , 4129.23076923 , 4132.82051282 , 4134.35897436 , 4135.8974359 , 4144.1025641 , 4081.02564103 , 3411.28205128 , 4140.0 , 4135.8974359 , 2052.0 , 2045.0 , 4.514 , 0.0 , 0.0 , 0.0 , 0.0 , 

1.0 , 4135.8974359 , 4135.8974359 , 4137.43589744 , 4133.84615385 , 4132.30769231 , 4128.20512821 , 4132.30769231 , 4133.84615385 , 4136.92307692 , 4141.53846154 , 4082.05128205 , 3408.20512821 , 4136.92307692 , 4136.92307692 , 2052.0 , 2045.0 , 4.514 , 0.0 , 0.0 , 0.0 , 0.0 , 

2.0 , 4134.87179487 , 4137.94871795 , 4133.84615385 , 4132.30769231 , 4133.84615385 , 4129.74358974 , 4131.28205128 , 4133.84615385 , 4139.48717949 , 4144.1025641 , 4083.58974359 , 3407.69230769 , 4135.38461538 , 4138.46153846 , 2051.0 , 2044.0 , 4.529 , 0.0 , 0.0 , 0.0 , 0.0 , 

3.0 , 4135.8974359 , 4135.38461538 , 4132.82051282 , 4132.30769231 , 4134.35897436 , 4131.79487179 , 4134.35897436 , 4135.38461538 , 4139.48717949 , 4146.15384615 , 4083.58974359 , 3405.64102564 , 4136.92307692 , 4137.43589744 , 2050.0 , 2044.0 , 4.529 , 0.0 , 0.0 , 0.0 , 0.0 , 

4.0 , 4135.38461538 , 4130.76923077 , 4134.35897436 , 4134.35897436 , 4133.84615385 , 4128.20512821 , 4132.30769231 , 4137.43589744 , 4136.41025641 , 4141.53846154 , 4085.12820513 , 3407.17948718 , 4136.41025641 , 4137.94871795 , 2050.0 , 2044.0 , 4.545 , 0.0 , 0.0 , 0.0 , 0.0 , 

5.0 , 4133.84615385 , 4134.35897436 , 4135.8974359 , 4137.43589744 , 4134.87179487 , 4127.17948718 , 4134.35897436 , 4137.43589744 , 4137.43589744 , 4138.97435897 , 4083.58974359 , 3409.23076923 , 4136.41025641 , 4135.8974359 , 2048.0 , 2044.0 , 4.545 , 0.0 , 0.0 , 0.0 , 0.0 , 

6.0 , 4134.35897436 , 4136.41025641 , 4135.8974359 , 4134.87179487 , 4133.33333333 , 4130.76923077 , 4133.84615385 , 4134.87179487 , 4138.46153846 , 4142.56410256 , 4083.07692308 , 3409.74358974 , 4138.46153846 , 4137.94871795 , 2047.0 , 2042.0 , 4.561 , 0.0 , 0.0 , 0.0 , 0.0 , 

7.0 , 4133.84615385 , 4132.82051282 , 4135.8974359 , 4133.33333333 , 4133.33333333 , 4132.82051282 , 4135.38461538 , 4134.87179487 , 4136.92307692 , 4144.1025641 , 4083.07692308 , 3404.1025641 , 4137.94871795 , 4135.38461538 , 2047.0 , 2042.0 , 4.561 , 0.0 , 0.0 , 0.0 , 0.0 , 

8.0 , 4134.35897436 , 4131.28205128 , 4140.0 , 4133.33333333 , 4134.87179487 , 4129.23076923 , 4130.25641026 , 4134.87179487 , 4133.33333333 , 4141.02564103 , 4084.1025641 , 3407.69230769 , 4138.97435897 , 4135.8974359 , 2046.0 , 2042.0 , 4.578 , 0.0 , 0.0 , 0.0 , 0.0 , 

9.0 , 4133.84615385 , 4131.79487179 , 4139.48717949 , 4133.33333333 , 4135.38461538 , 4127.69230769 , 4136.92307692 , 4136.92307692 , 4135.8974359 , 4141.53846154 , 4082.56410256 , 3407.17948718 , 4139.48717949 , 4132.82051282 , 2045.0 , 2042.0 , 4.582 , 0.0 , 0.0 , 0.0 , 0.0 , 

10.0 , 4136.41025641 , 4131.79487179 , 4140.0 , 4132.30769231 , 4133.33333333 , 4130.25641026 , 4136.92307692 , 4136.41025641 , 4135.8974359 , 4143.58974359 , 4082.05128205 , 3404.1025641 , 4137.43589744 , 4136.41025641 , 2045.0 , 2043.0 , 4.582 , 0.0 , 0.0 , 0.0 , 0.0 , 

11.0 , 4135.38461538 , 4133.84615385 , 4142.05128205 , 4133.33333333 , 4133.84615385 , 4132.30769231 , 4137.94871795 , 4135.8974359 , 4136.41025641 , 4146.15384615 , 4083.07692308 , 3401.53846154 , 4137.94871795 , 4137.43589744 , 2044.0 , 2044.0 , 4.598 , 0.0 , 0.0 , 0.0 , 0.0 , 

12.0 , 4136.92307692 , 4134.35897436 , 4143.07692308 , 4132.30769231 , 4131.79487179 , 4128.20512821 , 4134.87179487 , 4135.38461538 , 4138.97435897 , 4144.61538462 , 4083.58974359 , 3405.64102564 , 4140.51282051 , 4137.94871795 , 2043.0 , 2043.0 , 4.598 , 0.0 , 0.0 , 0.0 , 0.0 , 

13.0 , 4136.41025641 , 4132.82051282 , 4135.38461538 , 4133.33333333 , 4133.33333333 , 4131.28205128 , 4137.43589744 , 4137.43589744 , 4141.02564103 , 4140.51282051 , 4080.51282051 , 3404.61538462 , 4138.46153846 , 4133.33333333 , 2043.0 , 2044.0 , 4.614 , 0.0 , 0.0 , 0.0 , 0.0 , 

14.0 , 4135.8974359 , 4134.87179487 , 4134.87179487 , 4132.30769231 , 4135.38461538 , 4135.38461538 , 4133.33333333 , 4136.92307692 , 4140.0 , 4140.0 , 4080.51282051 , 3402.05128205 , 4135.8974359 , 4134.87179487 , 2042.0 , 2043.0 , 4.614 , 0.0 , 0.0 , 0.0 , 0.0 , 

15.0 , 4133.84615385 , 4135.38461538 , 4135.8974359 , 4132.82051282 , 4134.87179487 , 4132.82051282 , 4135.8974359 , 4136.92307692 , 4141.02564103 , 4143.07692308 , 4085.12820513 , 3403.07692308 , 4135.8974359 , 4133.33333333 , 2040.0 , 2041.0 , 4.629 , 0.0 , 0.0 , 0.0 , 0.0 , 

16.0 , 4137.94871795 , 4132.30769231 , 4135.38461538 , 4136.41025641 , 4133.33333333 , 4127.17948718 , 4135.38461538 , 4137.43589744 , 4141.02564103 , 4142.05128205 , 4086.15384615 , 3406.15384615 , 4135.38461538 , 4131.79487179 , 2041.0 , 2040.0 , 4.629 , 0.0 , 0.0 , 0.0 , 0.0 , 

17.0 , 4137.43589744 , 4130.25641026 , 4132.30769231 , 4135.8974359 , 4135.38461538 , 4131.79487179 , 4133.33333333 , 4138.46153846 , 4138.46153846 , 4142.56410256 , 4084.1025641 , 3404.1025641 , 4137.94871795 , 4133.33333333 , 2041.0 , 2040.0 , 4.645 , 0.0 , 0.0 , 0.0 , 0.0 , 

18.0 , 4134.35897436 , 4133.33333333 , 4137.94871795 , 4134.87179487 , 4136.41025641 , 4135.38461538 , 4128.20512821 , 4138.97435897 , 4135.8974359 , 4145.12820513 , 4085.12820513 , 3401.53846154 , 4136.92307692 , 4135.8974359 , 2040.0 , 2040.0 , 4.645 , 0.0 , 0.0 , 0.0 , 0.0 , 

19.0 , 4133.33333333 , 4133.33333333 , 4140.0 , 4137.43589744 , 4134.87179487 , 4133.84615385 , 4126.66666667 , 4137.94871795 , 4135.8974359 , 4142.05128205 , 4085.64102564 , 3406.15384615 , 4134.35897436 , 4134.87179487 , 2039.0 , 2040.0 , 4.661 , 0.0 , 0.0 , 0.0 , 0.0 , 

20.0 , 4135.8974359 , 4132.82051282 , 4136.41025641 , 4138.46153846 , 4132.30769231 , 4134.87179487 , 4127.17948718 , 4135.8974359 , 4136.41025641 , 4138.46153846 , 4083.07692308 , 3407.17948718 , 4135.8974359 , 4133.84615385 , 2040.0 , 2041.0 , 4.661 , 0.0 , 0.0 , 0.0 , 0.0 , 

21.0 , 4136.92307692 , 4134.35897436 , 4132.30769231 , 4135.8974359 , 4132.82051282 , 4130.25641026 , 4130.25641026 , 4135.38461538 , 4137.94871795 , 4137.94871795 , 4085.64102564 , 3405.64102564 , 4141.02564103 , 4134.87179487 , 2039.0 , 2042.0 , 4.68 , 0.0 , 0.0 , 0.0 , 0.0 , 

22.0 , 4135.8974359 , 4133.84615385 , 4133.84615385 , 4138.46153846 , 4135.8974359 , 4125.12820513 , 4137.43589744 , 4133.33333333 , 4141.02564103 , 4142.05128205 , 4086.66666667 , 3405.12820513 , 4139.48717949 , 4131.79487179 , 2038.0 , 2045.0 , 4.682 , 0.0 , 0.0 , 0.0 , 0.0 , 

23.0 , 4135.38461538 , 4132.82051282 , 4136.92307692 , 4136.92307692 , 4133.33333333 , 4128.20512821 , 4133.33333333 , 4132.30769231 , 4139.48717949 , 4143.07692308 , 4085.64102564 , 3406.15384615 , 4135.38461538 , 4136.41025641 , 2037.0 , 2046.0 , 4.682 , 0.0 , 0.0 , 0.0 , 0.0 , 

24.0 , 4134.87179487 , 4133.84615385 , 4135.8974359 , 4132.82051282 , 4131.79487179 , 4132.30769231 , 4132.82051282 , 4135.8974359 , 4138.46153846 , 4138.97435897 , 4084.61538462 , 3403.07692308 , 4133.33333333 , 4135.38461538 , 2037.0 , 2048.0 , 4.698 , 0.0 , 0.0 , 0.0 , 0.0 , 

25.0 , 4137.43589744 , 4131.28205128 , 4134.87179487 , 4131.28205128 , 4133.84615385 , 4127.17948718 , 4134.35897436 , 4135.8974359 , 4140.0 , 4138.46153846 , 4086.15384615 , 3404.1025641 , 4135.8974359 , 4134.87179487 , 2036.0 , 2047.0 , 4.698 , 0.0 , 0.0 , 0.0 , 0.0 , 

26.0 , 4135.38461538 , 4131.28205128 , 4134.87179487 , 4133.33333333 , 4134.35897436 , 4127.17948718 , 4138.46153846 , 4135.38461538 , 4142.05128205 , 4144.61538462 , 4086.15384615 , 3406.15384615 , 4138.97435897 , 4134.87179487 , 2035.0 , 2047.0 , 4.714 , 0.0 , 0.0 , 0.0 , 0.0 , 

27.0 , 4134.87179487 , 4133.33333333 , 4138.46153846 , 4131.79487179 , 4131.79487179 , 4130.76923077 , 4133.33333333 , 4137.43589744 , 4135.8974359 , 4145.12820513 , 4085.12820513 , 3409.23076923 , 4136.92307692 , 4140.0 , 2036.0 , 2048.0 , 4.714 , 0.0 , 0.0 , 0.0 , 0.0 , 

28.0 , 4135.38461538 , 4133.84615385 , 4138.46153846 , 4132.82051282 , 4134.35897436 , 4130.76923077 , 4135.8974359 , 4136.41025641 , 4135.8974359 , 4142.56410256 , 4083.07692308 , 3402.56410256 , 4134.87179487 , 4135.8974359 , 2037.0 , 2048.0 , 4.729 , 0.0 , 0.0 , 0.0 , 0.0 , 

29.0 , 4137.94871795 , 4132.82051282 , 4137.43589744 , 4134.35897436 , 4134.35897436 , 4129.23076923 , 4126.66666667 , 4133.33333333 , 4138.46153846 , 4141.02564103 , 4083.58974359 , 3402.56410256 , 4138.46153846 , 4136.92307692 , 2037.0 , 2048.0 , 4.729 , 0.0 , 0.0 , 0.0 , 0.0 , 

30.0 , 4136.41025641 , 4133.84615385 , 4134.87179487 , 4134.35897436 , 4134.35897436 , 4132.30769231 , 4125.12820513 , 4136.92307692 , 4136.92307692 , 4140.0 , 4083.58974359 , 3406.15384615 , 4138.97435897 , 4135.8974359 , 2037.0 , 2050.0 , 4.745 , 0.0 , 0.0 , 0.0 , 0.0 , 

31.0 , 4137.43589744 , 4132.30769231 , 4137.94871795 , 4130.25641026 , 4133.84615385 , 4133.33333333 , 4127.17948718 , 4134.87179487 , 4136.92307692 , 4141.02564103 , 4082.05128205 , 3410.25641026 , 4137.94871795 , 4136.92307692 , 2038.0 , 2049.0 , 4.745 , 0.0 , 0.0 , 0.0 , 0.0 , 

32.0 , 4134.87179487 , 4130.76923077 , 4134.87179487 , 4131.79487179 , 4132.82051282 , 4132.30769231 , 4132.30769231 , 4132.82051282 , 4140.0 , 4141.53846154 , 4081.53846154 , 3408.20512821 , 4136.92307692 , 4134.35897436 , 2038.0 , 2049.0 , 4.761 , 0.0 , 0.0 , 0.0 , 0.0 , 

33.0 , 4134.35897436 , 4132.82051282 , 4134.87179487 , 4133.33333333 , 4130.76923077 , 4131.28205128 , 4127.17948718 , 4133.33333333 , 4136.41025641 , 4138.97435897 , 4084.1025641 , 3407.17948718 , 4134.35897436 , 4135.38461538 , 2036.0 , 2053.0 , 4.761 , 0.0 , 0.0 , 0.0 , 0.0 , 

34.0 , 4132.82051282 , 4133.84615385 , 4133.84615385 , 4132.30769231 , 4131.79487179 , 4132.82051282 , 4129.74358974 , 4135.8974359 , 4135.8974359 , 4142.56410256 , 4083.58974359 , 3404.61538462 , 4133.33333333 , 4134.35897436 , 2035.0 , 2054.0 , 4.782 , 0.0 , 0.0 , 0.0 , 0.0 , 

35.0 , 4134.87179487 , 4132.30769231 , 4136.41025641 , 4134.35897436 , 4132.30769231 , 4131.28205128 , 4131.28205128 , 4136.92307692 , 4138.46153846 , 4145.64102564 , 4084.61538462 , 3405.64102564 , 4136.92307692 , 4136.41025641 , 2036.0 , 2054.0 , 4.782 , 0.0 , 0.0 , 0.0 , 0.0 , 

36.0 , 4136.41025641 , 4131.79487179 , 4135.8974359 , 4135.8974359 , 4132.30769231 , 4130.25641026 , 4133.84615385 , 4138.46153846 , 4137.43589744 , 4143.07692308 , 4088.20512821 , 3407.69230769 , 4137.43589744 , 4138.46153846 , 2035.0 , 2054.0 , 4.798 , 0.0 , 0.0 , 0.0 , 0.0 , 

37.0 , 4137.43589744 , 4132.82051282 , 4136.92307692 , 4134.87179487 , 4131.79487179 , 4131.79487179 , 4135.8974359 , 4136.41025641 , 4135.8974359 , 4143.58974359 , 4087.17948718 , 3405.12820513 , 4134.87179487 , 4136.41025641 , 2035.0 , 2054.0 , 4.798 , 0.0 , 0.0 , 0.0 , 0.0 , 

38.0 , 4134.87179487 , 4130.76923077 , 4135.8974359 , 4135.8974359 , 4133.33333333 , 4132.30769231 , 4134.35897436 , 4134.87179487 , 4138.46153846 , 4146.66666667 , 4086.15384615 , 3404.61538462 , 4136.41025641 , 4135.38461538 , 2033.0 , 2050.0 , 4.814 , 0.0 , 0.0 , 0.0 , 0.0 , 

39.0 , 4134.87179487 , 4133.84615385 , 4137.43589744 , 4139.48717949 , 4133.33333333 , 4134.87179487 , 4130.76923077 , 4134.35897436 , 4138.46153846 , 4145.12820513 , 4085.64102564 , 3405.12820513 , 4137.94871795 , 4136.92307692 , 2032.0 , 2050.0 , 4.814 , 0.0 , 0.0 , 0.0 , 0.0 , 

40.0 , 4135.8974359 , 4138.46153846 , 4137.43589744 , 4137.43589744 , 4131.79487179 , 4135.38461538 , 4127.69230769 , 4134.35897436 , 4134.87179487 , 4139.48717949 , 4083.58974359 , 3406.15384615 , 4137.43589744 , 4140.0 , 2033.0 , 2050.0 , 4.83 , 0.0 , 0.0 , 0.0 , 0.0 , 

41.0 , 4137.43589744 , 4136.92307692 , 4134.87179487 , 4136.92307692 , 4132.82051282 , 4135.8974359 , 4129.74358974 , 4135.38461538 , 4136.41025641 , 4136.92307692 , 4081.53846154 , 3404.61538462 , 4134.35897436 , 4134.35897436 , 2033.0 , 2049.0 , 4.83 , 0.0 , 0.0 , 0.0 , 0.0 , 

42.0 , 4140.0 , 4134.35897436 , 4135.38461538 , 4136.92307692 , 4132.82051282 , 4135.38461538 , 4124.1025641 , 4132.82051282 , 4138.46153846 , 4138.97435897 , 4086.15384615 , 3408.20512821 , 4133.84615385 , 4136.41025641 , 2033.0 , 2049.0 , 4.845 , 0.0 , 0.0 , 0.0 , 0.0 , 

43.0 , 4139.48717949 , 4136.41025641 , 4136.92307692 , 4134.87179487 , 4132.30769231 , 4135.38461538 , 4125.64102564 , 4133.84615385 , 4138.97435897 , 4143.07692308 , 4087.69230769 , 3407.69230769 , 4135.38461538 , 4138.97435897 , 2032.0 , 2051.0 , 4.845 , 0.0 , 0.0 , 0.0 , 0.0 , 

44.0 , 4138.46153846 , 4133.84615385 , 4137.43589744 , 4133.33333333 , 4131.28205128 , 4132.30769231 , 4127.69230769 , 4136.92307692 , 4135.8974359 , 4141.02564103 , 4083.58974359 , 3408.71794872 , 4135.38461538 , 4138.46153846 , 2033.0 , 2051.0 , 4.861 , 0.0 , 0.0 , 0.0 , 0.0 , 

45.0 , 4138.46153846 , 4130.76923077 , 4134.35897436 , 4134.35897436 , 4132.82051282 , 4134.35897436 , 4134.35897436 , 4137.43589744 , 4139.48717949 , 4140.0 , 4081.53846154 , 3407.17948718 , 4135.38461538 , 4132.82051282 , 2032.0 , 2047.0 , 4.861 , 0.0 , 0.0 , 0.0 , 0.0 , 

46.0 , 4138.97435897 , 4133.33333333 , 4135.8974359 , 4133.33333333 , 4132.82051282 , 4138.46153846 , 4131.28205128 , 4133.84615385 , 4140.0 , 4141.02564103 , 4087.69230769 , 3407.17948718 , 4136.41025641 , 4134.87179487 , 2032.0 , 2046.0 , 4.878 , 0.0 , 0.0 , 0.0 , 0.0 , 

47.0 , 4135.8974359 , 4135.8974359 , 4135.8974359 , 4135.38461538 , 4132.82051282 , 4137.43589744 , 4134.87179487 , 4133.84615385 , 4134.87179487 , 4141.02564103 , 4090.25641026 , 3403.58974359 , 4134.87179487 , 4134.35897436 , 2033.0 , 2044.0 , 4.882 , 0.0 , 0.0 , 0.0 , 0.0 , 

48.0 , 4135.8974359 , 4134.35897436 , 4136.92307692 , 4134.87179487 , 4131.28205128 , 4133.84615385 , 4133.33333333 , 4132.82051282 , 4132.82051282 , 4139.48717949 , 4087.69230769 , 3406.15384615 , 4132.30769231 , 4137.94871795 , 2034.0 , 2042.0 , 4.882 , 0.0 , 0.0 , 0.0 , 0.0 , 

49.0 , 4133.84615385 , 4133.33333333 , 4136.41025641 , 4133.84615385 , 4132.82051282 , 4135.38461538 , 4134.87179487 , 4133.33333333 , 4136.92307692 , 4139.48717949 , 4087.17948718 , 3408.71794872 , 4136.92307692 , 4136.92307692 , 2036.0 , 2040.0 , 4.898 , 0.0 , 0.0 , 0.0 , 0.0 , 

50.0 , 4135.8974359 , 4132.30769231 , 4138.97435897 , 4133.84615385 , 4132.82051282 , 4138.46153846 , 4128.71794872 , 4134.35897436 , 4136.41025641 , 4141.02564103 , 4087.69230769 , 3409.74358974 , 4139.48717949 , 4138.97435897 , 2036.0 , 2039.0 , 4.898 , 0.0 , 0.0 , 0.0 , 0.0 , 

51.0 , 4135.38461538 , 4131.79487179 , 4137.43589744 , 4133.84615385 , 4133.33333333 , 4139.48717949 , 4127.69230769 , 4136.41025641 , 4136.92307692 , 4142.56410256 , 4086.15384615 , 3406.15384615 , 4136.41025641 , 4138.97435897 , 2037.0 , 2038.0 , 4.913 , 0.0 , 0.0 , 0.0 , 0.0 , 

52.0 , 4132.82051282 , 4134.35897436 , 4140.51282051 , 4134.87179487 , 4134.87179487 , 4133.84615385 , 4123.07692308 , 4136.41025641 , 4139.48717949 , 4141.53846154 , 4084.61538462 , 3406.66666667 , 4135.8974359 , 4138.46153846 , 2037.0 , 2040.0 , 4.913 , 0.0 , 0.0 , 0.0 , 0.0 , 

53.0 , 4132.82051282 , 4135.38461538 , 4140.51282051 , 4137.43589744 , 4133.33333333 , 4132.30769231 , 4125.64102564 , 4135.8974359 , 4140.51282051 , 4141.53846154 , 4085.64102564 , 3407.17948718 , 4137.43589744 , 4135.8974359 , 2038.0 , 2042.0 , 4.929 , 0.0 , 0.0 , 0.0 , 0.0 , 

54.0 , 4137.43589744 , 4130.76923077 , 4138.97435897 , 4135.38461538 , 4130.76923077 , 4133.33333333 , 4130.25641026 , 4135.8974359 , 4139.48717949 , 4143.58974359 , 4085.12820513 , 3405.12820513 , 4136.92307692 , 4135.8974359 , 2038.0 , 2041.0 , 4.929 , 0.0 , 0.0 , 0.0 , 0.0 , 

55.0 , 4136.41025641 , 4129.23076923 , 4136.41025641 , 4133.84615385 , 4131.28205128 , 4131.79487179 , 4134.35897436 , 4137.43589744 , 4138.46153846 , 4143.58974359 , 4086.66666667 , 3405.12820513 , 4136.92307692 , 4134.87179487 , 2037.0 , 2042.0 , 4.945 , 0.0 , 0.0 , 0.0 , 0.0 , 

56.0 , 4134.87179487 , 4131.79487179 , 4135.8974359 , 4139.48717949 , 4133.84615385 , 4131.28205128 , 4134.35897436 , 4136.92307692 , 4137.43589744 , 4142.05128205 , 4087.69230769 , 3405.12820513 , 4136.41025641 , 4135.38461538 , 2038.0 , 2044.0 , 4.945 , 0.0 , 0.0 , 0.0 , 0.0 , 

57.0 , 4134.87179487 , 4131.28205128 , 4133.33333333 , 4139.48717949 , 4133.84615385 , 4133.33333333 , 4134.35897436 , 4136.92307692 , 4136.92307692 , 4142.56410256 , 4086.66666667 , 3405.12820513 , 4135.8974359 , 4135.8974359 , 2037.0 , 2043.0 , 4.96 , 0.0 , 0.0 , 0.0 , 0.0 , 

58.0 , 4135.38461538 , 4131.79487179 , 4136.92307692 , 4135.38461538 , 4133.33333333 , 4132.30769231 , 4135.8974359 , 4134.87179487 , 4136.41025641 , 4141.53846154 , 4084.1025641 , 3405.12820513 , 4136.41025641 , 4134.87179487 , 2037.0 , 2042.0 , 4.96 , 0.0 , 0.0 , 0.0 , 0.0 , 

59.0 , 4136.92307692 , 4132.30769231 , 4140.0 , 4134.35897436 , 4132.82051282 , 4130.25641026 , 4133.33333333 , 4132.82051282 , 4135.8974359 , 4141.53846154 , 4083.58974359 , 3409.74358974 , 4137.43589744 , 4140.0 , 2035.0 , 2042.0 , 4.981 , 0.0 , 0.0 , 0.0 , 0.0 , 

60.0 , 4137.43589744 , 4131.28205128 , 4135.8974359 , 4133.84615385 , 4133.84615385 , 4132.30769231 , 4134.35897436 , 4133.33333333 , 4138.46153846 , 4143.58974359 , 4084.61538462 , 3408.20512821 , 4135.8974359 , 4137.94871795 , 2034.0 , 2042.0 , 4.982 , 0.0 , 0.0 , 0.0 , 0.0 , 

61.0 , 4136.41025641 , 4131.79487179 , 4134.87179487 , 4131.28205128 , 4133.84615385 , 4131.79487179 , 4129.74358974 , 4133.84615385 , 4138.97435897 , 4143.07692308 , 4086.15384615 , 3407.17948718 , 4135.8974359 , 4134.35897436 , 2036.0 , 2042.0 , 4.982 , 0.0 , 0.0 , 0.0 , 0.0 , 

62.0 , 4133.33333333 , 4134.87179487 , 4135.38461538 , 4134.87179487 , 4134.87179487 , 4132.82051282 , 4130.76923077 , 4134.35897436 , 4139.48717949 , 4143.07692308 , 4085.64102564 , 3406.15384615 , 4135.38461538 , 4131.79487179 , 2035.0 , 2042.0 , 4.998 , 0.0 , 0.0 , 0.0 , 0.0 , 

63.0 , 4133.33333333 , 4133.33333333 , 4135.38461538 , 4135.8974359 , 4133.33333333 , 4135.38461538 , 4130.76923077 , 4133.33333333 , 4135.8974359 , 4143.07692308 , 4084.61538462 , 3408.71794872 , 4134.87179487 , 4136.92307692 , 2036.0 , 2040.0 , 4.998 , 0.0 , 0.0 , 0.0 , 0.0 , 

64.0 , 4131.79487179 , 4131.28205128 , 4132.30769231 , 4136.41025641 , 4130.25641026 , 4134.35897436 , 4134.87179487 , 4135.8974359 , 4137.94871795 , 4142.05128205 , 4082.56410256 , 3405.12820513 , 4136.41025641 , 4132.82051282 , 2036.0 , 2040.0 , 5.014 , 0.0 , 0.0 , 0.0 , 0.0 , 

65.0 , 4133.33333333 , 4134.35897436 , 4134.87179487 , 4139.48717949 , 4129.74358974 , 4130.76923077 , 4132.82051282 , 4137.94871795 , 4140.0 , 4141.53846154 , 4082.56410256 , 3403.58974359 , 4138.97435897 , 4132.82051282 , 2037.0 , 2041.0 , 5.014 , 0.0 , 0.0 , 0.0 , 0.0 , 

66.0 , 4134.35897436 , 4134.87179487 , 4136.92307692 , 4141.02564103 , 4134.35897436 , 4132.82051282 , 4134.35897436 , 4136.92307692 , 4138.97435897 , 4140.0 , 4083.58974359 , 3403.07692308 , 4137.43589744 , 4131.79487179 , 2037.0 , 2042.0 , 5.029 , 0.0 , 0.0 , 0.0 , 0.0 , 

67.0 , 4136.41025641 , 4131.79487179 , 4140.0 , 4134.87179487 , 4132.82051282 , 4131.79487179 , 4128.71794872 , 4132.30769231 , 4136.41025641 , 4137.43589744 , 4084.61538462 , 3405.12820513 , 4133.33333333 , 4133.33333333 , 2038.0 , 2043.0 , 5.029 , 0.0 , 0.0 , 0.0 , 0.0 , 

68.0 , 4135.38461538 , 4131.79487179 , 4136.41025641 , 4132.82051282 , 4131.79487179 , 4129.74358974 , 4134.35897436 , 4135.38461538 , 4140.0 , 4142.05128205 , 4084.1025641 , 3401.53846154 , 4134.87179487 , 4133.33333333 , 2038.0 , 2043.0 , 5.045 , 0.0 , 0.0 , 0.0 , 0.0 , 

69.0 , 4137.43589744 , 4134.87179487 , 4138.46153846 , 4133.84615385 , 4132.30769231 , 4128.71794872 , 4134.87179487 , 4137.43589744 , 4140.51282051 , 4145.64102564 , 4085.64102564 , 3402.05128205 , 4138.46153846 , 4137.43589744 , 2039.0 , 2043.0 , 5.045 , 0.0 , 0.0 , 0.0 , 0.0 , 

70.0 , 4137.43589744 , 4134.35897436 , 4139.48717949 , 4134.35897436 , 4133.84615385 , 4131.79487179 , 4134.87179487 , 4136.41025641 , 4138.46153846 , 4143.07692308 , 4085.12820513 , 3404.61538462 , 4137.94871795 , 4135.8974359 , 2040.0 , 2040.0 , 5.061 , 0.0 , 0.0 , 0.0 , 0.0 , 

71.0 , 4137.94871795 , 4132.30769231 , 4136.92307692 , 4135.8974359 , 4133.84615385 , 4130.25641026 , 4133.84615385 , 4137.94871795 , 4137.94871795 , 4140.51282051 , 4083.07692308 , 3403.07692308 , 4135.8974359 , 4134.35897436 , 2041.0 , 2037.0 , 5.061 , 0.0 , 0.0 , 0.0 , 0.0 , 

72.0 , 4132.30769231 , 4132.30769231 , 4131.28205128 , 4137.43589744 , 4134.35897436 , 4127.69230769 , 4136.92307692 , 4138.97435897 , 4140.0 , 4142.56410256 , 4085.12820513 , 3403.07692308 , 4136.92307692 , 4132.82051282 , 2043.0 , 2035.0 , 5.082 , 0.0 , 0.0 , 0.0 , 0.0 , 

73.0 , 4131.79487179 , 4134.35897436 , 4134.35897436 , 4136.92307692 , 4134.87179487 , 4133.33333333 , 4129.23076923 , 4136.41025641 , 4141.02564103 , 4145.12820513 , 4089.23076923 , 3406.66666667 , 4138.97435897 , 4133.33333333 , 2045.0 , 2035.0 , 5.083 , 0.0 , 0.0 , 0.0 , 0.0 , 

74.0 , 4136.41025641 , 4133.84615385 , 4136.41025641 , 4135.38461538 , 4134.35897436 , 4138.97435897 , 4123.58974359 , 4135.38461538 , 4138.97435897 , 4141.53846154 , 4087.69230769 , 3406.66666667 , 4138.46153846 , 4134.35897436 , 2044.0 , 2035.0 , 5.098 , 0.0 , 0.0 , 0.0 , 0.0 , 

75.0 , 4138.97435897 , 4133.33333333 , 4136.41025641 , 4135.8974359 , 4134.87179487 , 4135.38461538 , 4125.64102564 , 4135.8974359 , 4136.92307692 , 4138.46153846 , 4082.56410256 , 3404.61538462 , 4134.35897436 , 4133.33333333 , 2047.0 , 2034.0 , 5.098 , 0.0 , 0.0 , 0.0 , 0.0 , 

76.0 , 4137.43589744 , 4134.87179487 , 4138.46153846 , 4135.38461538 , 4134.87179487 , 4130.25641026 , 4128.20512821 , 4136.92307692 , 4140.0 , 4142.56410256 , 4081.53846154 , 3406.15384615 , 4134.87179487 , 4134.87179487 , 2047.0 , 2035.0 , 5.114 , 0.0 , 0.0 , 0.0 , 0.0 , 

77.0 , 4134.35897436 , 4137.43589744 , 4138.97435897 , 4135.8974359 , 4134.87179487 , 4131.79487179 , 4135.8974359 , 4136.41025641 , 4143.07692308 , 4144.61538462 , 4083.07692308 , 3403.58974359 , 4138.46153846 , 4134.87179487 , 2047.0 , 2037.0 , 5.114 , 0.0 , 0.0 , 0.0 , 0.0 , 

78.0 , 4132.30769231 , 4136.92307692 , 4137.43589744 , 4136.41025641 , 4133.84615385 , 4131.28205128 , 4137.43589744 , 4135.38461538 , 4138.46153846 , 4141.53846154 , 4084.61538462 , 3404.1025641 , 4137.94871795 , 4138.46153846 , 2047.0 , 2038.0 , 5.13 , 0.0 , 0.0 , 0.0 , 0.0 , 

79.0 , 4132.82051282 , 4135.8974359 , 4136.92307692 , 4135.8974359 , 4134.87179487 , 4128.71794872 , 4138.46153846 , 4136.41025641 , 4137.43589744 , 4145.64102564 , 4083.58974359 , 3404.1025641 , 4136.41025641 , 4135.38461538 , 2048.0 , 2039.0 , 5.13 , 0.0 , 0.0 , 0.0 , 0.0 , 

80.0 , 4135.38461538 , 4133.84615385 , 4134.35897436 , 4131.28205128 , 4134.35897436 , 4130.25641026 , 4135.38461538 , 4137.43589744 , 4139.48717949 , 4147.69230769 , 4082.56410256 , 3405.12820513 , 4136.92307692 , 4134.35897436 , 2047.0 , 2041.0 , 5.145 , 0.0 , 0.0 , 0.0 , 0.0 , 

81.0 , 4133.84615385 , 4134.87179487 , 4129.23076923 , 4133.33333333 , 4132.30769231 , 4133.33333333 , 4138.46153846 , 4136.92307692 , 4141.02564103 , 4141.53846154 , 4082.05128205 , 3403.58974359 , 4135.38461538 , 4131.79487179 , 2048.0 , 2041.0 , 5.145 , 0.0 , 0.0 , 0.0 , 0.0 , 

82.0 , 4135.38461538 , 4135.8974359 , 4131.28205128 , 4136.92307692 , 4130.25641026 , 4130.76923077 , 4134.35897436 , 4136.41025641 , 4138.46153846 , 4141.02564103 , 4083.58974359 , 3409.23076923 , 4136.92307692 , 4135.38461538 , 2046.0 , 2040.0 , 5.161 , 0.0 , 0.0 , 0.0 , 0.0 , 

83.0 , 4136.92307692 , 4133.84615385 , 4132.30769231 , 4136.92307692 , 4133.84615385 , 4129.74358974 , 4138.97435897 , 4138.97435897 , 4138.97435897 , 4147.17948718 , 4085.12820513 , 3408.20512821 , 4140.51282051 , 4135.38461538 , 2048.0 , 2039.0 , 5.161 , 0.0 , 0.0 , 0.0 , 0.0 , 

84.0 , 4137.43589744 , 4131.28205128 , 4134.35897436 , 4136.41025641 , 4133.84615385 , 4130.76923077 , 4136.41025641 , 4136.92307692 , 4138.97435897 , 4145.12820513 , 4084.1025641 , 3406.66666667 , 4138.97435897 , 4136.41025641 , 2048.0 , 2037.0 , 5.178 , 0.0 , 0.0 , 0.0 , 0.0 , 

85.0 , 4136.41025641 , 4131.79487179 , 4134.35897436 , 4137.94871795 , 4134.35897436 , 4132.82051282 , 4134.87179487 , 4135.8974359 , 4140.51282051 , 4143.58974359 , 4082.05128205 , 3404.1025641 , 4133.84615385 , 4133.33333333 , 2046.0 , 2037.0 , 5.183 , 0.0 , 0.0 , 0.0 , 0.0 , 

86.0 , 4138.46153846 , 4132.82051282 , 4136.41025641 , 4133.33333333 , 4134.35897436 , 4132.82051282 , 4130.25641026 , 4137.43589744 , 4138.97435897 , 4147.17948718 , 4082.56410256 , 3406.15384615 , 4133.84615385 , 4135.8974359 , 2046.0 , 2036.0 , 5.183 , 0.0 , 0.0 , 0.0 , 0.0 , 

87.0 , 4133.33333333 , 4133.84615385 , 4137.43589744 , 4133.33333333 , 4135.38461538 , 4133.33333333 , 4136.41025641 , 4138.46153846 , 4140.0 , 4146.15384615 , 4081.53846154 , 3405.12820513 , 4138.46153846 , 4135.38461538 , 2047.0 , 2034.0 , 5.199 , 0.0 , 0.0 , 0.0 , 0.0 , 

88.0 , 4131.79487179 , 4133.33333333 , 4141.53846154 , 4135.8974359 , 4134.35897436 , 4129.74358974 , 4136.41025641 , 4134.87179487 , 4140.0 , 4142.05128205 , 4081.53846154 , 3405.12820513 , 4138.97435897 , 4133.84615385 , 2048.0 , 2033.0 , 5.199 , 0.0 , 0.0 , 0.0 , 0.0 , 

89.0 , 4132.82051282 , 4131.28205128 , 4137.43589744 , 4135.38461538 , 4132.30769231 , 4127.69230769 , 4136.41025641 , 4135.8974359 , 4136.41025641 , 4143.58974359 , 4084.1025641 , 3404.61538462 , 4136.92307692 , 4132.30769231 , 2045.0 , 2033.0 , 5.214 , 0.0 , 0.0 , 0.0 , 0.0 , 

90.0 , 4135.38461538 , 4134.87179487 , 4136.41025641 , 4135.38461538 , 4135.38461538 , 4130.25641026 , 4135.38461538 , 4137.94871795 , 4133.84615385 , 4145.12820513 , 4084.61538462 , 3406.15384615 , 4137.43589744 , 4136.92307692 , 2045.0 , 2033.0 , 5.214 , 0.0 , 0.0 , 0.0 , 0.0 , 

91.0 , 4133.33333333 , 4138.97435897 , 4136.41025641 , 4135.38461538 , 4138.46153846 , 4133.84615385 , 4136.92307692 , 4137.94871795 , 4137.43589744 , 4143.07692308 , 4083.07692308 , 3408.71794872 , 4138.97435897 , 4136.41025641 , 2045.0 , 2034.0 , 5.23 , 0.0 , 0.0 , 0.0 , 0.0 , 

92.0 , 4134.87179487 , 4136.41025641 , 4136.41025641 , 4133.33333333 , 4135.8974359 , 4134.87179487 , 4135.8974359 , 4137.43589744 , 4139.48717949 , 4141.53846154 , 4082.56410256 , 3407.69230769 , 4137.43589744 , 4132.30769231 , 2043.0 , 2035.0 , 5.23 , 0.0 , 0.0 , 0.0 , 0.0 , 

93.0 , 4136.41025641 , 4132.30769231 , 4136.41025641 , 4134.35897436 , 4134.35897436 , 4132.82051282 , 4136.41025641 , 4139.48717949 , 4139.48717949 , 4141.53846154 , 4085.64102564 , 3407.17948718 , 4136.41025641 , 4135.38461538 , 2042.0 , 2035.0 , 5.245 , 0.0 , 0.0 , 0.0 , 0.0 , 

94.0 , 4135.8974359 , 4134.35897436 , 4137.94871795 , 4136.92307692 , 4135.8974359 , 4130.25641026 , 4136.41025641 , 4140.0 , 4140.0 , 4143.58974359 , 4084.61538462 , 3407.69230769 , 4136.41025641 , 4137.43589744 , 2041.0 , 2035.0 , 5.245 , 0.0 , 0.0 , 0.0 , 0.0 , 

95.0 , 4135.8974359 , 4134.87179487 , 4135.38461538 , 4132.82051282 , 4132.30769231 , 4129.23076923 , 4135.38461538 , 4137.94871795 , 4140.0 , 4144.1025641 , 4082.56410256 , 3408.20512821 , 4138.46153846 , 4134.87179487 , 2041.0 , 2037.0 , 5.261 , 0.0 , 0.0 , 0.0 , 0.0 , 

96.0 , 4134.87179487 , 4133.84615385 , 4136.92307692 , 4133.84615385 , 4132.82051282 , 4132.82051282 , 4136.92307692 , 4135.8974359 , 4141.02564103 , 4142.56410256 , 4081.53846154 , 3404.1025641 , 4138.97435897 , 4132.30769231 , 2041.0 , 2036.0 , 5.261 , 0.0 , 0.0 , 0.0 , 0.0 , 

97.0 , 4134.35897436 , 4132.82051282 , 4139.48717949 , 4137.43589744 , 4136.92307692 , 4133.84615385 , 4132.82051282 , 4136.92307692 , 4138.46153846 , 4142.05128205 , 4083.07692308 , 3405.12820513 , 4138.46153846 , 4134.87179487 , 2040.0 , 2037.0 , 5.28 , 0.0 , 0.0 , 0.0 , 0.0 , 

98.0 , 4134.87179487 , 4135.38461538 , 4134.87179487 , 4137.43589744 , 4133.84615385 , 4133.84615385 , 4135.38461538 , 4137.94871795 , 4136.41025641 , 4143.58974359 , 4085.64102564 , 3404.1025641 , 4136.41025641 , 4132.82051282 , 2038.0 , 2035.0 , 5.283 , 0.0 , 0.0 , 0.0 , 0.0 , 

99.0 , 4135.38461538 , 4137.94871795 , 4132.30769231 , 4134.35897436 , 4129.74358974 , 4134.87179487 , 4135.38461538 , 4133.84615385 , 4137.43589744 , 4142.56410256 , 4087.17948718 , 3405.64102564 , 4135.38461538 , 4136.92307692 , 2037.0 , 2035.0 , 5.283 , 0.0 , 0.0 , 0.0 , 0.0 , 

100.0 , 4131.79487179 , 4136.41025641 , 4133.33333333 , 4134.87179487 , 4134.87179487 , 4134.87179487 , 4137.43589744 , 4135.8974359 , 4141.02564103 , 4141.53846154 , 4084.1025641 , 3403.58974359 , 4134.87179487 , 4136.41025641 , 2034.0 , 2036.0 , 5.298 , 0.0 , 0.0 , 0.0 , 0.0 , 

101.0 , 4132.82051282 , 4132.82051282 , 4135.38461538 , 4133.84615385 , 4136.92307692 , 4131.79487179 , 4129.23076923 , 4139.48717949 , 4138.46153846 , 4142.05128205 , 4083.07692308 , 3404.61538462 , 4136.92307692 , 4136.41025641 , 2035.0 , 2038.0 , 5.298 , 0.0 , 0.0 , 0.0 , 0.0 , 

102.0 , 4134.35897436 , 4133.33333333 , 4133.33333333 , 4134.35897436 , 4134.35897436 , 4131.79487179 , 4134.35897436 , 4138.46153846 , 4139.48717949 , 4145.12820513 , 4085.64102564 , 3404.61538462 , 4136.92307692 , 4133.33333333 , 2034.0 , 2038.0 , 5.314 , 0.0 , 0.0 , 0.0 , 0.0 , 

103.0 , 4137.43589744 , 4130.76923077 , 4136.92307692 , 4131.28205128 , 4129.23076923 , 4131.79487179 , 4136.41025641 , 4134.87179487 , 4140.0 , 4145.64102564 , 4087.17948718 , 3409.23076923 , 4136.92307692 , 4138.46153846 , 2033.0 , 2040.0 , 5.314 , 0.0 , 0.0 , 0.0 , 0.0 , 

104.0 , 4136.92307692 , 4127.69230769 , 4137.43589744 , 4131.28205128 , 4132.30769231 , 4132.82051282 , 4139.48717949 , 4135.38461538 , 4136.92307692 , 4143.58974359 , 4084.1025641 , 3407.69230769 , 4140.0 , 4138.46153846 , 2032.0 , 2041.0 , 5.329 , 0.0 , 0.0 , 0.0 , 0.0 , 

105.0 , 4136.41025641 , 4130.25641026 , 4137.94871795 , 4135.38461538 , 4138.97435897 , 4133.84615385 , 4136.41025641 , 4134.35897436 , 4133.33333333 , 4142.05128205 , 4082.56410256 , 3408.20512821 , 4140.0 , 4138.97435897 , 2031.0 , 2041.0 , 5.329 , 0.0 , 0.0 , 0.0 , 0.0 , 

106.0 , 4133.33333333 , 4133.84615385 , 4135.38461538 , 4137.43589744 , 4138.46153846 , 4134.35897436 , 4139.48717949 , 4135.38461538 , 4136.92307692 , 4143.58974359 , 4082.05128205 , 3406.15384615 , 4137.43589744 , 4136.41025641 , 2031.0 , 2042.0 , 5.345 , 0.0 , 0.0 , 0.0 , 0.0 , 

107.0 , 4135.38461538 , 4134.35897436 , 4136.92307692 , 4134.35897436 , 4131.79487179 , 4132.30769231 , 4136.41025641 , 4137.94871795 , 4138.46153846 , 4143.07692308 , 4084.1025641 , 3403.07692308 , 4136.92307692 , 4136.92307692 , 2032.0 , 2040.0 , 5.345 , 0.0 , 0.0 , 0.0 , 0.0 , 

108.0 , 4137.43589744 , 4134.87179487 , 4134.87179487 , 4133.33333333 , 4133.84615385 , 4134.35897436 , 4135.8974359 , 4136.41025641 , 4135.8974359 , 4142.05128205 , 4085.12820513 , 3402.56410256 , 4137.43589744 , 4136.41025641 , 2032.0 , 2039.0 , 5.361 , 0.0 , 0.0 , 0.0 , 0.0 , 

109.0 , 4138.46153846 , 4134.87179487 , 4137.43589744 , 4133.84615385 , 4137.94871795 , 4134.35897436 , 4132.82051282 , 4132.30769231 , 4135.8974359 , 4143.07692308 , 4083.07692308 , 3404.61538462 , 4134.35897436 , 4135.8974359 , 2030.0 , 2040.0 , 5.361 , 0.0 , 0.0 , 0.0 , 0.0 , 

110.0 , 4136.41025641 , 4133.33333333 , 4137.94871795 , 4133.84615385 , 4135.38461538 , 4133.33333333 , 4131.79487179 , 4135.38461538 , 4140.0 , 4143.07692308 , 4083.07692308 , 3404.61538462 , 4132.82051282 , 4135.8974359 , 2031.0 , 2039.0 , 5.382 , 0.0 , 0.0 , 0.0 , 0.0 , 

111.0 , 4135.38461538 , 4135.38461538 , 4134.87179487 , 4135.8974359 , 4131.79487179 , 4134.35897436 , 4131.79487179 , 4138.46153846 , 4141.53846154 , 4141.02564103 , 4084.1025641 , 3403.07692308 , 4134.35897436 , 4135.38461538 , 2031.0 , 2038.0 , 5.383 , 0.0 , 0.0 , 0.0 , 0.0 , 

112.0 , 4135.38461538 , 4134.87179487 , 4132.82051282 , 4136.92307692 , 4132.82051282 , 4134.87179487 , 4131.28205128 , 4134.35897436 , 4138.97435897 , 4140.0 , 4084.1025641 , 3404.61538462 , 4136.92307692 , 4132.82051282 , 2033.0 , 2040.0 , 5.398 , 0.0 , 0.0 , 0.0 , 0.0 , 

113.0 , 4134.87179487 , 4133.33333333 , 4136.41025641 , 4136.92307692 , 4134.87179487 , 4134.35897436 , 4132.30769231 , 4132.82051282 , 4137.43589744 , 4141.02564103 , 4082.05128205 , 3405.12820513 , 4135.38461538 , 4130.76923077 , 2033.0 , 2042.0 , 5.398 , 0.0 , 0.0 , 0.0 , 0.0 , 

114.0 , 4133.84615385 , 4133.84615385 , 4137.43589744 , 4134.35897436 , 4133.33333333 , 4133.84615385 , 4134.35897436 , 4135.38461538 , 4137.43589744 , 4140.51282051 , 4083.58974359 , 3407.69230769 , 4134.35897436 , 4137.43589744 , 2034.0 , 2041.0 , 5.414 , 0.0 , 0.0 , 0.0 , 0.0 , 

115.0 , 4134.87179487 , 4134.35897436 , 4135.8974359 , 4134.35897436 , 4132.30769231 , 4133.84615385 , 4140.0 , 4135.38461538 , 4138.97435897 , 4140.51282051 , 4085.12820513 , 3404.61538462 , 4134.35897436 , 4138.97435897 , 2034.0 , 2040.0 , 5.414 , 0.0 , 0.0 , 0.0 , 0.0 , 

116.0 , 4136.41025641 , 4132.82051282 , 4137.43589744 , 4135.8974359 , 4133.84615385 , 4130.76923077 , 4135.8974359 , 4134.35897436 , 4138.46153846 , 4144.1025641 , 4088.20512821 , 3406.15384615 , 4136.41025641 , 4138.46153846 , 2036.0 , 2039.0 , 5.43 , 0.0 , 0.0 , 0.0 , 0.0 , 

117.0 , 4134.87179487 , 4132.82051282 , 4136.41025641 , 4135.38461538 , 4136.41025641 , 4129.23076923 , 4136.92307692 , 4137.94871795 , 4138.97435897 , 4147.17948718 , 4088.20512821 , 3406.15384615 , 4136.41025641 , 4134.87179487 , 2036.0 , 2039.0 , 5.43 , 0.0 , 0.0 , 0.0 , 0.0 , 

118.0 , 4136.92307692 , 4132.30769231 , 4135.38461538 , 4133.84615385 , 4133.33333333 , 4129.74358974 , 4133.84615385 , 4138.46153846 , 4135.8974359 , 4146.15384615 , 4084.61538462 , 3406.66666667 , 4136.92307692 , 4137.94871795 , 2037.0 , 2040.0 , 5.445 , 0.0 , 0.0 , 0.0 , 0.0 , 

119.0 , 4136.92307692 , 4134.87179487 , 4136.92307692 , 4136.41025641 , 4131.79487179 , 4131.28205128 , 4135.8974359 , 4138.46153846 , 4134.35897436 , 4143.58974359 , 4083.58974359 , 3405.12820513 , 4135.38461538 , 4136.92307692 , 2039.0 , 2039.0 , 5.445 , 0.0 , 0.0 , 0.0 , 0.0 , 

120.0 , 4136.41025641 , 4138.46153846 , 4139.48717949 , 4135.38461538 , 4132.82051282 , 4130.25641026 , 4133.84615385 , 4136.92307692 , 4137.43589744 , 4142.05128205 , 4085.64102564 , 3408.71794872 , 4134.35897436 , 4137.94871795 , 2037.0 , 2040.0 , 5.461 , 0.0 , 0.0 , 0.0 , 0.0 , 

121.0 , 4135.38461538 , 4138.46153846 , 4135.8974359 , 4134.35897436 , 4136.41025641 , 4130.25641026 , 4136.41025641 , 4136.92307692 , 4143.58974359 , 4142.56410256 , 4082.56410256 , 3408.20512821 , 4136.41025641 , 4134.87179487 , 2038.0 , 2043.0 , 5.461 , 0.0 , 0.0 , 0.0 , 0.0 , 

122.0 , 4136.41025641 , 4134.87179487 , 4135.8974359 , 4133.84615385 , 4134.35897436 , 4131.28205128 , 4130.25641026 , 4137.43589744 , 4140.51282051 , 4143.58974359 , 4080.51282051 , 3409.23076923 , 4137.43589744 , 4134.87179487 , 2038.0 , 2043.0 , 5.477 , 0.0 , 0.0 , 0.0 , 0.0 , 

123.0 , 4133.84615385 , 4134.35897436 , 4134.87179487 , 4133.84615385 , 4130.76923077 , 4133.84615385 , 4134.35897436 , 4138.97435897 , 4137.43589744 , 4145.12820513 , 4083.07692308 , 3406.15384615 , 4135.8974359 , 4132.82051282 , 2039.0 , 2042.0 , 5.483 , 0.0 , 0.0 , 0.0 , 0.0 , 

124.0 , 4136.41025641 , 4136.92307692 , 4136.92307692 , 4131.79487179 , 4130.76923077 , 4133.33333333 , 4133.84615385 , 4137.94871795 , 4138.46153846 , 4147.17948718 , 4085.12820513 , 3406.66666667 , 4134.87179487 , 4133.84615385 , 2041.0 , 2043.0 , 5.483 , 0.0 , 0.0 , 0.0 , 0.0 , 

125.0 , 4134.87179487 , 4136.41025641 , 4134.87179487 , 4134.87179487 , 4134.35897436 , 4132.82051282 , 4133.84615385 , 4137.94871795 , 4140.51282051 , 4146.15384615 , 4085.64102564 , 3406.66666667 , 4134.87179487 , 4133.33333333 , 2041.0 , 2043.0 , 5.499 , 0.0 , 0.0 , 0.0 , 0.0 , 

126.0 , 4133.84615385 , 4133.84615385 , 4134.87179487 , 4137.43589744 , 4133.33333333 , 4130.76923077 , 4132.82051282 , 4136.41025641 , 4138.97435897 , 4141.02564103 , 4086.66666667 , 3404.61538462 , 4133.84615385 , 4135.8974359 , 2041.0 , 2042.0 , 5.499 , 0.0 , 0.0 , 0.0 , 0.0 , 

127.0 , 4136.41025641 , 4132.30769231 , 4134.87179487 , 4134.35897436 , 4131.28205128 , 4130.25641026 , 4136.92307692 , 4133.33333333 , 4136.92307692 , 4141.53846154 , 4086.66666667 , 3403.07692308 , 4135.38461538 , 4136.41025641 , 2042.0 , 2043.0 , 5.515 , 0.0 , 0.0 , 0.0 , 0.0 , 

128.0 , 4138.97435897 , 4133.84615385 , 4137.94871795 , 4135.38461538 , 4132.82051282 , 4135.38461538 , 4135.8974359 , 4134.35897436 , 4137.43589744 , 4146.15384615 , 4086.15384615 , 3405.12820513 , 4136.92307692 , 4136.41025641 , 2043.0 , 2041.0 , 5.515 , 0.0 , 0.0 , 0.0 , 0.0 , 

0.0 , 4134.87179487 , 4133.33333333 , 4135.38461538 , 4140.0 , 4134.35897436 , 4137.94871795 , 4133.33333333 , 4138.46153846 , 4138.97435897 , 4143.58974359 , 4088.71794872 , 3407.17948718 , 4136.92307692 , 4136.92307692 , 2044.0 , 2041.0 , 5.53 , 0.0 , 0.0 , 0.0 , 0.0 , 

1.0 , 4134.35897436 , 4132.30769231 , 4134.87179487 , 4137.43589744 , 4134.35897436 , 4132.82051282 , 4132.82051282 , 4136.41025641 , 4138.46153846 , 4142.05128205 , 4089.23076923 , 3407.17948718 , 4134.87179487 , 4136.41025641 , 2044.0 , 2039.0 , 5.53 , 0.0 , 0.0 , 0.0 , 0.0 , 

2.0 , 4135.8974359 , 4133.84615385 , 4136.92307692 , 4131.79487179 , 4135.38461538 , 4130.76923077 , 4133.84615385 , 4132.82051282 , 4137.94871795 , 4141.53846154 , 4086.15384615 , 3409.23076923 , 4134.87179487 , 4137.94871795 , 2044.0 , 2039.0 , 5.546 , 0.0 , 0.0 , 0.0 , 0.0 , 

3.0 , 4134.87179487 , 4135.8974359 , 4134.87179487 , 4136.41025641 , 4134.35897436 , 4134.87179487 , 4137.43589744 , 4133.33333333 , 4140.51282051 , 4140.0 , 4086.15384615 , 3408.20512821 , 4136.92307692 , 4136.41025641 , 2045.0 , 2039.0 , 5.546 , 0.0 , 0.0 , 0.0 , 0.0 , 

4.0 , 4134.87179487 , 4135.8974359 , 4135.38461538 , 4137.94871795 , 4131.28205128 , 4132.82051282 , 4135.38461538 , 4135.38461538 , 4138.97435897 , 4142.05128205 , 4089.74358974 , 3408.20512821 , 4136.41025641 , 4136.41025641 , 2046.0 , 2036.0 , 5.561 , 0.0 , 0.0 , 0.0 , 0.0 , 

5.0 , 4135.38461538 , 4132.82051282 , 4138.97435897 , 4137.43589744 , 4133.33333333 , 4131.28205128 , 4136.92307692 , 4137.43589744 , 4137.43589744 , 4147.17948718 , 4086.15384615 , 3406.66666667 , 4132.30769231 , 4133.33333333 , 2047.0 , 2036.0 , 5.561 , 0.0 , 0.0 , 0.0 , 0.0 , 

6.0 , 4135.38461538 , 4130.76923077 , 4136.92307692 , 4136.41025641 , 4134.35897436 , 4131.28205128 , 4133.84615385 , 4138.97435897 , 4138.46153846 , 4145.12820513 , 4082.05128205 , 3408.20512821 , 4132.82051282 , 4134.35897436 , 2048.0 , 2035.0 , 5.579 , 0.0 , 0.0 , 0.0 , 0.0 , 

7.0 , 4133.84615385 , 4133.84615385 , 4133.33333333 , 4135.38461538 , 4134.87179487 , 4131.28205128 , 4136.41025641 , 4139.48717949 , 4140.51282051 , 4142.56410256 , 4082.05128205 , 3405.64102564 , 4134.35897436 , 4132.30769231 , 2048.0 , 2036.0 , 5.584 , 0.0 , 0.0 , 0.0 , 0.0 , 

8.0 , 4134.87179487 , 4134.35897436 , 4138.46153846 , 4135.38461538 , 4133.84615385 , 4130.25641026 , 4131.28205128 , 4138.46153846 , 4137.94871795 , 4141.02564103 , 4082.56410256 , 3407.17948718 , 4133.33333333 , 4136.41025641 , 2049.0 , 2036.0 , 5.584 , 0.0 , 0.0 , 0.0 , 0.0 , 

9.0 , 4132.82051282 , 4131.79487179 , 4138.97435897 , 4138.46153846 , 4132.30769231 , 4131.79487179 , 4133.84615385 , 4139.48717949 , 4140.0 , 4140.51282051 , 4081.02564103 , 3406.66666667 , 4133.84615385 , 4135.38461538 , 2049.0 , 2038.0 , 5.599 , 0.0 , 0.0 , 0.0 , 0.0 , 

10.0 , 4135.38461538 , 4132.82051282 , 4134.35897436 , 4134.35897436 , 4130.76923077 , 4130.25641026 , 4135.8974359 , 4137.43589744 , 4138.97435897 , 4140.51282051 , 4084.1025641 , 3406.66666667 , 4136.92307692 , 4135.8974359 , 2048.0 , 2037.0 , 5.599 , 0.0 , 0.0 , 0.0 , 0.0 , 

11.0 , 4135.8974359 , 4135.38461538 , 4132.30769231 , 4132.30769231 , 4134.35897436 , 4130.76923077 , 4141.53846154 , 4137.94871795 , 4137.43589744 , 4140.51282051 , 4083.58974359 , 3402.56410256 , 4134.87179487 , 4133.33333333 , 2048.0 , 2038.0 , 5.615 , 0.0 , 0.0 , 0.0 , 0.0 , 

12.0 , 4136.41025641 , 4133.84615385 , 4137.43589744 , 4134.87179487 , 4132.82051282 , 4132.30769231 , 4131.79487179 , 4135.8974359 , 4137.43589744 , 4141.53846154 , 4080.51282051 , 3404.61538462 , 4132.82051282 , 4135.8974359 , 2046.0 , 2038.0 , 5.615 , 0.0 , 0.0 , 0.0 , 0.0 , 

13.0 , 4133.33333333 , 4131.79487179 , 4136.41025641 , 4136.41025641 , 4131.28205128 , 4133.84615385 , 4132.82051282 , 4134.87179487 , 4139.48717949 , 4144.1025641 , 4084.1025641 , 3405.12820513 , 4137.43589744 , 4133.84615385 , 2047.0 , 2038.0 , 5.631 , 0.0 , 0.0 , 0.0 , 0.0 , 

14.0 , 4134.35897436 , 4132.30769231 , 4135.8974359 , 4136.41025641 , 4132.30769231 , 4132.30769231 , 4135.38461538 , 4134.87179487 , 4138.97435897 , 4144.1025641 , 4088.20512821 , 3406.66666667 , 4140.0 , 4134.35897436 , 2046.0 , 2038.0 , 5.631 , 0.0 , 0.0 , 0.0 , 0.0 , 

15.0 , 4134.35897436 , 4132.30769231 , 4133.84615385 , 4137.94871795 , 4135.8974359 , 4133.33333333 , 4135.38461538 , 4137.43589744 , 4140.51282051 , 4145.64102564 , 4084.1025641 , 3407.17948718 , 4137.94871795 , 4133.84615385 , 2045.0 , 2038.0 , 5.646 , 0.0 , 0.0 , 0.0 , 0.0 , 

16.0 , 4134.35897436 , 4133.33333333 , 4136.41025641 , 4136.41025641 , 4136.41025641 , 4132.82051282 , 4130.76923077 , 4136.92307692 , 4141.02564103 , 4147.17948718 , 4079.48717949 , 3409.23076923 , 4135.38461538 , 4134.87179487 , 2045.0 , 2040.0 , 5.646 , 0.0 , 0.0 , 0.0 , 0.0 , 

17.0 , 4131.79487179 , 4132.30769231 , 4134.87179487 , 4134.87179487 , 4133.33333333 , 4130.76923077 , 4134.87179487 , 4134.87179487 , 4140.0 , 4145.12820513 , 4084.1025641 , 3407.17948718 , 4135.38461538 , 4135.8974359 , 2044.0 , 2041.0 , 5.662 , 0.0 , 0.0 , 0.0 , 0.0 , 

18.0 , 4134.87179487 , 4134.35897436 , 4134.35897436 , 4136.92307692 , 4131.79487179 , 4130.25641026 , 4136.92307692 , 4133.84615385 , 4139.48717949 , 4143.07692308 , 4085.12820513 , 3403.58974359 , 4135.38461538 , 4136.41025641 , 2045.0 , 2041.0 , 5.662 , 0.0 , 0.0 , 0.0 , 0.0 , 

19.0 , 4136.41025641 , 4136.41025641 , 4135.38461538 , 4135.8974359 , 4133.84615385 , 4131.79487179 , 4136.92307692 , 4134.87179487 , 4140.0 , 4145.12820513 , 4083.07692308 , 3404.61538462 , 4136.41025641 , 4135.38461538 , 2045.0 , 2042.0 , 5.682 , 0.0 , 0.0 , 0.0 , 0.0 , 

20.0 , 4136.41025641 , 4134.35897436 , 4137.94871795 , 4131.79487179 , 4135.8974359 , 4130.76923077 , 4134.87179487 , 4136.41025641 , 4140.0 , 4146.15384615 , 4085.12820513 , 3406.15384615 , 4137.94871795 , 4135.38461538 , 2044.0 , 2040.0 , 5.684 , 0.0 , 0.0 , 0.0 , 0.0 , 

21.0 , 4135.38461538 , 4131.79487179 , 4134.87179487 , 4130.76923077 , 4132.82051282 , 4130.25641026 , 4130.25641026 , 4136.41025641 , 4138.97435897 , 4144.61538462 , 4087.69230769 , 3408.20512821 , 4140.51282051 , 4136.92307692 , 2045.0 , 2038.0 , 5.684 , 0.0 , 0.0 , 0.0 , 0.0 , 

22.0 , 4135.8974359 , 4132.30769231 , 4133.33333333 , 4135.8974359 , 4130.76923077 , 4132.30769231 , 4133.33333333 , 4137.43589744 , 4139.48717949 , 4141.53846154 , 4084.61538462 , 3404.61538462 , 4137.43589744 , 4133.33333333 , 2044.0 , 2038.0 , 5.7 , 0.0 , 0.0 , 0.0 , 0.0 , 

23.0 , 4134.87179487 , 4132.30769231 , 4134.35897436 , 4135.8974359 , 4131.79487179 , 4132.82051282 , 4132.82051282 , 4136.92307692 , 4138.46153846 , 4141.53846154 , 4081.53846154 , 3404.1025641 , 4133.84615385 , 4134.35897436 , 2042.0 , 2038.0 , 5.7 , 0.0 , 0.0 , 0.0 , 0.0 , 

24.0 , 4131.28205128 , 4134.87179487 , 4135.38461538 , 4132.82051282 , 4131.79487179 , 4133.33333333 , 4132.30769231 , 4136.92307692 , 4138.97435897 , 4146.15384615 , 4082.56410256 , 3403.58974359 , 4135.8974359 , 4133.84615385 , 2044.0 , 2040.0 , 5.715 , 0.0 , 0.0 , 0.0 , 0.0 , 

25.0 , 4133.84615385 , 4136.41025641 , 4138.97435897 , 4133.33333333 , 4129.74358974 , 4131.28205128 , 4128.71794872 , 4136.92307692 , 4136.92307692 , 4145.12820513 , 4085.64102564 , 3407.69230769 , 4137.43589744 , 4135.38461538 , 2042.0 , 2039.0 , 5.715 , 0.0 , 0.0 , 0.0 , 0.0 , 

26.0 , 4135.38461538 , 4131.79487179 , 4137.43589744 , 4135.38461538 , 4134.35897436 , 4132.30769231 , 4136.41025641 , 4137.94871795 , 4137.43589744 , 4141.53846154 , 4084.1025641 , 3407.17948718 , 4134.35897436 , 4132.82051282 , 2042.0 , 2038.0 , 5.731 , 0.0 , 0.0 , 0.0 , 0.0 , 

27.0 , 4134.87179487 , 4131.79487179 , 4137.43589744 , 4131.79487179 , 4134.35897436 , 4132.30769231 , 4136.92307692 , 4136.92307692 , 4137.94871795 , 4145.12820513 , 4084.1025641 , 3407.69230769 , 4134.35897436 , 4136.41025641 , 2042.0 , 2040.0 , 5.731 , 0.0 , 0.0 , 0.0 , 0.0 , 

28.0 , 4133.33333333 , 4136.41025641 , 4136.92307692 , 4133.84615385 , 4131.79487179 , 4130.76923077 , 4137.94871795 , 4139.48717949 , 4139.48717949 , 4150.25641026 , 4085.12820513 , 3404.1025641 , 4134.87179487 , 4133.84615385 , 2044.0 , 2040.0 , 5.747 , 0.0 , 0.0 , 0.0 , 0.0 , 

29.0 , 4138.46153846 , 4134.35897436 , 4138.46153846 , 4137.43589744 , 4132.82051282 , 4129.74358974 , 4132.30769231 , 4139.48717949 , 4139.48717949 , 4146.15384615 , 4084.61538462 , 3405.64102564 , 4134.87179487 , 4138.46153846 , 2046.0 , 2040.0 , 5.747 , 0.0 , 0.0 , 0.0 , 0.0 , 

30.0 , 4138.46153846 , 4132.30769231 , 4134.35897436 , 4140.0 , 4137.94871795 , 4133.33333333 , 4134.35897436 , 4135.8974359 , 4139.48717949 , 4143.58974359 , 4083.07692308 , 3404.61538462 , 4134.87179487 , 4138.46153846 , 2046.0 , 2040.0 , 5.762 , 0.0 , 0.0 , 0.0 , 0.0 , 

31.0 , 4137.43589744 , 4134.87179487 , 4136.41025641 , 4137.94871795 , 4134.35897436 , 4130.76923077 , 4132.30769231 , 4131.79487179 , 4137.43589744 , 4145.12820513 , 4084.1025641 , 3402.56410256 , 4133.84615385 , 4135.8974359 , 2047.0 , 2038.0 , 5.762 , 0.0 , 0.0 , 0.0 , 0.0 , 

32.0 , 4135.8974359 , 4132.82051282 , 4136.41025641 , 4135.38461538 , 4131.28205128 , 4130.25641026 , 4134.87179487 , 4135.38461538 , 4137.94871795 , 4145.12820513 , 4084.1025641 , 3402.05128205 , 4133.84615385 , 4132.82051282 , 2047.0 , 2039.0 , 5.784 , 0.0 , 0.0 , 0.0 , 0.0 , 

33.0 , 4134.35897436 , 4132.30769231 , 4135.8974359 , 4135.8974359 , 4131.79487179 , 4133.84615385 , 4132.82051282 , 4137.43589744 , 4138.46153846 , 4144.1025641 , 4086.15384615 , 3404.61538462 , 4134.35897436 , 4135.38461538 , 2047.0 , 2038.0 , 5.784 , 0.0 , 0.0 , 0.0 , 0.0 , 

34.0 , 4132.30769231 , 4134.87179487 , 4135.8974359 , 4138.46153846 , 4132.82051282 , 4135.38461538 , 4133.33333333 , 4136.92307692 , 4138.97435897 , 4145.12820513 , 4087.17948718 , 3402.56410256 , 4136.41025641 , 4134.35897436 , 2046.0 , 2038.0 , 5.8 , 0.0 , 0.0 , 0.0 , 0.0 , 

35.0 , 4136.41025641 , 4135.38461538 , 4140.0 , 4140.0 , 4132.82051282 , 4133.84615385 , 4131.28205128 , 4137.43589744 , 4136.92307692 , 4146.15384615 , 4084.1025641 , 3405.64102564 , 4135.38461538 , 4134.87179487 , 2045.0 , 2038.0 , 5.807 , 0.0 , 0.0 , 0.0 , 0.0 , 

36.0 , 4137.94871795 , 4135.38461538 , 4139.48717949 , 4139.48717949 , 4132.82051282 , 4133.33333333 , 4133.33333333 , 4139.48717949 , 4138.46153846 , 4145.64102564 , 4084.1025641 , 3411.79487179 , 4133.84615385 , 4137.94871795 , 2045.0 , 2037.0 , 5.81 , 0.0 , 0.0 , 0.0 , 0.0 , 

37.0 , 4138.46153846 , 4135.38461538 , 4137.43589744 , 4137.43589744 , 4134.35897436 , 4132.30769231 , 4135.38461538 , 4138.46153846 , 4141.53846154 , 4145.12820513 , 4085.64102564 , 3409.74358974 , 4134.87179487 , 4138.46153846 , 2046.0 , 2036.0 , 5.81 , 0.0 , 0.0 , 0.0 , 0.0 , 

38.0 , 4136.92307692 , 4132.30769231 , 4135.38461538 , 4133.33333333 , 4134.35897436 , 4132.30769231 , 4135.38461538 , 4136.92307692 , 4138.97435897 , 4145.12820513 , 4084.1025641 , 3404.61538462 , 4135.8974359 , 4138.97435897 , 2044.0 , 2035.0 , 5.826 , 0.0 , 0.0 , 0.0 , 0.0 , 

39.0 , 4135.38461538 , 4134.35897436 , 4137.43589744 , 4132.82051282 , 4132.82051282 , 4134.87179487 , 4133.84615385 , 4136.41025641 , 4135.38461538 , 4146.15384615 , 4082.05128205 , 3403.58974359 , 4133.84615385 , 4135.38461538 , 2044.0 , 2034.0 , 5.826 , 0.0 , 0.0 , 0.0 , 0.0 , 

40.0 , 4134.87179487 , 4136.92307692 , 4137.94871795 , 4133.84615385 , 4131.28205128 , 4134.35897436 , 4128.71794872 , 4136.41025641 , 4137.94871795 , 4147.17948718 , 4084.1025641 , 3407.17948718 , 4136.41025641 , 4132.82051282 , 2045.0 , 2034.0 , 5.842 , 0.0 , 0.0 , 0.0 , 0.0 , 

41.0 , 4133.33333333 , 4133.84615385 , 4136.41025641 , 4135.8974359 , 4132.82051282 , 4134.35897436 , 4132.82051282 , 4137.94871795 , 4143.07692308 , 4147.69230769 , 4085.64102564 , 3406.15384615 , 4137.43589744 , 4127.69230769 , 2045.0 , 2034.0 , 5.842 , 0.0 , 0.0 , 0.0 , 0.0 , 

42.0 , 4132.30769231 , 4130.76923077 , 4135.8974359 , 4135.38461538 , 4132.82051282 , 4135.8974359 , 4135.38461538 , 4138.46153846 , 4141.53846154 , 4145.64102564 , 4087.69230769 , 3406.15384615 , 4133.33333333 , 4131.28205128 , 2045.0 , 2034.0 , 5.857 , 0.0 , 0.0 , 0.0 , 0.0 , 

43.0 , 4132.30769231 , 4132.30769231 , 4135.38461538 , 4135.8974359 , 4133.33333333 , 4135.38461538 , 4140.0 , 4138.46153846 , 4140.51282051 , 4146.66666667 , 4087.17948718 , 3402.56410256 , 4131.28205128 , 4133.84615385 , 2043.0 , 2036.0 , 5.857 , 0.0 , 0.0 , 0.0 , 0.0 , 

44.0 , 4137.43589744 , 4134.87179487 , 4136.92307692 , 4136.41025641 , 4132.82051282 , 4132.82051282 , 4135.38461538 , 4136.92307692 , 4137.94871795 , 4148.20512821 , 4085.12820513 , 3405.12820513 , 4133.33333333 , 4137.43589744 , 2045.0 , 2035.0 , 5.878 , 0.0 , 0.0 , 0.0 , 0.0 , 

45.0 , 4137.43589744 , 4135.8974359 , 4136.92307692 , 4137.94871795 , 4133.33333333 , 4135.38461538 , 4136.41025641 , 4136.92307692 , 4138.46153846 , 4144.61538462 , 4081.53846154 , 3404.1025641 , 4134.87179487 , 4133.84615385 , 2045.0 , 2033.0 , 5.884 , 0.0 , 0.0 , 0.0 , 0.0 , 

46.0 , 4136.41025641 , 4132.82051282 , 4135.8974359 , 4138.46153846 , 4132.30769231 , 4133.84615385 , 4134.35897436 , 4134.87179487 , 4136.41025641 , 4143.07692308 , 4081.02564103 , 3406.15384615 , 4134.87179487 , 4135.8974359 , 2044.0 , 2033.0 , 5.884 , 0.0 , 0.0 , 0.0 , 0.0 , 

47.0 , 4136.41025641 , 4133.33333333 , 4132.30769231 , 4138.46153846 , 4132.30769231 , 4133.84615385 , 4141.02564103 , 4135.38461538 , 4134.87179487 , 4148.20512821 , 4082.56410256 , 3405.64102564 , 4133.33333333 , 4137.43589744 , 2042.0 , 2033.0 , 5.899 , 0.0 , 0.0 , 0.0 , 0.0 , 

48.0 , 4139.48717949 , 4137.94871795 , 4137.43589744 , 4135.38461538 , 4132.30769231 , 4135.8974359 , 4135.8974359 , 4136.92307692 , 4134.35897436 , 4147.69230769 , 4083.58974359 , 3409.23076923 , 4133.84615385 , 4138.46153846 , 2042.0 , 2031.0 , 5.899 , 0.0 , 0.0 , 0.0 , 0.0 , 

49.0 , 4136.92307692 , 4138.46153846 , 4136.92307692 , 4135.38461538 , 4133.33333333 , 4137.43589744 , 4133.84615385 , 4138.46153846 , 4137.94871795 , 4142.56410256 , 4084.1025641 , 3407.17948718 , 4135.38461538 , 4132.30769231 , 2042.0 , 2032.0 , 5.915 , 0.0 , 0.0 , 0.0 , 0.0 , 

50.0 , 4135.38461538 , 4134.35897436 , 4135.38461538 , 4136.92307692 , 4131.28205128 , 4135.38461538 , 4131.79487179 , 4133.84615385 , 4137.43589744 , 4143.58974359 , 4085.64102564 , 3404.1025641 , 4134.35897436 , 4133.84615385 , 2042.0 , 2034.0 , 5.915 , 0.0 , 0.0 , 0.0 , 0.0 , 

51.0 , 4133.84615385 , 4133.33333333 , 4133.84615385 , 4134.35897436 , 4131.28205128 , 4135.8974359 , 4135.8974359 , 4135.38461538 , 4138.46153846 , 4147.17948718 , 4085.12820513 , 3403.58974359 , 4133.84615385 , 4134.87179487 , 2042.0 , 2033.0 , 5.931 , 0.0 , 0.0 , 0.0 , 0.0 , 

52.0 , 4136.41025641 , 4132.30769231 , 4135.8974359 , 4130.76923077 , 4133.33333333 , 4132.30769231 , 4134.87179487 , 4138.97435897 , 4138.46153846 , 4146.15384615 , 4083.58974359 , 3407.17948718 , 4137.43589744 , 4136.92307692 , 2041.0 , 2035.0 , 5.931 , 0.0 , 0.0 , 0.0 , 0.0 , 

53.0 , 4135.8974359 , 4130.25641026 , 4133.33333333 , 4133.84615385 , 4135.38461538 , 4128.71794872 , 4138.46153846 , 4140.0 , 4136.92307692 , 4143.58974359 , 4081.53846154 , 3405.12820513 , 4140.0 , 4135.38461538 , 2042.0 , 2036.0 , 5.946 , 0.0 , 0.0 , 0.0 , 0.0 , 

54.0 , 4135.38461538 , 4131.79487179 , 4136.41025641 , 4136.41025641 , 4135.38461538 , 4130.76923077 , 4138.46153846 , 4135.8974359 , 4137.94871795 , 4143.07692308 , 4083.58974359 , 3402.05128205 , 4138.46153846 , 4136.41025641 , 2044.0 , 2036.0 , 5.946 , 0.0 , 0.0 , 0.0 , 0.0 , 

55.0 , 4133.33333333 , 4134.87179487 , 4137.94871795 , 4134.35897436 , 4134.35897436 , 4133.33333333 , 4133.84615385 , 4134.87179487 , 4139.48717949 , 4144.1025641 , 4086.66666667 , 3404.1025641 , 4138.97435897 , 4138.97435897 , 2043.0 , 2037.0 , 5.962 , 0.0 , 0.0 , 0.0 , 0.0 , 

56.0 , 4135.38461538 , 4134.35897436 , 4135.8974359 , 4134.35897436 , 4133.84615385 , 4132.30769231 , 4132.30769231 , 4134.35897436 , 4135.8974359 , 4144.61538462 , 4083.58974359 , 3406.66666667 , 4137.43589744 , 4136.92307692 , 2043.0 , 2038.0 , 5.962 , 0.0 , 0.0 , 0.0 , 0.0 , 

57.0 , 4135.38461538 , 4129.74358974 , 4135.38461538 , 4135.38461538 , 4133.84615385 , 4129.23076923 , 4135.38461538 , 4134.35897436 , 4133.33333333 , 4143.58974359 , 4081.02564103 , 3406.66666667 , 4135.38461538 , 4136.41025641 , 2044.0 , 2036.0 , 5.982 , 0.0 , 0.0 , 0.0 , 0.0 , 

58.0 , 4134.87179487 , 4130.25641026 , 4137.94871795 , 4135.38461538 , 4137.43589744 , 4127.69230769 , 4137.94871795 , 4137.43589744 , 4137.94871795 , 4144.1025641 , 4083.07692308 , 3405.12820513 , 4135.8974359 , 4136.41025641 , 2044.0 , 2038.0 , 5.984 , 0.0 , 0.0 , 0.0 , 0.0 , 

59.0 , 4135.8974359 , 4135.8974359 , 4137.94871795 , 4134.87179487 , 4139.48717949 , 4130.76923077 , 4134.35897436 , 4137.43589744 , 4141.53846154 , 4144.1025641 , 4083.07692308 , 3406.66666667 , 4136.92307692 , 4136.92307692 , 2045.0 , 2039.0 , 5.984 , 0.0 , 0.0 , 0.0 , 0.0 , 

60.0 , 4135.38461538 , 4136.41025641 , 4134.87179487 , 4136.92307692 , 4138.97435897 , 4134.35897436 , 4134.35897436 , 4134.87179487 , 4141.53846154 , 4145.64102564 , 4078.97435897 , 3403.58974359 , 4133.84615385 , 4133.84615385 , 2045.0 , 2037.0 , 6.0 , 0.0 , 0.0 , 0.0 , 0.0 , 

61.0 , 4135.38461538 , 4131.79487179 , 4134.87179487 , 4133.84615385 , 4135.38461538 , 4131.79487179 , 4131.28205128 , 4135.38461538 , 4136.92307692 , 4144.61538462 , 4082.56410256 , 3405.12820513 , 4132.82051282 , 4136.41025641 , 2044.0 , 2037.0 , 6.0 , 0.0 , 0.0 , 0.0 , 0.0 , 

62.0 , 4134.87179487 , 4132.30769231 , 4136.41025641 , 4134.87179487 , 4133.84615385 , 4133.33333333 , 4136.41025641 , 4140.0 , 4136.41025641 , 4146.15384615 , 4085.64102564 , 3404.1025641 , 4135.38461538 , 4133.84615385 , 2043.0 , 2038.0 , 6.015 , 0.0 , 0.0 , 0.0 , 0.0 , 

63.0 , 4137.94871795 , 4136.41025641 , 4138.46153846 , 4137.43589744 , 4132.30769231 , 4134.87179487 , 4131.79487179 , 4139.48717949 , 4139.48717949 , 4146.15384615 , 4082.05128205 , 3404.1025641 , 4136.41025641 , 4136.41025641 , 2042.0 , 2037.0 , 6.015 , 0.0 , 0.0 , 0.0 , 0.0 , 

64.0 , 4136.92307692 , 4137.94871795 , 4135.38461538 , 4136.41025641 , 4134.35897436 , 4135.38461538 , 4134.35897436 , 4137.43589744 , 4143.07692308 , 4144.61538462 , 4080.51282051 , 3403.58974359 , 4133.84615385 , 4136.41025641 , 2042.0 , 2038.0 , 6.031 , 0.0 , 0.0 , 0.0 , 0.0 , 

65.0 , 4135.38461538 , 4134.87179487 , 4135.38461538 , 4133.33333333 , 4134.35897436 , 4135.8974359 , 4136.92307692 , 4136.41025641 , 4138.97435897 , 4142.56410256 , 4085.64102564 , 3408.71794872 , 4134.35897436 , 4137.94871795 , 2041.0 , 2038.0 , 6.031 , 0.0 , 0.0 , 0.0 , 0.0 , 

66.0 , 4133.84615385 , 4131.79487179 , 4135.8974359 , 4136.92307692 , 4131.28205128 , 4136.41025641 , 4143.58974359 , 4138.97435897 , 4136.92307692 , 4142.56410256 , 4085.64102564 , 3406.66666667 , 4137.94871795 , 4134.35897436 , 2042.0 , 2039.0 , 6.047 , 0.0 , 0.0 , 0.0 , 0.0 , 

67.0 , 4135.8974359 , 4133.84615385 , 4138.97435897 , 4136.41025641 , 4129.74358974 , 4132.82051282 , 4135.8974359 , 4138.97435897 , 4139.48717949 , 4142.56410256 , 4083.07692308 , 3404.61538462 , 4138.97435897 , 4137.43589744 , 2042.0 , 2039.0 , 6.047 , 0.0 , 0.0 , 0.0 , 0.0 , 

68.0 , 4134.87179487 , 4137.43589744 , 4135.8974359 , 4133.84615385 , 4132.82051282 , 4132.82051282 , 4136.92307692 , 4140.51282051 , 4141.02564103 , 4142.56410256 , 4085.64102564 , 3404.1025641 , 4136.41025641 , 4137.94871795 , 2043.0 , 2038.0 , 6.062 , 0.0 , 0.0 , 0.0 , 0.0 , 

69.0 , 4135.38461538 , 4135.8974359 , 4135.8974359 , 4137.43589744 , 4133.84615385 , 4132.82051282 , 4138.46153846 , 4139.48717949 , 4138.97435897 , 4143.07692308 , 4087.17948718 , 3407.17948718 , 4136.41025641 , 4136.92307692 , 2042.0 , 2036.0 , 6.062 , 0.0 , 0.0 , 0.0 , 0.0 , 

70.0 , 4135.8974359 , 4132.30769231 , 4134.87179487 , 4140.0 , 4135.38461538 , 4132.30769231 , 4138.97435897 , 4138.97435897 , 4139.48717949 , 4146.66666667 , 4083.07692308 , 3405.12820513 , 4137.43589744 , 4134.87179487 , 2042.0 , 2035.0 , 6.084 , 0.0 , 0.0 , 0.0 , 0.0 , 

71.0 , 4137.43589744 , 4132.30769231 , 4136.41025641 , 4134.87179487 , 4135.8974359 , 4132.30769231 , 4133.33333333 , 4137.43589744 , 4139.48717949 , 4147.69230769 , 4081.02564103 , 3403.07692308 , 4134.87179487 , 4135.8974359 , 2043.0 , 2035.0 , 6.091 , 0.0 , 0.0 , 0.0 , 0.0 , 

72.0 , 4135.8974359 , 4135.38461538 , 4136.92307692 , 4132.30769231 , 4136.92307692 , 4131.79487179 , 4135.38461538 , 4137.43589744 , 4140.51282051 , 4144.1025641 , 4083.07692308 , 3404.1025641 , 4133.33333333 , 4135.8974359 , 2042.0 , 2034.0 , 6.099 , 0.0 , 0.0 , 0.0 , 0.0 , 

73.0 , 4135.38461538 , 4134.87179487 , 4137.43589744 , 4136.92307692 , 4136.41025641 , 4130.76923077 , 4136.92307692 , 4137.94871795 , 4139.48717949 , 4142.05128205 , 4084.61538462 , 3408.20512821 , 4134.35897436 , 4134.35897436 , 2044.0 , 2034.0 , 6.107 , 0.0 , 0.0 , 0.0 , 0.0 , 

74.0 , 4134.35897436 , 4129.74358974 , 4135.8974359 , 4138.46153846 , 4134.87179487 , 4132.30769231 , 4132.30769231 , 4139.48717949 , 4137.94871795 , 4144.1025641 , 4087.17948718 , 3407.69230769 , 4136.41025641 , 4134.87179487 , 2042.0 , 2034.0 , 6.116 , 0.0 , 0.0 , 0.0 , 0.0 , 

75.0 , 4134.35897436 , 4131.79487179 , 4137.43589744 , 4137.94871795 , 4132.30769231 , 4133.84615385 , 4128.20512821 , 4140.0 , 4139.48717949 , 4144.1025641 , 4087.17948718 , 3403.58974359 , 4136.92307692 , 4136.41025641 , 2044.0 , 2032.0 , 6.121 , 0.0 , 0.0 , 0.0 , 0.0 , 

76.0 , 4133.84615385 , 4136.92307692 , 4137.43589744 , 4137.43589744 , 4131.79487179 , 4132.30769231 , 4131.28205128 , 4136.92307692 , 4141.02564103 , 4144.1025641 , 4083.07692308 , 3405.12820513 , 4134.35897436 , 4136.92307692 , 2044.0 , 2033.0 , 6.121 , 0.0 , 0.0 , 0.0 , 0.0 , 

77.0 , 4134.87179487 , 4134.87179487 , 4135.38461538 , 4137.43589744 , 4134.35897436 , 4130.76923077 , 4138.46153846 , 4135.38461538 , 4140.51282051 , 4145.64102564 , 4081.53846154 , 3403.58974359 , 4131.79487179 , 4132.82051282 , 2043.0 , 2031.0 , 6.136 , 0.0 , 0.0 , 0.0 , 0.0 , 

78.0 , 4137.94871795 , 4132.30769231 , 4134.35897436 , 4135.38461538 , 4132.82051282 , 4129.23076923 , 4135.8974359 , 4135.8974359 , 4140.51282051 , 4146.15384615 , 4084.1025641 , 3405.12820513 , 4135.38461538 , 4133.84615385 , 2045.0 , 2030.0 , 6.136 , 0.0 , 0.0 , 0.0 , 0.0 , 

79.0 , 4136.41025641 , 4136.41025641 , 4135.8974359 , 4136.41025641 , 4133.84615385 , 4130.76923077 , 4138.46153846 , 4138.97435897 , 4140.51282051 , 4147.17948718 , 4081.53846154 , 3405.12820513 , 4138.46153846 , 4132.82051282 , 2045.0 , 2031.0 , 6.152 , 0.0 , 0.0 , 0.0 , 0.0 , 

80.0 , 4134.87179487 , 4134.35897436 , 4137.94871795 , 4137.43589744 , 4135.8974359 , 4130.76923077 , 4137.43589744 , 4138.97435897 , 4136.92307692 , 4145.64102564 , 4080.51282051 , 3407.17948718 , 4137.43589744 , 4134.35897436 , 2046.0 , 2031.0 , 6.152 , 0.0 , 0.0 , 0.0 , 0.0 , 

81.0 , 4134.35897436 , 4131.79487179 , 4134.35897436 , 4136.41025641 , 4136.41025641 , 4131.79487179 , 4137.94871795 , 4135.8974359 , 4140.0 , 4145.64102564 , 4083.58974359 , 3404.1025641 , 4136.41025641 , 4133.33333333 , 2045.0 , 2032.0 , 6.168 , 0.0 , 0.0 , 0.0 , 0.0 , 

82.0 , 4135.8974359 , 4132.82051282 , 4133.84615385 , 4135.8974359 , 4132.30769231 , 4131.28205128 , 4131.79487179 , 4133.33333333 , 4141.53846154 , 4145.12820513 , 4087.17948718 , 3404.1025641 , 4135.38461538 , 4136.92307692 , 2043.0 , 2032.0 , 6.168 , 0.0 , 0.0 , 0.0 , 0.0 , 

83.0 , 4134.87179487 , 4133.84615385 , 4134.35897436 , 4137.94871795 , 4133.84615385 , 4131.28205128 , 4135.38461538 , 4136.92307692 , 4138.46153846 , 4144.1025641 , 4083.58974359 , 3404.1025641 , 4135.38461538 , 4134.35897436 , 2042.0 , 2033.0 , 6.184 , 0.0 , 0.0 , 0.0 , 0.0 , 

84.0 , 4137.43589744 , 4135.38461538 , 4136.92307692 , 4135.8974359 , 4132.82051282 , 4131.28205128 , 4136.92307692 , 4138.46153846 , 4132.30769231 , 4143.58974359 , 4082.05128205 , 3407.17948718 , 4135.8974359 , 4136.92307692 , 2042.0 , 2035.0 , 6.184 , 0.0 , 0.0 , 0.0 , 0.0 , 

85.0 , 4137.43589744 , 4134.87179487 , 4134.35897436 , 4136.41025641 , 4132.82051282 , 4134.35897436 , 4140.51282051 , 4135.8974359 , 4133.84615385 , 4145.64102564 , 4085.12820513 , 3403.58974359 , 4134.87179487 , 4134.35897436 , 2041.0 , 2035.0 , 6.2 , 0.0 , 0.0 , 0.0 , 0.0 , 

86.0 , 4136.41025641 , 4133.33333333 , 4136.41025641 , 4138.46153846 , 4137.94871795 , 4134.87179487 , 4138.46153846 , 4132.30769231 , 4137.43589744 , 4147.69230769 , 4085.12820513 , 3402.05128205 , 4134.87179487 , 4132.82051282 , 2041.0 , 2034.0 , 6.2 , 0.0 , 0.0 , 0.0 , 0.0 , 

87.0 , 4134.35897436 , 4136.92307692 , 4135.8974359 , 4137.94871795 , 4140.0 , 4134.35897436 , 4143.58974359 , 4137.43589744 , 4136.92307692 , 4146.15384615 , 4084.61538462 , 3404.1025641 , 4136.41025641 , 4132.30769231 , 2039.0 , 2035.0 , 6.216 , 0.0 , 0.0 , 0.0 , 0.0 , 

88.0 , 4136.41025641 , 4140.51282051 , 4135.8974359 , 4136.92307692 , 4135.8974359 , 4132.82051282 , 4136.92307692 , 4140.0 , 4134.35897436 , 4143.58974359 , 4087.17948718 , 3408.20512821 , 4135.38461538 , 4137.43589744 , 2039.0 , 2033.0 , 6.216 , 0.0 , 0.0 , 0.0 , 0.0 , 

89.0 , 4135.38461538 , 4135.38461538 , 4134.87179487 , 4140.51282051 , 4135.38461538 , 4133.84615385 , 4131.28205128 , 4137.43589744 , 4135.8974359 , 4144.1025641 , 4083.58974359 , 3407.69230769 , 4134.35897436 , 4140.0 , 2038.0 , 2033.0 , 6.231 , 0.0 , 0.0 , 0.0 , 0.0 , 

90.0 , 4134.35897436 , 4135.38461538 , 4137.43589744 , 4141.53846154 , 4137.43589744 , 4136.92307692 , 4132.82051282 , 4135.38461538 , 4136.92307692 , 4145.64102564 , 4081.53846154 , 3406.66666667 , 4133.33333333 , 4138.97435897 , 2038.0 , 2031.0 , 6.231 , 0.0 , 0.0 , 0.0 , 0.0 , 

91.0 , 4135.38461538 , 4139.48717949 , 4135.8974359 , 4137.94871795 , 4133.33333333 , 4138.46153846 , 4136.41025641 , 4137.43589744 , 4135.38461538 , 4143.58974359 , 4088.20512821 , 3408.71794872 , 4132.82051282 , 4135.8974359 , 2036.0 , 2031.0 , 6.247 , 0.0 , 0.0 , 0.0 , 0.0 , 

92.0 , 4137.94871795 , 4136.92307692 , 4137.43589744 , 4132.82051282 , 4129.74358974 , 4136.41025641 , 4132.82051282 , 4136.92307692 , 4135.8974359 , 4142.56410256 , 4090.76923077 , 3408.71794872 , 4134.87179487 , 4136.92307692 , 2036.0 , 2033.0 , 6.247 , 0.0 , 0.0 , 0.0 , 0.0 , 

93.0 , 4136.41025641 , 4132.82051282 , 4136.92307692 , 4130.76923077 , 4132.30769231 , 4133.84615385 , 4135.38461538 , 4136.92307692 , 4137.43589744 , 4145.12820513 , 4087.69230769 , 3404.61538462 , 4135.8974359 , 4138.46153846 , 2036.0 , 2033.0 , 6.262 , 0.0 , 0.0 , 0.0 , 0.0 , 

94.0 , 4133.84615385 , 4135.38461538 , 4135.38461538 , 4137.43589744 , 4133.84615385 , 4135.38461538 , 4141.53846154 , 4138.46153846 , 4138.46153846 , 4146.66666667 , 4086.66666667 , 3402.05128205 , 4134.35897436 , 4136.92307692 , 2036.0 , 2035.0 , 6.262 , 0.0 , 0.0 , 0.0 , 0.0 , 

95.0 , 4134.87179487 , 4135.8974359 , 4134.87179487 , 4140.0 , 4132.82051282 , 4136.92307692 , 4138.46153846 , 4137.94871795 , 4138.97435897 , 4146.15384615 , 4085.64102564 , 3405.64102564 , 4135.8974359 , 4137.94871795 , 2036.0 , 2032.0 , 6.281 , 0.0 , 0.0 , 0.0 , 0.0 , 

96.0 , 4136.41025641 , 4133.84615385 , 4135.38461538 , 4135.8974359 , 4137.43589744 , 4137.43589744 , 4140.0 , 4137.43589744 , 4139.48717949 , 4146.66666667 , 4084.1025641 , 3403.58974359 , 4136.41025641 , 4133.84615385 , 2036.0 , 2034.0 , 6.285 , 0.0 , 0.0 , 0.0 , 0.0 , 

97.0 , 4134.87179487 , 4132.30769231 , 4134.35897436 , 4133.84615385 , 4138.46153846 , 4134.35897436 , 4141.02564103 , 4136.41025641 , 4137.94871795 , 4147.17948718 , 4086.15384615 , 3405.12820513 , 4135.38461538 , 4136.92307692 , 2038.0 , 2034.0 , 6.285 , 0.0 , 0.0 , 0.0 , 0.0 , 

98.0 , 4132.30769231 , 4133.33333333 , 4132.30769231 , 4138.97435897 , 4135.38461538 , 4133.33333333 , 4141.02564103 , 4134.87179487 , 4139.48717949 , 4147.69230769 , 4083.58974359 , 3404.1025641 , 4134.87179487 , 4137.43589744 , 2039.0 , 2036.0 , 6.3 , 0.0 , 0.0 , 0.0 , 0.0 , 

99.0 , 4134.87179487 , 4135.8974359 , 4135.38461538 , 4138.46153846 , 4134.87179487 , 4135.8974359 , 4133.33333333 , 4134.35897436 , 4137.43589744 , 4145.12820513 , 4082.05128205 , 3403.07692308 , 4136.41025641 , 4136.92307692 , 2040.0 , 2035.0 , 6.3 , 0.0 , 0.0 , 0.0 , 0.0 , 

100.0 , 4133.84615385 , 4135.8974359 , 4134.35897436 , 4134.35897436 , 4136.41025641 , 4137.43589744 , 4135.8974359 , 4136.41025641 , 4137.43589744 , 4143.58974359 , 4085.12820513 , 3400.0 , 4134.87179487 , 4133.33333333 , 2040.0 , 2036.0 , 6.316 , 0.0 , 0.0 , 0.0 , 0.0 , 

101.0 , 4133.33333333 , 4133.84615385 , 4132.30769231 , 4136.92307692 , 4133.84615385 , 4132.82051282 , 4133.84615385 , 4131.79487179 , 4138.46153846 , 4142.56410256 , 4085.64102564 , 3404.1025641 , 4134.87179487 , 4135.8974359 , 2042.0 , 2035.0 , 6.316 , 0.0 , 0.0 , 0.0 , 0.0 , 

102.0 , 4132.82051282 , 4136.41025641 , 4132.82051282 , 4143.58974359 , 4136.41025641 , 4130.25641026 , 4135.8974359 , 4131.28205128 , 4138.97435897 , 4143.07692308 , 4082.05128205 , 3404.1025641 , 4135.8974359 , 4132.82051282 , 2043.0 , 2036.0 , 6.332 , 0.0 , 0.0 , 0.0 , 0.0 , 

103.0 , 4136.41025641 , 4136.92307692 , 4138.46153846 , 4140.0 , 4137.94871795 , 4132.82051282 , 4132.30769231 , 4136.41025641 , 4137.94871795 , 4143.58974359 , 4082.56410256 , 3405.12820513 , 4134.87179487 , 4136.41025641 , 2042.0 , 2035.0 , 6.332 , 0.0 , 0.0 , 0.0 , 0.0 , 

104.0 , 4135.8974359 , 4133.33333333 , 4134.87179487 , 4137.43589744 , 4136.92307692 , 4135.38461538 , 4136.41025641 , 4140.0 , 4140.51282051 , 4142.56410256 , 4085.12820513 , 3403.07692308 , 4133.84615385 , 4136.92307692 , 2042.0 , 2035.0 , 6.347 , 0.0 , 0.0 , 0.0 , 0.0 , 

105.0 , 4137.43589744 , 4131.28205128 , 4133.33333333 , 4140.51282051 , 4135.38461538 , 4129.74358974 , 4134.35897436 , 4135.8974359 , 4141.02564103 , 4143.58974359 , 4085.64102564 , 3405.12820513 , 4133.84615385 , 4136.41025641 , 2041.0 , 2036.0 , 6.347 , 0.0 , 0.0 , 0.0 , 0.0 , 

106.0 , 4135.8974359 , 4131.79487179 , 4132.30769231 , 4138.97435897 , 4134.87179487 , 4127.69230769 , 4136.41025641 , 4136.41025641 , 4139.48717949 , 4146.66666667 , 4083.07692308 , 3404.61538462 , 4136.41025641 , 4134.87179487 , 2043.0 , 2037.0 , 6.363 , 0.0 , 0.0 , 0.0 , 0.0 , 

107.0 , 4135.8974359 , 4131.28205128 , 4135.38461538 , 4134.35897436 , 4134.35897436 , 4131.28205128 , 4134.35897436 , 4136.41025641 , 4138.46153846 , 4145.64102564 , 4085.64102564 , 3404.61538462 , 4137.43589744 , 4135.8974359 , 2043.0 , 2037.0 , 6.363 , 0.0 , 0.0 , 0.0 , 0.0 , 

108.0 , 4133.84615385 , 4129.23076923 , 4135.8974359 , 4135.8974359 , 4136.92307692 , 4134.87179487 , 4137.94871795 , 4136.41025641 , 4139.48717949 , 4143.07692308 , 4086.66666667 , 3406.15384615 , 4139.48717949 , 4134.35897436 , 2044.0 , 2037.0 , 6.384 , 0.0 , 0.0 , 0.0 , 0.0 , 

109.0 , 4132.82051282 , 4131.28205128 , 4137.94871795 , 4136.41025641 , 4134.35897436 , 4132.30769231 , 4137.94871795 , 4137.43589744 , 4138.97435897 , 4143.58974359 , 4082.05128205 , 3408.71794872 , 4136.92307692 , 4133.84615385 , 2043.0 , 2036.0 , 6.385 , 0.0 , 0.0 , 0.0 , 0.0 , 

